Dividing Wavelength (nm)	Counts (n)	Slit_number_28_of_a_total_of_40	
326.493990	2146.691346
326.888308	2146.691346
327.282561	2146.691346
327.676750	2106.278096
328.070874	2120.645385
328.464933	2129.803481
328.858929	2143.246558
329.252859	2150.052115
329.646726	2163.495192
330.040528	2191.557615
330.434265	2192.901923
330.827938	2219.872096
331.221547	2236.675942
331.615091	2261.629654
332.008571	2278.601538
332.401986	2286.751404
332.795338	2301.790846
333.188625	2337.078923
333.581847	2352.370423
333.975006	2367.998000
334.368100	2381.609115
334.761129	2406.562827
335.154095	2420.762077
335.546996	2445.295692
335.939833	2456.386231
336.332606	2471.089596
336.725315	2487.557365
337.117960	2490.582058
337.510540	2510.998731
337.903056	2507.469923
338.295508	2511.922942
338.687896	2525.870135
339.080220	2526.290231
339.472480	2546.706904
339.864676	2529.566981
340.256807	2543.934269
340.648875	2530.911288
341.040879	2530.155115
341.432818	2522.257308
341.824694	2539.061154
342.216506	2551.748058
342.608253	2543.430154
342.999937	2542.085846
343.391557	2553.092365
343.783113	2553.680500
344.174605	2529.482962
344.566033	2546.538865
344.957397	2520.492904
345.348697	2529.062865
345.739934	2548.219250
346.131106	2529.230904
346.522215	2526.038173
346.913260	2535.700385
347.304241	2515.115673
347.695159	2529.819038
348.086012	2520.240846
348.476802	2520.576923
348.867528	2502.428769
349.258191	2520.072808
349.648789	2523.349558
350.039324	2501.588577
350.429796	2522.005250
350.820203	2525.197981
351.210548	2519.232615
351.600828	2501.420538
351.991045	2502.428769
352.381198	2527.298462
352.771288	2513.687346
353.161314	2528.978846
353.551276	2513.603327
353.941175	2509.738442
354.331010	2509.486385
354.720782	2505.789538
355.110490	2516.207923
355.500135	2508.058058
355.889717	2526.122192
356.279235	2506.881788
356.668689	2510.998731
357.058080	2506.881788
357.447408	2499.236038
357.836672	2511.166769
358.225873	2504.529250
358.615010	2503.773077
359.004084	2510.242558
359.393095	2507.133846
359.782043	2508.646192
360.170927	2522.341327
360.559748	2506.209635
360.948505	2520.240846
361.337199	2521.249077
361.725830	2533.347846
362.114398	2525.534058
362.502903	2518.980558
362.891344	2505.789538
363.279722	2533.263827
363.668037	2522.677404
364.056289	2532.087558
364.444478	2514.695577
364.832603	2531.919519
365.220665	2517.804288
365.608665	2529.062865
365.996601	2543.346135
366.384474	2516.544000
366.772284	2509.990500
367.160031	2522.425346
367.547715	2533.767942
367.935336	2526.878365
368.322893	2523.433577
368.710388	2530.323154
369.097820	2541.497712
369.485189	2515.199692
369.872495	2529.398942
370.259738	2532.423635
370.646918	2521.165058
371.034035	2521.165058
371.421090	2525.450038
371.808081	2515.535769
372.195010	2513.687346
372.581875	2518.308404
372.968678	2531.247365
373.355418	2530.155115
373.742096	2532.843731
374.128710	2503.184942
374.515262	2539.565269
374.901751	2530.239135
375.288177	2521.501135
375.674540	2544.522404
376.060841	2537.800865
376.447079	2534.608135
376.833254	2540.069385
377.219367	2552.420212
377.605417	2535.700385
377.991404	2546.118769
378.377329	2554.604712
378.763191	2550.991885
379.148991	2560.149981
379.534727	2560.906154
379.920402	2571.576596
380.306013	2567.711712
380.691563	2570.064250
381.077049	2583.675365
381.462474	2588.884558
381.847835	2604.428115
382.233134	2605.016250
382.618371	2597.874615
383.003545	2606.612615
383.388657	2611.737788
383.773706	2624.928808
384.158693	2640.136288
384.543618	2632.826615
384.928480	2636.019346
385.313280	2654.923673
385.698017	2671.307423
386.082692	2665.174019
386.467305	2687.607154
386.851856	2691.808115
387.236344	2703.570808
387.620770	2708.864019
388.005133	2713.569096
388.389435	2716.425750
388.773674	2714.157231
389.157851	2734.405865
389.541965	2730.456962
389.926018	2741.379462
390.310008	2750.201481
390.693936	2747.428846
391.077802	2736.590365
391.461606	2763.224462
391.845348	2755.830769
392.229027	2772.970692
392.612645	2762.636327
392.996200	2757.091058
393.379694	2774.651077
393.763125	2777.339692
394.146494	2786.581808
394.529801	2761.292019
394.913047	2760.787904
395.296230	2754.150385
395.679351	2767.005327
396.062410	2751.209712
396.445408	2747.344827
396.828343	2742.639750
397.211217	2741.967596
397.594028	2711.468615
397.976778	2731.885288
398.359466	2699.033769
398.742092	2696.177115
399.124656	2690.967923
399.507158	2695.925058
399.889598	2668.198712
400.271977	2668.282731
400.654294	2653.579365
401.036549	2650.554673
401.418742	2638.960019
401.800874	2643.749115
402.182944	2627.365365
402.564952	2617.115019
402.946898	2606.024481
403.328783	2604.344096
403.710606	2592.329346
404.092367	2588.968577
404.474067	2590.480923
404.855705	2582.667135
405.237282	2569.812192
405.618797	2567.795731
406.000250	2580.986750
406.381642	2578.886269
406.762972	2575.777558
407.144240	2560.906154
407.525447	2548.723365
407.906593	2559.813904
408.287677	2555.276865
408.668700	2546.958962
409.049661	2557.881462
409.430560	2548.303269
409.811399	2552.588250
410.192176	2544.858481
410.572891	2555.024808
410.953545	2561.074192
411.334138	2535.280288
411.714669	2546.286808
412.095139	2543.178096
412.475547	2549.731596
412.855894	2553.932558
413.236180	2561.998404
413.616405	2540.069385
413.996568	2539.565269
414.376670	2541.749769
414.756711	2544.774462
415.136691	2558.973712
415.516609	2552.756288
415.896466	2555.780981
416.276262	2543.934269
416.655997	2551.243942
417.035670	2552.756288
417.415283	2563.846827
417.794834	2538.304981
418.174324	2544.186327
418.553753	2548.723365
418.933121	2541.413692
419.312428	2544.690442
419.691674	2539.229192
420.070859	2552.504231
420.449983	2557.629404
420.829045	2548.639346
421.208047	2567.375635
421.586988	2551.496000
421.965867	2540.321442
422.344686	2547.883173
422.723444	2537.128712
423.102141	2554.016577
423.480777	2552.756288
423.859352	2547.883173
424.237866	2569.224058
424.616319	2554.940788
424.994712	2546.286808
425.373044	2545.782692
425.751314	2565.863288
426.129524	2547.967192
426.507673	2538.893115
426.885762	2567.459654
427.263789	2549.059442
427.641756	2545.950731
428.019662	2552.084135
428.397508	2544.942500
428.775292	2560.570077
429.153016	2547.967192
429.530679	2540.993596
429.908282	2547.883173
430.285824	2557.461365
430.663305	2538.052923
431.040726	2565.359173
431.418086	2556.789212
431.795385	2567.123577
432.172624	2541.917808
432.549802	2546.874942
432.926920	2554.856769
433.303977	2555.612942
433.680974	2546.202788
434.057910	2571.828654
434.434786	2545.278577
434.811601	2546.454846
435.188355	2556.621173
435.565050	2556.621173
435.941683	2556.873231
436.318257	2568.215827
436.694770	2566.871519
437.071222	2557.377346
437.447614	2558.973712
437.823946	2552.588250
438.200218	2557.461365
438.576429	2551.243942
438.952580	2561.158212
439.328670	2556.705192
439.704700	2559.393808
440.080670	2557.209308
440.456580	2541.833788
440.832429	2570.148269
441.208218	2565.275154
441.583947	2551.411981
441.959616	2566.451423
442.335224	2563.930846
442.710773	2550.571788
443.086261	2555.444904
443.461689	2558.133519
443.837057	2559.141750
444.212365	2544.438385
444.587612	2560.065962
444.962800	2567.291615
445.337927	2561.578308
445.712995	2549.983654
446.088002	2546.790923
446.462949	2549.563558
446.837837	2565.107115
447.212664	2561.578308
447.587431	2552.420212
447.962139	2554.100596
448.336786	2569.224058
448.711374	2566.535442
449.085901	2559.729885
449.460369	2569.476115
449.834776	2566.619462
450.209124	2557.209308
450.583412	2550.319731
450.957640	2566.787500
451.331808	2556.621173
451.705917	2557.797442
452.079965	2565.107115
452.453954	2567.207596
452.827883	2577.962058
453.201752	2561.662327
453.575562	2569.812192
453.949311	2561.578308
454.323001	2564.939077
454.696632	2562.166442
455.070202	2552.840308
455.443713	2548.807385
455.817164	2564.771038
456.190556	2573.088942
456.563888	2556.453135
456.937160	2559.225769
457.310373	2557.461365
457.683526	2558.805673
458.056619	2565.359173
458.429653	2564.266923
458.802628	2563.258692
459.175542	2564.771038
459.548398	2559.981942
459.921194	2562.838596
460.293930	2556.537154
460.666607	2554.352654
461.039224	2557.377346
461.411782	2566.703481
461.784280	2568.047788
462.156719	2566.535442
462.529099	2568.215827
462.901419	2555.949019
463.273680	2560.402038
463.645882	2564.603000
464.018024	2556.117058
464.390106	2553.596481
464.762130	2567.375635
465.134094	2561.242231
465.505999	2567.291615
465.877845	2566.115346
466.249631	2561.326250
466.621358	2579.306365
466.993026	2572.752865
467.364634	2593.421596
467.736184	2568.887981
468.107674	2571.240519
468.479105	2569.476115
468.850477	2564.350942
469.221790	2564.687019
469.593043	2553.596481
469.964238	2564.350942
470.335373	2569.896212
470.706449	2562.418500
471.077467	2558.889692
471.448425	2562.334481
471.819324	2562.502519
472.190164	2582.247038
472.560945	2562.670558
472.931667	2557.125288
473.302330	2548.051212
473.672934	2564.855058
474.043479	2572.920904
474.413965	2558.469596
474.784393	2558.301558
475.154761	2577.794019
475.525070	2578.550192
475.895321	2583.927423
476.265513	2574.349231
476.635645	2572.416788
477.005719	2573.341000
477.375734	2562.250462
477.745691	2557.965481
478.115588	2567.795731
478.485427	2562.082423
478.855207	2570.736404
479.224928	2576.449712
479.594591	2563.594769
479.964194	2563.174673
480.333739	2555.192846
480.703226	2564.266923
481.072653	2579.894500
481.442022	2553.428442
481.811333	2580.398615
482.180584	2567.795731
482.549777	2570.820423
482.918912	2576.701769
483.287988	2546.622885
483.657005	2558.469596
484.025964	2567.879750
484.394864	2564.518981
484.763706	2562.166442
485.132489	2562.250462
485.501213	2570.652385
485.869879	2562.082423
486.238487	2571.660615
486.607036	2564.603000
486.975527	2567.795731
487.343959	2576.953827
487.712333	2585.607808
488.080648	2571.492577
488.448905	2580.314596
488.817104	2573.172962
489.185244	2566.199365
489.553326	2558.301558
489.921350	2568.467885
490.289315	2568.635923
490.657222	2568.719942
491.025070	2581.574885
491.392861	2574.181192
491.760593	2569.224058
492.128267	2570.568365
492.495883	2584.179481
492.863440	2569.308077
493.230939	2579.810481
493.598380	2565.863288
493.965763	2565.695250
494.333088	2568.467885
494.700354	2595.690115
495.067563	2572.164731
495.434713	2567.711712
495.801805	2561.914385
496.168839	2567.627692
496.535815	2568.467885
496.902733	2580.230577
497.269593	2560.149981
497.636395	2574.853346
498.003139	2562.082423
498.369825	2584.011442
498.736453	2548.471308
499.103023	2563.090654
499.469535	2567.123577
499.835989	2565.275154
500.202385	2561.158212
500.568723	2563.174673
500.935003	2558.805673
501.301226	2572.164731
501.667390	2566.115346
502.033497	2580.146558
502.399546	2572.248750
502.765537	2575.777558
503.131470	2559.981942
503.497345	2549.563558
503.863163	2581.742923
504.228923	2573.004923
504.594625	2557.461365
504.960269	2564.098885
505.325856	2557.461365
505.691385	2566.955538
506.056856	2561.746346
506.422270	2570.484346
506.787625	2578.886269
507.152924	2577.205885
507.518164	2564.855058
507.883347	2565.779269
508.248472	2581.490865
508.613540	2567.543673
508.978550	2577.962058
509.343503	2577.457942
509.708398	2566.535442
510.073236	2567.963769
510.438016	2573.425019
510.802738	2562.166442
511.167403	2568.299846
511.532010	2581.574885
511.896561	2589.892788
512.261053	2560.822135
512.625488	2575.021385
512.989866	2565.443192
513.354186	2583.843404
513.718449	2568.551904
514.082655	2582.247038
514.446803	2578.298135
514.810894	2572.836885
515.174927	2590.817000
515.538904	2578.466173
515.902822	2557.377346
516.266684	2562.166442
516.630488	2554.856769
516.994235	2586.532019
517.357925	2582.583115
517.721558	2562.418500
518.085133	2568.719942
518.448651	2568.299846
518.812112	2583.255269
519.175516	2576.701769
519.538863	2572.920904
519.902152	2568.299846
520.265385	2564.855058
520.628560	2581.070769
520.991678	2573.425019
521.354739	2573.172962
521.717743	2585.355750
522.080690	2564.771038
522.443580	2570.316308
522.806413	2569.560135
523.169189	2567.627692
523.531908	2558.721654
523.894569	2577.878038
524.257174	2578.466173
524.619722	2586.363981
524.982213	2584.851635
525.344647	2563.174673
525.707025	2581.574885
526.069345	2568.635923
526.431608	2566.955538
526.793815	2576.197654
527.155964	2567.207596
527.518057	2559.141750
527.880093	2586.952115
528.242072	2565.863288
528.603995	2577.289904
528.965860	2569.224058
529.327669	2571.912673
529.689421	2568.047788
530.051117	2566.871519
530.412755	2570.484346
530.774337	2570.316308
531.135862	2575.189423
531.497331	2579.390385
531.858743	2562.334481
532.220098	2564.182904
532.581396	2573.425019
532.942638	2565.023096
533.303824	2570.652385
533.664953	2559.645865
534.026025	2570.904442
534.387040	2566.199365
534.747999	2567.963769
535.108902	2579.474404
535.469748	2558.973712
535.830537	2566.787500
536.191270	2583.087231
536.551947	2569.476115
536.912567	2566.031327
537.273131	2572.164731
537.633638	2565.275154
537.994089	2576.029615
538.354483	2568.887981
538.714821	2575.441481
539.075103	2572.752865
539.435328	2561.410269
539.795497	2573.425019
540.155609	2581.490865
540.515665	2566.703481
540.875665	2576.365692
541.235609	2569.896212
541.595496	2559.729885
541.955328	2569.140038
542.315102	2584.683596
542.674821	2575.273442
543.034483	2562.586538
543.394090	2568.299846
543.753640	2569.476115
544.113134	2579.474404
544.472571	2572.920904
544.831953	2583.843404
545.191278	2567.459654
545.550548	2577.205885
545.909761	2568.887981
546.268918	2563.006635
546.628019	2568.719942
546.987064	2574.265212
547.346053	2563.678788
547.704986	2570.652385
548.063863	2572.500808
548.422684	2571.240519
548.781449	2566.871519
549.140158	2579.390385
549.498811	2583.171250
549.857408	2566.451423
550.215949	2564.771038
550.574434	2558.973712
550.932864	2581.574885
551.291237	2577.457942
551.649555	2564.855058
552.007817	2577.625981
552.366022	2573.425019
552.724173	2577.289904
553.082267	2575.609519
553.440305	2588.548481
553.798288	2582.751154
554.156215	2582.163019
554.514086	2575.945596
554.871902	2577.037846
555.229661	2581.910962
555.587365	2569.224058
555.945014	2572.080712
556.302606	2566.115346
556.660143	2577.962058
557.017625	2583.927423
557.375050	2571.324538
557.732421	2590.901019
558.089735	2572.668846
558.446994	2573.004923
558.804197	2562.754577
559.161345	2575.777558
559.518437	2569.980231
559.875474	2569.056019
560.232455	2562.754577
560.589381	2578.550192
560.946251	2582.751154
561.303065	2583.591346
561.659825	2572.248750
562.016528	2576.533731
562.373177	2574.349231
562.729770	2569.980231
563.086307	2581.826942
563.442789	2573.172962
563.799216	2576.449712
564.155587	2571.492577
564.511904	2581.406846
564.868164	2582.499096
565.224370	2571.324538
565.580520	2574.853346
565.936615	2558.385577
566.292654	2579.390385
566.648638	2566.535442
567.004567	2573.929135
567.360441	2581.238808
567.716260	2563.342712
568.072023	2566.871519
568.427732	2573.341000
568.783385	2572.248750
569.138982	2554.520692
569.494525	2559.981942
569.850013	2569.308077
570.205445	2578.046077
570.560823	2570.736404
570.916145	2581.994981
571.271412	2568.635923
571.626625	2570.232288
571.981782	2575.441481
572.336884	2569.476115
572.691931	2579.054308
573.046923	2585.775846
573.401860	2560.906154
573.756743	2563.342712
574.111570	2584.431538
574.466342	2579.138327
574.821059	2573.088942
575.175722	2570.148269
575.530330	2576.197654
575.884882	2572.164731
576.239380	2582.751154
576.593823	2576.869808
576.948211	2579.474404
577.302544	2574.601288
577.656823	2583.003212
578.011047	2563.762808
578.365216	2578.718231
578.719330	2573.929135
579.073389	2567.795731
579.427394	2572.500808
579.781344	2561.746346
580.135239	2573.004923
580.489080	2563.174673
580.842866	2578.634212
581.196597	2579.222346
581.550273	2584.347519
581.903895	2570.820423
582.257463	2581.322827
582.610975	2575.357462
582.964434	2565.947308
583.317837	2567.879750
583.671186	2570.400327
584.024481	2571.660615
584.377721	2558.721654
584.730906	2566.535442
585.084037	2569.224058
585.437113	2575.945596
585.790135	2574.433250
586.143103	2576.617750
586.496016	2578.718231
586.848874	2570.988462
587.201679	2587.456231
587.554428	2558.805673
587.907124	2571.156500
588.259765	2575.105404
588.612352	2576.113635
588.964884	2589.976808
589.317362	2566.955538
589.669786	2570.736404
590.022155	2577.962058
590.374470	2567.039558
590.726731	2567.963769
591.078937	2586.279962
591.431090	2563.174673
591.783188	2567.291615
592.135232	2581.826942
592.487222	2583.423308
592.839157	2580.482635
593.191038	2563.846827
593.542866	2571.660615
593.894639	2576.365692
594.246358	2583.339288
594.598022	2571.240519
594.949633	2566.703481
595.301190	2590.396904
595.652692	2570.316308
596.004141	2565.527212
596.355535	2575.357462
596.706876	2574.853346
597.058162	2580.986750
597.409395	2572.164731
597.760573	2573.929135
598.111698	2575.609519
598.462768	2571.912673
598.813785	2568.383865
599.164748	2583.759385
599.515657	2577.541962
599.866511	2581.658904
600.217312	2577.289904
600.568060	2587.372212
600.918753	2567.291615
601.269392	2573.172962
601.619978	2569.896212
601.970510	2552.168154
602.320988	2589.220635
602.671412	2567.879750
603.021783	2566.955538
603.372100	2566.703481
603.722363	2575.861577
604.072572	2576.281673
604.422728	2575.189423
604.772830	2579.726462
605.122878	2572.500808
605.472872	2564.855058
605.822813	2570.484346
606.172701	2564.855058
606.522534	2571.828654
606.872314	2569.560135
607.222041	2576.449712
607.571714	2574.853346
607.921333	2573.425019
608.270899	2559.477827
608.620411	2574.937365
608.969870	2577.457942
609.319276	2574.013154
609.668627	2571.996692
610.017926	2573.761096
610.367171	2594.009731
610.716362	2570.316308
611.065500	2586.448000
611.414585	2569.224058
611.763616	2567.207596
612.112594	2587.372212
612.461518	2575.861577
612.810389	2566.871519
613.159207	2569.896212
613.507971	2573.509038
613.856682	2570.400327
614.205340	2571.744635
614.553945	2568.383865
614.902496	2567.459654
615.250994	2558.217538
615.599439	2573.341000
615.947830	2579.054308
616.296169	2583.843404
616.644454	2583.759385
616.992686	2566.535442
617.340864	2565.191135
617.688990	2578.382154
618.037063	2586.279962
618.385082	2574.013154
618.733048	2583.339288
619.080961	2574.433250
619.428821	2565.191135
619.776628	2583.003212
620.124382	2586.700058
620.472083	2576.197654
620.819731	2583.423308
621.167326	2575.357462
621.514868	2586.952115
621.862357	2574.685308
622.209793	2582.667135
622.557176	2574.097173
622.904506	2573.256981
623.251783	2561.830365
623.599007	2571.156500
623.946179	2570.232288
624.293297	2564.939077
624.640363	2572.248750
624.987376	2564.939077
625.334336	2579.894500
625.681243	2576.785788
626.028097	2542.842019
626.374899	2581.490865
626.721647	2573.425019
627.068343	2582.499096
627.414987	2565.107115
627.761577	2579.894500
628.108115	2572.752865
628.454600	2560.318019
628.801032	2582.499096
629.147412	2576.029615
629.493739	2563.594769
629.840014	2565.695250
630.186236	2576.113635
630.532405	2572.920904
630.878521	2576.029615
631.224585	2574.937365
631.570597	2575.189423
631.916556	2564.182904
632.262462	2588.380442
632.608316	2573.929135
632.954117	2572.332769
633.299866	2580.734692
633.645562	2560.654096
633.991206	2572.416788
634.336797	2585.607808
634.682336	2586.279962
635.027823	2557.461365
635.373257	2556.789212
635.718639	2568.467885
636.063968	2563.174673
636.409245	2579.138327
636.754470	2572.416788
637.099642	2568.047788
637.444762	2582.919192
637.789829	2571.240519
638.134845	2570.232288
638.479808	2565.695250
638.824719	2583.255269
639.169577	2576.281673
639.514383	2566.703481
639.859137	2573.172962
640.203839	2575.609519
640.548489	2575.609519
640.893086	2575.105404
641.237632	2577.373923
641.582125	2573.761096
641.926566	2572.332769
642.270955	2563.846827
642.615292	2562.082423
642.959576	2566.367404
643.303809	2562.418500
643.647990	2570.484346
643.992118	2577.037846
644.336195	2578.970288
644.680219	2576.869808
645.024192	2564.518981
645.368112	2549.311500
645.711981	2578.886269
646.055797	2575.777558
646.399562	2567.375635
646.743274	2583.927423
647.086935	2572.836885
647.430544	2569.812192
647.774101	2575.525500
648.117606	2581.238808
648.461059	2573.088942
648.804460	2569.728173
649.147810	2565.107115
649.491108	2580.146558
649.834354	2577.121865
650.177548	2568.551904
650.520690	2578.970288
650.863781	2561.998404
651.206820	2579.894500
651.549807	2568.551904
651.892742	2572.752865
652.235626	2551.159923
652.578458	2577.289904
652.921238	2578.634212
653.263967	2577.205885
653.606644	2574.853346
653.949269	2572.248750
654.291843	2563.762808
654.634365	2574.601288
654.976836	2556.453135
655.319255	2581.574885
655.661622	2586.616038
656.003938	2562.502519
656.346203	2580.818712
656.688416	2566.283385
657.030577	2579.390385
657.372687	2582.079000
657.714746	2566.031327
658.056753	2578.718231
658.398708	2570.652385
658.740612	2559.981942
659.082465	2574.349231
659.424266	2581.742923
659.766016	2563.090654
660.107715	2574.685308
660.449362	2583.087231
660.790958	2586.279962
661.132503	2560.149981
661.473996	2572.836885
661.815438	2566.451423
662.156829	2553.092365
662.498168	2581.910962
662.839456	2585.943885
663.180693	2575.777558
663.521879	2571.324538
663.863013	2574.601288
664.204097	2571.660615
664.545129	2567.207596
664.886110	2573.593058
665.227040	2568.215827
665.567918	2564.603000
665.908746	2568.635923
666.249522	2572.164731
666.590248	2563.258692
666.930922	2578.886269
667.271545	2569.728173
667.612118	2567.627692
667.952639	2561.410269
668.293109	2563.090654
668.633528	2577.289904
668.973896	2573.845115
669.314213	2564.603000
669.654480	2569.476115
669.994695	2561.242231
670.334859	2566.619462
670.674973	2554.688731
671.015035	2566.115346
671.355047	2578.970288
671.695008	2566.703481
672.034918	2573.761096
672.374777	2581.910962
672.714585	2580.818712
673.054342	2540.153404
673.394049	2573.088942
673.733705	2575.105404
674.073310	2581.742923
674.412864	2564.434962
674.752368	2559.477827
675.091820	2568.635923
675.431223	2574.685308
675.770574	2560.822135
676.109875	2574.097173
676.449125	2581.742923
676.788324	2582.247038
677.127473	2567.711712
677.466571	2578.550192
677.805619	2580.398615
678.144616	2560.234000
678.483562	2571.156500
678.822458	2571.240519
679.161303	2561.830365
679.500098	2565.527212
679.838842	2561.326250
680.177535	2576.701769
680.516179	2551.159923
680.854771	2579.978519
681.193314	2558.049500
681.531805	2577.457942
681.870247	2567.879750
682.208638	2563.762808
682.546978	2575.021385
682.885268	2577.710000
683.223508	2576.701769
683.561697	2568.047788
683.899836	2564.098885
684.237925	2556.789212
684.575963	2585.943885
684.913951	2562.586538
685.251889	2571.828654
685.589776	2561.326250
685.927614	2574.349231
686.265401	2575.441481
686.603137	2558.805673
686.940824	2577.457942
687.278460	2559.729885
687.616046	2564.350942
687.953582	2584.011442
688.291068	2572.500808
688.628504	2571.492577
688.965889	2572.752865
689.303224	2569.476115
689.640510	2575.357462
689.977745	2560.149981
690.314930	2549.899635
690.652065	2568.635923
690.989150	2577.457942
691.326185	2577.037846
691.663170	2560.822135
692.000105	2561.158212
692.336990	2578.382154
692.673825	2577.289904
693.010610	2580.650673
693.347345	2566.115346
693.684030	2579.642442
694.020665	2569.140038
694.357251	2552.588250
694.693786	2567.543673
695.030272	2572.500808
695.366707	2573.172962
695.703093	2562.586538
696.039429	2574.601288
696.375716	2559.393808
696.711952	2553.680500
697.048139	2567.291615
697.384276	2567.459654
697.720363	2562.502519
698.056400	2574.853346
698.392388	2560.570077
698.728326	2572.584827
699.064214	2560.822135
699.400053	2569.644154
699.735842	2575.693538
700.071581	2579.726462
700.407270	2572.668846
700.742910	2570.652385
701.078501	2568.467885
701.414042	2570.736404
701.749533	2570.064250
702.084974	2571.828654
702.420366	2564.603000
702.755709	2557.797442
703.091002	2582.331058
703.426246	2568.215827
703.761440	2567.459654
704.096584	2565.611231
704.431679	2563.678788
704.766725	2572.668846
705.101721	2557.125288
705.436668	2558.553615
705.771565	2564.771038
706.106413	2553.344423
706.441212	2571.744635
706.775961	2563.762808
707.110661	2567.207596
707.445311	2562.670558
707.779913	2568.803962
708.114465	2556.369115
708.448967	2554.856769
708.783421	2556.117058
709.117825	2566.031327
709.452180	2570.484346
709.786485	2555.780981
710.120742	2572.332769
710.454949	2565.863288
710.789107	2565.359173
711.123216	2560.318019
711.457275	2561.830365
711.791286	2586.952115
712.125247	2556.537154
712.459159	2556.621173
712.793023	2555.276865
713.126837	2565.947308
713.460602	2558.973712
713.794318	2576.449712
714.127985	2560.402038
714.461602	2553.764519
714.795171	2550.319731
715.128691	2561.242231
715.462162	2576.785788
715.795584	2568.719942
716.128957	2576.785788
716.462281	2581.994981
716.795556	2565.275154
717.128782	2575.861577
717.461960	2577.121865
717.795088	2574.433250
718.128167	2557.545385
718.461198	2567.711712
718.794180	2557.713423
719.127113	2565.191135
719.459997	2566.703481
719.792833	2559.057731
720.125619	2548.723365
720.458357	2571.492577
720.791046	2570.988462
721.123686	2580.398615
721.456278	2555.696962
721.788821	2563.762808
722.121315	2564.350942
722.453761	2563.090654
722.786158	2561.914385
723.118506	2568.047788
723.450805	2567.375635
723.783056	2566.283385
724.115259	2551.243942
724.447412	2557.461365
724.779518	2557.545385
725.111574	2577.457942
725.443582	2563.090654
725.775542	2564.771038
726.107453	2558.805673
726.439315	2570.904442
726.771129	2580.902731
727.102895	2559.897923
727.434612	2577.878038
727.766281	2560.318019
728.097901	2571.156500
728.429473	2551.243942
728.760996	2561.578308
729.092471	2560.234000
729.423897	2559.309788
729.755276	2571.492577
730.086606	2559.057731
730.417887	2559.393808
730.749120	2558.973712
731.080305	2547.295038
731.411442	2558.217538
731.742530	2563.594769
732.073570	2571.660615
732.404562	2569.140038
732.735506	2554.268635
733.066401	2571.996692
733.397249	2557.545385
733.728048	2564.687019
734.058798	2559.393808
734.389501	2584.347519
734.720156	2562.670558
735.050762	2559.477827
735.381320	2568.299846
735.711831	2571.744635
736.042293	2557.797442
736.372707	2560.738115
736.703073	2575.189423
737.033391	2577.541962
737.363661	2556.537154
737.693883	2571.240519
738.024056	2580.986750
738.354182	2572.332769
738.684260	2582.247038
739.014290	2574.265212
739.344272	2556.873231
739.674207	2573.341000
740.004093	2550.571788
740.333931	2568.131808
740.663722	2566.283385
740.993464	2561.914385
741.323159	2582.247038
741.652806	2573.761096
741.982405	2552.840308
742.311956	2557.629404
742.641460	2558.805673
742.970915	2567.123577
743.300323	2565.611231
743.629683	2559.729885
743.958996	2565.863288
744.288260	2562.502519
744.617477	2566.283385
744.946647	2573.929135
745.275768	2557.125288
745.604842	2559.225769
745.933869	2564.350942
746.262847	2569.980231
746.591778	2565.611231
746.920662	2577.373923
747.249498	2556.705192
747.578286	2570.148269
747.907027	2563.426731
748.235720	2577.794019
748.564365	2579.390385
748.892963	2573.929135
749.221514	2558.217538
749.550017	2549.395519
749.878473	2572.668846
750.206881	2579.222346
750.535242	2560.654096
750.863555	2566.367404
751.191821	2571.408558
751.520039	2569.728173
751.848210	2580.062538
752.176334	2564.603000
752.504411	2577.373923
752.832440	2566.955538
753.160421	2580.734692
753.488356	2582.835173
753.816243	2574.181192
754.144082	2573.761096
754.471875	2573.341000
754.799620	2556.201077
755.127318	2559.897923
755.454969	2562.502519
755.782572	2565.275154
756.110129	2563.846827
756.437638	2550.067673
756.765100	2558.805673
757.092515	2552.252173
757.419882	2541.749769
757.747203	2561.074192
758.074477	2568.719942
758.401703	2553.260404
758.728882	2570.988462
759.056014	2558.805673
759.383099	2575.945596
759.710138	2551.243942
760.037129	2556.033038
760.364073	2551.664038
760.690970	2560.486058
761.017820	2556.201077
761.344623	2573.425019
761.671379	2560.486058
761.998088	2556.369115
762.324751	2558.133519
762.651366	2561.158212
762.977935	2569.980231
763.304456	2548.051212
763.630931	2561.746346
763.957359	2569.224058
764.283740	2568.803962
764.610074	2564.182904
764.936362	2555.780981
765.262602	2570.484346
765.588796	2558.301558
765.914943	2569.308077
766.241044	2556.201077
766.567097	2562.754577
766.893104	2575.609519
767.219064	2568.887981
767.544978	2555.949019
767.870845	2577.205885
768.196665	2552.672269
768.522438	2564.855058
768.848165	2547.463077
769.173846	2562.082423
769.499479	2558.721654
769.825066	2566.451423
770.150607	2576.197654
770.476101	2559.057731
770.801548	2572.584827
771.126949	2572.416788
771.452303	2558.637635
771.777611	2566.031327
772.102872	2571.492577
772.428087	2560.402038
772.753256	2563.930846
773.078378	2563.678788
773.403453	2562.418500
773.728482	2569.728173
774.053465	2546.034750
774.378401	2547.883173
774.703291	2576.281673
775.028135	2573.425019
775.352932	2576.953827
775.677683	2569.140038
776.002388	2561.578308
776.327046	2557.041269
776.651658	2565.191135
776.976224	2573.341000
777.300743	2555.192846
777.625216	2551.496000
777.949643	2569.728173
778.274024	2558.133519
778.598359	2572.416788
778.922647	2553.680500
779.246889	2565.023096
779.571086	2566.367404
779.895236	2550.907865
780.219339	2559.645865
780.543397	2565.275154
780.867409	2552.084135
781.191374	2552.168154
781.515294	2572.584827
781.839167	2568.803962
782.162995	2572.164731
782.486776	2555.696962
782.810511	2554.268635
783.134201	2569.056019
783.457844	2569.560135
783.781441	2554.604712
784.104993	2573.172962
784.428498	2558.217538
784.751958	2563.174673
785.075372	2567.039558
785.398739	2564.855058
785.722061	2570.736404
786.045337	2556.789212
786.368568	2571.156500
786.691752	2558.553615
787.014891	2564.855058
787.337983	2561.242231
787.661030	2563.006635
787.984031	2565.779269
788.306987	2564.855058
788.629897	2562.838596
788.952760	2570.904442
789.275579	2562.082423
789.598351	2575.273442
789.921078	2555.108827
790.243759	2577.457942
790.566395	2562.838596
790.888984	2553.680500
791.211529	2563.510750
791.534027	2560.990173
791.856480	2568.972000
792.178888	2576.617750
792.501249	2562.670558
792.823566	2546.118769
793.145836	2561.746346
793.468062	2560.654096
793.790241	2562.838596
794.112375	2539.565269
794.434464	2568.131808
794.756507	2551.748058
795.078505	2569.728173
795.400457	2561.494288
795.722364	2553.848538
796.044226	2573.088942
796.366042	2566.199365
796.687812	2553.848538
797.009538	2563.258692
797.331218	2548.555327
797.652852	2565.275154
797.974442	2578.130096
798.295986	2569.140038
798.617484	2564.603000
798.938938	2568.131808
799.260346	2552.168154
799.581709	2555.360885
799.903026	2567.795731
800.224299	2556.957250
800.545526	2552.672269
800.866708	2564.687019
801.187845	2559.225769
801.508936	2559.309788
801.829983	2565.611231
802.150984	2561.158212
802.471940	2560.654096
802.792851	2555.276865
803.113717	2569.476115
803.434538	2568.131808
803.755314	2562.418500
804.076045	2563.510750
804.396731	2553.008346
804.717372	2561.410269
805.037967	2565.191135
805.358518	2551.580019
805.679024	2551.327962
805.999485	2567.375635
806.319901	2566.451423
806.640272	2550.823846
806.960598	2574.685308
807.280879	2557.293327
807.601115	2564.434962
807.921306	2566.703481
808.241453	2569.056019
808.561554	2556.957250
808.881611	2556.621173
809.201623	2564.350942
809.521590	2565.275154
809.841513	2571.408558
810.161390	2567.543673
810.481223	2561.158212
810.801011	2556.957250
811.120755	2555.276865
811.440453	2563.930846
811.760107	2566.451423
812.079716	2566.787500
812.399281	2557.965481
812.718801	2560.065962
813.038276	2556.201077
813.357707	2564.014865
813.677093	2569.644154
813.996434	2565.863288
814.315731	2554.436673
814.634983	2557.209308
814.954191	2557.461365
815.273354	2556.537154
815.592473	2546.538865
815.911547	2567.459654
816.230577	2565.611231
816.549562	2571.912673
816.868502	2545.782692
817.187399	2555.696962
817.506250	2565.527212
817.825058	2556.369115
818.143821	2572.332769
818.462539	2565.695250
818.781213	2555.276865
819.099843	2558.469596
819.418429	2559.141750
819.736970	2561.074192
820.055466	2548.471308
820.373919	2556.873231
820.692327	2550.823846
821.010691	2554.772750
821.329011	2565.275154
821.647286	2558.553615
821.965517	2587.120154
822.283704	2587.372212
822.601847	2576.113635
822.919945	2575.441481
823.237999	2570.148269
823.556010	2564.434962
823.873976	2557.713423
824.191897	2570.988462
824.509775	2570.316308
824.827609	2563.090654
825.145398	2559.225769
825.463144	2573.677077
825.780845	2569.728173
826.098502	2574.601288
826.416116	2553.176385
826.733685	2562.166442
827.051210	2557.461365
827.368692	2544.522404
827.686129	2562.250462
828.003522	2563.342712
828.320872	2562.418500
828.638177	2558.217538
828.955439	2577.121865
829.272656	2560.149981
829.589830	2571.240519
829.906960	2565.695250
830.224046	2563.678788
830.541088	2570.232288
830.858086	2559.309788
831.175041	2566.787500
831.491952	2563.594769
831.808819	2562.082423
832.125642	2568.972000
832.442421	2566.787500
832.759157	2565.359173
833.075849	2561.494288
833.392497	2564.266923
833.709101	2559.729885
834.025662	2569.980231
834.342179	2552.084135
834.658653	2556.453135
834.975083	2563.426731
835.291469	2567.039558
835.607811	2560.738115
835.924110	2568.299846
836.240366	2561.998404
836.556578	2542.169865
836.872746	2571.492577
837.188871	2566.955538
837.504952	2545.278577
837.820990	2561.578308
838.136984	2567.711712
838.452935	2569.392096
838.768842	2548.387288
839.084706	2549.647577
839.400526	2563.258692
839.716303	2574.433250
840.032037	2551.411981
840.347727	2559.897923
840.663373	2554.100596
840.978977	2568.215827
841.294537	2548.387288
841.610054	2556.789212
841.925527	2571.660615
842.240957	2568.467885
842.556344	2552.420212
842.871687	2557.377346
843.186987	2557.377346
843.502244	2545.362596
843.817458	2547.799154
844.132629	2566.871519
844.447756	2561.830365
844.762840	2572.164731
845.077881	2571.408558
845.392879	2572.080712
845.707833	2556.285096
846.022745	2557.797442
846.337613	2554.604712
846.652438	2554.016577
846.967221	2565.191135
847.281960	2562.082423
847.596656	2566.451423
847.911309	2555.528923
848.225919	2556.453135
848.540485	2546.454846
848.855009	2563.846827
849.169490	2567.375635
849.483928	2565.107115
849.798323	2580.230577
850.112675	2543.766231
850.426984	2554.352654
850.741251	2562.082423
851.055474	2552.252173
851.369654	2555.865000
851.683792	2570.316308
851.997887	2557.377346
852.311938	2562.922615
852.625947	2557.293327
852.939914	2564.603000
853.253837	2554.352654
853.567718	2567.543673
853.881555	2563.258692
854.195350	2554.604712
854.509103	2545.446615
854.822812	2552.756288
855.136479	2565.527212
855.450103	2553.680500
855.763685	2558.805673
856.077224	2553.848538
856.390720	2548.975423
856.704173	2551.916096
857.017584	2550.067673
857.330953	2557.041269
857.644278	2563.930846
857.957561	2563.846827
858.270802	2557.209308
858.584000	2560.402038
858.897155	2566.703481
859.210268	2561.914385
859.523339	2580.314596
859.836367	2559.729885
860.149352	2553.680500
860.462295	2546.622885
860.775195	2566.955538
861.088054	2550.739827
861.400869	2565.023096
861.713642	2559.141750
862.026373	2568.299846
862.339062	2551.496000
862.651708	2556.537154
862.964312	2563.342712
863.276873	2565.947308
863.589392	2546.286808
863.901869	2554.268635
864.214303	2551.327962
864.526696	2561.830365
864.839045	2564.098885
865.151353	2562.922615
865.463619	2569.308077
865.775842	2555.528923
866.088023	2562.922615
866.400162	2557.293327
866.712258	2552.420212
867.024313	2572.836885
867.336325	2566.535442
867.648296	2561.410269
867.960224	2551.243942
868.272110	2574.097173
868.583954	2552.924327
868.895755	2558.301558
869.207515	2550.067673
869.519233	2564.014865
869.830909	2549.899635
870.142542	2561.746346
870.454134	2547.127000
870.765684	2559.393808
871.077191	2556.201077
871.388657	2550.067673
871.700081	2551.075904
872.011463	2563.930846
872.322803	2554.436673
872.634101	2565.611231
872.945357	2556.033038
873.256571	2554.940788
873.567744	2574.265212
873.878874	2560.065962
874.189963	2565.611231
874.501010	2572.920904
874.812015	2558.637635
875.122979	2547.967192
875.433900	2575.609519
875.744780	2565.107115
876.055618	2549.983654
876.366415	2564.434962
876.677169	2563.090654
876.987882	2560.654096
877.298554	2558.133519
877.609183	2556.453135
877.919771	2571.996692
878.230317	2554.268635
878.540822	2555.108827
878.851285	2558.385577
879.161707	2555.192846
879.472087	2570.736404
879.782425	2550.487769
880.092722	2562.586538
880.402977	2561.494288
880.713191	2567.627692
881.023363	2563.174673
881.333494	2574.181192
881.643583	2563.678788
881.953631	2559.897923
882.263637	2561.410269
882.573602	2565.359173
882.883526	2562.922615
883.193408	2564.014865
883.503248	2558.721654
883.813048	2555.108827
884.122806	2574.601288
884.432522	2557.293327
884.742197	2571.912673
885.051831	2550.655808
885.361424	2567.291615
885.670975	2566.619462
885.980485	2570.568365
886.289954	2562.082423
886.599382	2554.016577
886.908768	2566.283385
887.218113	2578.214115
887.527417	2557.209308
887.836680	2569.392096
888.145901	2564.518981
888.455082	2553.428442
888.764221	2572.920904
889.073319	2563.258692
889.382376	2558.049500
889.691392	2552.168154
890.000366	2565.023096
890.309300	2559.645865
890.618193	2550.739827
890.927044	2556.033038
891.235855	2550.403750
891.544625	2552.336192
891.853353	2554.772750
892.162041	2546.874942
892.470687	2548.723365
892.779293	2567.375635
893.087858	2560.738115
893.396381	2572.500808
893.704864	2555.949019
894.013306	2562.586538
894.321707	2564.098885
894.630068	2560.149981
894.938387	2560.318019
895.246665	2547.211019
895.554903	2567.627692
895.863100	2557.125288
896.171256	2558.469596
896.479371	2556.789212
896.787446	2546.874942
897.095480	2567.711712
897.403473	2561.158212
897.711425	2567.711712
898.019336	2553.848538
898.327207	2550.403750
898.635038	2556.453135
898.942827	2548.471308
899.250576	2575.441481
899.558284	2556.873231
899.865952	2552.252173
900.173579	2563.846827
900.481165	2563.594769
900.788711	2540.909577
901.096216	2558.217538
901.403681	2567.459654
901.711105	2564.855058
902.018489	2558.133519
902.325832	2561.494288
902.633135	2560.402038
902.940397	2561.746346
903.247619	2560.654096
903.554800	2558.721654
903.861941	2565.611231
904.169041	2559.393808
904.476101	2573.677077
904.783121	2561.998404
905.090100	2558.553615
905.397039	2539.733308
905.703938	2552.336192
906.010796	2549.983654
906.317614	2545.530635
906.624391	2560.149981
906.931129	2559.393808
907.237826	2558.217538
907.544483	2567.879750
907.851099	2563.678788
908.157675	2567.627692
908.464211	2552.420212
908.770707	2559.477827
909.077163	2555.108827
909.383578	2551.580019
909.689954	2557.965481
909.996289	2558.217538
910.302584	2573.004923
910.608839	2547.463077
910.915054	2566.703481
911.221229	2570.316308
911.527363	2556.453135
911.833458	2573.172962
912.139513	2546.454846
912.445527	2557.629404
912.751502	2555.696962
913.057436	2567.543673
913.363331	2558.469596
913.669186	2549.983654
913.975000	2559.645865
914.280775	2568.635923
914.586510	2559.981942
914.892205	2548.807385
915.197859	2576.197654
915.503475	2560.906154
915.809050	2557.797442
916.114585	2549.311500
916.420081	2568.635923
916.725536	2561.830365
917.030952	2557.797442
917.336328	2559.477827
917.641665	2557.965481
917.946961	2546.454846
918.252218	2565.191135
918.557435	2553.596481
918.862612	2574.517269
919.167750	2554.856769
919.472848	2553.848538
919.777906	2564.350942
920.082925	2555.192846
920.387904	2552.000115
920.692843	2551.664038
920.997743	2555.276865
921.302603	2560.990173
921.607423	2559.645865
921.912204	2573.509038
922.216946	2560.822135
922.521647	2542.505942
922.826310	2551.664038
923.130932	2555.360885
923.435516	2563.258692
923.740059	2544.018288
924.044564	2557.965481
924.349028	2561.578308
924.653454	2558.469596
924.957840	2553.176385
925.262186	2565.779269
925.566493	2544.270346
925.870761	2542.505942
926.174989	2552.084135
926.479178	2565.863288
926.783328	2558.049500
927.087438	2555.528923
927.391509	2559.141750
927.695541	2554.268635
927.999533	2533.263827
928.303486	2559.813904
928.607400	2564.855058
928.911275	2552.672269
929.215110	2558.721654
929.518906	2557.713423
929.822663	2548.555327
930.126381	2557.965481
930.430060	2556.285096
930.733699	2564.518981
931.037299	2564.098885
931.340861	2555.696962
931.644383	2568.215827
931.947866	2565.779269
932.251309	2551.075904
932.554714	2554.940788
932.858080	2563.006635
933.161407	2555.276865
933.464694	2564.855058
933.767943	2554.436673
934.071153	2549.311500
934.374323	2549.563558
934.677455	2556.621173
934.980548	2566.955538
935.283602	2555.192846
935.586617	2556.453135
935.889593	2565.191135
936.192530	2573.929135
936.495428	2559.141750
936.798287	2561.662327
937.101108	2558.637635
937.403890	2555.024808
937.706632	2568.551904
938.009336	2578.970288
938.312002	2555.024808
938.614628	2568.131808
938.917216	2548.891404
939.219765	2554.016577
939.522275	2540.489481
939.824747	2550.823846
940.127179	2550.655808
940.429573	2547.463077
940.731929	2558.301558
941.034246	2546.454846
941.336524	2572.164731
941.638763	2568.131808
941.940964	2565.191135
942.243126	2559.057731
942.545250	2559.141750
942.847335	2563.678788
943.149381	2570.652385
943.451389	2556.369115
943.753359	2572.668846
944.055290	2572.248750
944.357182	2557.377346
944.659036	2561.746346
944.960851	2557.713423
945.262628	2560.318019
945.564367	2566.115346
945.866067	2555.696962
946.167729	2550.235712
946.469352	2562.166442
946.770937	2560.906154
947.072484	2539.817327
947.373992	2545.362596
947.675462	2556.369115
947.976893	2552.000115
948.278286	2575.273442
948.579641	2543.850250
948.880958	2560.402038
949.182236	2556.285096
949.483476	2552.168154
949.784678	2540.741538
950.085841	2555.949019
950.386967	2559.981942
950.688054	2568.215827
950.989103	2560.065962
951.290114	2559.897923
951.591087	2559.645865
951.892021	2563.846827
952.192917	2555.865000
952.493776	2556.705192
952.794596	2564.098885
953.095378	2574.601288
953.396122	2561.746346
953.696828	2552.504231
953.997496	2557.713423
954.298126	2559.057731
954.598718	2559.141750
954.899272	2534.524115
955.199788	2555.444904
955.500266	2552.840308
955.800706	2555.528923
956.101108	2557.461365
956.401472	2566.787500
956.701798	2561.410269
957.002087	2565.527212
957.302337	2559.645865
957.602550	2545.866712
957.902724	2548.723365
958.202861	2551.496000
958.502960	2558.805673
958.803022	2563.258692
959.103045	2546.034750
959.403031	2560.654096
959.702979	2556.957250
960.002889	2545.446615
960.302762	2541.245654
960.602596	2554.268635
960.902393	2558.889692
961.202153	2559.813904
961.501875	2557.881462
961.801559	2561.158212
962.101205	2559.813904
962.400814	2557.713423
962.700385	2529.819038
962.999918	2556.033038
963.299414	2560.065962
963.598873	2556.537154
963.898293	2550.739827
964.197677	2562.502519
964.497022	2554.352654
964.796331	2555.949019
965.095601	2549.815615
965.394835	2555.108827
965.694030	2552.252173
965.993189	2556.033038
966.292309	2550.571788
966.591393	2551.075904
966.890439	2552.084135
967.189447	2557.377346
967.488419	2553.848538
967.787353	2566.367404
968.086249	2557.293327
968.385108	2574.265212
968.683930	2553.008346
968.982714	2554.856769
969.281462	2565.359173
969.580172	2548.051212
969.878844	2558.889692
970.177480	2556.705192
970.476078	2545.866712
970.774639	2548.891404
971.073162	2551.832077
971.371649	2570.820423
971.670098	2560.486058
971.968510	2555.949019
972.266885	2554.520692
972.565223	2553.848538
972.863524	2556.873231
973.161788	2560.402038
973.460014	2567.207596
973.758204	2571.576596
974.056356	2564.182904
974.354471	2558.217538
974.652550	2554.100596
974.950591	2568.887981
975.248595	2555.276865
975.546563	2566.871519
975.844493	2573.004923
976.142386	2556.285096
976.440243	2547.967192
976.738062	2554.100596
977.035845	2566.451423
977.333590	2556.789212
977.631299	2544.270346
977.928971	2548.555327
978.226606	2546.118769
978.524204	2548.723365
978.821765	2550.991885
979.119290	2556.789212
979.416777	2558.637635
979.714228	2562.250462
980.011642	2562.502519
980.309020	2564.350942
980.606360	2550.739827
980.903664	2548.723365
981.200931	2561.578308
981.498162	2543.934269
981.795356	2548.387288
982.092513	2555.865000
982.389633	2557.629404
982.686717	2550.319731
982.983764	2570.904442
983.280775	2563.678788
983.577749	2552.420212
983.874686	2553.260404
984.171587	2565.863288
984.468451	2571.240519
984.765279	2570.568365
985.062070	2556.117058
985.358824	2545.866712
985.655543	2570.064250
985.952224	2542.926038
986.248869	2554.352654
986.545478	2555.865000
986.842050	2550.151692
987.138586	2563.006635
987.435086	2547.631115
987.731549	2549.731596
988.027975	2561.326250
988.324366	2553.008346
988.620719	2569.980231
988.917037	2562.166442
989.213318	2553.428442
989.509563	2575.945596
989.805772	2561.746346
990.101944	2558.469596
990.398080	2557.377346
990.694180	2559.225769
990.990244	2573.341000
991.286271	2560.906154
991.582262	2575.525500
991.878217	2560.570077
992.174136	2567.795731
992.470019	2556.621173
992.765865	2556.789212
993.061676	2566.367404
993.357450	2561.074192
993.653188	2557.965481
993.948890	2560.738115
994.244556	2548.555327
994.540186	2541.581731
994.835780	2538.389000
995.131337	2551.243942
995.426859	2560.906154
995.722345	2549.059442
996.017795	2549.059442
996.313208	2555.612942
996.608586	2564.603000
996.903928	2574.601288
997.199234	2559.225769
997.494504	2552.252173
997.789738	2567.459654
998.084936	2552.504231
998.380099	2564.266923
998.675225	2544.270346
998.970316	2542.337904
999.265371	2537.632827
999.560390	2556.453135
999.855373	2548.219250
1000.150320	2543.430154
1000.445232	2545.866712
1000.740108	2567.039558
1001.034948	2543.346135
1001.329752	2543.094077
1001.624521	2566.115346
1001.919254	2560.065962
1002.213951	2571.576596
1002.508613	2562.418500
1002.803239	2562.334481
1003.097829	2549.395519
1003.392384	2546.118769
1003.686903	2545.866712
1003.981386	2561.494288
1004.275834	2561.662327
1004.570246	2564.603000
1004.864623	2564.518981
1005.158964	2547.799154
1005.453270	2552.420212
1005.747540	2552.924327
1006.041775	2547.883173
1006.335974	2570.652385
1006.630138	2543.346135
1006.924266	2562.418500
1007.218359	2554.856769
1007.512416	2556.957250
1007.806438	2551.916096
1008.100425	2562.838596
1008.394376	2564.350942
1008.688292	2557.797442
1008.982172	2564.939077
1009.276017	2554.604712
1009.569827	2566.787500
1009.863602	2549.647577
1010.157341	2555.696962
1010.451045	2555.696962
1010.744714	2554.940788
1011.038347	2547.379058
1011.331945	2551.159923
1011.625508	2557.629404
1011.919036	2554.772750
1012.212528	2541.917808
1012.505986	2562.334481
1012.799408	2545.362596
1013.092795	2554.184615
1013.386147	2555.949019
1013.679464	2561.914385
1013.972745	2556.369115
1014.265992	2564.687019
1014.559204	2544.018288
1014.852380	2539.565269
1015.145521	2553.848538
1015.438628	2556.789212
1015.731699	2546.790923
1016.024736	2558.133519
1016.317737	2553.008346
1016.610703	2554.436673
1016.903635	2559.561846
1017.196531	2564.182904
1017.489393	2558.301558
1017.782219	2539.733308
1018.075011	2557.713423
1018.367768	2556.033038
1018.660490	2553.848538
1018.953177	2553.848538
1019.245829	2553.848538
