Dividing Wavelength (nm)	Counts (n)	Slit_number_6_of_a_total_of_40	
326.493990	2062.588096
326.888308	2062.588096
327.282561	2062.588096
327.676750	2032.089115
328.070874	2008.647750
328.464933	2038.390558
328.858929	2053.514019
329.252859	2060.067519
329.646726	2056.790769
330.040528	2081.996538
330.434265	2100.396750
330.827938	2132.156019
331.221547	2151.060346
331.615091	2143.498615
332.008571	2188.869000
332.401986	2199.959538
332.795338	2234.491442
333.188625	2264.234250
333.581847	2248.102558
333.975006	2294.481173
334.368100	2305.823769
334.761129	2308.848462
335.154095	2290.448250
335.546996	2342.876250
335.939833	2372.619058
336.332606	2381.693135
336.725315	2412.696231
337.117960	2433.364962
337.510540	2440.674635
337.903056	2445.463731
338.295508	2473.442135
338.687896	2438.658173
339.080220	2476.718885
339.472480	2475.458596
339.864676	2481.760038
340.256807	2493.606750
340.648875	2461.343365
341.040879	2490.834115
341.432818	2483.020327
341.824694	2474.954481
342.216506	2483.524442
342.608253	2479.239462
342.999937	2465.880404
343.391557	2471.929788
343.783113	2504.949346
344.174605	2483.020327
344.566033	2451.261058
344.957397	2485.288846
345.348697	2469.409212
345.739934	2447.732250
346.131106	2488.817654
346.522215	2451.513115
346.913260	2477.979173
347.304241	2457.562500
347.695159	2461.595423
348.086012	2469.661269
348.476802	2471.425673
348.867528	2431.600558
349.258191	2471.173615
349.648789	2430.844385
350.039324	2428.323808
350.429796	2437.902000
350.820203	2457.310442
351.210548	2455.293981
351.600828	2436.893769
351.991045	2463.107769
352.381198	2413.704462
352.771288	2444.959615
353.161314	2461.595423
353.551276	2435.885538
353.941175	2459.578962
354.331010	2418.745615
354.720782	2430.844385
355.110490	2438.658173
355.500135	2448.992538
355.889717	2457.562500
356.279235	2456.554269
356.668689	2452.773404
357.058080	2457.814558
357.447408	2477.475058
357.836672	2431.348500
358.225873	2485.540904
358.615010	2420.510019
359.004084	2455.546038
359.393095	2447.732250
359.782043	2464.368058
360.170927	2442.439038
360.559748	2452.773404
360.948505	2458.822788
361.337199	2441.934923
361.725830	2439.414346
362.114398	2459.578962
362.502903	2457.562500
362.891344	2462.603654
363.279722	2458.066615
363.668037	2450.252827
364.056289	2456.554269
364.444478	2490.834115
364.832603	2460.839250
365.220665	2451.765173
365.608665	2451.261058
365.996601	2482.516212
366.384474	2447.228135
366.772284	2464.620115
367.160031	2469.661269
367.547715	2451.009000
367.935336	2468.653038
368.322893	2439.414346
368.710388	2455.041923
369.097820	2488.313538
369.485189	2466.132462
369.872495	2451.513115
370.259738	2481.003865
370.646918	2457.814558
371.034035	2462.099538
371.421090	2445.967846
371.808081	2481.255923
372.195010	2487.557365
372.581875	2466.636577
372.968678	2435.381423
373.355418	2444.455500
373.742096	2458.318673
374.128710	2477.979173
374.515262	2469.157154
374.901751	2470.669500
375.288177	2473.442135
375.674540	2478.987404
376.060841	2474.450365
376.447079	2479.743577
376.833254	2459.074846
377.219367	2483.776500
377.605417	2462.603654
377.991404	2466.132462
378.377329	2472.181846
378.763191	2481.507981
379.148991	2472.938019
379.534727	2459.074846
379.920402	2466.384519
380.306013	2446.219904
380.691563	2474.954481
381.077049	2467.140692
381.462474	2454.033692
381.847835	2452.269288
382.233134	2449.748712
382.618371	2445.715788
383.003545	2430.844385
383.388657	2479.491519
383.773706	2458.570731
384.158693	2473.442135
384.543618	2459.326904
384.928480	2486.045019
385.313280	2470.417442
385.698017	2485.036788
386.082692	2437.902000
386.467305	2481.255923
386.851856	2500.916423
387.236344	2473.442135
387.620770	2466.384519
388.005133	2456.050154
388.389435	2485.792962
388.773674	2460.587192
389.157851	2459.326904
389.541965	2459.831019
389.926018	2473.946250
390.310008	2441.430808
390.693936	2465.376288
391.077802	2494.110865
391.461606	2489.573827
391.845348	2491.842346
392.229027	2480.499750
392.612645	2516.291942
392.996200	2473.190077
393.379694	2480.499750
393.763125	2476.214769
394.146494	2506.965808
394.529801	2477.475058
394.913047	2471.425673
395.296230	2482.012096
395.679351	2495.623212
396.062410	2491.590288
396.445408	2486.801192
396.828343	2499.152019
397.211217	2492.598519
397.594028	2454.789865
397.976778	2461.343365
398.359466	2471.929788
398.742092	2482.516212
399.124656	2444.455500
399.507158	2490.330000
399.889598	2473.442135
400.271977	2463.863942
400.654294	2491.842346
401.036549	2463.611885
401.418742	2465.628346
401.800874	2481.255923
402.182944	2457.814558
402.564952	2490.330000
402.946898	2475.206538
403.328783	2473.442135
403.710606	2482.012096
404.092367	2483.776500
404.474067	2491.338231
404.855705	2503.689058
405.237282	2451.513115
405.618797	2484.280615
406.000250	2456.806327
406.381642	2466.132462
406.762972	2494.867038
407.144240	2467.644808
407.525447	2483.020327
407.906593	2471.929788
408.287677	2506.461692
408.668700	2491.086173
409.049661	2480.751808
409.430560	2495.623212
409.811399	2482.516212
410.192176	2498.395846
410.572891	2476.970942
410.953545	2472.685962
411.334138	2469.661269
411.714669	2502.932885
412.095139	2479.491519
412.475547	2479.239462
412.855894	2481.507981
413.236180	2479.743577
413.616405	2468.653038
413.996568	2467.140692
414.376670	2486.801192
414.756711	2507.974038
415.136691	2489.321769
415.516609	2472.433904
415.896466	2497.639673
416.276262	2484.028558
416.655997	2490.834115
417.035670	2480.751808
417.415283	2488.061481
417.794834	2498.143788
418.174324	2481.255923
418.553753	2498.395846
418.933121	2500.412308
419.312428	2472.938019
419.691674	2492.346462
420.070859	2500.664365
420.449983	2492.598519
420.829045	2503.437000
421.208047	2476.970942
421.586988	2493.606750
421.965867	2492.850577
422.344686	2509.234327
422.723444	2482.768269
423.102141	2487.809423
423.480777	2484.280615
423.859352	2497.135558
424.237866	2487.557365
424.616319	2492.598519
424.994712	2491.590288
425.373044	2489.573827
425.751314	2499.908192
426.129524	2517.804288
426.507673	2505.453462
426.885762	2493.606750
427.263789	2478.987404
427.641756	2511.754904
428.019662	2494.867038
428.397508	2513.267250
428.775292	2481.255923
429.153016	2501.924654
429.530679	2483.776500
429.908282	2468.148923
430.285824	2527.634538
430.663305	2460.587192
431.040726	2482.012096
431.418086	2487.809423
431.795385	2483.020327
432.172624	2513.267250
432.549802	2487.557365
432.926920	2485.540904
433.303977	2473.190077
433.680974	2508.982269
434.057910	2473.442135
434.434786	2490.330000
434.811601	2499.656135
435.188355	2498.647904
435.565050	2503.437000
435.941683	2501.168481
436.318257	2498.647904
436.694770	2501.924654
437.071222	2505.201404
437.447614	2487.305308
437.823946	2519.820750
438.200218	2516.039885
438.576429	2474.702423
438.952580	2470.165385
439.328670	2479.995635
439.704700	2507.469923
440.080670	2499.656135
440.456580	2498.899962
440.832429	2478.987404
441.208218	2495.371154
441.583947	2516.796058
441.959616	2477.979173
442.335224	2487.809423
442.710773	2459.074846
443.086261	2499.152019
443.461689	2514.023423
443.837057	2471.677731
444.212365	2501.420538
444.587612	2507.469923
444.962800	2492.346462
445.337927	2508.478154
445.712995	2481.003865
446.088002	2461.343365
446.462949	2501.168481
446.837837	2477.223000
447.212664	2487.053250
447.587431	2461.343365
447.962139	2495.875269
448.336786	2474.954481
448.711374	2506.209635
449.085901	2505.705519
449.460369	2483.020327
449.834776	2490.077942
450.209124	2517.552231
450.583412	2519.064577
450.957640	2476.970942
451.331808	2501.924654
451.705917	2501.924654
452.079965	2467.140692
452.453954	2508.730212
452.827883	2501.420538
453.201752	2490.834115
453.575562	2531.163346
453.949311	2493.102635
454.323001	2462.351596
454.696632	2484.028558
455.070202	2478.987404
455.443713	2511.502846
455.817164	2503.437000
456.190556	2512.511077
456.563888	2522.089269
456.937160	2500.916423
457.310373	2508.226096
457.683526	2519.064577
458.056619	2503.941115
458.429653	2524.357788
458.802628	2475.458596
459.175542	2503.941115
459.548398	2490.834115
459.921194	2462.099538
460.293930	2500.160250
460.666607	2499.152019
461.039224	2506.461692
461.411782	2493.354692
461.784280	2518.308404
462.156719	2500.664365
462.529099	2489.573827
462.901419	2484.028558
463.273680	2498.899962
463.645882	2501.168481
464.018024	2480.499750
464.390106	2479.491519
464.762130	2532.171577
465.134094	2496.883500
465.505999	2523.349558
465.877845	2495.875269
466.249631	2512.006962
466.621358	2524.105731
466.993026	2530.407173
467.364634	2508.982269
467.736184	2498.647904
468.107674	2496.127327
468.479105	2499.656135
468.850477	2481.003865
469.221790	2490.330000
469.593043	2523.349558
469.964238	2498.899962
470.335373	2507.721981
470.706449	2495.623212
471.077467	2477.727115
471.448425	2518.308404
471.819324	2509.486385
472.190164	2519.568692
472.560945	2504.193173
472.931667	2494.110865
473.302330	2485.036788
473.672934	2506.965808
474.043479	2498.395846
474.413965	2500.412308
474.784393	2483.020327
475.154761	2520.828981
475.525070	2525.618077
475.895321	2530.911288
476.265513	2513.015192
476.635645	2511.250788
477.005719	2519.568692
477.375734	2521.837212
477.745691	2513.015192
478.115588	2519.316635
478.485427	2517.300173
478.855207	2547.295038
479.224928	2544.774462
479.594591	2484.784731
479.964194	2503.184942
480.333739	2520.576923
480.703226	2522.593385
481.072653	2515.283712
481.442022	2501.168481
481.811333	2498.647904
482.180584	2502.680827
482.549777	2526.374250
482.918912	2532.423635
483.287988	2509.234327
483.657005	2487.305308
484.025964	2516.039885
484.394864	2513.267250
484.763706	2503.689058
485.132489	2508.226096
485.501213	2529.398942
485.869879	2510.242558
486.238487	2530.911288
486.607036	2504.949346
486.975527	2519.064577
487.343959	2481.003865
487.712333	2509.738442
488.080648	2517.804288
488.448905	2528.138654
488.817104	2532.171577
489.185244	2513.519308
489.553326	2560.149981
489.921350	2518.812519
490.289315	2538.725077
490.657222	2483.272385
491.025070	2523.097500
491.392861	2520.576923
491.760593	2511.250788
492.128267	2529.903058
492.495883	2509.486385
492.863440	2536.456558
493.230939	2507.217865
493.598380	2524.105731
493.965763	2545.782692
494.333088	2521.585154
494.700354	2531.415404
495.067563	2521.837212
495.434713	2512.006962
495.801805	2547.042981
496.168839	2504.193173
496.535815	2510.746673
496.902733	2513.771365
497.269593	2540.489481
497.636395	2534.944212
498.003139	2549.563558
498.369825	2535.196269
498.736453	2536.960673
499.103023	2547.042981
499.469535	2529.651000
499.835989	2523.349558
500.202385	2521.837212
500.568723	2532.171577
500.935003	2523.601615
501.301226	2537.716846
501.667390	2535.700385
502.033497	2527.886596
502.399546	2540.489481
502.765537	2567.711712
503.131470	2524.357788
503.497345	2557.881462
503.863163	2566.955538
504.228923	2543.766231
504.594625	2541.497712
504.960269	2527.130423
505.325856	2540.237423
505.691385	2536.708615
506.056856	2545.782692
506.422270	2540.489481
506.787625	2555.865000
507.152924	2549.311500
507.518164	2553.848538
507.883347	2563.426731
508.248472	2566.955538
508.613540	2575.021385
508.978550	2535.952442
509.343503	2586.363981
509.708398	2575.021385
510.073236	2570.736404
510.438016	2579.810481
510.802738	2595.942173
511.167403	2576.029615
511.532010	2560.654096
511.896561	2586.868096
512.261053	2605.016250
512.625488	2573.761096
512.989866	2590.144846
513.354186	2557.377346
513.718449	2597.958635
514.082655	2601.235385
514.446803	2590.396904
514.810894	2583.591346
515.174927	2586.111923
515.538904	2574.769327
515.902822	2607.788885
516.266684	2616.358846
516.630488	2603.251846
516.994235	2617.619135
517.357925	2592.917481
517.721558	2590.144846
518.085133	2626.945269
518.448651	2614.342385
518.812112	2614.594442
519.175516	2625.684981
519.538863	2616.358846
519.902152	2630.474077
520.265385	2628.205558
520.628560	2638.539923
520.991678	2622.156173
521.354739	2607.536827
521.717743	2638.035808
522.080690	2639.548154
522.443580	2645.345481
522.806413	2627.197327
523.169189	2610.813577
523.531908	2636.019346
523.894569	2643.581077
524.257174	2655.175731
524.619722	2634.254942
524.982213	2641.816673
525.344647	2645.345481
525.707025	2646.605769
526.069345	2647.361942
526.431608	2644.337250
526.793815	2654.923673
527.155964	2657.948365
527.518057	2653.663385
527.880093	2656.436019
528.242072	2674.836231
528.603995	2624.424692
528.965860	2678.112981
529.327669	2655.679846
529.689421	2665.762154
530.051117	2685.674712
530.412755	2648.622231
530.774337	2652.403096
531.135862	2681.893846
531.497331	2665.510096
531.858743	2688.195288
532.220098	2665.258038
532.581396	2666.014212
532.942638	2663.493635
533.303824	2658.956596
533.664953	2668.030673
534.026025	2658.200423
534.387040	2666.770385
534.747999	2649.882519
535.108902	2667.778615
535.469748	2669.543019
535.830537	2674.332115
536.191270	2670.047135
536.551947	2675.844462
536.912567	2649.630462
537.273131	2674.332115
537.633638	2677.356808
537.994089	2644.589308
538.354483	2684.414423
538.714821	2679.121212
539.075103	2698.277596
539.435328	2674.584173
539.795497	2653.159269
540.155609	2706.595500
540.515665	2670.299192
540.875665	2709.116077
541.235609	2726.003942
541.595496	2683.406192
541.955328	2678.112981
542.315102	2667.526558
542.674821	2673.828000
543.034483	2699.033769
543.394090	2688.699404
543.753640	2698.277596
544.113134	2721.971019
544.472571	2695.757019
544.831953	2684.918538
545.191278	2684.666481
545.550548	2683.406192
545.909761	2696.009077
546.268918	2686.935000
546.628019	2686.682942
546.987064	2699.285827
547.346053	2698.781712
547.704986	2694.244673
548.063863	2695.757019
548.422684	2697.269365
548.781449	2680.381500
549.140158	2701.806404
549.498811	2699.033769
549.857408	2722.475135
550.215949	2678.365038
550.574434	2702.058462
550.932864	2732.053327
551.291237	2711.132538
551.649555	2739.110942
552.007817	2707.855788
552.366022	2716.173692
552.724173	2701.302288
553.082267	2714.157231
553.440305	2726.508058
553.798288	2748.437077
554.156215	2740.119173
554.514086	2730.036865
554.871902	2732.053327
555.229661	2739.110942
555.587365	2750.453538
555.945014	2747.932962
556.302606	2758.015269
556.660143	2731.045096
557.017625	2740.875346
557.375050	2776.415481
557.732421	2774.903135
558.089735	2745.664442
558.446994	2796.832154
558.804197	2802.881538
559.161345	2775.659308
559.518437	2776.415481
559.875474	2803.385654
560.232455	2792.799231
560.589381	2850.772500
560.946251	2835.396981
561.303065	2810.191212
561.659825	2864.131558
562.016528	2859.090404
562.373177	2862.367154
562.729770	2860.602750
563.086307	2847.243692
563.442789	2899.923750
563.799216	2903.956673
564.155587	2902.948442
564.511904	2932.691250
564.868164	2971.256077
565.224370	2932.187135
565.580520	2951.091462
565.936615	2973.524596
566.292654	2951.343519
566.648638	2988.648058
567.004567	3009.316788
567.360441	2985.623365
567.716260	3004.023577
568.072023	3044.352808
568.427732	3073.339442
568.783385	3063.761250
569.138982	3102.074019
569.494525	3123.750981
569.850013	3140.134731
570.205445	3172.146058
570.560823	3199.620346
570.916145	3184.244827
571.271412	3230.119327
571.626625	3218.776731
571.981782	3273.473250
572.336884	3294.394038
572.691931	3311.281904
573.046923	3314.558654
573.401860	3355.139942
573.756743	3383.874519
574.111570	3417.902308
574.466342	3421.179058
574.821059	3446.636885
575.175722	3477.387923
575.530330	3543.679096
575.884882	3495.788135
576.239380	3552.501115
576.593823	3569.388981
576.948211	3633.411635
577.302544	3619.548462
577.656823	3667.691481
578.011047	3686.091692
578.365216	3730.705904
578.719330	3787.166827
579.073389	3825.731654
579.427394	3871.606154
579.781344	3888.241962
580.135239	3895.551635
580.489080	3975.705981
580.842866	3993.854135
581.196597	4044.265673
581.550273	4065.690577
581.903895	4154.414885
582.257463	4230.032192
582.610975	4251.961212
582.964434	4326.318231
583.317837	4345.978731
583.671186	4391.097058
584.024481	4396.894385
584.377721	4502.758615
584.730906	4576.359462
585.084037	4616.688692
585.437113	4667.100231
585.790135	4724.821442
586.143103	4762.630096
586.496016	4823.880115
586.848874	4859.168192
587.201679	4966.292712
587.554428	5012.167212
587.907124	5075.685750
588.259765	5097.866827
588.612352	5224.903904
588.964884	5223.643615
589.317362	5345.891596
589.669786	5403.864865
590.022155	5484.019212
590.374470	5568.710596
590.726731	5598.705462
591.078937	5641.051154
591.431090	5710.114962
591.783188	5817.995654
592.135232	5831.606769
592.487222	5927.640750
592.839157	5988.386654
593.191038	6076.102731
593.542866	6085.428865
593.894639	6132.815712
594.246358	6283.294154
594.598022	6382.352827
594.949633	6375.043154
595.301190	6446.375481
595.652692	6521.488673
596.004141	6606.936231
596.355535	6599.878615
596.706876	6708.011365
597.058162	6806.061808
597.409395	6906.884885
597.760573	7009.976481
598.111698	7039.971346
598.462768	7154.153481
598.813785	7243.381904
599.164748	7216.159673
599.515657	7402.430308
599.866511	7429.148423
600.217312	7549.379942
600.568060	7530.475615
600.918753	7722.039462
601.269392	7823.366654
601.619978	7868.484981
601.970510	7999.807038
602.320988	8120.794731
602.671412	8277.322558
603.021783	8348.402827
603.372100	8414.694000
603.722363	8479.220769
604.072572	8594.915250
604.422728	8768.078885
604.772830	8814.961615
605.122878	8938.469885
605.472872	9005.013115
605.822813	9148.686000
606.172701	9220.018327
606.522534	9402.760154
606.872314	9546.685096
607.222041	9681.283904
607.571714	9821.932096
607.921333	9779.838462
608.270899	9995.599846
608.620411	10130.702769
608.969870	10190.440442
609.319276	10287.734712
609.668627	10458.881885
610.017926	10671.618577
610.367171	10813.779115
610.716362	10903.259596
611.065500	11020.970538
611.414585	11170.944865
611.763616	11332.513846
612.112594	11504.417192
612.461518	11682.874038
612.810389	11825.790750
613.159207	11894.098385
613.507971	12129.016154
613.856682	12277.478135
614.205340	12397.205538
614.553945	12658.085250
614.902496	12669.427846
615.250994	12969.124442
615.599439	13140.019558
615.947830	13268.064865
616.296169	13408.713058
616.644454	13546.336558
616.992686	13727.818096
617.340864	13975.086692
617.688990	14044.402558
618.037063	14334.268904
618.385082	14480.966481
618.733048	14672.782385
619.080961	14841.408981
619.428821	14878.713519
619.776628	15123.965654
620.124382	15151.944058
620.472083	15396.440019
620.819731	15518.183885
621.167326	15561.537808
621.514868	15698.657192
621.862357	15718.821808
622.209793	15842.078019
622.557176	15756.378404
622.904506	15852.664442
623.251783	15995.581154
623.599007	15937.859942
623.946179	15993.060577
624.293297	16064.140846
624.640363	15927.021462
624.987376	16183.364135
625.334336	16125.642923
625.681243	16223.945423
626.028097	16210.586365
626.374899	16334.094635
626.721647	16362.577154
627.068343	16410.972231
627.414987	16482.052500
627.761577	16410.972231
628.108115	16692.268615
628.454600	16622.196577
628.801032	16744.444558
629.147412	16874.506327
629.493739	16976.085577
629.840014	17042.376750
630.186236	17151.265673
630.532405	17132.613404
630.878521	17318.127865
631.224585	17385.427269
631.570597	17404.331596
631.916556	17552.793577
632.262462	17663.446904
632.608316	17805.607442
632.954117	17818.966500
633.299866	17978.266962
633.645562	18004.480962
633.991206	17930.628058
634.336797	17832.073500
634.682336	17978.519019
635.027823	17915.504596
635.373257	17936.425385
635.718639	18082.618846
636.063968	18077.073577
636.409245	17839.887288
636.754470	18058.169250
637.099642	18076.569462
637.444762	17939.954192
637.789829	18065.478923
638.134845	18029.434673
638.479808	18105.808154
638.824719	18140.340058
639.169577	18007.505654
639.514383	18112.613712
639.859137	18144.372981
640.203839	18293.339077
640.548489	18156.723808
640.893086	18427.181712
641.237632	18283.004712
641.582125	18437.768135
641.926566	18493.472885
642.270955	18547.161173
642.615292	18716.796000
642.959576	18695.119038
643.303809	18775.021327
643.647990	18990.278596
643.992118	19153.611981
644.336195	19156.636673
644.680219	19192.176808
645.024192	19499.435135
645.368112	19634.538058
645.711981	19640.083327
646.055797	20223.596885
646.399562	20206.709019
646.743274	20797.532250
647.086935	21081.349212
647.430544	21039.255577
647.774101	21256.529308
648.117606	21484.137404
648.461059	21706.200231
648.804460	21750.814442
649.147810	21497.244404
649.491108	21676.205365
649.834354	21469.266000
650.177548	21264.847212
650.520690	21101.261769
650.863781	21134.029269
651.206820	21176.122904
651.549807	21020.351250
651.892742	20851.220538
652.235626	20759.219481
652.578458	20657.640231
652.921238	20546.230731
653.263967	20650.834673
653.606644	20553.540404
653.949269	20639.492077
654.291843	20420.201885
654.634365	20768.293558
654.976836	20595.381981
655.319255	20633.190635
655.661622	20704.018846
656.003938	20718.134077
656.346203	20656.884058
656.688416	20784.677308
657.030577	20693.180365
657.372687	20768.797673
657.714746	20945.994231
658.056753	20955.320365
658.398708	20840.634115
658.740612	20853.237000
659.082465	21122.686673
659.424266	20970.191769
659.766016	21190.490192
660.107715	21176.627019
660.449362	21408.268038
660.790958	21368.442923
661.132503	21511.359635
661.473996	21507.578769
661.815438	21565.804096
662.156829	21888.185885
662.498168	21733.674519
662.839456	21816.853558
663.180693	21779.044904
663.521879	22045.721942
663.863013	22124.111885
664.204097	22162.928769
664.545129	22403.643865
664.886110	22517.321885
665.227040	22501.190192
665.567918	22618.144962
665.908746	22755.516404
666.249522	22880.284962
666.590248	22977.579231
666.930922	23029.503115
667.271545	23099.071038
667.612118	23257.867385
667.952639	23178.217154
668.293109	23233.165731
668.633528	23392.466192
668.973896	23303.741885
669.314213	23333.232635
669.654480	23194.096788
669.994695	23267.697635
670.334859	23232.157500
670.674973	23368.016596
671.015035	23405.573192
671.355047	23436.576288
671.695008	23393.726481
672.034918	23289.626654
672.374777	23452.455923
672.714585	23362.723385
673.054342	23542.944635
673.394049	23395.742942
673.733705	23574.955962
674.073310	23481.190500
674.412864	23676.031096
674.752368	23374.318038
675.091820	23605.707000
675.431223	23481.694615
675.770574	23268.453808
676.109875	23256.859154
676.449125	23135.367346
676.788324	23153.263442
677.127473	22868.438250
677.466571	22881.545250
677.805619	22598.736519
678.144616	22697.291077
678.483562	22767.111058
678.822458	22390.032750
679.161303	22460.356846
679.500098	22373.649000
679.838842	22357.265250
680.177535	22429.857865
680.516179	22502.954596
680.854771	22583.613058
681.193314	23037.064846
681.531805	23522.780019
681.870247	23992.867615
682.208638	24552.435692
682.546978	25018.742423
682.885268	25315.918442
683.223508	25081.252731
683.561697	25036.386462
683.899836	24768.197077
684.237925	24409.518981
684.575963	24371.206212
684.913951	24003.706096
685.251889	23980.768846
685.589776	23941.195788
685.927614	23870.367577
686.265401	23857.764692
686.603137	23827.013654
686.940824	24112.595019
687.278460	24265.594038
687.616046	24215.434558
687.953582	24732.152827
688.291068	24506.057077
688.628504	24720.054058
688.965889	24926.993423
689.303224	24691.319481
689.640510	24620.995385
689.977745	24206.360481
690.314930	23843.901519
690.652065	23531.602038
690.989150	23122.764462
691.326185	22607.306481
691.663170	22171.246673
692.000105	21731.153942
692.336990	21246.699058
692.673825	21011.277173
693.010610	20624.872731
693.347345	20280.309865
693.684030	19860.129692
694.020665	19622.439288
694.357251	19107.737481
694.693786	19070.685000
695.030272	18868.282673
695.366707	18504.563423
695.703093	18273.678577
696.039429	18230.324654
696.375716	18032.459365
696.711952	17930.628058
697.048139	17796.533365
697.384276	17616.564173
697.720363	17766.034385
698.056400	17594.131038
698.392388	17416.430365
698.728326	17430.797654
699.064214	17272.253365
699.400053	17206.214250
699.735842	17056.744038
700.071581	16812.248077
700.407270	16603.292250
700.742910	16566.743885
701.078501	16390.051442
701.414042	16162.695404
701.749533	16076.239615
702.084974	15739.994654
702.420366	15842.330077
702.755709	15575.905096
703.091002	15412.823769
703.426246	15273.435865
703.761440	15230.586058
704.096584	15089.937865
704.431679	14984.073635
704.766725	14974.243385
705.101721	14854.515981
705.436668	14879.217635
705.771565	14666.228885
706.106413	14824.017000
706.441212	14762.262865
706.775961	14825.025231
707.110661	14920.303038
707.445311	14980.040712
707.779913	14890.560231
708.114465	14981.301000
708.448967	15085.400827
708.783421	15508.101577
709.117825	15622.535769
709.452180	15758.394865
709.786485	15944.413442
710.120742	16382.489712
710.454949	16369.634769
710.789107	16504.485635
711.123216	17030.530038
711.457275	17086.738904
711.791286	17503.390269
712.125247	17496.584712
712.459159	17396.013692
712.793023	17774.604346
713.126837	17211.507462
713.460602	17428.025019
713.794318	17206.970423
714.127985	16985.663769
714.461602	16479.531923
714.795171	16489.614231
715.128691	15738.482308
715.462162	15464.243538
715.795584	15282.257885
716.128957	15087.165231
716.462281	14809.397654
716.795556	14534.654769
717.128782	14210.256519
717.461960	13894.176173
717.795088	13835.194673
718.128167	13596.496038
718.461198	13222.190365
718.794180	13062.385788
719.127113	12877.375442
719.459997	12701.439173
719.792833	12435.770365
720.125619	12396.197308
720.458357	12173.630365
720.791046	11953.836058
721.123686	11884.016077
721.456278	11673.799962
721.788821	11622.632250
722.121315	11477.699077
722.453761	11404.602346
722.786158	11428.799885
723.118506	11387.966538
723.450805	11190.353308
723.783056	11319.406846
724.115259	11201.947962
724.447412	11157.333750
724.779518	11218.835827
725.111574	11259.669173
725.443582	11319.154788
725.775542	11301.762808
726.107453	11525.590038
726.439315	11376.623942
726.771129	11585.579769
727.102895	11772.102462
727.434612	11866.119981
727.766281	12007.020231
728.097901	12156.238385
728.429473	12198.079962
728.760996	12181.192096
729.092471	12222.781615
729.423897	12128.512038
729.755276	12014.077846
730.086606	12043.568596
730.417887	12222.277500
730.749120	12464.252885
731.080305	12628.594500
731.411442	12823.183038
731.742530	12919.217019
732.073570	12937.365173
732.404562	13118.846712
732.735506	13111.537038
733.066401	13103.723250
733.397249	12790.667596
733.728048	12506.094462
734.058798	11995.929692
734.389501	11553.820500
734.720156	11237.740154
735.050762	10817.812038
735.381320	10503.244038
735.711831	10405.193596
736.042293	10121.376635
736.372707	10026.855000
736.703073	9871.083346
737.033391	9965.604981
737.363661	9826.973250
737.693883	9853.943423
738.024056	9897.801462
738.354182	9953.002096
738.684260	10057.606038
739.014290	10133.475404
739.344272	10265.049519
739.674207	10441.489904
740.004093	10502.487865
740.333931	10531.474500
740.663722	10618.182346
740.993464	10607.091808
741.323159	10535.255365
741.652806	10402.673019
741.982405	10292.523808
742.311956	10108.521692
742.641460	10007.194500
742.970915	9851.170788
743.300323	9588.022558
743.629683	9493.500923
743.958996	9315.800250
744.288260	9120.959654
744.617477	8930.656096
744.946647	8895.620077
745.275768	8699.771250
745.604842	8604.241385
745.933869	8494.344231
746.262847	8371.592135
746.591778	8314.879154
746.920662	8215.316365
747.249498	8235.228923
747.578286	8178.515942
747.907027	8298.495404
748.235720	8360.501596
748.564365	8413.937827
748.892963	8343.865788
749.221514	8399.570538
749.550017	8312.610635
749.878473	8323.701173
750.206881	8149.277250
750.535242	8081.725788
750.863555	8039.632154
751.191821	7973.088923
751.520039	7941.077596
751.848210	7849.832712
752.176334	7898.227788
752.504411	7867.476750
752.832440	7770.686596
753.160421	7812.276115
753.488356	7674.148500
753.816243	7678.181423
754.144082	7527.198865
754.471875	7484.853173
754.799620	7505.017788
755.127318	7397.893269
755.454969	7377.980712
755.782572	7366.134000
756.110129	7367.142231
756.437638	7282.198788
756.765100	7226.494038
757.092515	7237.584577
757.419882	7241.869558
757.747203	7223.973462
758.074477	7266.067096
758.401703	7238.340750
758.728882	7300.094885
759.056014	7341.180288
759.383099	7310.429250
759.710138	7425.115500
760.037129	7464.436500
760.364073	7503.505442
760.690970	7437.466327
761.017820	7437.970442
761.344623	7494.935481
761.671379	7601.807942
761.998088	7675.408788
762.324751	8071.139365
762.651366	8970.733269
762.977935	10578.105173
763.304456	12063.481154
763.630931	13227.987692
763.957359	13297.051500
764.283740	12613.471038
764.610074	11683.882269
764.936362	10650.445731
765.262602	9713.547288
765.588796	8898.644769
765.914943	8225.146615
766.241044	7707.420115
766.567097	7264.806808
766.893104	6889.240846
767.219064	6649.533981
767.544978	6463.767462
767.870845	6300.686135
768.196665	6173.649058
768.522438	6009.559500
768.848165	5903.191154
769.173846	5842.193192
769.499479	5774.641731
769.825066	5638.782635
770.150607	5542.244538
770.476101	5528.885481
770.801548	5467.635462
771.126949	5375.634404
771.452303	5304.806192
771.777611	5248.345269
772.102872	5212.048962
772.428087	5171.971788
772.753256	5116.771154
773.078378	5038.129154
773.403453	4988.977904
773.728482	4916.637346
774.053465	4906.555038
774.378401	4818.586904
774.703291	4779.013846
775.028135	4705.665058
775.352932	4718.015885
775.677683	4666.596115
776.002388	4585.685596
776.327046	4627.023058
776.651658	4553.674269
776.976224	4508.051827
777.300743	4514.857385
777.625216	4447.557981
777.949643	4445.037404
778.274024	4432.434519
778.598359	4374.965365
778.922647	4392.861462
779.246889	4400.675250
779.571086	4390.088827
779.895236	4371.184500
780.219339	4377.233885
780.543397	4362.110423
780.867409	4361.606308
781.191374	4405.464346
781.515294	4405.968462
781.839167	4405.464346
782.162995	4337.660827
782.486776	4345.726673
782.810511	4342.449923
783.134201	4296.071308
783.457844	4265.572327
783.781441	4260.279115
784.104993	4260.279115
784.428498	4217.177250
784.751958	4229.780135
785.075372	4203.818192
785.398739	4160.716327
785.722061	4174.075385
786.045337	4186.426212
786.368568	4205.834654
786.691752	4204.322308
787.014891	4260.783231
787.337983	4338.164942
787.661030	4503.010673
787.984031	4664.579654
788.306987	4859.672308
788.629897	4963.015962
788.952760	4959.487154
789.275579	4937.054019
789.598351	4844.296788
789.921078	4703.396538
790.243759	4587.702058
790.566395	4474.024038
790.888984	4384.291500
791.211529	4261.287346
791.534027	4192.223538
791.856480	4165.757481
792.178888	4065.186462
792.501249	4036.956000
792.823566	4007.969365
793.145836	3963.103096
793.468062	3961.086635
793.790241	3945.711115
794.112375	3946.971404
794.434464	3977.218327
794.756507	3997.887058
795.078505	3993.097962
795.400457	4094.173096
795.722364	4172.310981
796.044226	4282.460192
796.366042	4352.784288
796.687812	4373.957135
797.009538	4430.166000
797.331218	4369.672154
797.652852	4382.527096
797.974442	4318.756500
798.295986	4298.843942
798.617484	4200.793500
798.938938	4150.634019
799.260346	4139.795538
799.581709	4076.781115
799.903026	4028.386038
800.224299	3992.341788
800.545526	3919.245058
800.866708	3923.782096
801.187845	3898.324269
801.508936	3853.458000
801.829983	3858.751212
802.150984	3767.002212
802.471940	3773.303654
802.792851	3735.495000
803.113717	3721.883885
803.434538	3753.643154
803.755314	3768.766615
804.076045	3727.429154
804.396731	3670.716173
804.717372	3717.346846
805.037967	3674.497038
805.358518	3685.335519
805.679024	3691.889019
805.999485	3731.210019
806.319901	3741.292327
806.640272	3742.048500
806.960598	3744.821135
807.280879	3712.053635
807.601115	3774.059827
807.921306	3712.053635
808.241453	3731.210019
808.561554	3753.895212
808.881611	3769.270731
809.201623	3767.002212
809.521590	3722.892115
809.841513	3706.508365
810.161390	3711.549519
810.481223	3700.206923
810.801011	3694.661654
811.120755	3688.108154
811.440453	3653.576250
811.760107	3582.243923
812.079716	3618.036115
812.399281	3611.986731
812.718801	3594.594750
813.038276	3532.084442
813.357707	3579.219231
813.677093	3571.909558
813.996434	3520.237731
814.315731	3518.221269
814.634983	3513.936288
814.954191	3538.890000
815.273354	3535.865308
815.592473	3570.145154
815.911547	3596.107096
816.230577	3603.416769
816.549562	3638.452788
816.868502	3664.162673
817.187399	3667.943538
817.506250	3680.042308
817.825058	3722.135942
818.143821	3755.911673
818.462539	3815.397288
818.781213	3891.770769
819.099843	3974.445692
819.418429	4169.790404
819.736970	4405.716404
820.055466	4658.278212
820.373919	4993.262885
820.692327	5377.902923
821.010691	5999.225135
821.329011	7535.516769
821.647286	10711.443692
821.965517	15993.060577
822.283704	21052.362577
822.601847	24355.074519
822.919945	23510.681250
823.237999	21034.214423
823.556010	18279.475904
823.873976	15475.838192
824.191897	13130.189308
824.509775	11393.763865
824.827609	9784.879615
825.145398	8681.118981
825.463144	7998.042635
825.780845	7703.135135
826.098502	7790.347096
826.416116	8349.663115
826.733685	9488.207712
827.051210	10300.841712
827.368692	10392.086596
827.686129	9682.292135
828.003522	8613.315462
828.320872	7521.905654
828.638177	6654.827192
828.955439	6016.869173
829.272656	5477.717769
829.589830	5059.554058
829.906960	4632.064212
830.224046	4344.970500
830.541088	4126.688538
830.858086	4003.936442
831.175041	3854.466231
831.491952	3791.451808
831.808819	3746.585538
832.125642	3803.802635
832.442421	3880.680231
832.759157	4117.866519
833.075849	4649.456192
833.392497	5402.352519
833.709101	6141.133615
834.025662	6516.195462
834.342179	6413.103865
834.658653	5899.158231
834.975083	5360.006827
835.291469	4912.352365
835.607811	4565.520981
835.924110	4330.099096
836.240366	4069.219385
836.556578	3880.428173
836.872746	3680.546423
837.188871	3550.484654
837.504952	3397.485635
837.820990	3315.566885
838.136984	3268.684154
838.452935	3254.568923
838.768842	3194.831250
839.084706	3234.656365
839.400526	3390.680077
839.716303	3706.508365
840.032037	4025.613404
840.347727	4233.813058
840.663373	4156.179288
840.978977	3918.488885
841.294537	3673.488808
841.610054	3511.667769
841.925527	3365.222250
842.240957	3277.254115
842.556344	3216.508212
842.871687	3110.896038
843.186987	3055.191288
843.502244	3013.097654
843.817458	2969.995788
844.132629	2909.249885
844.447756	2908.241654
844.762840	2872.449462
845.077881	2872.449462
845.392879	2828.339365
845.707833	2834.388750
846.022745	2795.067750
846.337613	2795.319808
846.652438	2805.906231
846.967221	2801.873308
847.281960	2777.927827
847.596656	2793.303346
847.911309	2770.366096
848.225919	2778.431942
848.540485	2769.357865
848.855009	2781.456635
849.169490	2748.437077
849.483928	2743.647981
849.798323	2747.680904
850.112675	2765.829058
850.426984	2730.036865
850.741251	2741.631519
851.055474	2747.680904
851.369654	2699.537885
851.683792	2732.053327
851.997887	2733.817731
852.311938	2731.549212
852.625947	2734.069788
852.939914	2742.639750
853.253837	2754.234404
853.567718	2723.483365
853.881555	2725.499827
854.195350	2743.647981
854.509103	2718.694269
854.822812	2729.532750
855.136479	2715.165462
855.450103	2742.135635
855.763685	2716.677808
856.077224	2721.971019
856.390720	2720.710731
856.704173	2715.165462
857.017584	2739.615058
857.330953	2729.784808
857.644278	2745.412385
857.957561	2753.478231
858.270802	2755.746750
858.584000	2721.214846
858.897155	2746.168558
859.210268	2736.590365
859.523339	2717.181923
859.836367	2684.162365
860.149352	2744.404154
860.462295	2717.686038
860.775195	2726.256000
861.088054	2748.941192
861.400869	2727.516288
861.713642	2716.173692
862.026373	2717.433981
862.339062	2725.499827
862.651708	2729.028635
862.964312	2714.409288
863.276873	2712.896942
863.589392	2725.247769
863.901869	2759.023500
864.214303	2741.379462
864.526696	2765.577000
864.839045	2785.489558
865.151353	2789.018365
865.463619	2772.130500
865.775842	2787.506019
866.088023	2784.733385
866.400162	2763.560538
866.712258	2782.212808
867.024313	2781.456635
867.336325	2776.163423
867.648296	2768.853750
867.960224	2790.782769
868.272110	2795.571865
868.583954	2788.262192
868.895755	2781.960750
869.207515	2776.163423
869.519233	2783.977212
869.830909	2764.064654
870.142542	2764.568769
870.454134	2794.059519
870.765684	2791.034827
871.077191	2809.687096
871.388657	2801.873308
871.700081	2809.687096
872.011463	2828.339365
872.322803	2805.906231
872.634101	2853.797192
872.945357	2851.528673
873.256571	2872.953577
873.567744	2865.643904
873.878874	2865.139788
874.189963	2865.895962
874.501010	2860.098635
874.812015	2874.717981
875.122979	2879.255019
875.433900	2870.685058
875.744780	2856.065712
876.055618	2858.586288
876.366415	2879.255019
876.677169	2901.940212
876.987882	2870.937115
877.298554	2888.077038
877.609183	2864.131558
877.919771	2893.370250
878.230317	2903.956673
878.540822	2931.935077
878.851285	2979.321923
879.161707	3036.791077
879.472087	3107.619288
879.782425	3247.007192
880.092722	3493.015500
880.402977	4026.117519
880.713191	4918.149692
881.023363	6261.617192
881.333494	7429.652538
881.643583	8222.626038
881.953631	8253.629135
882.263637	7872.769962
882.573602	7280.938500
882.883526	6851.936308
883.193408	6303.962885
883.503248	5887.059462
883.813048	5466.879288
884.122806	5140.716635
884.432522	4766.915077
884.742197	4415.798712
885.051831	4156.683404
885.361424	3897.568096
885.670975	3665.170904
885.980485	3503.853981
886.289954	3406.055596
886.599382	3318.591577
886.908768	3228.354923
887.218113	3132.573000
887.527417	3099.301385
887.836680	3011.081192
888.145901	3007.300327
888.455082	2962.182000
888.764221	2923.617173
889.073319	2893.118192
889.382376	2870.433000
889.691392	2863.627442
890.000366	2852.284846
890.309300	2853.797192
890.618193	2843.462827
890.927044	2836.405212
891.235855	2847.747808
891.544625	2848.756038
891.853353	2855.309538
892.162041	2877.742673
892.470687	2907.233423
892.779293	2915.803385
893.087858	2961.677885
893.396381	3085.942327
893.704864	3135.345635
894.013306	3314.810712
894.321707	3503.097808
894.630068	3695.165769
894.938387	3831.024865
895.246665	3823.211077
895.554903	3730.201788
895.863100	3613.247019
896.171256	3516.708923
896.479371	3465.793269
896.787446	3344.301462
897.095480	3266.163577
897.403473	3156.770538
897.711425	3129.296250
898.019336	3072.583269
898.327207	3015.870288
898.635038	2979.069865
898.942827	2970.499904
899.250576	2925.381577
899.558284	2895.638769
899.865952	2841.446365
900.173579	2840.438135
900.481165	2813.215904
900.788711	2807.166519
901.096216	2778.936058
901.403681	2797.084212
901.711105	2739.363000
902.018489	2762.048192
902.325832	2745.160327
902.633135	2784.229269
902.940397	2806.410346
903.247619	2851.024558
903.554800	3002.259173
903.861941	3345.813808
904.169041	3681.050538
904.476101	3936.384981
904.783121	3986.040346
905.090100	3906.138058
905.397039	3720.371538
905.703938	3580.479519
906.010796	3437.310750
906.317614	3342.032942
906.624391	3240.957808
906.931129	3156.518481
907.237826	3066.785942
907.544483	3005.535923
907.851099	2930.422731
908.157675	2867.912423
908.464211	2818.257058
908.770707	2741.631519
909.077163	2716.677808
909.383578	2704.579038
909.689954	2683.910308
909.996289	2670.803308
910.302584	2657.948365
910.608839	2648.118115
910.915054	2652.403096
911.221229	2649.630462
911.527363	2648.622231
911.833458	2634.759058
912.139513	2655.427788
912.445527	2629.717904
912.751502	2668.282731
913.057436	2698.781712
913.363331	2676.600635
913.669186	2709.116077
913.975000	2736.842423
914.280775	2776.667538
914.586510	2829.347596
914.892205	2933.699481
915.197859	3079.388827
915.503475	3289.100827
915.809050	3465.289154
916.114585	3663.658558
916.420081	3758.936365
916.725536	3726.420923
917.030952	3695.417827
917.336328	3611.986731
917.641665	3570.901327
917.946961	3465.037096
918.252218	3418.910538
918.557435	3301.451654
918.862612	3245.242788
919.167750	3212.475288
919.472848	3096.528750
919.777906	3055.443346
920.082925	2980.834269
920.387904	2938.992692
920.692843	2871.693288
920.997743	2855.561596
921.302603	2778.936058
921.607423	2777.423712
921.912204	2747.680904
922.216946	2730.288923
922.521647	2729.532750
922.826310	2691.976154
923.130932	2715.669577
923.435516	2680.885615
923.740059	2680.381500
924.044564	2648.874288
924.349028	2647.866058
924.653454	2630.978192
924.957840	2621.400000
925.262186	2609.049173
925.566493	2612.325923
925.870761	2582.835173
926.174989	2578.298135
926.479178	2595.942173
926.783328	2568.719942
927.087438	2571.240519
927.391509	2591.405135
927.695541	2560.654096
927.999533	2552.588250
928.303486	2544.270346
928.607400	2546.286808
928.911275	2558.637635
929.215110	2542.253885
929.518906	2557.125288
929.822663	2541.245654
930.126381	2569.728173
930.430060	2571.492577
930.733699	2543.514173
931.037299	2543.010058
931.340861	2541.245654
931.644383	2545.530635
931.947866	2563.930846
932.251309	2564.939077
932.554714	2562.670558
932.858080	2535.196269
933.161407	2539.481250
933.464694	2547.295038
933.767943	2582.079000
934.071153	2522.089269
934.374323	2560.906154
934.677455	2554.352654
934.980548	2534.440096
935.283602	2546.034750
935.586617	2547.295038
935.889593	2571.996692
936.192530	2546.538865
936.495428	2525.366019
936.798287	2561.158212
937.101108	2538.473019
937.403890	2550.571788
937.706632	2566.451423
938.009336	2560.906154
938.312002	2563.930846
938.614628	2607.032712
938.917216	2594.681885
939.219765	2580.062538
939.522275	2612.830038
939.824747	2611.065635
940.127179	2621.652058
940.429573	2597.202462
940.731929	2616.106788
941.034246	2581.574885
941.336524	2563.930846
941.638763	2586.868096
941.940964	2588.884558
942.243126	2567.459654
942.545250	2575.777558
942.847335	2587.120154
943.149381	2580.818712
943.451389	2558.637635
943.753359	2586.111923
944.055290	2606.780654
944.357182	2585.859865
944.659036	2556.117058
944.960851	2560.654096
945.262628	2543.514173
945.564367	2547.295038
945.866067	2541.749769
946.167729	2558.637635
946.469352	2547.547096
946.770937	2563.678788
947.072484	2541.245654
947.373992	2556.369115
947.675462	2535.952442
947.976893	2520.072808
948.278286	2552.336192
948.579641	2558.133519
948.880958	2524.609846
949.182236	2558.889692
949.483476	2565.695250
949.784678	2559.645865
950.085841	2520.576923
950.386967	2553.848538
950.688054	2527.382481
950.989103	2542.253885
951.290114	2518.308404
951.591087	2575.273442
951.892021	2553.848538
952.192917	2576.785788
952.493776	2569.224058
952.794596	2596.698346
953.095378	2544.018288
953.396122	2553.596481
953.696828	2564.182904
953.997496	2577.794019
954.298126	2582.079000
954.598718	2595.690115
954.899272	2545.782692
955.199788	2517.552231
955.500266	2563.930846
955.800706	2555.865000
956.101108	2547.799154
956.401472	2545.530635
956.701798	2540.237423
957.002087	2515.787827
957.302337	2531.667462
957.602550	2526.626308
957.902724	2548.555327
958.202861	2528.642769
958.502960	2538.725077
958.803022	2495.371154
959.103045	2494.867038
959.403031	2480.751808
959.702979	2519.568692
960.002889	2504.445231
960.302762	2509.738442
960.602596	2516.544000
960.902393	2503.689058
961.202153	2498.647904
961.501875	2493.102635
961.801559	2503.941115
962.101205	2502.428769
962.400814	2518.056346
962.700385	2495.875269
962.999918	2486.549135
963.299414	2484.280615
963.598873	2470.921558
963.898293	2500.160250
964.197677	2515.535769
964.497022	2473.694192
964.796331	2487.305308
965.095601	2481.255923
965.394835	2479.491519
965.694030	2525.618077
965.993189	2480.247692
966.292309	2476.214769
966.591393	2490.834115
966.890439	2522.341327
967.189447	2494.362923
967.488419	2523.349558
967.787353	2498.395846
968.086249	2483.524442
968.385108	2501.672596
968.683930	2487.053250
968.982714	2499.656135
969.281462	2536.204500
969.580172	2509.234327
969.878844	2507.974038
970.177480	2488.565596
970.476078	2464.116000
970.774639	2494.362923
971.073162	2499.152019
971.371649	2481.003865
971.670098	2515.535769
971.968510	2485.540904
972.266885	2500.916423
972.565223	2478.231231
972.863524	2485.540904
973.161788	2499.404077
973.460014	2506.713750
973.758204	2502.932885
974.056356	2494.110865
974.354471	2508.226096
974.652550	2493.102635
974.950591	2497.891731
975.248595	2514.275481
975.546563	2484.784731
975.844493	2512.259019
976.142386	2485.288846
976.440243	2504.697288
976.738062	2495.119096
977.035845	2471.425673
977.333590	2493.354692
977.631299	2508.982269
977.928971	2499.152019
978.226606	2465.124231
978.524204	2486.801192
978.821765	2496.631442
979.119290	2475.206538
979.416777	2506.965808
979.714228	2507.974038
980.011642	2478.483288
980.309020	2489.069712
980.606360	2489.069712
980.903664	2514.023423
981.200931	2525.366019
981.498162	2516.796058
981.795356	2528.138654
982.092513	2532.927750
982.389633	2531.919519
982.686717	2549.563558
982.983764	2580.314596
983.280775	2586.616038
983.577749	2576.281673
983.874686	2618.123250
984.171587	2564.687019
984.468451	2588.128385
984.765279	2572.500808
985.062070	2560.402038
985.358824	2539.733308
985.655543	2510.494615
985.952224	2548.807385
986.248869	2532.423635
986.545478	2511.250788
986.842050	2517.804288
987.138586	2502.680827
987.435086	2513.267250
987.731549	2492.850577
988.027975	2506.965808
988.324366	2463.611885
988.620719	2492.346462
988.917037	2504.445231
989.213318	2498.143788
989.509563	2477.727115
989.805772	2474.450365
990.101944	2523.097500
990.398080	2486.801192
990.694180	2502.176712
990.990244	2461.343365
991.286271	2482.516212
991.582262	2491.590288
991.878217	2509.486385
992.174136	2493.354692
992.470019	2492.850577
992.765865	2485.036788
993.061676	2505.705519
993.357450	2486.549135
993.653188	2479.743577
993.948890	2477.727115
994.244556	2504.697288
994.540186	2501.672596
994.835780	2488.565596
995.131337	2498.395846
995.426859	2497.891731
995.722345	2525.870135
996.017795	2496.883500
996.313208	2509.234327
996.608586	2538.977135
996.903928	2523.601615
997.199234	2520.576923
997.494504	2534.944212
997.789738	2539.481250
998.084936	2562.922615
998.380099	2494.110865
998.675225	2495.119096
998.970316	2527.382481
999.265371	2506.209635
999.560390	2526.878365
999.855373	2487.053250
1000.150320	2498.143788
1000.445232	2499.152019
1000.740108	2493.858808
1001.034948	2488.061481
1001.329752	2490.077942
1001.624521	2485.036788
1001.919254	2464.872173
1002.213951	2481.255923
1002.508613	2490.834115
1002.803239	2458.822788
1003.097829	2493.354692
1003.392384	2489.321769
1003.686903	2487.053250
1003.981386	2462.603654
1004.275834	2474.954481
1004.570246	2468.148923
1004.864623	2485.288846
1005.158964	2479.743577
1005.453270	2481.507981
1005.747540	2452.521346
1006.041775	2493.354692
1006.335974	2497.891731
1006.630138	2474.702423
1006.924266	2461.091308
1007.218359	2466.384519
1007.512416	2460.587192
1007.806438	2476.214769
1008.100425	2472.433904
1008.394376	2476.718885
1008.688292	2469.913327
1008.982172	2453.781635
1009.276017	2508.478154
1009.569827	2469.157154
1009.863602	2479.239462
1010.157341	2483.776500
1010.451045	2476.214769
1010.744714	2455.293981
1011.038347	2496.631442
1011.331945	2441.934923
1011.625508	2479.491519
1011.919036	2493.606750
1012.212528	2481.255923
1012.505986	2474.198308
1012.799408	2468.400981
1013.092795	2485.792962
1013.386147	2464.116000
1013.679464	2459.326904
1013.972745	2466.636577
1014.265992	2473.190077
1014.559204	2476.718885
1014.852380	2469.661269
1015.145521	2474.450365
1015.438628	2461.091308
1015.731699	2494.362923
1016.024736	2468.905096
1016.317737	2483.524442
1016.610703	2455.041923
1016.903635	2460.587192
1017.196531	2496.631442
1017.489393	2495.119096
1017.782219	2453.529577
1018.075011	2478.735346
1018.367768	2469.157154
1018.660490	2479.743577
1018.953177	2479.743577
1019.245829	2479.743577
