Dividing Wavelength (nm)	Counts (n)	Slit_number_18_of_a_total_of_40	
326.493990	2036.903417
326.888308	2036.903417
327.282561	2036.903417
327.676750	2017.242917
328.070874	2024.804648
328.464933	2024.603002
328.858929	2032.769671
329.252859	2045.725437
329.646726	2061.630277
330.040528	2070.074210
330.434265	2084.265058
330.827938	2118.393669
331.221547	2129.156533
331.615091	2152.144194
332.008571	2171.325785
332.401986	2197.766637
332.795338	2214.679708
333.188625	2233.785681
333.581847	2256.470873
333.975006	2267.460588
334.368100	2292.011008
334.761129	2301.589200
335.154095	2320.543938
335.546996	2333.776967
335.939833	2355.680781
336.332606	2362.889631
336.725315	2382.802188
337.117960	2382.928217
337.510540	2394.850546
337.903056	2408.461662
338.295508	2412.469379
338.687896	2417.888619
339.080220	2424.164856
339.472480	2426.206523
339.864676	2431.398912
340.256807	2428.399425
340.648875	2440.725046
341.040879	2434.322781
341.432818	2442.917948
341.824694	2440.624223
342.216506	2442.212187
342.608253	2439.868050
342.999937	2436.238419
343.391557	2433.112904
343.783113	2438.758996
344.174605	2431.373706
344.566033	2430.945208
344.957397	2431.499735
345.348697	2425.979671
345.739934	2435.709098
346.131106	2417.737385
346.522215	2421.014135
346.913260	2422.173600
347.304241	2417.031623
347.695159	2419.678229
348.086012	2419.022879
348.476802	2412.343350
348.867528	2416.325862
349.258191	2413.351581
349.648789	2408.461662
350.039324	2409.621127
350.429796	2408.159192
350.820203	2398.253325
351.210548	2411.662794
351.600828	2410.276477
351.991045	2409.243040
352.381198	2401.756927
352.771288	2410.150448
353.161314	2414.359812
353.551276	2409.721950
353.941175	2402.966804
354.331010	2406.823287
354.720782	2412.192115
355.110490	2404.857237
355.500135	2402.286248
355.889717	2409.318658
356.279235	2400.673079
356.668689	2410.604152
357.058080	2409.822773
357.447408	2401.580487
357.836672	2406.419994
358.225873	2402.865981
358.615010	2412.998700
359.004084	2417.434915
359.393095	2423.358271
359.782043	2412.116498
360.170927	2414.410223
360.559748	2416.225038
360.948505	2416.351067
361.337199	2420.787283
361.725830	2420.434402
362.114398	2418.594381
362.502903	2407.478637
362.891344	2413.175140
363.279722	2412.494585
363.668037	2414.385017
364.056289	2422.072777
364.444478	2422.476069
364.832603	2423.131419
365.220665	2426.256935
365.608665	2417.838208
365.996601	2419.199319
366.384474	2416.275450
366.772284	2426.256935
367.160031	2412.570202
367.547715	2423.257448
367.935336	2423.711152
368.322893	2429.659713
368.710388	2421.064546
369.097820	2418.266706
369.485189	2418.493558
369.872495	2432.633994
370.259738	2424.416913
370.646918	2417.460121
371.034035	2420.812488
371.421090	2429.936977
371.808081	2431.701381
372.195010	2423.685946
372.581875	2427.391194
372.968678	2428.323808
373.355418	2421.694690
373.742096	2435.835127
374.128710	2427.416400
374.515262	2424.996646
374.901751	2420.409196
375.288177	2427.113931
375.674540	2422.803744
376.060841	2430.163829
376.447079	2421.795513
376.833254	2426.912285
377.219367	2422.954979
377.605417	2426.761050
377.991404	2427.441606
378.377329	2423.307860
378.763191	2423.635535
379.148991	2425.021852
379.534727	2437.574325
379.920402	2422.450863
380.306013	2428.399425
380.691563	2423.484300
381.077049	2431.978644
381.462474	2425.299115
381.847835	2435.457040
382.233134	2427.189548
382.618371	2430.894796
383.003545	2438.784202
383.388657	2438.355704
383.773706	2436.843358
384.158693	2430.869590
384.543618	2434.196752
384.928480	2436.263625
385.313280	2431.323294
385.698017	2433.112904
386.082692	2435.356217
386.467305	2440.094902
386.851856	2423.030596
387.236344	2439.515169
387.620770	2430.793973
388.005133	2430.037800
388.389435	2428.802717
388.773674	2431.247677
389.157851	2440.548606
389.541965	2425.803231
389.926018	2434.801690
390.310008	2440.548606
390.693936	2436.490477
391.077802	2439.162288
391.461606	2437.297062
391.845348	2434.347987
392.229027	2443.598504
392.612645	2432.760023
392.996200	2441.708071
393.379694	2438.632967
393.763125	2446.875254
394.146494	2444.127825
394.529801	2448.085131
394.913047	2434.373192
395.296230	2443.598504
395.679351	2440.397371
396.062410	2442.161775
396.445408	2447.026488
396.828343	2448.362394
397.211217	2432.306319
397.594028	2445.589760
397.976778	2437.221444
398.359466	2444.480706
398.742092	2436.339242
399.124656	2452.975050
399.507158	2448.311983
399.889598	2450.731737
400.271977	2447.656633
400.654294	2442.489450
401.036549	2442.741508
401.418742	2447.681838
401.800874	2442.161775
402.182944	2446.724019
402.564952	2454.588219
402.946898	2451.689556
403.328783	2443.800150
403.710606	2455.117540
404.092367	2446.245110
404.474067	2457.285237
404.855705	2451.613938
405.237282	2443.951385
405.618797	2448.211160
406.000250	2451.336675
406.381642	2452.521346
406.762972	2446.547579
407.144240	2445.841817
407.525447	2449.219390
407.906593	2443.094388
408.287677	2447.707044
408.668700	2452.748198
409.049661	2459.805813
409.430560	2454.159721
409.811399	2458.696760
410.192176	2455.016717
410.572891	2460.637604
410.953545	2464.821762
411.334138	2451.462704
411.714669	2451.765173
412.095139	2454.563013
412.475547	2467.695219
412.855894	2456.075360
413.236180	2465.250260
413.616405	2463.334621
413.996568	2466.838223
414.376670	2464.443675
414.756711	2469.862915
415.136691	2471.425673
415.516609	2473.038842
415.896466	2464.846967
416.276262	2473.316106
416.655997	2474.752835
417.035670	2473.795015
417.415283	2474.072279
417.794834	2491.388642
418.174324	2486.649958
418.553753	2488.464773
418.933121	2489.246152
419.312428	2498.622698
419.691674	2494.236894
420.070859	2497.085146
420.449983	2508.755417
420.829045	2522.795031
421.208047	2531.642256
421.586988	2546.992569
421.965867	2556.091852
422.344686	2569.955025
422.723444	2596.496700
423.102141	2593.900506
423.480777	2623.214815
423.859352	2644.866571
424.237866	2677.281190
424.616319	2706.469471
424.994712	2744.252919
425.373044	2762.879983
425.751314	2819.164465
426.129524	2840.085254
426.507673	2902.545150
426.885762	2945.168106
427.263789	3004.351252
427.641756	3068.928433
428.019662	3120.045733
428.397508	3192.789583
428.775292	3259.811723
429.153016	3327.993329
429.530679	3417.725867
429.908282	3486.537617
430.285824	3556.307187
430.663305	3701.568035
431.040726	3755.155500
431.418086	3844.635981
431.795385	3976.184890
432.172624	4132.410248
432.549802	4202.860373
432.926920	4323.066687
433.303977	4433.014252
433.680974	4563.958223
434.057910	4728.627513
434.434786	4851.556050
434.811601	4985.020598
435.188355	5260.670890
435.565050	5332.910625
435.941683	5469.626717
436.318257	5738.647892
436.694770	5864.475092
437.071222	6111.516837
437.447614	6089.008085
437.823946	6213.070881
438.200218	6394.880094
438.576429	6473.849769
438.952580	6654.146637
439.328670	6783.250587
439.704700	7000.221848
440.080670	7043.626183
440.456580	7303.850544
440.832429	7466.301727
441.208218	7345.515681
441.583947	7557.697846
441.959616	7705.101185
442.335224	7884.162969
442.710773	8040.766413
443.086261	8307.140983
443.461689	8220.307108
443.837057	8366.172894
444.212365	8668.667331
444.587612	8759.231660
444.962800	8739.319102
445.337927	8951.274415
445.712995	8617.701265
446.088002	9304.860946
446.462949	9440.266338
446.837837	9569.168642
447.212664	9594.399617
447.587431	10516.804742
447.962139	11601.484610
448.336786	12634.089358
448.711374	12288.367027
449.085901	11013.383602
449.460369	10997.503967
449.834776	10914.576987
450.209124	11759.953281
450.583412	11621.523196
450.957640	11915.598906
451.331808	11467.793210
451.705917	10909.107335
452.079965	10861.720488
452.453954	10976.482356
452.827883	10883.221010
453.201752	10789.934458
453.575562	10810.704012
453.949311	11128.271498
454.323001	11069.390821
454.696632	10920.500342
455.070202	11370.624969
455.443713	11358.753052
455.817164	11456.576642
456.190556	11570.027810
456.563888	11335.614156
456.937160	11405.963458
457.310373	10760.292473
457.683526	10766.266240
458.056619	10631.667433
458.429653	10502.765129
458.802628	10533.717813
459.175542	10433.575292
459.548398	10688.582060
459.921194	10992.034315
460.293930	11025.532783
460.666607	11466.709362
461.039224	11801.467183
461.411782	11806.785600
461.784280	11344.889879
462.156719	11081.111504
462.529099	10771.156160
462.901419	10230.668850
463.273680	9776.234037
463.645882	9634.501996
464.018024	9418.891846
464.390106	9413.018902
464.762130	9808.371392
465.134094	10476.475512
465.505999	11485.588483
465.877845	12363.782688
466.249631	12533.291487
466.621358	11942.165787
466.993026	11257.098185
467.364634	10539.615963
467.736184	9905.766485
468.107674	9424.563144
468.479105	9050.811998
468.850477	8742.041325
469.221790	8313.996952
469.593043	7833.625402
469.964238	7497.380440
470.335373	7283.937987
470.706449	7310.353633
471.077467	7446.716844
471.448425	7872.643933
471.819324	8162.459867
472.190164	7800.177346
472.560945	7170.990935
472.931667	6603.810715
473.302330	6293.477285
473.672934	6028.110946
474.043479	5927.842396
474.413965	5700.662798
474.784393	5518.147823
475.154761	5470.760977
475.525070	5328.650850
475.895321	5162.872506
476.265513	5089.523717
476.635645	5025.274212
477.005719	4894.279829
477.375734	4800.640396
477.745691	4732.080704
478.115588	4708.488104
478.485427	4690.743242
478.855207	4764.495323
479.224928	4824.787523
479.594591	4798.976815
479.964194	4626.115650
480.333739	4500.817771
480.703226	4381.846540
481.072653	4306.934994
481.442022	4237.644335
481.811333	4152.852127
482.180584	4018.858258
482.549777	3915.943102
482.918912	3821.749142
483.287988	3731.814958
483.657005	3648.963594
484.025964	3564.322621
484.394864	3509.676513
484.763706	3436.957869
485.132489	3366.180069
485.501213	3320.582833
485.869879	3269.994854
486.238487	3225.809140
486.607036	3189.739685
486.975527	3144.823004
487.343959	3113.920731
487.712333	3091.941300
488.080648	3063.408369
488.448905	3048.965463
488.817104	3011.862571
489.185244	2999.310098
489.553326	2999.763802
489.921350	3006.065244
490.289315	3015.996317
490.657222	3010.652694
491.025070	2983.657315
491.392861	2975.238588
491.760593	2935.665531
492.128267	2915.173240
492.495883	2877.515821
492.863440	2851.654702
493.230939	2828.314160
493.598380	2800.865077
493.965763	2791.337296
494.333088	2770.492125
494.700354	2753.301790
495.067563	2748.941192
495.434713	2731.876887
495.801805	2726.608881
496.168839	2710.426777
496.535815	2708.284287
496.902733	2689.531194
497.269593	2686.960206
497.636395	2672.971004
498.003139	2672.114008
498.369825	2659.309477
498.736453	2651.193219
499.103023	2644.312044
499.469535	2634.683440
499.835989	2621.122737
500.202385	2619.610390
500.568723	2613.762652
500.935003	2603.529110
501.301226	2600.025508
501.667390	2606.705037
502.033497	2595.312029
502.399546	2593.875300
502.765537	2577.667990
503.131470	2574.164388
503.497345	2572.097515
503.863163	2568.694737
504.228923	2569.375292
504.594625	2567.459654
504.960269	2561.032183
505.325856	2553.117571
505.691385	2557.200906
506.056856	2545.152548
506.422270	2555.184444
506.787625	2539.884542
507.152924	2540.363452
507.518164	2535.675179
507.883347	2531.843902
508.248472	2535.347504
508.613540	2536.305323
508.978550	2542.606765
509.343503	2539.506456
509.708398	2531.062523
510.073236	2525.920546
510.438016	2533.431865
510.802738	2529.146885
511.167403	2524.030113
511.532010	2525.517254
511.896561	2530.961700
512.261053	2524.912315
512.625488	2518.257992
512.989866	2517.048115
513.354186	2524.584640
513.718449	2528.617563
514.082655	2535.045035
514.446803	2530.205527
514.810894	2527.155629
515.174927	2525.718900
515.538904	2516.544000
515.902822	2522.064063
516.266684	2517.123733
516.630488	2515.913856
516.994235	2516.518794
517.357925	2515.611387
517.721558	2515.334123
518.085133	2522.492562
518.448651	2511.981756
518.812112	2509.536796
519.175516	2516.770852
519.538863	2508.730212
519.902152	2515.838238
520.265385	2513.191633
520.628560	2513.368073
520.991678	2516.947292
521.354739	2513.897394
521.717743	2514.250275
522.080690	2515.434946
522.443580	2510.066117
522.806413	2516.039885
523.169189	2503.638646
523.531908	2512.611900
523.894569	2509.788854
524.257174	2515.359329
524.619722	2508.906652
524.982213	2512.561488
525.344647	2510.696262
525.707025	2516.115502
526.069345	2517.980729
526.431608	2515.031654
526.793815	2510.897908
527.155964	2504.672083
527.518057	2510.519821
527.880093	2504.999758
528.242072	2501.319715
528.603995	2508.931858
528.965860	2512.964781
529.327669	2509.385562
529.689421	2509.461179
530.051117	2504.546054
530.412755	2519.417458
530.774337	2506.688544
531.135862	2510.242558
531.497331	2519.946779
531.858743	2509.637619
532.220098	2512.939575
532.581396	2521.358302
532.942638	2512.460665
533.303824	2513.594925
533.664953	2516.544000
534.026025	2504.470437
534.387040	2522.290915
534.747999	2510.116529
535.108902	2520.476100
535.469748	2510.872702
535.830537	2513.065604
536.191270	2517.930317
536.551947	2516.216325
536.912567	2520.022396
537.273131	2509.486385
537.633638	2512.586694
537.994089	2502.227123
538.354483	2512.057373
538.714821	2518.157169
539.075103	2511.099554
539.435328	2512.737929
539.795497	2506.991013
540.155609	2517.930317
540.515665	2512.964781
540.875665	2507.873215
541.235609	2504.949346
541.595496	2505.781137
541.955328	2507.545540
542.315102	2512.838752
542.674821	2511.275994
543.034483	2504.823317
543.394090	2500.941629
543.753640	2510.671056
544.113134	2505.024963
544.472571	2509.335150
544.831953	2507.167454
545.191278	2504.117556
545.550548	2501.975065
545.909761	2502.479181
546.268918	2507.570746
546.628019	2500.790394
546.987064	2497.185969
547.346053	2502.958090
547.704986	2500.135044
548.063863	2503.714263
548.422684	2500.739983
548.781449	2503.563029
549.140158	2500.185456
549.498811	2500.034221
549.857408	2505.579490
550.215949	2495.547594
550.574434	2502.479181
550.932864	2501.723008
551.291237	2500.059427
551.649555	2495.572800
552.007817	2498.345435
552.366022	2492.573313
552.724173	2501.596979
553.082267	2487.759012
553.440305	2496.984323
553.798288	2491.186996
554.156215	2503.159737
554.514086	2494.841833
554.871902	2486.599546
555.229661	2488.994094
555.587365	2484.885554
555.945014	2484.154587
556.302606	2493.052223
556.660143	2501.470950
557.017625	2500.160250
557.375050	2495.976092
557.732421	2494.211688
558.089735	2487.002838
558.446994	2496.253356
558.804197	2499.177225
559.161345	2492.321256
559.518437	2502.529592
559.875474	2487.658188
560.232455	2498.320229
560.589381	2491.867552
560.946251	2494.060454
561.303065	2490.052737
561.659825	2487.733806
562.016528	2485.616521
562.373177	2497.110352
562.729770	2491.388642
563.086307	2487.103662
563.442789	2492.270844
563.799216	2501.193687
564.155587	2492.119610
564.511904	2498.244612
564.868164	2491.968375
565.224370	2491.741523
565.580520	2491.539877
565.936615	2495.219919
566.292654	2493.279075
566.648638	2491.766729
567.004567	2495.396360
567.360441	2502.504387
567.716260	2492.018787
568.072023	2497.891731
568.427732	2494.488952
568.783385	2487.103662
569.138982	2490.934938
569.494525	2495.724035
569.850013	2494.186483
570.205445	2497.034735
570.560823	2500.992040
570.916145	2494.488952
571.271412	2497.236381
571.626625	2490.153560
571.981782	2501.042452
572.336884	2493.178252
572.691931	2484.583085
573.046923	2489.498210
573.401860	2492.195227
573.756743	2495.396360
574.111570	2492.875783
574.466342	2495.900475
574.821059	2501.647390
575.175722	2492.548108
575.530330	2492.598519
575.884882	2499.429283
576.239380	2498.395846
576.593823	2491.615494
576.948211	2493.354692
577.302544	2499.630929
577.656823	2502.554798
578.011047	2495.320742
578.365216	2492.674137
578.719330	2488.918477
579.073389	2500.261073
579.427394	2496.429796
579.781344	2489.725062
580.135239	2493.934425
580.489080	2499.882987
580.842866	2500.311485
581.196597	2492.220433
581.550273	2494.085660
581.903895	2496.278562
582.257463	2488.540390
582.610975	2496.833088
582.964434	2498.269817
583.317837	2489.951913
583.671186	2502.277535
584.024481	2489.120123
584.377721	2488.338744
584.730906	2500.941629
585.084037	2493.682367
585.437113	2490.178765
585.790135	2494.362923
586.143103	2496.076915
586.496016	2492.623725
586.848874	2497.740496
587.201679	2497.816113
587.554428	2491.791935
587.907124	2481.684421
588.259765	2495.043479
588.612352	2491.539877
588.964884	2490.682881
589.317362	2497.790908
589.669786	2495.925681
590.022155	2500.160250
590.374470	2486.523929
590.726731	2491.313025
591.078937	2489.019300
591.431090	2491.993581
591.783188	2496.908706
592.135232	2490.733292
592.487222	2497.362410
592.839157	2496.354179
593.191038	2500.739983
593.542866	2495.850063
593.894639	2499.227637
594.246358	2497.866525
594.598022	2490.229177
594.949633	2493.379898
595.301190	2488.742037
595.652692	2499.126813
596.004141	2496.933912
596.355535	2497.387615
596.706876	2489.246152
597.058162	2504.672083
597.409395	2488.212715
597.760573	2494.413335
598.111698	2487.582571
598.462768	2498.975579
598.813785	2492.043992
599.164748	2500.487925
599.515657	2498.748727
599.866511	2492.951400
600.217312	2491.968375
600.568060	2496.429796
600.918753	2490.506440
601.269392	2501.319715
601.619978	2492.497696
601.970510	2493.909219
602.320988	2490.506440
602.671412	2491.590288
603.021783	2492.598519
603.372100	2492.018787
603.722363	2495.396360
604.072572	2496.505413
604.422728	2491.186996
604.772830	2497.059940
605.122878	2499.756958
605.472872	2499.630929
605.822813	2502.327946
606.172701	2493.783190
606.522534	2490.834115
606.872314	2498.748727
607.222041	2502.706033
607.571714	2498.446258
607.921333	2485.540904
608.270899	2489.372181
608.620411	2491.514671
608.969870	2496.908706
609.319276	2494.614981
609.668627	2496.001298
610.017926	2499.731752
610.367171	2493.405104
610.716362	2490.834115
611.065500	2495.774446
611.414585	2504.924140
611.763616	2499.530106
612.112594	2499.328460
612.461518	2497.992554
612.810389	2491.161790
613.159207	2496.757471
613.507971	2492.220433
613.856682	2500.437513
614.205340	2498.168994
614.553945	2497.790908
614.902496	2497.387615
615.250994	2489.725062
615.599439	2495.471977
615.947830	2496.757471
616.296169	2499.328460
616.644454	2498.773933
616.992686	2495.169508
617.340864	2496.177738
617.688990	2498.799138
618.037063	2488.313538
618.385082	2495.093890
618.733048	2495.749240
619.080961	2494.539363
619.428821	2494.488952
619.776628	2494.942656
620.124382	2500.891217
620.472083	2490.834115
620.819731	2497.185969
621.167326	2496.404590
621.514868	2498.143788
621.862357	2500.765188
622.209793	2496.202944
622.557176	2497.059940
622.904506	2502.504387
623.251783	2493.657162
623.599007	2502.353152
623.946179	2498.975579
624.293297	2492.976606
624.640363	2492.724548
624.987376	2494.741010
625.334336	2490.960144
625.681243	2490.380412
626.028097	2487.078456
626.374899	2494.488952
626.721647	2478.256437
627.068343	2488.414362
627.414987	2491.035762
627.761577	2497.992554
628.108115	2485.213229
628.454600	2496.354179
628.801032	2493.556338
629.147412	2495.522388
629.493739	2488.212715
629.840014	2482.264154
630.186236	2490.355206
630.532405	2486.120637
630.878521	2489.800679
631.224585	2487.708600
631.570597	2487.002838
631.916556	2497.967348
632.262462	2492.144815
632.608316	2495.471977
632.954117	2476.164358
633.299866	2494.085660
633.645562	2490.582058
633.991206	2494.564569
634.336797	2486.372694
634.682336	2489.094917
635.027823	2486.675163
635.373257	2490.607263
635.718639	2481.482775
636.063968	2487.229690
636.409245	2481.507981
636.754470	2488.389156
637.099642	2483.398413
637.444762	2489.120123
637.789829	2488.338744
638.134845	2492.371667
638.479808	2488.590802
638.824719	2484.860348
639.169577	2487.431337
639.514383	2493.405104
639.859137	2494.060454
640.203839	2489.977119
640.548489	2491.212202
640.893086	2486.675163
641.237632	2488.313538
641.582125	2487.910246
641.926566	2475.055304
642.270955	2476.542444
642.615292	2483.852117
642.959576	2485.792962
643.303809	2487.355719
643.647990	2482.969915
643.992118	2486.221460
644.336195	2483.020327
644.680219	2481.054277
645.024192	2495.875269
645.368112	2485.893785
645.711981	2490.783704
646.055797	2488.187510
646.399562	2482.717858
646.743274	2483.524442
647.086935	2491.615494
647.430544	2487.834629
647.774101	2491.615494
648.117606	2488.742037
648.461059	2486.624752
648.804460	2493.203458
649.147810	2486.927221
649.491108	2484.809937
649.834354	2500.437513
650.177548	2483.600060
650.520690	2486.801192
650.863781	2480.172075
651.206820	2483.600060
651.549807	2486.725575
651.892742	2480.751808
652.235626	2491.741523
652.578458	2486.675163
652.921238	2486.145842
653.263967	2485.792962
653.606644	2484.507467
653.949269	2485.641727
654.291843	2482.818681
654.634365	2486.750781
654.976836	2480.777013
655.319255	2485.364463
655.661622	2486.498723
656.003938	2482.465800
656.346203	2484.557879
656.688416	2489.573827
657.030577	2482.364977
657.372687	2482.843887
657.714746	2482.364977
658.056753	2475.534213
658.398708	2489.674650
658.740612	2488.565596
659.082465	2485.414875
659.424266	2482.591829
659.766016	2482.289360
660.107715	2477.979173
660.449362	2479.894812
660.790958	2487.960658
661.132503	2479.642754
661.473996	2490.128354
661.815438	2479.340285
662.156829	2479.516725
662.498168	2483.600060
662.839456	2480.575367
663.180693	2480.398927
663.521879	2476.139152
663.863013	2482.667446
664.204097	2482.415388
664.545129	2483.927735
664.886110	2481.961685
665.227040	2491.791935
665.567918	2482.440594
665.908746	2474.727629
666.249522	2482.566623
666.590248	2474.803246
666.930922	2486.473517
667.271545	2483.247179
667.612118	2476.239975
667.952639	2488.389156
668.293109	2483.549648
668.633528	2475.559419
668.973896	2481.003865
669.314213	2485.188023
669.654480	2484.860348
669.994695	2480.323310
670.334859	2481.432363
670.674973	2484.910760
671.015035	2490.682881
671.355047	2487.683394
671.695008	2488.162304
672.034918	2483.549648
672.374777	2481.760038
672.714585	2477.928762
673.054342	2468.577421
673.394049	2484.608290
673.733705	2482.768269
674.073310	2478.558906
674.412864	2489.271358
674.752368	2477.349029
675.091820	2479.718371
675.431223	2477.021354
675.770574	2476.769296
676.109875	2469.988944
676.449125	2481.684421
676.788324	2473.517752
677.127473	2487.078456
677.466571	2469.333594
677.805619	2483.348002
678.144616	2483.423619
678.483562	2484.204998
678.822458	2482.112919
679.161303	2480.575367
679.500098	2480.424133
679.838842	2473.316106
680.177535	2478.836169
680.516179	2480.046046
680.854771	2486.019813
681.193314	2482.264154
681.531805	2475.509008
681.870247	2487.985863
682.208638	2475.382979
682.546978	2484.129381
682.885268	2476.013123
683.223508	2481.583598
683.561697	2480.751808
683.899836	2485.263640
684.237925	2480.777013
684.575963	2478.079996
684.913951	2475.609831
685.251889	2477.575881
685.589776	2476.895325
685.927614	2483.675677
686.265401	2477.096971
686.603137	2478.256437
686.940824	2482.213742
687.278460	2486.876810
687.616046	2487.128867
687.953582	2480.524956
688.291068	2478.533700
688.628504	2482.314565
688.965889	2483.675677
689.303224	2481.255923
689.640510	2483.499237
689.977745	2488.414362
690.314930	2487.028044
690.652065	2479.592342
690.989150	2476.517238
691.326185	2478.105202
691.663170	2479.491519
692.000105	2483.020327
692.336990	2477.601087
692.673825	2482.339771
693.010610	2483.700883
693.347345	2472.837196
693.684030	2473.265694
694.020665	2471.980200
694.357251	2469.358800
694.693786	2467.191104
695.030272	2464.620115
695.366707	2475.937506
695.703093	2473.971456
696.039429	2473.114460
696.375716	2473.013637
696.711952	2476.920531
697.048139	2465.653552
697.384276	2479.239462
697.720363	2478.911787
698.056400	2481.936479
698.392388	2472.585138
698.728326	2477.122177
699.064214	2474.097485
699.400053	2474.803246
699.735842	2478.987404
700.071581	2479.264667
700.407270	2477.701910
700.742910	2480.272898
701.078501	2473.290900
701.414042	2471.602113
701.749533	2471.274438
702.084974	2478.306848
702.420366	2480.146869
702.755709	2473.719398
703.091002	2474.072279
703.426246	2473.467340
703.761440	2477.676704
704.096584	2473.114460
704.431679	2471.778554
704.766725	2475.887094
705.101721	2474.173102
705.436668	2474.904069
705.771565	2477.626292
706.106413	2464.846967
706.441212	2468.073306
706.775961	2467.291927
707.110661	2471.476085
707.445311	2466.913840
707.779913	2472.055817
708.114465	2468.022894
708.448967	2478.054790
708.783421	2468.451392
709.117825	2474.223513
709.452180	2475.080510
709.786485	2473.467340
710.120742	2480.323310
710.454949	2473.038842
710.789107	2470.190590
711.123216	2472.156640
711.457275	2479.441108
711.791286	2471.097998
712.125247	2476.794502
712.459159	2469.257977
712.793023	2478.079996
713.126837	2480.928248
713.460602	2476.618062
713.794318	2474.273925
714.127985	2480.650985
714.461602	2472.660756
714.795171	2480.701396
715.128691	2479.869606
715.462162	2473.265694
715.795584	2474.198308
716.128957	2465.149437
716.462281	2475.861888
716.795556	2476.315592
717.128782	2474.273925
717.461960	2471.425673
717.795088	2466.913840
718.128167	2475.004892
718.461198	2472.988431
718.794180	2463.763119
719.127113	2470.266208
719.459997	2471.476085
719.792833	2465.527523
720.125619	2471.400467
720.458357	2474.147896
720.791046	2469.610858
721.123686	2477.853144
721.456278	2468.930302
721.788821	2470.493060
722.121315	2475.181333
722.453761	2473.366517
722.786158	2469.812504
723.118506	2469.056331
723.450805	2467.493573
723.783056	2471.047587
724.115259	2467.291927
724.447412	2460.839250
724.779518	2467.896865
725.111574	2469.736887
725.443582	2480.222487
725.775542	2471.476085
726.107453	2470.392237
726.439315	2467.896865
726.771129	2472.081023
727.102895	2463.208592
727.434612	2464.242029
727.766281	2465.779581
728.097901	2474.601600
728.429473	2463.712708
728.760996	2474.626806
729.092471	2461.671040
729.423897	2480.247692
729.755276	2467.796042
730.086606	2463.385033
730.417887	2479.012610
730.749120	2469.535240
731.080305	2473.467340
731.411442	2471.576908
731.742530	2471.728142
732.073570	2470.089767
732.404562	2469.535240
732.735506	2467.821248
733.066401	2473.895838
733.397249	2474.047073
733.728048	2471.904583
734.058798	2463.611885
734.389501	2480.928248
734.720156	2472.005406
735.050762	2473.744604
735.381320	2464.267235
735.711831	2465.603140
736.042293	2466.611371
736.372707	2469.837710
736.703073	2465.678758
737.033391	2469.434417
737.363661	2463.359827
737.693883	2473.769810
738.024056	2463.132975
738.354182	2471.677731
738.684260	2467.417956
739.014290	2464.544498
739.344272	2473.190077
739.674207	2471.501290
740.004093	2467.014663
740.333931	2470.392237
740.663722	2476.592856
740.993464	2464.922585
741.323159	2465.577935
741.652806	2475.887094
741.982405	2471.072792
742.311956	2474.551188
742.641460	2471.602113
742.970915	2471.929788
743.300323	2463.032152
743.629683	2463.183387
743.958996	2473.870633
744.288260	2455.142746
744.617477	2473.971456
744.946647	2473.114460
745.275768	2474.904069
745.604842	2470.114973
745.933869	2464.771350
746.262847	2462.301185
746.591778	2463.006946
746.920662	2471.677731
747.249498	2463.107769
747.578286	2470.997175
747.907027	2466.737400
748.235720	2465.250260
748.564365	2475.534213
748.892963	2472.333081
749.221514	2470.165385
749.550017	2465.729169
749.878473	2464.720938
750.206881	2467.896865
750.535242	2470.190590
750.863555	2468.249746
751.191821	2467.619602
751.520039	2469.182360
751.848210	2467.291927
752.176334	2465.628346
752.504411	2461.998715
752.832440	2468.829479
753.160421	2475.735860
753.488356	2461.645835
753.816243	2464.317646
754.144082	2467.796042
754.471875	2466.888635
754.799620	2465.149437
755.127318	2472.333081
755.454969	2469.131948
755.782572	2471.072792
756.110129	2472.736373
756.437638	2468.829479
756.765100	2469.686475
757.092515	2468.350569
757.419882	2466.939046
757.747203	2472.358287
758.074477	2462.603654
758.401703	2468.224540
758.728882	2475.861888
759.056014	2465.124231
759.383099	2467.065075
759.710138	2465.956021
760.037129	2477.399440
760.364073	2465.351083
760.690970	2473.038842
761.017820	2467.871660
761.344623	2479.063021
761.671379	2460.738427
761.998088	2465.351083
762.324751	2467.896865
762.651366	2469.333594
762.977935	2468.426187
763.304456	2473.089254
763.630931	2478.332054
763.957359	2480.172075
764.283740	2476.214769
764.610074	2478.105202
764.936362	2468.098512
765.262602	2469.207565
765.588796	2466.712194
765.914943	2474.878863
766.241044	2472.383492
766.567097	2461.242542
766.893104	2458.545525
767.219064	2466.107256
767.544978	2465.527523
767.870845	2477.096971
768.196665	2464.116000
768.522438	2476.063535
768.848165	2453.075873
769.173846	2474.047073
769.499479	2466.208079
769.825066	2467.468367
770.150607	2457.209619
770.476101	2472.736373
770.801548	2470.140179
771.126949	2469.358800
771.452303	2465.628346
771.777611	2461.418983
772.102872	2473.215283
772.428087	2470.064562
772.753256	2463.863942
773.078378	2466.056844
773.403453	2464.468881
773.728482	2459.654579
774.053465	2464.620115
774.378401	2456.024948
774.703291	2462.351596
775.028135	2456.856738
775.352932	2460.259517
775.677683	2467.543985
776.002388	2467.770837
776.327046	2459.881431
776.651658	2457.738940
776.976224	2456.277006
777.300743	2465.729169
777.625216	2465.653552
777.949643	2458.318673
778.274024	2460.234312
778.598359	2459.024435
778.922647	2469.106742
779.246889	2467.821248
779.571086	2465.325877
779.895236	2468.930302
780.219339	2464.267235
780.543397	2469.459623
780.867409	2461.822275
781.191374	2452.647375
781.515294	2459.200875
781.839167	2468.779067
782.162995	2462.956535
782.486776	2472.988431
782.810511	2464.015177
783.134201	2472.711167
783.457844	2461.418983
783.781441	2458.545525
784.104993	2473.744604
784.428498	2460.688015
784.751958	2458.772377
785.075372	2464.897379
785.398739	2461.998715
785.722061	2460.914867
786.045337	2466.384519
786.368568	2447.858279
786.691752	2459.578962
787.014891	2455.420010
787.337983	2455.722479
787.661030	2464.267235
787.984031	2458.570731
788.306987	2469.535240
788.629897	2462.729683
788.952760	2457.814558
789.275579	2460.410752
789.598351	2464.998202
789.921078	2471.602113
790.243759	2463.334621
790.566395	2469.736887
790.888984	2466.056844
791.211529	2473.517752
791.534027	2461.368571
791.856480	2463.939560
792.178888	2458.495113
792.501249	2456.201388
792.823566	2463.586679
793.145836	2458.091821
793.468062	2457.285237
793.790241	2464.897379
794.112375	2468.930302
794.434464	2460.688015
794.756507	2466.838223
795.078505	2459.704990
795.400457	2463.964765
795.722364	2467.770837
796.044226	2455.697273
796.366042	2458.772377
796.687812	2462.200362
797.009538	2461.217337
797.331218	2466.485342
797.652852	2460.637604
797.974442	2467.392750
798.295986	2461.141719
798.617484	2463.813531
798.938938	2465.678758
799.260346	2474.752835
799.581709	2461.872687
799.903026	2465.527523
800.224299	2457.612912
800.545526	2461.267748
800.866708	2459.730196
801.187845	2459.679785
801.508936	2457.688529
801.829983	2462.830506
802.150984	2459.175669
802.471940	2460.637604
802.792851	2461.066102
803.113717	2465.804787
803.434538	2465.577935
803.755314	2468.375775
804.076045	2466.510548
804.396731	2461.797069
804.717372	2461.545012
805.037967	2461.267748
805.358518	2465.981227
805.679024	2459.780608
805.999485	2459.074846
806.319901	2473.442135
806.640272	2457.890175
806.960598	2468.703450
807.280879	2458.520319
807.601115	2461.040896
807.921306	2458.671554
808.241453	2461.343365
808.561554	2455.646862
808.881611	2464.141206
809.201623	2451.714762
809.521590	2458.999229
809.841513	2466.586165
810.161390	2464.393263
810.481223	2459.881431
810.801011	2461.897892
811.120755	2457.209619
811.440453	2464.015177
811.760107	2453.201902
812.079716	2464.116000
812.399281	2462.099538
812.718801	2463.863942
813.038276	2456.327417
813.357707	2454.689042
813.677093	2464.342852
813.996434	2462.906123
814.315731	2462.754888
814.634983	2468.476598
814.954191	2458.621142
815.273354	2472.030612
815.592473	2462.805300
815.911547	2466.409725
816.230577	2460.839250
816.549562	2460.108283
816.868502	2462.074333
817.187399	2455.974537
817.506250	2464.645321
817.825058	2459.125258
818.143821	2458.747171
818.462539	2458.268262
818.781213	2463.284210
819.099843	2456.050154
819.418429	2463.309415
819.736970	2460.461163
820.055466	2462.981740
820.373919	2469.308388
820.692327	2468.224540
821.010691	2471.803760
821.329011	2475.105715
821.647286	2481.255923
821.965517	2489.372181
822.283704	2506.612927
822.601847	2503.512617
822.919945	2513.594925
823.237999	2495.169508
823.556010	2488.943683
823.873976	2476.567650
824.191897	2475.584625
824.509775	2475.912300
824.827609	2478.054790
825.145398	2468.703450
825.463144	2471.803760
825.780845	2469.384006
826.098502	2475.382979
826.416116	2472.181846
826.733685	2485.692138
827.051210	2480.424133
827.368692	2477.071765
827.686129	2483.020327
828.003522	2470.619088
828.320872	2479.592342
828.638177	2464.645321
828.955439	2465.552729
829.272656	2462.402008
829.589830	2468.224540
829.906960	2472.055817
830.224046	2473.895838
830.541088	2464.922585
830.858086	2461.519806
831.175041	2461.519806
831.491952	2469.131948
831.808819	2463.687502
832.125642	2461.973510
832.442421	2456.982767
832.759157	2461.343365
833.075849	2463.637090
833.392497	2462.628860
833.709101	2467.569190
834.025662	2470.417442
834.342179	2466.787812
834.658653	2471.526496
834.975083	2461.923098
835.291469	2465.779581
835.607811	2469.585652
835.924110	2463.334621
836.240366	2464.418469
836.556578	2466.939046
836.872746	2457.159208
837.188871	2461.595423
837.504952	2468.325363
837.820990	2466.586165
838.136984	2459.856225
838.452935	2456.831533
838.768842	2459.780608
839.084706	2456.755915
839.400526	2468.098512
839.716303	2461.671040
840.032037	2455.999742
840.347727	2456.755915
840.663373	2469.484829
840.978977	2441.355190
841.294537	2464.897379
841.610054	2455.571244
841.925527	2459.604167
842.240957	2457.915381
842.556344	2454.815071
842.871687	2460.083077
843.186987	2459.024435
843.502244	2463.939560
843.817458	2455.167952
844.132629	2448.589246
844.447756	2462.225567
844.762840	2455.848508
845.077881	2455.520833
845.392879	2455.697273
845.707833	2457.007973
846.022745	2455.016717
846.337613	2455.520833
846.652438	2455.823302
846.967221	2457.562500
847.281960	2457.108796
847.596656	2464.216823
847.911309	2459.604167
848.225919	2456.881944
848.540485	2451.160235
848.855009	2462.553242
849.169490	2457.587706
849.483928	2462.754888
849.798323	2458.797583
850.112675	2461.040896
850.426984	2460.385546
850.741251	2462.880917
851.055474	2460.435958
851.369654	2458.167438
851.683792	2462.074333
851.997887	2454.865483
852.311938	2457.839763
852.625947	2453.378342
852.939914	2460.839250
853.253837	2456.024948
853.567718	2459.654579
853.881555	2464.040383
854.195350	2452.496140
854.509103	2451.185440
854.822812	2460.864456
855.136479	2460.763633
855.450103	2460.133488
855.763685	2451.084617
856.077224	2453.025462
856.390720	2451.865996
856.704173	2447.959102
857.017584	2462.376802
857.330953	2463.863942
857.644278	2453.932869
857.957561	2458.469908
858.270802	2450.857765
858.584000	2461.645835
858.897155	2460.461163
859.210268	2458.696760
859.523339	2467.972483
859.836367	2458.243056
860.149352	2459.982254
860.462295	2451.538321
860.775195	2456.226594
861.088054	2458.671554
861.400869	2466.787812
861.713642	2460.536781
862.026373	2457.814558
862.339062	2450.681325
862.651708	2463.964765
862.964312	2455.167952
863.276873	2455.747685
863.589392	2465.073819
863.901869	2458.444702
864.214303	2457.461677
864.526696	2466.661783
864.839045	2454.815071
865.151353	2452.118054
865.463619	2456.957562
865.775842	2460.108283
866.088023	2459.150463
866.400162	2452.849021
866.712258	2459.679785
867.024313	2457.033179
867.336325	2455.546038
867.648296	2459.931842
867.960224	2451.160235
868.272110	2460.461163
868.583954	2459.704990
868.895755	2455.092335
869.207515	2450.076387
869.519233	2459.881431
869.830909	2453.201902
870.142542	2463.889148
870.454134	2455.193158
870.765684	2453.680812
871.077191	2462.956535
871.388657	2459.402521
871.700081	2462.049127
872.011463	2453.378342
872.322803	2453.302725
872.634101	2455.546038
872.945357	2455.520833
873.256571	2456.831533
873.567744	2453.554783
873.878874	2456.755915
874.189963	2458.898406
874.501010	2459.427727
874.812015	2458.192644
875.122979	2460.461163
875.433900	2456.226594
875.744780	2451.361881
876.055618	2451.815585
876.366415	2463.485856
876.677169	2457.335648
876.987882	2462.956535
877.298554	2457.209619
877.609183	2451.336675
877.919771	2457.285237
878.230317	2454.260544
878.540822	2460.587192
878.851285	2460.234312
879.161707	2461.444188
879.472087	2460.284723
879.782425	2466.913840
880.092722	2465.729169
880.402977	2463.939560
880.713191	2470.241002
881.023363	2469.862915
881.333494	2479.970429
881.643583	2473.971456
881.953631	2479.844400
882.263637	2483.801706
882.573602	2479.012610
882.883526	2469.031125
883.193408	2473.492546
883.503248	2470.593883
883.813048	2473.946250
884.122806	2478.105202
884.432522	2465.678758
884.742197	2456.428240
885.051831	2467.972483
885.361424	2461.620629
885.670975	2456.932356
885.980485	2469.434417
886.289954	2462.502831
886.599382	2462.679271
886.908768	2446.270315
887.218113	2455.016717
887.527417	2455.747685
887.836680	2462.402008
888.145901	2458.520319
888.455082	2461.494600
888.764221	2459.931842
889.073319	2455.949331
889.382376	2456.907150
889.691392	2456.125771
890.000366	2464.443675
890.309300	2454.084104
890.618193	2452.244083
890.927044	2452.949844
891.235855	2459.452933
891.544625	2468.930302
891.853353	2454.941100
892.162041	2459.704990
892.470687	2456.755915
892.779293	2460.486369
893.087858	2449.421037
893.396381	2465.880404
893.704864	2464.141206
894.013306	2465.905610
894.321707	2468.627833
894.630068	2461.343365
894.938387	2460.108283
895.246665	2470.467854
895.554903	2458.671554
895.863100	2467.846454
896.171256	2468.602627
896.479371	2456.176183
896.787446	2464.846967
897.095480	2463.460650
897.403473	2461.444188
897.711425	2468.300158
898.019336	2462.175156
898.327207	2456.403035
898.635038	2467.115487
898.942827	2454.386573
899.250576	2462.679271
899.558284	2458.923612
899.865952	2459.629373
900.173579	2454.285750
900.481165	2453.000256
900.788711	2451.765173
901.096216	2448.362394
901.403681	2453.302725
901.711105	2464.468881
902.018489	2475.534213
902.325832	2455.546038
902.633135	2459.654579
902.940397	2455.999742
903.247619	2454.210133
903.554800	2455.621656
903.861941	2464.569704
904.169041	2462.528037
904.476101	2469.081537
904.783121	2463.132975
905.090100	2462.603654
905.397039	2463.687502
905.703938	2466.308902
906.010796	2470.543471
906.317614	2459.906637
906.624391	2462.250773
906.931129	2462.780094
907.237826	2452.445729
907.544483	2469.056331
907.851099	2458.343879
908.157675	2460.889662
908.464211	2462.301185
908.770707	2450.605708
909.077163	2463.132975
909.383578	2464.695733
909.689954	2465.401494
909.996289	2451.487910
910.302584	2455.445215
910.608839	2454.235338
910.915054	2455.293981
911.221229	2455.243569
911.527363	2460.057871
911.833458	2453.302725
912.139513	2451.966819
912.445527	2461.494600
912.751502	2452.546552
913.057436	2454.436985
913.363331	2463.637090
913.669186	2449.042950
913.975000	2463.813531
914.280775	2450.555296
914.586510	2462.603654
914.892205	2467.922071
915.197859	2462.099538
915.503475	2455.772890
915.809050	2455.571244
916.114585	2469.938533
916.420081	2468.073306
916.725536	2461.696246
917.030952	2456.982767
917.336328	2471.702937
917.641665	2452.849021
917.946961	2448.337188
918.252218	2458.545525
918.557435	2455.621656
918.862612	2451.361881
919.167750	2461.217337
919.472848	2458.873200
919.777906	2459.125258
920.082925	2457.537294
920.387904	2463.788325
920.692843	2452.823815
920.997743	2456.881944
921.302603	2460.587192
921.607423	2463.032152
921.912204	2461.696246
922.216946	2455.571244
922.521647	2463.511062
922.826310	2459.604167
923.130932	2455.898919
923.435516	2459.553756
923.740059	2456.201388
924.044564	2462.049127
924.349028	2454.915894
924.653454	2453.655606
924.957840	2457.965792
925.262186	2456.201388
925.566493	2453.680812
925.870761	2451.059412
926.174989	2454.815071
926.479178	2453.277519
926.783328	2456.352623
927.087438	2457.033179
927.391509	2467.191104
927.695541	2451.261058
927.999533	2456.730710
928.303486	2450.076387
928.607400	2457.134002
928.911275	2450.580502
929.215110	2463.687502
929.518906	2455.571244
929.822663	2457.386060
930.126381	2450.479679
930.430060	2450.278033
930.733699	2466.586165
931.037299	2454.689042
931.340861	2457.789352
931.644383	2457.360854
931.947866	2451.487910
932.251309	2457.335648
932.554714	2452.672581
932.858080	2454.613425
933.161407	2452.067642
933.464694	2456.907150
933.767943	2451.361881
934.071153	2455.747685
934.374323	2446.875254
934.677455	2453.277519
934.980548	2456.680298
935.283602	2454.764660
935.586617	2454.033692
935.889593	2457.864969
936.192530	2451.765173
936.495428	2450.958588
936.798287	2454.739454
937.101108	2456.705504
937.403890	2460.259517
937.706632	2458.898406
938.009336	2452.420523
938.312002	2454.487396
938.614628	2448.160748
938.917216	2464.065588
939.219765	2449.395831
939.522275	2453.731223
939.824747	2454.109310
940.127179	2456.302212
940.429573	2455.672067
940.731929	2452.370112
941.034246	2458.318673
941.336524	2455.747685
941.638763	2455.218363
941.940964	2450.782148
942.243126	2450.958588
942.545250	2454.966306
942.847335	2465.905610
943.149381	2453.680812
943.451389	2447.833073
943.753359	2454.487396
944.055290	2457.033179
944.357182	2456.932356
944.659036	2456.705504
944.960851	2450.983794
945.262628	2456.453446
945.564367	2459.780608
945.866067	2459.377315
946.167729	2447.707044
946.469352	2455.823302
946.770937	2450.706531
947.072484	2449.320213
947.373992	2452.092848
947.675462	2454.739454
947.976893	2447.152517
948.278286	2453.302725
948.579641	2446.043463
948.880958	2451.462704
949.182236	2455.546038
949.483476	2460.133488
949.784678	2457.915381
950.085841	2452.899433
950.386967	2453.403548
950.688054	2456.277006
950.989103	2452.395317
951.290114	2455.193158
951.591087	2457.814558
951.892021	2455.924125
952.192917	2452.823815
952.493776	2452.294494
952.794596	2460.914867
953.095378	2452.849021
953.396122	2456.806327
953.696828	2457.411265
953.997496	2453.630400
954.298126	2449.295008
954.598718	2456.806327
954.899272	2450.908177
955.199788	2452.193671
955.500266	2458.545525
955.800706	2464.947790
956.101108	2453.000256
956.401472	2451.311469
956.701798	2455.369598
957.002087	2454.663837
957.302337	2456.982767
957.602550	2455.596450
957.902724	2458.293467
958.202861	2459.906637
958.502960	2454.235338
958.803022	2452.622169
959.103045	2454.663837
959.403031	2449.295008
959.702979	2450.328444
960.002889	2459.452933
960.302762	2445.690583
960.602596	2459.352110
960.902393	2449.194185
961.202153	2448.841304
961.501875	2452.622169
961.801559	2449.874740
962.101205	2461.771863
962.400814	2462.376802
962.700385	2447.278546
962.999918	2457.386060
963.299414	2443.296035
963.598873	2449.143773
963.898293	2451.790379
964.197677	2459.200875
964.497022	2447.076900
964.796331	2451.815585
965.095601	2458.974023
965.394835	2451.487910
965.694030	2451.311469
965.993189	2450.908177
966.292309	2452.445729
966.591393	2450.202415
966.890439	2449.975563
967.189447	2457.260031
967.488419	2450.076387
967.787353	2450.025975
968.086249	2451.639144
968.385108	2451.034206
968.683930	2451.084617
968.982714	2452.949844
969.281462	2457.990998
969.580172	2445.715788
969.878844	2455.420010
970.177480	2453.529577
970.476078	2454.436985
970.774639	2451.034206
971.073162	2452.017231
971.371649	2456.932356
971.670098	2450.278033
971.968510	2457.335648
972.266885	2451.210646
972.565223	2446.623196
972.863524	2457.512088
973.161788	2454.739454
973.460014	2450.933383
973.758204	2448.110337
974.056356	2452.899433
974.354471	2453.176696
974.652550	2452.748198
974.950591	2456.554269
975.248595	2456.655092
975.546563	2454.789865
975.844493	2457.864969
976.142386	2446.648402
976.440243	2440.271342
976.738062	2453.806840
977.035845	2458.469908
977.333590	2450.000769
977.631299	2452.924638
977.928971	2453.504371
978.226606	2446.925665
978.524204	2446.245110
978.821765	2446.950871
979.119290	2451.992025
979.416777	2454.764660
979.714228	2452.924638
980.011642	2455.016717
980.309020	2453.706017
980.606360	2453.101079
980.903664	2449.370625
981.200931	2456.806327
981.498162	2454.966306
981.795356	2451.513115
982.092513	2446.850048
982.389633	2454.184927
982.686717	2454.663837
982.983764	2454.537808
983.280775	2451.992025
983.577749	2451.487910
983.874686	2455.999742
984.171587	2455.621656
984.468451	2455.218363
984.765279	2443.598504
985.062070	2451.286263
985.358824	2450.303238
985.655543	2455.420010
985.952224	2457.007973
986.248869	2456.831533
986.545478	2451.815585
986.842050	2455.546038
987.138586	2450.479679
987.435086	2449.647888
987.731549	2456.629887
988.027975	2456.755915
988.324366	2458.595937
988.620719	2458.243056
988.917037	2449.269802
989.213318	2457.789352
989.509563	2455.420010
989.805772	2458.243056
990.101944	2455.949331
990.398080	2451.160235
990.694180	2453.529577
990.990244	2447.379369
991.286271	2447.833073
991.582262	2453.075873
991.878217	2449.723506
992.174136	2453.605194
992.470019	2448.564040
992.765865	2452.143260
993.061676	2445.993052
993.357450	2446.925665
993.653188	2453.075873
993.948890	2443.850562
994.244556	2453.655606
994.540186	2449.824329
994.835780	2446.144287
995.131337	2451.210646
995.426859	2455.218363
995.722345	2443.548092
996.017795	2450.807354
996.313208	2451.613938
996.608586	2446.446756
996.903928	2458.293467
997.199234	2446.799637
997.494504	2454.588219
997.789738	2454.436985
998.084936	2448.488423
998.380099	2455.924125
998.675225	2456.730710
998.970316	2458.394290
999.265371	2454.588219
999.560390	2453.227108
999.855373	2447.354163
1000.150320	2457.738940
1000.445232	2441.859306
1000.740108	2459.856225
1001.034948	2452.546552
1001.329752	2449.723506
1001.624521	2452.748198
1001.919254	2455.949331
1002.213951	2458.898406
1002.508613	2457.915381
1002.803239	2453.907663
1003.097829	2452.395317
1003.392384	2450.429267
1003.686903	2448.916921
1003.981386	2450.479679
1004.275834	2449.017744
1004.570246	2453.655606
1004.864623	2453.504371
1005.158964	2453.958075
1005.453270	2449.521860
1005.747540	2459.755402
1006.041775	2455.873713
1006.335974	2448.790892
1006.630138	2453.101079
1006.924266	2452.294494
1007.218359	2440.775458
1007.512416	2443.850562
1007.806438	2449.395831
1008.100425	2449.093362
1008.394376	2439.893256
1008.688292	2447.480192
1008.982172	2450.580502
1009.276017	2455.016717
1009.569827	2453.327931
1009.863602	2454.512602
1010.157341	2449.849535
1010.451045	2446.320727
1010.744714	2456.201388
1011.038347	2445.161262
1011.331945	2455.646862
1011.625508	2455.193158
1011.919036	2450.807354
1012.212528	2451.966819
1012.505986	2457.360854
1012.799408	2453.806840
1013.092795	2445.967846
1013.386147	2451.160235
1013.679464	2457.864969
1013.972745	2442.716302
1014.265992	2451.689556
1014.559204	2453.378342
1014.852380	2453.958075
1015.145521	2443.699327
1015.438628	2441.909717
1015.731699	2456.100565
1016.024736	2452.571758
1016.317737	2451.664350
1016.610703	2449.320213
1016.903635	2459.629373
1017.196531	2440.346960
1017.489393	2454.285750
1017.782219	2452.370112
1018.075011	2452.823815
1018.367768	2448.740481
1018.660490	2452.622169
1018.953177	2452.622169
1019.245829	2452.622169
