Dividing Wavelength (nm)	Counts (n)	Slit_number_36_of_a_total_of_40	
326.493990	2032.265556
326.888308	2032.265556
327.282561	2032.265556
327.676750	2014.949192
328.070874	2017.948679
328.464933	2018.856087
328.858929	2029.442510
329.252859	2032.038704
329.646726	2050.086035
330.040528	2068.385423
330.434265	2090.692529
330.827938	2114.209512
331.221547	2135.281535
331.615091	2148.741415
332.008571	2167.746565
332.401986	2189.524350
332.795338	2218.611808
333.188625	2226.526419
333.581847	2247.648854
333.975006	2263.704929
334.368100	2280.365942
334.761129	2299.194652
335.154095	2320.543938
335.546996	2336.499190
335.939833	2351.723475
336.332606	2357.369567
336.725315	2370.325333
337.117960	2376.576363
337.510540	2377.786240
337.903056	2400.622667
338.295508	2398.253325
338.687896	2404.353121
339.080220	2421.140163
339.472480	2427.265165
339.864676	2424.895823
340.256807	2426.433375
340.648875	2423.181831
341.040879	2432.608788
341.432818	2432.054262
341.824694	2442.741508
342.216506	2439.011054
342.608253	2428.096956
342.999937	2437.498708
343.391557	2430.466298
343.783113	2428.651483
344.174605	2419.779052
344.566033	2426.912285
344.957397	2434.196752
345.348697	2422.224012
345.739934	2421.921542
346.131106	2426.861873
346.522215	2422.274423
346.913260	2408.612896
347.304241	2410.074831
347.695159	2416.729154
348.086012	2418.569175
348.476802	2410.452917
348.867528	2409.268246
349.258191	2404.277504
349.648789	2401.504869
350.039324	2405.411763
350.429796	2406.193142
350.820203	2405.084088
351.210548	2397.597975
351.600828	2402.714746
351.991045	2395.833571
352.381198	2405.235323
352.771288	2408.789337
353.161314	2398.404560
353.551276	2398.328942
353.941175	2396.186452
354.331010	2401.756927
354.720782	2405.663821
355.110490	2400.799108
355.500135	2400.698285
355.889717	2411.133473
356.279235	2409.217835
356.668689	2397.446740
357.058080	2399.816083
357.447408	2408.814542
357.836672	2402.235837
358.225873	2399.211144
358.615010	2405.159706
359.004084	2401.807338
359.393095	2401.756927
359.782043	2403.672565
360.170927	2401.101577
360.559748	2410.402506
360.948505	2401.731721
361.337199	2408.890160
361.725830	2407.503842
362.114398	2409.469892
362.502903	2410.578946
362.891344	2407.125756
363.279722	2408.688513
363.668037	2416.603125
364.056289	2411.839235
364.444478	2422.602098
364.832603	2405.184912
365.220665	2413.528021
365.608665	2406.067113
365.996601	2406.798081
366.384474	2417.787796
366.772284	2416.577919
367.160031	2408.386044
367.547715	2413.023906
367.935336	2416.099010
368.322893	2416.149421
368.710388	2412.595408
369.097820	2407.982752
369.485189	2407.276990
369.872495	2411.561971
370.259738	2418.115471
370.646918	2416.754360
371.034035	2406.621640
371.421090	2410.856210
371.808081	2417.712179
372.195010	2420.636048
372.581875	2419.123702
372.968678	2417.737385
373.355418	2416.804771
373.742096	2410.906621
374.128710	2422.526481
374.515262	2414.006931
374.901751	2421.845925
375.288177	2427.239960
375.674540	2424.568148
376.060841	2415.443660
376.447079	2417.762590
376.833254	2405.084088
377.219367	2411.057856
377.605417	2423.181831
377.991404	2418.291912
378.377329	2416.401479
378.763191	2420.812488
379.148991	2417.737385
379.534727	2426.105700
379.920402	2422.173600
380.306013	2415.872158
380.691563	2422.929773
381.077049	2420.560431
381.462474	2417.661767
381.847835	2423.232242
382.233134	2421.770308
382.618371	2418.342323
383.003545	2423.005390
383.388657	2418.543969
383.773706	2430.819179
384.158693	2425.778025
384.543618	2420.409196
384.928480	2420.308373
385.313280	2424.820206
385.698017	2436.188008
386.082692	2421.493044
386.467305	2422.929773
386.851856	2434.171546
387.236344	2423.030596
387.620770	2419.753846
388.005133	2422.904567
388.389435	2424.845412
388.773674	2421.417427
389.157851	2429.029569
389.541965	2427.164342
389.926018	2426.282140
390.310008	2426.559404
390.693936	2433.213727
391.077802	2425.122675
391.461606	2433.692637
391.845348	2419.955492
392.229027	2438.935437
392.612645	2424.190062
392.996200	2427.517223
393.379694	2425.273910
393.763125	2429.332038
394.146494	2424.341296
394.529801	2421.543456
394.913047	2427.239960
395.296230	2425.147881
395.679351	2430.012594
396.062410	2426.156112
396.445408	2427.189548
396.828343	2425.198292
397.211217	2432.608788
397.594028	2430.567121
397.976778	2430.743562
398.359466	2427.189548
398.742092	2435.935950
399.124656	2434.474015
399.507158	2424.694177
399.889598	2434.247163
400.271977	2426.861873
400.654294	2427.416400
401.036549	2448.866510
401.418742	2429.130392
401.800874	2434.221958
402.182944	2429.584096
402.564952	2439.162288
402.946898	2442.338215
403.328783	2432.633994
403.710606	2430.441092
404.092367	2430.037800
404.474067	2430.819179
404.855705	2441.708071
405.237282	2433.339756
405.618797	2439.011054
406.000250	2433.818665
406.381642	2431.348500
406.762972	2432.079467
407.144240	2433.793460
407.525447	2432.356731
407.906593	2428.096956
408.287677	2429.962183
408.668700	2438.708585
409.049661	2432.155085
409.430560	2431.903027
409.811399	2439.817638
410.192176	2437.347473
410.572891	2435.406629
410.953545	2438.658173
411.334138	2434.373192
411.714669	2439.237906
412.095139	2438.002823
412.475547	2447.177723
412.855894	2437.801177
413.236180	2437.977617
413.616405	2441.506425
413.996568	2442.665890
414.376670	2439.842844
414.756711	2437.523913
415.136691	2438.280087
415.516609	2437.120621
415.896466	2434.474015
416.276262	2438.456527
416.655997	2427.416400
417.035670	2443.749738
417.415283	2442.161775
417.794834	2439.742021
418.174324	2434.877308
418.553753	2433.566608
418.933121	2437.624737
419.312428	2439.011054
419.691674	2439.263112
420.070859	2436.792946
420.449983	2445.010027
420.829045	2440.523400
421.208047	2436.162802
421.586988	2433.591813
421.965867	2434.347987
422.344686	2444.279060
422.723444	2436.994592
423.102141	2442.993565
423.480777	2441.531631
423.859352	2435.381423
424.237866	2438.179263
424.616319	2430.264652
424.994712	2450.328444
425.373044	2446.371138
425.751314	2435.507452
426.129524	2431.020825
426.507673	2436.339242
426.885762	2445.740994
427.263789	2440.472988
427.641756	2444.253854
428.019662	2443.043977
428.397508	2447.404575
428.775292	2436.540888
429.153016	2443.548092
429.530679	2438.431321
429.908282	2445.388113
430.285824	2445.136056
430.663305	2443.144800
431.040726	2450.227621
431.418086	2445.035233
431.795385	2443.522887
432.172624	2446.169492
432.549802	2441.052721
432.926920	2451.135029
433.303977	2440.901487
433.680974	2440.699840
434.057910	2448.790892
434.434786	2427.970927
434.811601	2447.076900
435.188355	2444.505912
435.565050	2442.363421
435.941683	2438.658173
436.318257	2445.841817
436.694770	2440.548606
437.071222	2448.236365
437.447614	2445.262085
437.823946	2445.665377
438.200218	2439.338729
438.576429	2452.193671
438.952580	2444.178237
439.328670	2450.101592
439.704700	2443.548092
440.080670	2446.396344
440.456580	2441.808894
440.832429	2444.657146
441.208218	2444.657146
441.583947	2450.025975
441.959616	2437.700354
442.335224	2445.488937
442.710773	2450.580502
443.086261	2449.874740
443.461689	2452.521346
443.837057	2450.076387
444.212365	2448.690069
444.587612	2448.564040
444.962800	2439.767227
445.337927	2439.817638
445.712995	2441.909717
446.088002	2448.513629
446.462949	2438.632967
446.837837	2447.757456
447.212664	2453.857252
447.587431	2445.740994
447.962139	2445.287290
448.336786	2448.942127
448.711374	2453.605194
449.085901	2450.303238
449.460369	2448.110337
449.834776	2455.041923
450.209124	2445.312496
450.583412	2450.076387
450.957640	2446.522373
451.331808	2453.403548
451.705917	2453.050667
452.079965	2460.587192
452.453954	2448.261571
452.827883	2445.690583
453.201752	2451.538321
453.575562	2453.781635
453.949311	2440.472988
454.323001	2448.311983
454.696632	2450.177210
455.070202	2445.614965
455.443713	2452.622169
455.817164	2447.127312
456.190556	2449.849535
456.563888	2451.084617
456.937160	2439.968873
457.310373	2446.043463
457.683526	2456.881944
458.056619	2438.935437
458.429653	2443.195212
458.802628	2455.949331
459.175542	2455.546038
459.548398	2455.672067
459.921194	2446.018258
460.293930	2448.387600
460.666607	2454.084104
461.039224	2456.957562
461.411782	2452.344906
461.784280	2452.193671
462.156719	2450.429267
462.529099	2450.202415
462.901419	2445.589760
463.273680	2452.521346
463.645882	2446.497167
464.018024	2441.859306
464.390106	2452.722992
464.762130	2453.706017
465.134094	2448.992538
465.505999	2453.000256
465.877845	2444.052208
466.249631	2452.546552
466.621358	2448.009513
466.993026	2457.890175
467.364634	2453.403548
467.736184	2448.362394
468.107674	2438.254881
468.479105	2456.050154
468.850477	2453.554783
469.221790	2454.739454
469.593043	2453.806840
469.964238	2449.622683
470.335373	2455.268775
470.706449	2450.983794
471.077467	2456.100565
471.448425	2450.076387
471.819324	2454.058898
472.190164	2453.277519
472.560945	2449.244596
472.931667	2451.714762
473.302330	2454.966306
473.672934	2460.461163
474.043479	2455.520833
474.413965	2453.806840
474.784393	2455.646862
475.154761	2454.008487
475.525070	2454.689042
475.895321	2448.185954
476.265513	2445.488937
476.635645	2450.882971
477.005719	2449.143773
477.375734	2459.427727
477.745691	2454.411779
478.115588	2450.000769
478.485427	2452.143260
478.855207	2454.386573
479.224928	2454.915894
479.594591	2460.788838
479.964194	2460.486369
480.333739	2453.882458
480.703226	2460.209106
481.072653	2451.034206
481.442022	2451.185440
481.811333	2454.815071
482.180584	2453.958075
482.549777	2444.657146
482.918912	2450.681325
483.287988	2449.950358
483.657005	2455.218363
484.025964	2449.446242
484.394864	2462.906123
484.763706	2450.630913
485.132489	2456.100565
485.501213	2454.008487
485.869879	2453.882458
486.238487	2454.336162
486.607036	2451.639144
486.975527	2454.260544
487.343959	2454.915894
487.712333	2460.309929
488.080648	2447.933896
488.448905	2453.504371
488.817104	2451.588733
489.185244	2463.132975
489.553326	2457.083590
489.921350	2450.706531
490.289315	2461.343365
490.657222	2457.587706
491.025070	2455.798096
491.392861	2452.596963
491.760593	2450.126798
492.128267	2450.731737
492.495883	2459.578962
492.863440	2455.898919
493.230939	2461.545012
493.598380	2467.317133
493.965763	2445.740994
494.333088	2463.511062
494.700354	2446.018258
495.067563	2448.967333
495.434713	2458.747171
495.801805	2453.529577
496.168839	2456.478652
496.535815	2450.252827
496.902733	2455.646862
497.269593	2454.815071
497.636395	2454.789865
498.003139	2453.101079
498.369825	2452.899433
498.736453	2449.345419
499.103023	2465.981227
499.469535	2454.361367
499.835989	2459.175669
500.202385	2455.268775
500.568723	2457.638117
500.935003	2459.503344
501.301226	2450.933383
501.667390	2453.353137
502.033497	2464.342852
502.399546	2456.503858
502.765537	2451.286263
503.131470	2448.740481
503.497345	2451.790379
503.863163	2454.588219
504.228923	2452.067642
504.594625	2456.680298
504.960269	2452.823815
505.325856	2460.940073
505.691385	2455.949331
506.056856	2458.192644
506.422270	2452.773404
506.787625	2454.789865
507.152924	2454.714248
507.518164	2454.285750
507.883347	2461.091308
508.248472	2455.420010
508.613540	2458.318673
508.978550	2455.823302
509.343503	2456.352623
509.708398	2456.806327
510.073236	2455.495627
510.438016	2458.243056
510.802738	2450.555296
511.167403	2454.159721
511.532010	2451.034206
511.896561	2461.620629
512.261053	2456.604681
512.625488	2458.318673
512.989866	2461.545012
513.354186	2460.335135
513.718449	2451.992025
514.082655	2454.613425
514.446803	2461.595423
514.810894	2448.185954
515.174927	2451.513115
515.538904	2453.479165
515.902822	2455.142746
516.266684	2449.950358
516.630488	2457.159208
516.994235	2450.882971
517.357925	2460.360340
517.721558	2459.427727
518.085133	2461.217337
518.448651	2452.445729
518.812112	2456.201388
519.175516	2449.773917
519.538863	2457.864969
519.902152	2458.595937
520.265385	2466.258490
520.628560	2453.000256
520.991678	2450.882971
521.354739	2461.897892
521.717743	2456.932356
522.080690	2456.125771
522.443580	2460.889662
522.806413	2462.528037
523.169189	2461.267748
523.531908	2465.225054
523.894569	2458.721965
524.257174	2462.049127
524.619722	2452.622169
524.982213	2461.872687
525.344647	2455.117540
525.707025	2459.427727
526.069345	2459.679785
526.431608	2463.006946
526.793815	2464.015177
527.155964	2462.704477
527.518057	2461.015690
527.880093	2454.714248
528.242072	2464.519292
528.603995	2461.015690
528.965860	2463.712708
529.327669	2452.748198
529.689421	2457.360854
530.051117	2459.881431
530.412755	2456.453446
530.774337	2462.250773
531.135862	2456.302212
531.497331	2464.569704
531.858743	2459.251287
532.220098	2458.394290
532.581396	2465.829992
532.942638	2459.805813
533.303824	2460.057871
533.664953	2458.217850
534.026025	2451.286263
534.387040	2463.889148
534.747999	2459.679785
535.108902	2464.418469
535.469748	2460.864456
535.830537	2456.831533
536.191270	2461.494600
536.551947	2457.058385
536.912567	2459.704990
537.273131	2454.563013
537.633638	2456.982767
537.994089	2457.159208
538.354483	2468.678244
538.714821	2454.890688
539.075103	2455.445215
539.435328	2463.662296
539.795497	2469.636063
540.155609	2462.376802
540.515665	2464.368058
540.875665	2454.840277
541.235609	2458.772377
541.595496	2463.208592
541.955328	2463.006946
542.315102	2455.798096
542.674821	2457.915381
543.034483	2461.771863
543.394090	2460.688015
543.753640	2453.806840
544.113134	2455.495627
544.472571	2458.797583
544.831953	2460.083077
545.191278	2459.352110
545.550548	2460.561987
545.909761	2457.789352
546.268918	2457.814558
546.628019	2460.461163
546.987064	2470.114973
547.346053	2460.814044
547.704986	2455.167952
548.063863	2456.024948
548.422684	2452.622169
548.781449	2457.134002
549.140158	2458.041410
549.498811	2456.403035
549.857408	2455.092335
550.215949	2464.771350
550.574434	2465.527523
550.932864	2467.670013
551.291237	2457.764146
551.649555	2464.393263
552.007817	2453.302725
552.366022	2461.217337
552.724173	2455.470421
553.082267	2458.595937
553.440305	2456.604681
553.798288	2463.284210
554.156215	2456.932356
554.514086	2451.210646
554.871902	2457.789352
555.229661	2457.184413
555.587365	2458.066615
555.945014	2462.175156
556.302606	2451.135029
556.660143	2455.747685
557.017625	2466.182873
557.375050	2464.317646
557.732421	2463.132975
558.089735	2465.401494
558.446994	2457.512088
558.804197	2465.855198
559.161345	2457.007973
559.518437	2456.529063
559.875474	2461.494600
560.232455	2462.729683
560.589381	2458.721965
560.946251	2452.571758
561.303065	2457.033179
561.659825	2446.471962
562.016528	2460.990485
562.373177	2453.428754
562.729770	2456.403035
563.086307	2459.478138
563.442789	2461.545012
563.799216	2468.602627
564.155587	2461.948304
564.511904	2463.259004
564.868164	2460.965279
565.224370	2460.814044
565.580520	2460.057871
565.936615	2456.730710
566.292654	2455.999742
566.648638	2461.343365
567.004567	2454.663837
567.360441	2460.814044
567.716260	2463.737913
568.072023	2457.335648
568.427732	2458.545525
568.783385	2465.678758
569.138982	2459.578962
569.494525	2462.402008
569.850013	2458.570731
570.205445	2457.839763
570.560823	2467.090281
570.916145	2463.712708
571.271412	2455.193158
571.626625	2463.107769
571.981782	2462.502831
572.336884	2459.226081
572.691931	2451.689556
573.046923	2454.815071
573.401860	2450.328444
573.756743	2455.546038
574.111570	2449.521860
574.466342	2456.831533
574.821059	2466.082050
575.175722	2455.823302
575.530330	2459.049640
575.884882	2461.494600
576.239380	2458.217850
576.593823	2471.097998
576.948211	2461.318160
577.302544	2463.183387
577.656823	2457.007973
578.011047	2471.652525
578.365216	2465.124231
578.719330	2457.360854
579.073389	2458.444702
579.427394	2461.696246
579.781344	2458.671554
580.135239	2456.806327
580.489080	2465.300671
580.842866	2465.653552
581.196597	2464.998202
581.550273	2456.377829
581.903895	2460.839250
582.257463	2455.293981
582.610975	2456.150977
582.964434	2457.713735
583.317837	2470.316619
583.671186	2464.065588
584.024481	2453.151490
584.377721	2471.274438
584.730906	2465.804787
585.084037	2453.201902
585.437113	2459.553756
585.790135	2459.931842
586.143103	2464.645321
586.496016	2458.721965
586.848874	2460.083077
587.201679	2447.228135
587.554428	2463.964765
587.907124	2458.343879
588.259765	2462.880917
588.612352	2463.889148
588.964884	2461.418983
589.317362	2459.427727
589.669786	2457.587706
590.022155	2462.376802
590.374470	2458.898406
590.726731	2451.563527
591.078937	2459.780608
591.431090	2456.655092
591.783188	2453.756429
592.135232	2465.829992
592.487222	2459.704990
592.839157	2461.797069
593.191038	2454.361367
593.542866	2470.039356
593.894639	2459.427727
594.246358	2455.924125
594.598022	2464.116000
594.949633	2455.520833
595.301190	2458.772377
595.652692	2461.771863
596.004141	2462.679271
596.355535	2455.016717
596.706876	2461.696246
597.058162	2462.780094
597.409395	2457.360854
597.760573	2458.318673
598.111698	2465.502317
598.462768	2455.873713
598.813785	2455.924125
599.164748	2459.251287
599.515657	2450.832560
599.866511	2460.133488
600.217312	2458.091821
600.568060	2463.838737
600.918753	2464.494087
601.269392	2462.452419
601.619978	2455.747685
601.970510	2459.024435
602.320988	2467.468367
602.671412	2463.637090
603.021783	2461.217337
603.372100	2461.267748
603.722363	2457.612912
604.072572	2453.605194
604.422728	2465.300671
604.772830	2457.814558
605.122878	2461.217337
605.472872	2465.829992
605.822813	2457.562500
606.172701	2465.250260
606.522534	2461.368571
606.872314	2458.469908
607.222041	2453.983281
607.571714	2457.083590
607.921333	2453.882458
608.270899	2457.461677
608.620411	2453.958075
608.969870	2456.428240
609.319276	2459.352110
609.668627	2466.359313
610.017926	2464.544498
610.367171	2453.252313
610.716362	2459.755402
611.065500	2467.896865
611.414585	2457.587706
611.763616	2459.679785
612.112594	2455.445215
612.461518	2462.704477
612.810389	2454.941100
613.159207	2459.150463
613.507971	2459.226081
613.856682	2460.536781
614.205340	2462.981740
614.553945	2453.428754
614.902496	2464.846967
615.250994	2459.578962
615.599439	2455.999742
615.947830	2455.445215
616.296169	2466.434931
616.644454	2463.082563
616.992686	2469.031125
617.340864	2452.672581
617.688990	2464.015177
618.037063	2462.654065
618.385082	2460.940073
618.733048	2463.687502
619.080961	2456.655092
619.428821	2459.957048
619.776628	2462.553242
620.124382	2459.251287
620.472083	2449.799123
620.819731	2461.267748
621.167326	2462.654065
621.514868	2466.686988
621.862357	2454.789865
622.209793	2462.149950
622.557176	2458.293467
622.904506	2458.243056
623.251783	2455.394804
623.599007	2459.100052
623.946179	2457.713735
624.293297	2467.266721
624.640363	2461.973510
624.987376	2457.864969
625.334336	2444.581529
625.681243	2457.033179
626.028097	2456.806327
626.374899	2458.948817
626.721647	2459.074846
627.068343	2448.765687
627.414987	2461.267748
627.761577	2456.478652
628.108115	2464.292440
628.454600	2452.092848
628.801032	2464.242029
629.147412	2458.016204
629.493739	2457.587706
629.840014	2464.771350
630.186236	2457.940587
630.532405	2457.890175
630.878521	2454.789865
631.224585	2460.839250
631.570597	2450.933383
631.916556	2453.504371
632.262462	2453.983281
632.608316	2467.493573
632.954117	2459.982254
633.299866	2453.075873
633.645562	2459.024435
633.991206	2457.663323
634.336797	2463.385033
634.682336	2464.141206
635.027823	2459.629373
635.373257	2460.763633
635.718639	2461.696246
636.063968	2460.284723
636.409245	2455.646862
636.754470	2463.435444
637.099642	2454.689042
637.444762	2458.041410
637.789829	2458.394290
638.134845	2461.545012
638.479808	2467.997688
638.824719	2462.477625
639.169577	2461.242542
639.514383	2461.015690
639.859137	2463.813531
640.203839	2460.007460
640.548489	2458.797583
640.893086	2462.301185
641.237632	2462.452419
641.582125	2465.325877
641.926566	2460.259517
642.270955	2459.301698
642.615292	2464.418469
642.959576	2459.024435
643.303809	2449.068156
643.647990	2462.402008
643.992118	2455.470421
644.336195	2453.151490
644.680219	2458.167438
645.024192	2463.687502
645.368112	2458.772377
645.711981	2464.468881
646.055797	2459.503344
646.399562	2460.385546
646.743274	2453.176696
647.086935	2450.429267
647.430544	2453.151490
647.774101	2458.041410
648.117606	2454.134515
648.461059	2463.763119
648.804460	2457.990998
649.147810	2457.587706
649.491108	2458.696760
649.834354	2457.335648
650.177548	2467.846454
650.520690	2458.444702
650.863781	2463.813531
651.206820	2458.419496
651.549807	2465.603140
651.892742	2458.469908
652.235626	2457.663323
652.578458	2457.310442
652.921238	2467.367544
653.263967	2462.906123
653.606644	2465.325877
653.949269	2457.058385
654.291843	2461.192131
654.634365	2460.284723
654.976836	2464.242029
655.319255	2459.957048
655.661622	2457.134002
656.003938	2458.444702
656.346203	2464.519292
656.688416	2458.192644
657.030577	2457.638117
657.372687	2461.040896
657.714746	2461.570217
658.056753	2460.385546
658.398708	2452.496140
658.740612	2465.325877
659.082465	2456.755915
659.424266	2452.420523
659.766016	2450.555296
660.107715	2459.301698
660.449362	2455.016717
660.790958	2460.990485
661.132503	2462.200362
661.473996	2457.285237
661.815438	2455.092335
662.156829	2461.393777
662.498168	2456.730710
662.839456	2464.040383
663.180693	2456.478652
663.521879	2466.031638
663.863013	2460.410752
664.204097	2464.872173
664.545129	2466.031638
664.886110	2455.193158
665.227040	2458.923612
665.567918	2463.183387
665.908746	2465.653552
666.249522	2451.588733
666.590248	2462.654065
666.930922	2462.477625
667.271545	2465.628346
667.612118	2457.537294
667.952639	2458.243056
668.293109	2462.704477
668.633528	2461.822275
668.973896	2454.134515
669.314213	2469.762092
669.654480	2459.528550
669.994695	2454.436985
670.334859	2461.973510
670.674973	2460.561987
671.015035	2460.108283
671.355047	2457.814558
671.695008	2468.022894
672.034918	2451.613938
672.374777	2461.721452
672.714585	2456.201388
673.054342	2457.486883
673.394049	2463.284210
673.733705	2451.840790
674.073310	2471.198821
674.412864	2455.293981
674.752368	2456.932356
675.091820	2453.806840
675.431223	2456.403035
675.770574	2455.798096
676.109875	2466.182873
676.449125	2457.990998
676.788324	2454.588219
677.127473	2453.756429
677.466571	2455.092335
677.805619	2456.277006
678.144616	2453.302725
678.483562	2457.083590
678.822458	2456.327417
679.161303	2456.705504
679.500098	2457.839763
679.838842	2454.159721
680.177535	2460.007460
680.516179	2465.956021
680.854771	2455.344392
681.193314	2461.217337
681.531805	2461.343365
681.870247	2454.714248
682.208638	2451.160235
682.546978	2455.092335
682.885268	2465.124231
683.223508	2452.849021
683.561697	2460.763633
683.899836	2454.613425
684.237925	2461.847481
684.575963	2460.662810
684.913951	2462.981740
685.251889	2457.083590
685.589776	2457.007973
685.927614	2459.049640
686.265401	2453.731223
686.603137	2453.353137
686.940824	2452.470935
687.278460	2464.972996
687.616046	2456.680298
687.953582	2462.452419
688.291068	2459.654579
688.628504	2459.629373
688.965889	2463.536267
689.303224	2463.385033
689.640510	2459.100052
689.977745	2463.964765
690.314930	2459.200875
690.652065	2455.218363
690.989150	2459.503344
691.326185	2457.688529
691.663170	2458.495113
692.000105	2458.923612
692.336990	2461.343365
692.673825	2465.099025
693.010610	2455.873713
693.347345	2456.503858
693.684030	2453.201902
694.020665	2451.538321
694.357251	2456.579475
694.693786	2455.697273
695.030272	2457.007973
695.366707	2452.269288
695.703093	2456.176183
696.039429	2458.948817
696.375716	2455.117540
696.711952	2457.209619
697.048139	2458.797583
697.384276	2457.940587
697.720363	2455.243569
698.056400	2453.882458
698.392388	2462.578448
698.728326	2456.302212
699.064214	2454.991512
699.400053	2457.134002
699.735842	2458.192644
700.071581	2459.226081
700.407270	2463.233798
700.742910	2453.983281
701.078501	2460.486369
701.414042	2464.620115
701.749533	2462.074333
702.084974	2457.134002
702.420366	2461.973510
702.755709	2462.729683
703.091002	2455.369598
703.426246	2454.310956
703.761440	2460.057871
704.096584	2460.259517
704.431679	2457.713735
704.766725	2454.588219
705.101721	2462.149950
705.436668	2461.469394
705.771565	2456.604681
706.106413	2463.914354
706.441212	2456.201388
706.775961	2463.561473
707.110661	2456.529063
707.445311	2455.898919
707.779913	2463.006946
708.114465	2460.259517
708.448967	2456.403035
708.783421	2458.747171
709.117825	2458.595937
709.452180	2461.671040
709.786485	2461.822275
710.120742	2456.150977
710.454949	2453.529577
710.789107	2461.292954
711.123216	2453.126285
711.457275	2453.630400
711.791286	2461.469394
712.125247	2462.931329
712.459159	2463.586679
712.793023	2454.764660
713.126837	2452.521346
713.460602	2463.107769
713.794318	2453.605194
714.127985	2458.217850
714.461602	2453.000256
714.795171	2460.637604
715.128691	2454.941100
715.462162	2455.394804
715.795584	2451.412292
716.128957	2461.166925
716.462281	2452.924638
716.795556	2464.292440
717.128782	2458.520319
717.461960	2451.689556
717.795088	2454.260544
718.128167	2454.512602
718.461198	2467.745631
718.794180	2458.873200
719.127113	2451.286263
719.459997	2459.704990
719.792833	2456.478652
720.125619	2459.326904
720.458357	2464.494087
720.791046	2460.057871
721.123686	2452.874227
721.456278	2455.445215
721.788821	2455.772890
722.121315	2461.166925
722.453761	2447.984308
722.786158	2456.176183
723.118506	2458.873200
723.450805	2454.159721
723.783056	2463.359827
724.115259	2461.519806
724.447412	2457.335648
724.779518	2457.486883
725.111574	2459.427727
725.443582	2449.521860
725.775542	2464.090794
726.107453	2455.117540
726.439315	2453.882458
726.771129	2457.688529
727.102895	2457.839763
727.434612	2458.545525
727.766281	2459.730196
728.097901	2455.898919
728.429473	2461.091308
728.760996	2460.763633
729.092471	2458.772377
729.423897	2467.216310
729.755276	2460.688015
730.086606	2468.552215
730.417887	2456.831533
730.749120	2449.168979
731.080305	2461.671040
731.411442	2451.639144
731.742530	2447.833073
732.073570	2465.855198
732.404562	2463.687502
732.735506	2453.075873
733.066401	2457.159208
733.397249	2451.840790
733.728048	2466.107256
734.058798	2463.611885
734.389501	2456.251800
734.720156	2452.092848
735.050762	2457.083590
735.381320	2461.166925
735.711831	2459.200875
736.042293	2457.386060
736.372707	2451.261058
736.703073	2456.176183
737.033391	2455.067129
737.363661	2465.527523
737.693883	2463.662296
738.024056	2460.259517
738.354182	2460.158694
738.684260	2457.713735
739.014290	2453.403548
739.344272	2455.344392
739.674207	2452.521346
740.004093	2459.679785
740.333931	2464.645321
740.663722	2459.276492
740.993464	2453.201902
741.323159	2453.579988
741.652806	2447.959102
741.982405	2456.957562
742.311956	2462.679271
742.641460	2460.511575
742.970915	2459.881431
743.300323	2458.268262
743.629683	2458.898406
743.958996	2459.578962
744.288260	2446.673608
744.617477	2464.418469
744.946647	2455.722479
745.275768	2448.438012
745.604842	2459.805813
745.933869	2457.007973
746.262847	2456.251800
746.591778	2455.974537
746.920662	2453.731223
747.249498	2457.688529
747.578286	2454.008487
747.907027	2458.772377
748.235720	2449.572271
748.564365	2445.136056
748.892963	2457.386060
749.221514	2458.948817
749.550017	2458.747171
749.878473	2456.755915
750.206881	2457.461677
750.535242	2468.930302
750.863555	2459.881431
751.191821	2453.832046
751.520039	2451.412292
751.848210	2455.823302
752.176334	2455.621656
752.504411	2458.016204
752.832440	2461.771863
753.160421	2452.344906
753.488356	2454.739454
753.816243	2462.049127
754.144082	2458.318673
754.471875	2454.764660
754.799620	2456.705504
755.127318	2467.291927
755.454969	2452.823815
755.782572	2458.419496
756.110129	2454.512602
756.437638	2450.303238
756.765100	2454.487396
757.092515	2461.923098
757.419882	2461.721452
757.747203	2458.520319
758.074477	2452.672581
758.401703	2450.908177
758.728882	2457.184413
759.056014	2453.000256
759.383099	2456.579475
759.710138	2454.235338
760.037129	2443.900973
760.364073	2460.940073
760.690970	2450.404062
761.017820	2467.014663
761.344623	2452.445729
761.671379	2459.402521
761.998088	2451.412292
762.324751	2457.713735
762.651366	2462.074333
762.977935	2451.412292
763.304456	2456.781121
763.630931	2460.435958
763.957359	2459.125258
764.283740	2457.461677
764.610074	2452.899433
764.936362	2458.570731
765.262602	2456.327417
765.588796	2455.873713
765.914943	2454.008487
766.241044	2447.757456
766.567097	2455.420010
766.893104	2451.639144
767.219064	2455.873713
767.544978	2454.815071
767.870845	2458.873200
768.196665	2451.084617
768.522438	2450.983794
768.848165	2462.628860
769.173846	2455.470421
769.499479	2460.561987
769.825066	2461.393777
770.150607	2455.546038
770.476101	2452.244083
770.801548	2451.639144
771.126949	2459.780608
771.452303	2457.890175
771.777611	2452.143260
772.102872	2452.370112
772.428087	2462.124744
772.753256	2453.075873
773.078378	2458.444702
773.403453	2454.184927
773.728482	2453.579988
774.053465	2445.715788
774.378401	2460.133488
774.703291	2457.764146
775.028135	2455.218363
775.352932	2460.284723
775.677683	2456.604681
776.002388	2457.990998
776.327046	2449.446242
776.651658	2450.252827
776.976224	2447.202929
777.300743	2456.327417
777.625216	2458.923612
777.949643	2448.916921
778.274024	2450.252827
778.598359	2454.789865
778.922647	2458.369085
779.246889	2455.293981
779.571086	2449.799123
779.895236	2455.218363
780.219339	2457.184413
780.543397	2457.234825
780.867409	2449.547065
781.191374	2462.175156
781.515294	2455.949331
781.839167	2455.142746
782.162995	2456.781121
782.486776	2457.562500
782.810511	2455.747685
783.134201	2448.488423
783.457844	2458.268262
783.781441	2461.645835
784.104993	2462.351596
784.428498	2456.881944
784.751958	2448.488423
785.075372	2454.789865
785.398739	2449.874740
785.722061	2462.200362
786.045337	2457.587706
786.368568	2461.948304
786.691752	2459.427727
787.014891	2453.857252
787.337983	2461.872687
787.661030	2454.411779
787.984031	2464.342852
788.306987	2459.679785
788.629897	2453.353137
788.952760	2458.520319
789.275579	2459.831019
789.598351	2457.663323
789.921078	2458.570731
790.243759	2448.715275
790.566395	2462.049127
790.888984	2453.327931
791.211529	2457.764146
791.534027	2456.075360
791.856480	2458.520319
792.178888	2458.016204
792.501249	2450.555296
792.823566	2455.747685
793.145836	2454.663837
793.468062	2465.300671
793.790241	2452.017231
794.112375	2451.815585
794.434464	2457.688529
794.756507	2461.166925
795.078505	2457.512088
795.400457	2451.538321
795.722364	2454.033692
796.044226	2460.511575
796.366042	2459.074846
796.687812	2458.091821
797.009538	2450.252827
797.331218	2461.620629
797.652852	2455.999742
797.974442	2457.461677
798.295986	2452.546552
798.617484	2459.452933
798.938938	2449.849535
799.260346	2453.832046
799.581709	2457.738940
799.903026	2459.024435
800.224299	2453.050667
800.545526	2461.519806
800.866708	2451.059412
801.187845	2460.209106
801.508936	2455.394804
801.829983	2458.646348
802.150984	2454.739454
802.471940	2447.076900
802.792851	2442.363421
803.113717	2456.932356
803.434538	2457.436471
803.755314	2452.445729
804.076045	2449.521860
804.396731	2461.973510
804.717372	2452.748198
805.037967	2455.999742
805.358518	2452.571758
805.679024	2457.537294
805.999485	2455.445215
806.319901	2450.328444
806.640272	2452.521346
806.960598	2457.159208
807.280879	2460.965279
807.601115	2453.126285
807.921306	2466.334108
808.241453	2447.278546
808.561554	2452.395317
808.881611	2452.092848
809.201623	2446.295521
809.521590	2450.202415
809.841513	2451.815585
810.161390	2458.293467
810.481223	2466.157667
810.801011	2444.959615
811.120755	2445.917435
811.440453	2452.118054
811.760107	2464.569704
812.079716	2456.327417
812.399281	2451.891202
812.718801	2450.101592
813.038276	2457.663323
813.357707	2455.167952
813.677093	2454.361367
813.996434	2454.689042
814.315731	2453.327931
814.634983	2454.033692
814.954191	2456.302212
815.273354	2452.294494
815.592473	2457.285237
815.911547	2451.437498
816.230577	2450.832560
816.549562	2463.334621
816.868502	2448.614452
817.187399	2461.141719
817.506250	2452.395317
817.825058	2453.579988
818.143821	2453.706017
818.462539	2455.873713
818.781213	2452.168465
819.099843	2460.612398
819.418429	2453.201902
819.736970	2463.712708
820.055466	2447.454987
820.373919	2460.940073
820.692327	2453.151490
821.010691	2462.351596
821.329011	2456.428240
821.647286	2454.310956
821.965517	2453.680812
822.283704	2450.025975
822.601847	2451.790379
822.919945	2457.839763
823.237999	2454.487396
823.556010	2457.007973
823.873976	2453.832046
824.191897	2455.117540
824.509775	2453.176696
824.827609	2445.488937
825.145398	2449.723506
825.463144	2451.513115
825.780845	2459.629373
826.098502	2458.570731
826.416116	2457.713735
826.733685	2455.193158
827.051210	2459.125258
827.368692	2457.134002
827.686129	2449.824329
828.003522	2464.443675
828.320872	2450.882971
828.638177	2448.740481
828.955439	2450.202415
829.272656	2461.645835
829.589830	2453.529577
829.906960	2454.058898
830.224046	2455.218363
830.541088	2454.966306
830.858086	2449.773917
831.175041	2463.687502
831.491952	2448.942127
831.808819	2452.546552
832.125642	2449.950358
832.442421	2463.158181
832.759157	2457.486883
833.075849	2455.117540
833.392497	2455.293981
833.709101	2451.462704
834.025662	2451.059412
834.342179	2453.806840
834.658653	2446.497167
834.975083	2454.966306
835.291469	2464.620115
835.607811	2452.748198
835.924110	2456.478652
836.240366	2454.109310
836.556578	2444.556323
836.872746	2449.673094
837.188871	2452.092848
837.504952	2458.091821
837.820990	2454.033692
838.136984	2447.984308
838.452935	2456.125771
838.768842	2450.404062
839.084706	2456.277006
839.400526	2458.217850
839.716303	2454.789865
840.032037	2456.024948
840.347727	2449.950358
840.663373	2449.118567
840.978977	2442.060952
841.294537	2456.629887
841.610054	2452.849021
841.925527	2457.537294
842.240957	2449.622683
842.556344	2452.420523
842.871687	2461.343365
843.186987	2460.057871
843.502244	2458.495113
843.817458	2459.125258
844.132629	2458.469908
844.447756	2449.723506
844.762840	2446.497167
845.077881	2458.444702
845.392879	2446.371138
845.707833	2450.756942
846.022745	2452.949844
846.337613	2446.648402
846.652438	2456.050154
846.967221	2452.571758
847.281960	2446.925665
847.596656	2456.327417
847.911309	2451.865996
848.225919	2451.034206
848.540485	2460.385546
848.855009	2455.344392
849.169490	2449.849535
849.483928	2459.251287
849.798323	2454.865483
850.112675	2453.630400
850.426984	2455.067129
850.741251	2448.891715
851.055474	2453.605194
851.369654	2452.722992
851.683792	2449.824329
851.997887	2456.428240
852.311938	2453.000256
852.625947	2454.058898
852.939914	2451.563527
853.253837	2457.184413
853.567718	2453.126285
853.881555	2459.251287
854.195350	2450.630913
854.509103	2461.469394
854.822812	2447.480192
855.136479	2449.370625
855.450103	2457.688529
855.763685	2450.706531
856.077224	2447.354163
856.390720	2455.672067
856.704173	2448.614452
857.017584	2453.227108
857.330953	2461.141719
857.644278	2454.714248
857.957561	2457.134002
858.270802	2453.000256
858.584000	2443.270829
858.897155	2452.823815
859.210268	2453.706017
859.523339	2455.193158
859.836367	2453.302725
860.149352	2450.706531
860.462295	2459.100052
860.775195	2454.210133
861.088054	2465.023408
861.400869	2454.210133
861.713642	2458.394290
862.026373	2447.883485
862.339062	2452.118054
862.651708	2451.412292
862.964312	2449.547065
863.276873	2455.394804
863.589392	2453.958075
863.901869	2455.117540
864.214303	2449.068156
864.526696	2458.167438
864.839045	2452.899433
865.151353	2447.152517
865.463619	2455.949331
865.775842	2455.621656
866.088023	2445.413319
866.400162	2454.109310
866.712258	2447.102106
867.024313	2460.612398
867.336325	2446.547579
867.648296	2465.023408
867.960224	2456.655092
868.272110	2457.461677
868.583954	2457.461677
868.895755	2453.630400
869.207515	2453.706017
869.519233	2449.370625
869.830909	2453.529577
870.142542	2450.504885
870.454134	2453.050667
870.765684	2451.790379
871.077191	2450.328444
871.388657	2452.697787
871.700081	2451.865996
872.011463	2463.460650
872.322803	2446.169492
872.634101	2449.647888
872.945357	2455.319187
873.256571	2455.167952
873.567744	2455.747685
873.878874	2459.654579
874.189963	2451.916408
874.501010	2457.940587
874.812015	2444.379883
875.122979	2465.552729
875.433900	2459.831019
875.744780	2449.345419
876.055618	2456.277006
876.366415	2458.343879
876.677169	2456.403035
876.987882	2452.193671
877.298554	2445.917435
877.609183	2451.437498
877.919771	2440.951898
878.230317	2447.833073
878.540822	2446.497167
878.851285	2454.159721
879.161707	2458.293467
879.472087	2452.672581
879.782425	2444.430294
880.092722	2452.849021
880.402977	2452.470935
880.713191	2448.891715
881.023363	2446.698813
881.333494	2454.058898
881.643583	2447.782662
881.953631	2448.866510
882.263637	2458.948817
882.573602	2455.016717
882.883526	2446.875254
883.193408	2457.839763
883.503248	2445.362908
883.813048	2458.167438
884.122806	2451.941613
884.432522	2453.655606
884.742197	2453.983281
885.051831	2456.806327
885.361424	2452.168465
885.670975	2448.790892
885.980485	2458.192644
886.289954	2452.546552
886.599382	2458.419496
886.908768	2456.604681
887.218113	2449.244596
887.527417	2454.411779
887.836680	2446.471962
888.145901	2451.034206
888.455082	2451.059412
888.764221	2453.630400
889.073319	2454.789865
889.382376	2449.320213
889.691392	2450.278033
890.000366	2450.303238
890.309300	2449.975563
890.618193	2458.369085
890.927044	2449.496654
891.235855	2457.688529
891.544625	2448.639658
891.853353	2455.621656
892.162041	2451.034206
892.470687	2453.983281
892.779293	2449.874740
893.087858	2454.310956
893.396381	2452.773404
893.704864	2454.462190
894.013306	2454.714248
894.321707	2453.353137
894.630068	2453.428754
894.938387	2454.109310
895.246665	2455.470421
895.554903	2454.789865
895.863100	2454.310956
896.171256	2451.891202
896.479371	2456.932356
896.787446	2451.714762
897.095480	2452.420523
897.403473	2450.328444
897.711425	2452.571758
898.019336	2452.622169
898.327207	2457.864969
898.635038	2450.983794
898.942827	2450.404062
899.250576	2450.353650
899.558284	2440.926692
899.865952	2450.101592
900.173579	2457.612912
900.481165	2455.142746
900.788711	2457.814558
901.096216	2461.318160
901.403681	2449.975563
901.711105	2449.547065
902.018489	2444.909204
902.325832	2456.856738
902.633135	2449.295008
902.940397	2449.950358
903.247619	2454.764660
903.554800	2453.554783
903.861941	2456.377829
904.169041	2453.227108
904.476101	2451.513115
904.783121	2452.118054
905.090100	2450.227621
905.397039	2454.512602
905.703938	2457.663323
906.010796	2458.167438
906.317614	2451.790379
906.624391	2448.286777
906.931129	2463.561473
907.237826	2446.068669
907.544483	2452.017231
907.851099	2447.253340
908.157675	2452.344906
908.464211	2457.411265
908.770707	2452.798610
909.077163	2445.640171
909.383578	2459.377315
909.689954	2449.496654
909.996289	2453.151490
910.302584	2449.017744
910.608839	2460.259517
910.915054	2450.782148
911.221229	2458.646348
911.527363	2457.990998
911.833458	2451.739967
912.139513	2456.176183
912.445527	2454.588219
912.751502	2459.805813
913.057436	2448.992538
913.363331	2446.824842
913.669186	2449.446242
913.975000	2450.429267
914.280775	2454.084104
914.586510	2453.504371
914.892205	2444.077413
915.197859	2451.160235
915.503475	2454.789865
915.809050	2455.495627
916.114585	2451.865996
916.420081	2457.486883
916.725536	2451.714762
917.030952	2448.311983
917.336328	2451.790379
917.641665	2443.598504
917.946961	2449.849535
918.252218	2448.790892
918.557435	2445.665377
918.862612	2450.504885
919.167750	2455.268775
919.472848	2447.833073
919.777906	2449.471448
920.082925	2441.430808
920.387904	2451.336675
920.692843	2458.142233
920.997743	2450.000769
921.302603	2449.370625
921.607423	2448.690069
921.912204	2447.883485
922.216946	2454.815071
922.521647	2451.689556
922.826310	2449.244596
923.130932	2453.201902
923.435516	2454.739454
923.740059	2454.663837
924.044564	2448.891715
924.349028	2456.957562
924.653454	2446.396344
924.957840	2454.815071
925.262186	2450.454473
925.566493	2452.269288
925.870761	2445.438525
926.174989	2447.480192
926.479178	2447.404575
926.783328	2459.704990
927.087438	2446.547579
927.391509	2455.646862
927.695541	2453.731223
927.999533	2444.707558
928.303486	2447.001283
928.607400	2447.127312
928.911275	2447.681838
929.215110	2450.328444
929.518906	2451.916408
929.822663	2450.353650
930.126381	2448.463217
930.430060	2452.445729
930.733699	2454.563013
931.037299	2451.311469
931.340861	2457.864969
931.644383	2451.437498
931.947866	2449.345419
932.251309	2457.940587
932.554714	2448.740481
932.858080	2442.892742
933.161407	2448.614452
933.464694	2446.925665
933.767943	2449.622683
934.071153	2446.396344
934.374323	2453.554783
934.677455	2441.859306
934.980548	2449.471448
935.283602	2448.740481
935.586617	2448.387600
935.889593	2449.345419
936.192530	2446.219904
936.495428	2449.295008
936.798287	2451.815585
937.101108	2454.815071
937.403890	2448.362394
937.706632	2450.278033
938.009336	2454.563013
938.312002	2451.513115
938.614628	2451.261058
938.917216	2453.605194
939.219765	2449.421037
939.522275	2450.857765
939.824747	2447.026488
940.127179	2451.916408
940.429573	2439.086671
940.731929	2452.924638
941.034246	2454.865483
941.336524	2448.538835
941.638763	2452.722992
941.940964	2457.990998
942.243126	2450.479679
942.545250	2454.563013
942.847335	2445.564554
943.149381	2451.613938
943.451389	2445.967846
943.753359	2454.663837
944.055290	2450.630913
944.357182	2449.219390
944.659036	2446.623196
944.960851	2448.261571
945.262628	2444.480706
945.564367	2450.706531
945.866067	2446.900460
946.167729	2453.428754
946.469352	2458.243056
946.770937	2452.244083
947.072484	2461.872687
947.373992	2454.436985
947.675462	2450.882971
947.976893	2448.967333
948.278286	2450.706531
948.579641	2441.985335
948.880958	2456.730710
949.182236	2451.790379
949.483476	2455.016717
949.784678	2449.723506
950.085841	2456.277006
950.386967	2446.850048
950.688054	2449.824329
950.989103	2451.235852
951.290114	2458.091821
951.591087	2446.270315
951.892021	2451.109823
952.192917	2457.562500
952.493776	2453.680812
952.794596	2452.092848
953.095378	2448.564040
953.396122	2456.755915
953.696828	2451.739967
953.997496	2453.050667
954.298126	2444.304265
954.598718	2449.950358
954.899272	2452.168465
955.199788	2459.704990
955.500266	2443.144800
955.800706	2452.496140
956.101108	2456.428240
956.401472	2449.647888
956.701798	2451.563527
957.002087	2440.624223
957.302337	2453.781635
957.602550	2449.496654
957.902724	2449.698300
958.202861	2441.909717
958.502960	2453.000256
958.803022	2448.816098
959.103045	2446.724019
959.403031	2450.832560
959.702979	2454.260544
960.002889	2455.193158
960.302762	2450.303238
960.602596	2451.664350
960.902393	2444.354677
961.202153	2453.101079
961.501875	2450.227621
961.801559	2456.579475
962.101205	2447.732250
962.400814	2446.245110
962.700385	2440.926692
962.999918	2449.295008
963.299414	2441.859306
963.598873	2449.824329
963.898293	2436.994592
964.197677	2456.907150
964.497022	2448.438012
964.796331	2448.311983
965.095601	2455.672067
965.394835	2453.151490
965.694030	2444.379883
965.993189	2455.092335
966.292309	2442.791919
966.591393	2446.673608
966.890439	2452.496140
967.189447	2460.561987
967.488419	2452.168465
967.787353	2459.503344
968.086249	2450.983794
968.385108	2447.707044
968.683930	2453.403548
968.982714	2448.891715
969.281462	2449.118567
969.580172	2444.505912
969.878844	2453.227108
970.177480	2451.034206
970.476078	2448.790892
970.774639	2448.866510
971.073162	2446.950871
971.371649	2446.396344
971.670098	2442.615479
971.968510	2452.697787
972.266885	2446.824842
972.565223	2447.202929
972.863524	2448.664863
973.161788	2451.084617
973.460014	2449.572271
973.758204	2454.915894
974.056356	2452.269288
974.354471	2450.504885
974.652550	2450.454473
974.950591	2443.371652
975.248595	2448.589246
975.546563	2451.235852
975.844493	2459.226081
976.142386	2446.497167
976.440243	2449.446242
976.738062	2457.713735
977.035845	2451.916408
977.333590	2448.916921
977.631299	2452.672581
977.928971	2455.621656
978.226606	2447.984308
978.524204	2444.455500
978.821765	2445.539348
979.119290	2454.487396
979.416777	2445.413319
979.714228	2459.503344
980.011642	2445.816612
980.309020	2457.663323
980.606360	2456.831533
980.903664	2454.310956
981.200931	2455.520833
981.498162	2453.554783
981.795356	2447.883485
982.092513	2446.799637
982.389633	2443.926179
982.686717	2455.319187
982.983764	2451.286263
983.280775	2449.143773
983.577749	2447.303752
983.874686	2453.756429
984.171587	2449.547065
984.468451	2456.075360
984.765279	2448.160748
985.062070	2452.269288
985.358824	2446.068669
985.655543	2445.362908
985.952224	2443.144800
986.248869	2450.807354
986.545478	2448.690069
986.842050	2446.421550
987.138586	2451.261058
987.435086	2453.554783
987.731549	2454.008487
988.027975	2448.286777
988.324366	2444.682352
988.620719	2446.119081
988.917037	2447.833073
989.213318	2453.353137
989.509563	2449.345419
989.805772	2449.421037
990.101944	2448.841304
990.398080	2448.589246
990.694180	2455.092335
990.990244	2454.487396
991.286271	2451.210646
991.582262	2449.395831
991.878217	2443.422063
992.174136	2446.295521
992.470019	2448.538835
992.765865	2454.336162
993.061676	2445.917435
993.357450	2452.722992
993.653188	2446.724019
993.948890	2450.731737
994.244556	2448.311983
994.540186	2446.623196
994.835780	2449.647888
995.131337	2452.193671
995.426859	2449.345419
995.722345	2445.614965
996.017795	2450.908177
996.313208	2453.353137
996.608586	2449.269802
996.903928	2450.051181
997.199234	2447.152517
997.494504	2452.470935
997.789738	2445.816612
998.084936	2456.755915
998.380099	2451.084617
998.675225	2439.590787
998.970316	2450.051181
999.265371	2437.120621
999.560390	2453.252313
999.855373	2450.152004
1000.150320	2457.360854
1000.445232	2446.194698
1000.740108	2455.520833
1001.034948	2447.782662
1001.329752	2448.715275
1001.624521	2446.824842
1001.919254	2448.639658
1002.213951	2447.429781
1002.508613	2446.648402
1002.803239	2452.596963
1003.097829	2447.001283
1003.392384	2455.848508
1003.686903	2452.924638
1003.981386	2446.850048
1004.275834	2452.924638
1004.570246	2441.607248
1004.864623	2452.798610
1005.158964	2450.530090
1005.453270	2445.564554
1005.747540	2455.546038
1006.041775	2454.537808
1006.335974	2456.251800
1006.630138	2445.942640
1006.924266	2448.185954
1007.218359	2446.950871
1007.512416	2454.739454
1007.806438	2448.085131
1008.100425	2447.757456
1008.394376	2449.647888
1008.688292	2445.488937
1008.982172	2446.396344
1009.276017	2446.144287
1009.569827	2446.396344
1009.863602	2453.504371
1010.157341	2447.152517
1010.451045	2449.698300
1010.744714	2452.168465
1011.038347	2448.059925
1011.331945	2444.556323
1011.625508	2450.882971
1011.919036	2451.084617
1012.212528	2440.296548
1012.505986	2447.051694
1012.799408	2446.824842
1013.092795	2439.893256
1013.386147	2446.623196
1013.679464	2448.765687
1013.972745	2446.547579
1014.265992	2448.589246
1014.559204	2447.278546
1014.852380	2447.782662
1015.145521	2445.791406
1015.438628	2456.907150
1015.731699	2445.186467
1016.024736	2450.454473
1016.317737	2452.118054
1016.610703	2445.766200
1016.903635	2447.253340
1017.196531	2458.595937
1017.489393	2442.741508
1017.782219	2440.472988
1018.075011	2453.101079
1018.367768	2460.637604
1018.660490	2449.168979
1018.953177	2449.168979
1019.245829	2449.168979
