Dividing Wavelength (nm)	Counts (n)	Slit_number_8_of_a_total_of_40	
326.493990	2026.543846
326.888308	2026.543846
327.282561	2026.543846
327.676750	2044.692000
328.070874	2019.234173
328.464933	2025.787673
328.858929	2024.275327
329.252859	2025.535615
329.646726	2050.237269
330.040528	2080.988308
330.434265	2103.925558
330.827938	2123.586058
331.221547	2153.076808
331.615091	2157.865904
332.008571	2171.224962
332.401986	2203.992462
332.795338	2243.313462
333.188625	2239.532596
333.581847	2273.560385
333.975006	2261.461615
334.368100	2304.563481
334.761129	2313.385500
335.154095	2321.955462
335.546996	2347.917404
335.939833	2355.731192
336.332606	2393.035731
336.725315	2369.846423
337.117960	2410.931827
337.510540	2400.345404
337.903056	2412.444173
338.295508	2458.822788
338.687896	2452.269288
339.080220	2463.863942
339.472480	2426.559404
339.864676	2447.984308
340.256807	2432.860846
340.648875	2455.293981
341.040879	2462.603654
341.432818	2447.228135
341.824694	2457.814558
342.216506	2447.480192
342.608253	2457.058385
342.999937	2440.422577
343.391557	2460.083077
343.783113	2462.603654
344.174605	2425.803231
344.566033	2445.463731
344.957397	2430.844385
345.348697	2420.005904
345.739934	2457.310442
346.131106	2461.343365
346.522215	2433.617019
346.913260	2446.976077
347.304241	2453.025462
347.695159	2446.471962
348.086012	2439.918462
348.476802	2426.559404
348.867528	2414.460635
349.258191	2446.976077
349.648789	2397.572769
350.039324	2426.055288
350.429796	2396.564538
350.820203	2459.578962
351.210548	2423.030596
351.600828	2442.186981
351.991045	2403.118038
352.381198	2400.093346
352.771288	2435.381423
353.161314	2432.356731
353.551276	2427.315577
353.941175	2433.617019
354.331010	2412.948288
354.720782	2427.063519
355.110490	2417.737385
355.500135	2425.551173
355.889717	2434.121135
356.279235	2423.534712
356.668689	2421.770308
357.058080	2408.915365
357.447408	2422.526481
357.836672	2428.827923
358.225873	2418.493558
358.615010	2451.513115
359.004084	2424.795000
359.393095	2428.827923
359.782043	2420.257962
360.170927	2461.847481
360.559748	2433.869077
360.948505	2437.145827
361.337199	2439.666404
361.725830	2447.480192
362.114398	2457.058385
362.502903	2439.666404
362.891344	2406.394788
363.279722	2435.129365
363.668037	2449.244596
364.056289	2466.132462
364.444478	2458.066615
364.832603	2422.526481
365.220665	2418.493558
365.608665	2432.356731
365.996601	2432.860846
366.384474	2435.885538
366.772284	2442.439038
367.160031	2435.633481
367.547715	2464.620115
367.935336	2461.343365
368.322893	2450.000769
368.710388	2424.542942
369.097820	2453.025462
369.485189	2426.055288
369.872495	2442.439038
370.259738	2457.058385
370.646918	2444.707558
371.034035	2442.439038
371.421090	2457.814558
371.808081	2452.773404
372.195010	2428.323808
372.581875	2434.121135
372.968678	2435.129365
373.355418	2433.364962
373.742096	2433.112904
374.128710	2432.356731
374.515262	2446.724019
374.901751	2439.162288
375.288177	2433.869077
375.674540	2433.617019
376.060841	2456.554269
376.447079	2460.335135
376.833254	2441.178750
377.219367	2444.203442
377.605417	2462.351596
377.991404	2464.872173
378.377329	2445.715788
378.763191	2474.198308
379.148991	2450.504885
379.534727	2445.967846
379.920402	2455.798096
380.306013	2446.471962
380.691563	2467.140692
381.077049	2421.266192
381.462474	2448.488423
381.847835	2444.455500
382.233134	2448.488423
382.618371	2456.302212
383.003545	2421.518250
383.388657	2431.348500
383.773706	2439.414346
384.158693	2445.463731
384.543618	2467.896865
384.928480	2451.765173
385.313280	2454.033692
385.698017	2447.228135
386.082692	2446.471962
386.467305	2451.513115
386.851856	2467.140692
387.236344	2440.674635
387.620770	2459.326904
388.005133	2454.789865
388.389435	2455.798096
388.773674	2435.381423
389.157851	2442.439038
389.541965	2446.724019
389.926018	2436.389654
390.310008	2464.116000
390.693936	2454.033692
391.077802	2473.442135
391.461606	2450.756942
391.845348	2446.471962
392.229027	2450.252827
392.612645	2452.269288
392.996200	2463.863942
393.379694	2446.219904
393.763125	2489.321769
394.146494	2446.471962
394.529801	2482.012096
394.913047	2453.529577
395.296230	2489.069712
395.679351	2440.674635
396.062410	2484.532673
396.445408	2457.814558
396.828343	2448.992538
397.211217	2449.748712
397.594028	2464.368058
397.976778	2445.967846
398.359466	2453.529577
398.742092	2459.578962
399.124656	2455.293981
399.507158	2441.178750
399.889598	2438.154058
400.271977	2455.041923
400.654294	2479.743577
401.036549	2452.017231
401.418742	2479.995635
401.800874	2457.058385
402.182944	2452.269288
402.564952	2478.483288
402.946898	2470.669500
403.328783	2474.198308
403.710606	2461.343365
404.092367	2466.636577
404.474067	2458.822788
404.855705	2471.173615
405.237282	2459.326904
405.618797	2453.025462
406.000250	2454.033692
406.381642	2486.801192
406.762972	2456.302212
407.144240	2449.748712
407.525447	2466.384519
407.906593	2444.707558
408.287677	2439.162288
408.668700	2478.987404
409.049661	2460.335135
409.430560	2452.269288
409.811399	2457.310442
410.192176	2448.992538
410.572891	2461.343365
410.953545	2460.587192
411.334138	2445.463731
411.714669	2474.954481
412.095139	2438.910231
412.475547	2467.644808
412.855894	2473.442135
413.236180	2462.351596
413.616405	2477.979173
413.996568	2459.831019
414.376670	2453.529577
414.756711	2468.400981
415.136691	2460.335135
415.516609	2473.946250
415.896466	2459.831019
416.276262	2455.041923
416.655997	2453.529577
417.035670	2456.050154
417.415283	2479.743577
417.794834	2462.099538
418.174324	2464.620115
418.553753	2429.584096
418.933121	2480.247692
419.312428	2469.913327
419.691674	2441.430808
420.070859	2465.124231
420.449983	2477.727115
420.829045	2464.620115
421.208047	2467.644808
421.586988	2460.335135
421.965867	2456.806327
422.344686	2448.488423
422.723444	2459.326904
423.102141	2468.148923
423.480777	2465.628346
423.859352	2478.987404
424.237866	2465.124231
424.616319	2452.269288
424.994712	2471.929788
425.373044	2463.863942
425.751314	2473.694192
426.129524	2449.496654
426.507673	2465.124231
426.885762	2476.466827
427.263789	2465.124231
427.641756	2458.822788
428.019662	2476.466827
428.397508	2492.346462
428.775292	2485.036788
429.153016	2451.009000
429.530679	2495.875269
429.908282	2457.814558
430.285824	2475.458596
430.663305	2461.091308
431.040726	2476.718885
431.418086	2450.252827
431.795385	2488.817654
432.172624	2468.653038
432.549802	2491.338231
432.926920	2471.425673
433.303977	2470.669500
433.680974	2467.392750
434.057910	2456.806327
434.434786	2462.351596
434.811601	2477.475058
435.188355	2486.045019
435.565050	2471.677731
435.941683	2475.962712
436.318257	2459.578962
436.694770	2466.636577
437.071222	2480.247692
437.447614	2482.012096
437.823946	2473.190077
438.200218	2455.041923
438.576429	2485.036788
438.952580	2474.198308
439.328670	2461.343365
439.704700	2478.231231
440.080670	2480.247692
440.456580	2475.710654
440.832429	2502.680827
441.208218	2495.119096
441.583947	2485.288846
441.959616	2458.822788
442.335224	2458.066615
442.710773	2484.028558
443.086261	2436.893769
443.461689	2488.817654
443.837057	2491.590288
444.212365	2479.743577
444.587612	2447.732250
444.962800	2482.264154
445.337927	2461.343365
445.712995	2481.003865
446.088002	2462.603654
446.462949	2473.694192
446.837837	2476.718885
447.212664	2481.760038
447.587431	2494.614981
447.962139	2470.921558
448.336786	2477.727115
448.711374	2465.880404
449.085901	2441.178750
449.460369	2478.987404
449.834776	2478.231231
450.209124	2475.710654
450.583412	2471.425673
450.957640	2480.499750
451.331808	2465.880404
451.705917	2497.387615
452.079965	2480.751808
452.453954	2473.190077
452.827883	2451.765173
453.201752	2479.995635
453.575562	2478.483288
453.949311	2510.494615
454.323001	2482.264154
454.696632	2480.499750
455.070202	2485.036788
455.443713	2494.362923
455.817164	2526.374250
456.190556	2495.119096
456.563888	2492.346462
456.937160	2462.603654
457.310373	2505.957577
457.683526	2479.995635
458.056619	2480.499750
458.429653	2469.913327
458.802628	2462.099538
459.175542	2489.069712
459.548398	2463.863942
459.921194	2484.532673
460.293930	2495.623212
460.666607	2487.557365
461.039224	2472.938019
461.411782	2496.127327
461.784280	2512.259019
462.156719	2516.796058
462.529099	2479.995635
462.901419	2492.346462
463.273680	2478.987404
463.645882	2472.181846
464.018024	2466.636577
464.390106	2486.297077
464.762130	2478.735346
465.134094	2481.003865
465.505999	2494.110865
465.877845	2487.557365
466.249631	2489.573827
466.621358	2504.193173
466.993026	2496.631442
467.364634	2475.206538
467.736184	2513.519308
468.107674	2495.119096
468.479105	2476.214769
468.850477	2502.932885
469.221790	2500.412308
469.593043	2476.718885
469.964238	2516.039885
470.335373	2485.288846
470.706449	2487.809423
471.077467	2488.061481
471.448425	2523.601615
471.819324	2512.763135
472.190164	2477.727115
472.560945	2490.077942
472.931667	2512.006962
473.302330	2475.458596
473.672934	2522.341327
474.043479	2481.003865
474.413965	2495.875269
474.784393	2486.801192
475.154761	2497.387615
475.525070	2484.532673
475.895321	2471.425673
476.265513	2486.297077
476.635645	2496.883500
477.005719	2501.420538
477.375734	2522.341327
477.745691	2514.023423
478.115588	2508.478154
478.485427	2514.527538
478.855207	2506.965808
479.224928	2509.738442
479.594591	2483.776500
479.964194	2479.491519
480.333739	2524.357788
480.703226	2513.267250
481.072653	2506.713750
481.442022	2529.903058
481.811333	2521.585154
482.180584	2523.349558
482.549777	2505.201404
482.918912	2493.606750
483.287988	2520.828981
483.657005	2509.738442
484.025964	2502.680827
484.394864	2527.634538
484.763706	2535.448327
485.132489	2516.291942
485.501213	2514.275481
485.869879	2515.535769
486.238487	2537.716846
486.607036	2539.985365
486.975527	2528.138654
487.343959	2531.919519
487.712333	2525.618077
488.080648	2529.398942
488.448905	2540.741538
488.817104	2542.505942
489.185244	2554.352654
489.553326	2527.634538
489.921350	2561.158212
490.289315	2556.369115
490.657222	2567.459654
491.025070	2544.522404
491.392861	2549.311500
491.760593	2569.476115
492.128267	2556.873231
492.495883	2564.182904
492.863440	2574.517269
493.230939	2552.336192
493.598380	2575.273442
493.965763	2523.853673
494.333088	2576.281673
494.700354	2563.426731
495.067563	2566.955538
495.434713	2560.149981
495.801805	2559.645865
496.168839	2576.785788
496.535815	2563.174673
496.902733	2581.322827
497.269593	2575.273442
497.636395	2575.021385
498.003139	2584.599577
498.369825	2552.840308
498.736453	2550.823846
499.103023	2553.344423
499.469535	2579.054308
499.835989	2563.426731
500.202385	2536.456558
500.568723	2548.051212
500.935003	2564.434962
501.301226	2567.963769
501.667390	2533.179808
502.033497	2568.215827
502.399546	2559.645865
502.765537	2594.933942
503.131470	2592.917481
503.497345	2550.823846
503.863163	2571.240519
504.228923	2553.092365
504.594625	2594.177769
504.960269	2568.467885
505.325856	2575.525500
505.691385	2586.868096
506.056856	2604.512135
506.422270	2602.999788
506.787625	2574.517269
507.152924	2568.972000
507.518164	2583.591346
507.883347	2590.144846
508.248472	2597.454519
508.613540	2582.835173
508.978550	2605.772423
509.343503	2581.322827
509.708398	2601.487442
510.073236	2584.347519
510.438016	2549.059442
510.802738	2574.769327
511.167403	2588.632500
511.532010	2590.396904
511.896561	2593.169538
512.261053	2619.887654
512.625488	2597.706577
512.989866	2565.695250
513.354186	2577.289904
513.718449	2610.057404
514.082655	2636.775519
514.446803	2577.794019
514.810894	2608.545058
515.174927	2634.759058
515.538904	2612.577981
515.902822	2645.093423
516.266684	2601.991558
516.630488	2620.643827
516.994235	2619.887654
517.357925	2630.978192
517.721558	2609.301231
518.085133	2640.808442
518.448651	2636.523462
518.812112	2619.887654
519.175516	2675.088288
519.538863	2639.548154
519.902152	2641.312558
520.265385	2656.688077
520.628560	2673.575942
520.991678	2668.534788
521.354739	2658.956596
521.717743	2651.898981
522.080690	2678.869154
522.443580	2661.225115
522.806413	2703.066692
523.169189	2705.587269
523.531908	2681.893846
523.894569	2695.757019
524.257174	2685.926769
524.619722	2693.488500
524.982213	2746.420615
525.344647	2752.217942
525.707025	2765.324942
526.069345	2754.234404
526.431608	2784.229269
526.793815	2779.188115
527.155964	2776.667538
527.518057	2785.741615
527.880093	2804.645942
528.242072	2824.810558
528.603995	2834.892865
528.965860	2854.301308
529.327669	2832.372288
529.689421	2868.920654
530.051117	2871.693288
530.412755	2923.113058
530.774337	2921.600712
531.135862	2905.216962
531.497331	2944.033846
531.858743	2972.516365
532.220098	2963.190231
532.581396	2995.453615
532.942638	3023.432019
533.303824	3048.637788
533.664953	3033.010212
534.026025	3073.339442
534.387040	3080.901173
534.747999	3121.734519
535.108902	3153.997904
535.469748	3194.075077
535.830537	3227.094635
536.191270	3209.450596
536.551947	3239.697519
536.912567	3277.002058
537.273131	3332.706808
537.633638	3295.654327
537.994089	3370.767519
538.354483	3388.159500
538.714821	3456.467135
539.075103	3473.102942
539.435328	3542.670865
539.795497	3567.120462
540.155609	3584.764500
540.515665	3655.340654
540.875665	3723.900346
541.235609	3734.738827
541.595496	3783.638019
541.955328	3852.953885
542.315102	3926.554731
542.674821	3923.025923
543.034483	3984.023885
543.394090	4021.580481
543.753640	4051.575346
544.113134	4179.116538
544.472571	4211.631981
544.831953	4303.128923
545.191278	4338.164942
545.550548	4400.927308
545.909761	4463.437615
546.268918	4588.962346
546.628019	4643.406808
546.987064	4724.569385
547.346053	4777.249442
547.704986	4899.245365
548.063863	4933.525212
548.422684	5018.216596
548.781449	5094.085962
549.140158	5183.062327
549.498811	5317.661135
549.857408	5377.398808
550.215949	5517.290827
550.574434	5580.305250
550.932864	5649.117000
551.291237	5811.190096
551.649555	5917.306385
552.007817	6011.575962
552.366022	6117.440192
552.724173	6187.008115
553.082267	6376.303442
553.440305	6576.437250
553.798288	6616.010308
554.156215	6731.704788
554.514086	6857.985692
554.871902	7035.434308
555.229661	7141.550596
555.587365	7263.546519
555.945014	7415.285250
556.302606	7513.335692
556.660143	7737.919096
557.017625	7828.407808
557.375050	8009.889346
557.732421	8132.389385
558.089735	8354.704269
558.446994	8420.743385
558.804197	8670.280500
559.161345	8869.910192
559.518437	8860.079942
559.875474	9175.908231
560.232455	9311.263212
560.589381	9546.433038
560.946251	9602.641904
561.303065	9867.806596
561.659825	10036.433192
562.016528	10103.480538
562.373177	10290.759404
562.729770	10540.548577
563.086307	10627.760538
563.442789	10884.607327
563.799216	11117.004519
564.155587	11254.628019
564.511904	11436.865731
564.868164	11591.377096
565.224370	11848.223885
565.580520	12022.395750
565.936615	12269.664346
566.292654	12455.178808
566.648638	12706.228269
567.004567	12816.629538
567.360441	13129.433135
567.716260	13261.259308
568.072023	13458.116365
568.427732	13707.149365
568.783385	13873.507442
569.138982	14152.031192
569.494525	14302.257577
569.850013	14535.410942
570.205445	14688.914077
570.560823	14998.440923
570.916145	15093.718731
571.271412	15288.307269
571.626625	15472.057327
571.981782	15687.818712
572.336884	15778.559481
572.691931	16150.344577
573.046923	16248.899135
573.401860	16400.637865
573.756743	16581.111173
574.111570	16761.332423
574.466342	17031.790327
574.821059	17233.184423
575.175722	17360.473558
575.530330	17559.347077
575.884882	17684.619750
576.239380	17976.250500
576.593823	18009.270058
576.948211	18289.054096
577.302544	18307.202250
577.656823	18539.851500
578.011047	18899.285769
578.365216	18911.888654
578.719330	19053.293019
579.073389	19408.442308
579.427394	19430.371327
579.781344	19724.270596
580.135239	19791.822058
580.489080	19973.303596
580.842866	20092.526885
581.196597	20503.885038
581.550273	20588.324365
581.903895	20656.884058
582.257463	21180.912000
582.610975	21101.009712
582.964434	21421.627096
583.317837	21478.088019
583.671186	21593.026327
584.024481	21907.594327
584.377721	21840.042865
584.730906	22293.494654
585.084037	22521.606865
585.437113	22555.886712
585.790135	22871.462942
586.143103	22810.464981
586.496016	23036.812788
586.848874	23303.741885
587.201679	23455.228558
587.554428	23339.029962
587.907124	23758.706019
588.259765	23834.575385
588.612352	24172.584750
588.964884	24055.629981
589.317362	24291.303923
589.669786	24388.850250
590.022155	24564.534462
590.374470	25050.501692
590.726731	25002.610731
591.078937	24920.187865
591.431090	25039.915269
591.783188	25255.676654
592.135232	25210.810385
592.487222	25466.144827
592.839157	25710.892846
593.191038	25679.133577
593.542866	25857.842481
593.894639	25559.658231
594.246358	25948.331192
594.598022	26106.875481
594.949633	26058.732462
595.301190	26094.272596
595.652692	26152.245865
596.004141	26540.918827
596.355535	26226.854942
596.706876	26348.598808
597.058162	26376.829269
597.409395	26884.977577
597.760573	27026.886058
598.111698	26807.343808
598.462768	26992.606212
598.813785	27159.468404
599.164748	26968.660731
599.515657	27476.304923
599.866511	27210.888173
600.217312	27796.166135
600.568060	27272.642308
600.918753	27727.858500
601.269392	27937.066385
601.619978	27755.080731
601.970510	28125.605538
602.320988	28317.673500
602.671412	28677.611885
603.021783	28457.565519
603.372100	28511.757923
603.722363	28585.610827
604.072572	28979.072885
604.422728	28970.754981
604.772830	28993.440173
605.122878	29005.034827
605.472872	29192.565750
605.822813	29373.291115
606.172701	29426.979404
606.522534	29581.994885
606.872314	29906.645192
607.222041	29760.703788
607.571714	30169.289308
607.921333	29704.746981
608.270899	29968.147269
608.620411	30228.018750
608.969870	30161.979635
609.319276	30142.571192
609.668627	30339.680308
610.017926	30726.840923
610.367171	30916.388308
610.716362	30903.029250
611.065500	30879.083769
611.414585	31107.700096
611.763616	31376.393596
612.112594	31351.187827
612.461518	31462.849385
612.810389	31636.517135
613.159207	31456.295885
613.507971	31527.628212
613.856682	31784.979115
614.205340	31825.056288
614.553945	32277.499846
614.902496	31780.442077
615.250994	32219.022462
615.599439	32147.186019
615.947830	32373.533827
616.296169	32178.441173
616.644454	32180.709692
616.992686	32428.734462
617.340864	32523.760212
617.688990	32320.601712
618.037063	32731.203692
618.385082	32715.324058
618.733048	32631.388846
619.080961	32750.108019
619.428821	32668.693385
619.776628	32718.852865
620.124382	32473.852788
620.472083	32688.858000
620.819731	32513.173788
621.167326	32435.540019
621.514868	32298.924750
621.862357	32116.434981
622.209793	32107.865019
622.557176	31907.479154
622.904506	31645.591212
623.251783	31454.531481
623.599007	31284.644596
623.946179	31001.331750
624.293297	31036.115712
624.640363	30418.574365
624.987376	30531.748269
625.334336	30229.026981
625.681243	29921.768654
626.028097	29676.768577
626.374899	29584.263404
626.721647	29565.611135
627.068343	29320.611058
627.414987	28944.036865
627.761577	28707.354692
628.108115	28797.591346
628.454600	28362.035654
628.801032	28250.122038
629.147412	28218.110712
629.493739	28069.144615
629.840014	27822.128077
630.186236	27798.686712
630.532405	27469.751423
630.878521	27384.051808
631.224585	27203.830558
631.570597	26935.389115
631.916556	26839.607192
632.262462	26736.263538
632.608316	26610.486750
632.954117	26376.325154
633.299866	26274.241788
633.645562	26256.849808
633.991206	25740.635654
634.336797	25293.737365
634.682336	25285.671519
635.027823	25043.444077
635.373257	24847.091135
635.718639	24624.776250
636.063968	24559.241250
636.409245	24030.676269
636.754470	23968.418019
637.099642	23776.602115
637.444762	23293.659577
637.789829	23183.258308
638.134845	22832.394000
638.479808	22745.182038
638.824719	22528.916538
639.169577	22215.356769
639.514383	22133.690077
639.859137	21832.481135
640.203839	21878.355635
640.548489	21513.124038
640.893086	21473.046865
641.237632	21174.610558
641.582125	20994.893423
641.926566	20997.918115
642.270955	20729.980788
642.615292	20615.294538
642.959576	20521.529077
643.303809	20369.790346
643.647990	20409.867519
643.992118	20218.303673
644.336195	20029.512462
644.680219	20011.112250
645.024192	20043.123577
645.368112	19993.468212
645.711981	19821.312808
646.055797	20024.975423
646.399562	19959.944538
646.743274	20240.232692
647.086935	20241.240923
647.430544	20069.589635
647.774101	20114.455904
648.117606	20033.041269
648.461059	20174.193577
648.804460	19934.738769
649.147810	19520.860038
649.491108	19473.221135
649.834354	19053.545077
650.177548	18593.791846
650.520690	18300.900808
650.863781	18165.041712
651.206820	17918.025173
651.549807	17626.646481
651.892742	17269.984846
652.235626	17061.785192
652.578458	16912.314981
652.921238	16651.183212
653.263967	16498.436250
653.606644	16191.682038
653.949269	16113.796212
654.291843	15870.560538
654.634365	15869.552308
654.976836	15674.207596
655.319255	15468.528519
655.661622	15440.550115
656.003938	15202.859712
656.346203	15091.450212
656.688416	15078.091154
657.030577	14790.493327
657.372687	14681.856462
657.714746	14709.078692
658.056753	14614.557058
658.398708	14297.468481
658.740612	14224.371750
659.082465	14241.511673
659.424266	14038.353173
659.766016	14041.881981
660.107715	13834.942615
660.449362	13808.980673
660.790958	13718.239904
661.132503	13610.359212
661.473996	13522.391077
661.815438	13414.258327
662.156829	13491.135923
662.498168	13269.325154
662.839456	13208.579250
663.180693	13148.841577
663.521879	13162.956808
663.863013	12917.956731
664.204097	12913.419692
664.545129	12986.012308
664.886110	12817.889827
665.227040	12727.401115
665.567918	12758.656269
665.908746	12671.192250
666.249522	12629.854788
666.590248	12554.489538
666.930922	12398.717885
667.271545	12436.022423
667.612118	12343.517250
667.952639	12177.915346
668.293109	12083.141654
668.633528	12042.056250
668.973896	11886.788712
669.314213	11803.861731
669.654480	11676.572596
669.994695	11655.147692
670.334859	11521.557115
670.674973	11465.600308
671.015035	11336.546769
671.355047	11317.642442
671.695008	11276.052923
672.034918	11117.760692
672.374777	11053.990096
672.714585	11004.838846
673.054342	10937.791500
673.394049	10858.645385
673.733705	10781.263673
674.073310	10620.702923
674.412864	10595.749212
674.752368	10447.539288
675.091820	10462.662750
675.431223	10295.548500
675.770574	10170.527885
676.109875	10055.589577
676.449125	9913.176981
676.788324	9862.513385
677.127473	9672.461885
677.466571	9602.137788
677.805619	9433.007077
678.144616	9368.228250
678.483562	9306.474115
678.822458	9182.713788
679.161303	9052.399962
679.500098	8984.848500
679.838842	8996.443154
680.177535	8794.292885
680.516179	8891.083038
680.854771	8824.287750
681.193314	8843.948250
681.531805	9030.218885
681.870247	9085.923635
682.208638	9271.186038
682.546978	9386.376404
682.885268	9376.294096
683.223508	9330.923712
683.561697	9205.398981
683.899836	9065.759019
684.237925	8925.362885
684.575963	8800.846385
684.913951	8702.543885
685.251889	8636.000654
685.589776	8592.394673
685.927614	8564.164212
686.265401	8515.769135
686.603137	8515.769135
686.940824	8512.492385
687.278460	8599.452288
687.616046	8503.418308
687.953582	8608.778423
688.291068	8588.865865
688.628504	8622.137481
688.965889	8586.093231
689.303224	8449.477962
689.640510	8462.332904
689.977745	8303.536558
690.314930	8132.893500
690.652065	7930.491173
690.989150	7855.630038
691.326185	7601.555885
691.663170	7395.624750
692.000105	7219.688481
692.336990	7108.783096
692.673825	6974.940462
693.010610	6816.900288
693.347345	6660.120404
693.684030	6577.445481
694.020665	6421.925885
694.357251	6318.834288
694.693786	6264.137769
695.030272	6179.194327
695.366707	6066.020423
695.703093	6018.129462
696.039429	5967.465865
696.375716	5869.919538
696.711952	5803.124250
697.048139	5736.328962
697.384276	5725.994596
697.720363	5745.403038
698.056400	5682.388615
698.392388	5617.105673
698.728326	5610.300115
699.064214	5596.184885
699.400053	5537.959558
699.735842	5454.780519
700.071581	5380.675558
700.407270	5344.127192
700.742910	5302.285615
701.078501	5213.309250
701.414042	5139.708404
701.749533	5130.382269
702.084974	5023.257750
702.420366	5004.101365
702.755709	4924.955250
703.091002	4881.349269
703.426246	4840.515923
703.761440	4783.550885
704.096584	4749.018981
704.431679	4702.640365
704.766725	4682.475750
705.101721	4687.012788
705.436668	4635.845077
705.771565	4594.003500
706.106413	4623.242192
706.441212	4595.011731
706.775961	4615.680462
707.110661	4583.165019
707.445311	4617.948981
707.779913	4551.405750
708.114465	4566.529212
708.448967	4612.655769
708.783421	4632.064212
709.117825	4674.661962
709.452180	4684.744269
709.786485	4698.355385
710.120742	4784.307058
710.454949	4815.562212
710.789107	4873.535481
711.123216	4942.599288
711.457275	4931.004635
711.791286	5001.580788
712.125247	5062.578750
712.459159	5035.608577
712.793023	5117.023212
713.126837	4959.235096
713.460602	5001.076673
713.794318	4931.256692
714.127985	4839.507692
714.461602	4756.076596
714.795171	4718.267942
715.128691	4599.800827
715.462162	4509.816231
715.795584	4423.864558
716.128957	4372.192731
716.462281	4347.743135
716.795556	4232.552769
717.128782	4208.103173
717.461960	4091.652519
717.795088	4103.751288
718.128167	4044.769788
718.461198	3975.453923
718.794180	3963.355154
719.127113	3897.316038
719.459997	3895.299577
719.792833	3849.173019
720.125619	3820.186385
720.458357	3766.750154
720.791046	3762.465173
721.123686	3717.598904
721.456278	3667.691481
721.788821	3668.447654
722.121315	3652.063904
722.453761	3630.891058
722.786158	3631.395173
723.118506	3574.178077
723.450805	3594.090635
723.783056	3577.454827
724.115259	3609.214096
724.447412	3584.008327
724.779518	3571.657500
725.111574	3580.479519
725.443582	3600.392077
725.775542	3573.421904
726.107453	3615.263481
726.439315	3590.057712
726.771129	3645.258346
727.102895	3631.899288
727.434612	3661.390038
727.766281	3676.009385
728.097901	3704.239846
728.429473	3714.070096
728.760996	3712.053635
729.092471	3690.880788
729.423897	3659.877692
729.755276	3658.365346
730.086606	3648.535096
730.417887	3640.973365
730.749120	3660.885923
731.080305	3708.776885
731.411442	3701.467212
731.742530	3708.776885
732.073570	3711.045404
732.404562	3703.735731
732.735506	3694.913712
733.066401	3694.409596
733.397249	3633.663692
733.728048	3606.189404
734.058798	3536.621481
734.389501	3476.883808
734.720156	3447.897173
735.050762	3349.342615
735.381320	3319.851865
735.711831	3307.248981
736.042293	3295.654327
736.372707	3293.637865
736.703073	3254.316865
737.033391	3247.763365
737.363661	3234.404308
737.693883	3256.333327
738.024056	3262.634769
738.354182	3231.631673
738.684260	3266.163577
739.014290	3270.700615
739.344272	3302.711942
739.674207	3330.438288
740.004093	3339.512365
740.333931	3329.682115
740.663722	3369.003115
740.993464	3328.169769
741.323159	3322.120385
741.652806	3281.287038
741.982405	3278.262346
742.311956	3234.656365
742.641460	3235.664596
742.970915	3198.612115
743.300323	3150.973212
743.629683	3140.638846
743.958996	3131.060654
744.288260	3103.334308
744.617477	3087.454673
744.946647	3078.128538
745.275768	3057.207750
745.604842	3049.646019
745.933869	3009.316788
746.262847	3044.856923
746.591778	2992.933038
746.920662	2982.094558
747.249498	2979.069865
747.578286	3013.349712
747.907027	2997.218019
748.235720	3017.886750
748.564365	3033.766385
748.892963	3014.610000
749.221514	3013.097654
749.550017	2995.705673
749.878473	2992.176865
750.206881	2993.437154
750.535242	2982.850731
750.863555	2962.938173
751.191821	2965.710808
751.520039	2939.748865
751.848210	2939.244750
752.176334	2942.521500
752.504411	2955.880558
752.832440	2928.406269
753.160421	2951.343519
753.488356	2919.584250
753.816243	2912.526635
754.144082	2914.795154
754.471875	2920.088365
754.799620	2915.551327
755.127318	2909.249885
755.454969	2896.142885
755.782572	2885.808519
756.110129	2892.866135
756.437638	2872.197404
756.765100	2882.279712
757.092515	2859.090404
757.419882	2880.011192
757.747203	2878.750904
758.074477	2925.885692
758.401703	2906.225192
758.728882	2882.279712
759.056014	2880.011192
759.383099	2897.655231
759.710138	2910.258115
760.037129	2873.205635
760.364073	2924.625404
760.690970	2891.101731
761.017820	2890.345558
761.344623	2885.808519
761.671379	2904.208731
761.998088	2913.282808
762.324751	2913.786923
762.651366	3020.911442
762.977935	3134.085346
763.304456	3253.308635
763.630931	3322.372442
763.957359	3312.542192
764.283740	3287.840538
764.610074	3200.880635
764.936362	3126.019500
765.262602	3039.059596
765.588796	2953.107923
765.914943	2909.249885
766.241044	2872.449462
766.567097	2871.945346
766.893104	2822.794096
767.219064	2796.580096
767.544978	2777.927827
767.870845	2786.245731
768.196665	2743.900038
768.522438	2753.478231
768.848165	2756.502923
769.173846	2736.590365
769.499479	2745.160327
769.825066	2728.020404
770.150607	2750.957654
770.476101	2705.839327
770.801548	2728.272462
771.126949	2678.365038
771.452303	2689.203519
771.777611	2684.414423
772.102872	2667.778615
772.428087	2684.162365
772.753256	2660.468942
773.078378	2691.976154
773.403453	2661.981288
773.728482	2646.605769
774.053465	2636.271404
774.378401	2652.907212
774.703291	2643.329019
775.028135	2633.246712
775.352932	2646.353712
775.677683	2638.791981
776.002388	2634.507000
776.327046	2646.857827
776.651658	2638.287865
776.976224	2608.040942
777.300743	2599.470981
777.625216	2633.498769
777.949643	2618.627365
778.274024	2617.871192
778.598359	2610.813577
778.922647	2598.210692
779.246889	2606.276538
779.571086	2626.945269
779.895236	2606.024481
780.219339	2633.498769
780.543397	2611.821808
780.867409	2607.032712
781.191374	2596.950404
781.515294	2600.227154
781.839167	2632.742596
782.162995	2605.268308
782.486776	2621.400000
782.810511	2607.788885
783.134201	2610.561519
783.457844	2589.136615
783.781441	2616.358846
784.104993	2613.082096
784.428498	2566.451423
784.751958	2600.479212
785.075372	2610.813577
785.398739	2590.901019
785.722061	2582.583115
786.045337	2591.909250
786.368568	2585.607808
786.691752	2571.492577
787.014891	2604.008019
787.337983	2597.202462
787.661030	2632.490538
787.984031	2629.465846
788.306987	2662.989519
788.629897	2618.879423
788.952760	2628.457615
789.275579	2651.898981
789.598351	2629.969962
789.921078	2635.767288
790.243759	2608.545058
790.566395	2594.681885
790.888984	2567.459654
791.211529	2617.871192
791.534027	2573.004923
791.856480	2588.884558
792.178888	2579.306365
792.501249	2574.769327
792.823566	2565.695250
793.145836	2574.265212
793.468062	2585.859865
793.790241	2553.344423
794.112375	2581.070769
794.434464	2566.955538
794.756507	2550.319731
795.078505	2565.695250
795.400457	2591.909250
795.722364	2581.574885
796.044226	2594.681885
796.366042	2604.764192
796.687812	2616.862962
797.009538	2605.520365
797.331218	2618.375308
797.652852	2614.846500
797.974442	2597.454519
798.295986	2605.016250
798.617484	2575.021385
798.938938	2576.281673
799.260346	2551.580019
799.581709	2592.413365
799.903026	2577.037846
800.224299	2568.467885
800.545526	2574.013154
800.866708	2579.306365
801.187845	2568.719942
801.508936	2588.380442
801.829983	2563.426731
802.150984	2571.240519
802.471940	2571.240519
802.792851	2562.418500
803.113717	2573.256981
803.434538	2554.100596
803.755314	2540.741538
804.076045	2555.612942
804.396731	2561.410269
804.717372	2556.873231
805.037967	2547.295038
805.358518	2544.522404
805.679024	2541.245654
805.999485	2560.906154
806.319901	2544.270346
806.640272	2542.001827
806.960598	2540.489481
807.280879	2574.769327
807.601115	2556.117058
807.921306	2528.390712
808.241453	2563.678788
808.561554	2564.182904
808.881611	2547.547096
809.201623	2545.782692
809.521590	2556.873231
809.841513	2528.138654
810.161390	2552.336192
810.481223	2570.988462
810.801011	2557.881462
811.120755	2573.004923
811.440453	2531.919519
811.760107	2542.253885
812.079716	2533.935981
812.399281	2570.232288
812.718801	2540.741538
813.038276	2549.311500
813.357707	2534.944212
813.677093	2545.530635
813.996434	2525.366019
814.315731	2532.927750
814.634983	2517.048115
814.954191	2559.897923
815.273354	2544.774462
815.592473	2565.947308
815.911547	2552.336192
816.230577	2554.604712
816.549562	2549.059442
816.868502	2554.100596
817.187399	2557.881462
817.506250	2554.352654
817.825058	2543.766231
818.143821	2559.393808
818.462539	2594.429827
818.781213	2571.996692
819.099843	2581.826942
819.418429	2612.325923
819.736970	2604.764192
820.055466	2614.090327
820.373919	2615.854731
820.692327	2660.973058
821.010691	2704.326981
821.329011	2763.056423
821.647286	2940.757096
821.965517	3192.310673
822.283704	3393.452712
822.601847	3593.334462
822.919945	3543.931154
823.237999	3432.773712
823.556010	3311.281904
823.873976	3163.576096
824.191897	3062.248904
824.509775	2961.929942
824.827609	2895.890827
825.145398	2815.484423
825.463144	2812.207673
825.780845	2779.692231
826.098502	2764.316712
826.416116	2806.158288
826.733685	2829.095538
827.051210	2871.945346
827.368692	2898.159346
827.686129	2860.098635
828.003522	2834.640808
828.320872	2754.990577
828.638177	2743.900038
828.955439	2665.762154
829.272656	2619.635596
829.589830	2625.180865
829.906960	2600.479212
830.224046	2603.251846
830.541088	2600.479212
830.858086	2589.892788
831.175041	2549.311500
831.491952	2543.766231
831.808819	2558.385577
832.125642	2554.100596
832.442421	2539.733308
832.759157	2588.884558
833.075849	2606.528596
833.392497	2620.391769
833.709101	2701.050231
834.025662	2693.740558
834.342179	2696.765250
834.658653	2659.964827
834.975083	2652.655154
835.291469	2646.605769
835.607811	2596.446288
835.924110	2586.111923
836.240366	2584.851635
836.556578	2549.563558
836.872746	2566.703481
837.188871	2540.993596
837.504952	2530.155115
837.820990	2508.982269
838.136984	2526.626308
838.452935	2534.944212
838.768842	2522.845442
839.084706	2519.820750
839.400526	2518.560462
839.716303	2568.719942
840.032037	2558.889692
840.347727	2560.402038
840.663373	2544.018288
840.978977	2534.692154
841.294537	2549.059442
841.610054	2517.804288
841.925527	2536.960673
842.240957	2512.763135
842.556344	2531.163346
842.871687	2517.048115
843.186987	2530.407173
843.502244	2503.437000
843.817458	2510.746673
844.132629	2482.768269
844.447756	2497.639673
844.762840	2533.935981
845.077881	2511.754904
845.392879	2507.721981
845.707833	2520.324865
846.022745	2524.357788
846.337613	2483.524442
846.652438	2492.346462
846.967221	2519.316635
847.281960	2527.130423
847.596656	2513.519308
847.911309	2481.760038
848.225919	2486.549135
848.540485	2494.867038
848.855009	2501.168481
849.169490	2486.297077
849.483928	2515.283712
849.798323	2500.664365
850.112675	2496.379385
850.426984	2478.735346
850.741251	2494.614981
851.055474	2484.028558
851.369654	2505.201404
851.683792	2503.437000
851.997887	2494.110865
852.311938	2483.272385
852.625947	2476.214769
852.939914	2487.305308
853.253837	2512.006962
853.567718	2516.796058
853.881555	2509.486385
854.195350	2506.713750
854.509103	2504.949346
854.822812	2520.324865
855.136479	2485.036788
855.450103	2518.560462
855.763685	2491.086173
856.077224	2491.590288
856.390720	2522.341327
856.704173	2486.297077
857.017584	2494.362923
857.330953	2472.938019
857.644278	2491.842346
857.957561	2531.415404
858.270802	2481.507981
858.584000	2478.483288
858.897155	2516.039885
859.210268	2474.450365
859.523339	2477.727115
859.836367	2493.102635
860.149352	2482.264154
860.462295	2481.003865
860.775195	2496.379385
861.088054	2495.623212
861.400869	2481.507981
861.713642	2491.590288
862.026373	2489.321769
862.339062	2470.669500
862.651708	2482.264154
862.964312	2485.288846
863.276873	2464.368058
863.589392	2477.475058
863.901869	2479.995635
864.214303	2489.825885
864.526696	2504.445231
864.839045	2467.392750
865.151353	2515.535769
865.463619	2469.409212
865.775842	2493.102635
866.088023	2509.486385
866.400162	2477.475058
866.712258	2511.250788
867.024313	2478.987404
867.336325	2518.812519
867.648296	2481.003865
867.960224	2484.532673
868.272110	2470.165385
868.583954	2498.143788
868.895755	2496.631442
869.207515	2501.672596
869.519233	2508.730212
869.830909	2486.801192
870.142542	2493.606750
870.454134	2494.614981
870.765684	2495.623212
871.077191	2489.573827
871.388657	2484.028558
871.700081	2505.957577
872.011463	2502.932885
872.322803	2473.946250
872.634101	2490.834115
872.945357	2493.858808
873.256571	2494.362923
873.567744	2489.825885
873.878874	2498.647904
874.189963	2506.965808
874.501010	2493.858808
874.812015	2524.105731
875.122979	2506.209635
875.433900	2486.801192
875.744780	2483.776500
876.055618	2470.921558
876.366415	2489.321769
876.677169	2483.020327
876.987882	2500.412308
877.298554	2484.280615
877.609183	2519.316635
877.919771	2502.428769
878.230317	2532.171577
878.540822	2510.746673
878.851285	2494.110865
879.161707	2550.823846
879.472087	2501.924654
879.782425	2517.552231
880.092722	2535.952442
880.402977	2556.369115
880.713191	2586.363981
881.023363	2635.515231
881.333494	2698.025538
881.643583	2734.069788
881.953631	2716.929865
882.263637	2711.636654
882.573602	2660.721000
882.883526	2672.315654
883.193408	2673.323885
883.503248	2622.660288
883.813048	2628.205558
884.122806	2603.251846
884.432522	2587.624269
884.742197	2606.276538
885.051831	2567.963769
885.361424	2545.278577
885.670975	2535.952442
885.980485	2515.535769
886.289954	2525.366019
886.599382	2544.018288
886.908768	2515.283712
887.218113	2505.957577
887.527417	2520.828981
887.836680	2528.894827
888.145901	2500.916423
888.455082	2533.179808
888.764221	2533.431865
889.073319	2481.760038
889.382376	2495.119096
889.691392	2501.168481
890.000366	2499.404077
890.309300	2484.532673
890.618193	2490.077942
890.927044	2536.708615
891.235855	2498.143788
891.544625	2503.689058
891.853353	2517.048115
892.162041	2507.974038
892.470687	2484.028558
892.779293	2494.362923
893.087858	2482.012096
893.396381	2527.130423
893.704864	2513.771365
894.013306	2522.341327
894.321707	2558.385577
894.630068	2528.642769
894.938387	2534.692154
895.246665	2534.944212
895.554903	2534.188038
895.863100	2530.155115
896.171256	2532.927750
896.479371	2509.486385
896.787446	2549.815615
897.095480	2510.998731
897.403473	2485.792962
897.711425	2527.130423
898.019336	2504.445231
898.327207	2481.760038
898.635038	2505.957577
898.942827	2542.001827
899.250576	2512.511077
899.558284	2531.667462
899.865952	2493.606750
900.173579	2476.970942
900.481165	2498.647904
900.788711	2516.039885
901.096216	2499.404077
901.403681	2500.664365
901.711105	2519.820750
902.018489	2487.557365
902.325832	2487.305308
902.633135	2484.784731
902.940397	2487.305308
903.247619	2480.247692
903.554800	2533.179808
903.861941	2503.184942
904.169041	2520.576923
904.476101	2548.303269
904.783121	2558.385577
905.090100	2536.708615
905.397039	2543.766231
905.703938	2540.489481
906.010796	2521.081038
906.317614	2542.758000
906.624391	2523.601615
906.931129	2516.796058
907.237826	2500.664365
907.544483	2491.590288
907.851099	2494.110865
908.157675	2498.899962
908.464211	2494.614981
908.770707	2479.995635
909.077163	2496.127327
909.383578	2482.516212
909.689954	2465.376288
909.996289	2480.247692
910.302584	2493.858808
910.608839	2490.582058
910.915054	2507.469923
911.221229	2489.825885
911.527363	2500.664365
911.833458	2493.858808
912.139513	2484.280615
912.445527	2469.409212
912.751502	2498.395846
913.057436	2466.636577
913.363331	2469.913327
913.669186	2482.516212
913.975000	2497.639673
914.280775	2504.193173
914.586510	2492.346462
914.892205	2521.837212
915.197859	2487.305308
915.503475	2501.924654
915.809050	2512.763135
916.114585	2534.188038
916.420081	2547.295038
916.725536	2547.547096
917.030952	2555.108827
917.336328	2503.437000
917.641665	2516.039885
917.946961	2529.146885
918.252218	2524.609846
918.557435	2523.097500
918.862612	2494.362923
919.167750	2509.486385
919.472848	2513.519308
919.777906	2512.511077
920.082925	2525.618077
920.387904	2512.763135
920.692843	2496.631442
920.997743	2498.899962
921.302603	2470.417442
921.607423	2488.313538
921.912204	2494.614981
922.216946	2476.718885
922.521647	2475.206538
922.826310	2503.941115
923.130932	2502.932885
923.435516	2484.784731
923.740059	2485.540904
924.044564	2467.644808
924.349028	2497.639673
924.653454	2490.582058
924.957840	2487.809423
925.262186	2468.653038
925.566493	2480.247692
925.870761	2502.428769
926.174989	2497.387615
926.479178	2486.801192
926.783328	2490.834115
927.087438	2506.209635
927.391509	2469.409212
927.695541	2467.644808
927.999533	2485.288846
928.303486	2519.316635
928.607400	2491.086173
928.911275	2471.425673
929.215110	2440.422577
929.518906	2492.094404
929.822663	2481.760038
930.126381	2499.908192
930.430060	2482.012096
930.733699	2479.743577
931.037299	2492.598519
931.340861	2461.091308
931.644383	2481.760038
931.947866	2464.872173
932.251309	2484.532673
932.554714	2499.908192
932.858080	2462.603654
933.161407	2458.066615
933.464694	2501.924654
933.767943	2454.789865
934.071153	2464.872173
934.374323	2463.107769
934.677455	2490.582058
934.980548	2475.206538
935.283602	2477.979173
935.586617	2493.606750
935.889593	2489.573827
936.192530	2479.239462
936.495428	2480.499750
936.798287	2473.694192
937.101108	2470.165385
937.403890	2463.107769
937.706632	2483.020327
938.009336	2476.466827
938.312002	2478.231231
938.614628	2504.445231
938.917216	2488.565596
939.219765	2491.338231
939.522275	2476.970942
939.824747	2497.135558
940.127179	2485.288846
940.429573	2495.623212
940.731929	2486.045019
941.034246	2466.636577
941.336524	2497.891731
941.638763	2499.152019
941.940964	2494.110865
942.243126	2492.850577
942.545250	2492.598519
942.847335	2499.656135
943.149381	2493.858808
943.451389	2484.532673
943.753359	2490.330000
944.055290	2471.929788
944.357182	2497.135558
944.659036	2479.491519
944.960851	2480.751808
945.262628	2473.442135
945.564367	2461.595423
945.866067	2496.883500
946.167729	2467.896865
946.469352	2465.124231
946.770937	2466.132462
947.072484	2471.677731
947.373992	2498.899962
947.675462	2491.842346
947.976893	2466.888635
948.278286	2486.801192
948.579641	2475.458596
948.880958	2491.842346
949.182236	2480.247692
949.483476	2488.313538
949.784678	2478.231231
950.085841	2493.858808
950.386967	2489.573827
950.688054	2470.417442
950.989103	2488.313538
951.290114	2446.724019
951.591087	2475.458596
951.892021	2481.760038
952.192917	2492.094404
952.493776	2506.965808
952.794596	2490.834115
953.095378	2476.718885
953.396122	2479.239462
953.696828	2475.962712
953.997496	2493.354692
954.298126	2457.562500
954.598718	2505.705519
954.899272	2486.801192
955.199788	2495.623212
955.500266	2482.516212
955.800706	2494.867038
956.101108	2483.020327
956.401472	2482.264154
956.701798	2469.157154
957.002087	2456.806327
957.302337	2482.516212
957.602550	2494.867038
957.902724	2478.735346
958.202861	2479.239462
958.502960	2448.992538
958.803022	2466.132462
959.103045	2492.094404
959.403031	2475.206538
959.702979	2474.954481
960.002889	2515.535769
960.302762	2475.962712
960.602596	2481.255923
960.902393	2493.354692
961.202153	2492.346462
961.501875	2466.636577
961.801559	2470.417442
962.101205	2485.288846
962.400814	2499.404077
962.700385	2478.231231
962.999918	2456.302212
963.299414	2471.173615
963.598873	2478.735346
963.898293	2471.929788
964.197677	2485.288846
964.497022	2496.631442
964.796331	2446.724019
965.095601	2480.247692
965.394835	2463.107769
965.694030	2491.086173
965.993189	2472.181846
966.292309	2489.069712
966.591393	2471.425673
966.890439	2455.293981
967.189447	2468.400981
967.488419	2482.264154
967.787353	2516.796058
968.086249	2455.041923
968.385108	2509.234327
968.683930	2479.239462
968.982714	2482.768269
969.281462	2481.507981
969.580172	2468.400981
969.878844	2473.190077
970.177480	2482.768269
970.476078	2478.735346
970.774639	2465.628346
971.073162	2493.606750
971.371649	2458.570731
971.670098	2495.371154
971.968510	2450.756942
972.266885	2477.727115
972.565223	2492.346462
972.863524	2477.979173
973.161788	2468.653038
973.460014	2466.888635
973.758204	2455.546038
974.056356	2483.020327
974.354471	2468.653038
974.652550	2471.425673
974.950591	2494.110865
975.248595	2445.211673
975.546563	2463.611885
975.844493	2484.784731
976.142386	2479.995635
976.440243	2452.521346
976.738062	2462.855712
977.035845	2468.905096
977.333590	2473.190077
977.631299	2507.217865
977.928971	2479.239462
978.226606	2495.371154
978.524204	2462.603654
978.821765	2445.967846
979.119290	2484.280615
979.416777	2490.834115
979.714228	2480.247692
980.011642	2476.466827
980.309020	2483.020327
980.606360	2479.995635
980.903664	2494.110865
981.200931	2470.417442
981.498162	2494.362923
981.795356	2483.524442
982.092513	2456.806327
982.389633	2454.285750
982.686717	2460.587192
982.983764	2474.198308
983.280775	2492.094404
983.577749	2508.982269
983.874686	2447.480192
984.171587	2460.587192
984.468451	2486.045019
984.765279	2494.362923
985.062070	2485.036788
985.358824	2495.875269
985.655543	2470.669500
985.952224	2476.214769
986.248869	2473.190077
986.545478	2474.450365
986.842050	2492.094404
987.138586	2494.110865
987.435086	2471.677731
987.731549	2495.875269
988.027975	2444.707558
988.324366	2467.644808
988.620719	2467.644808
988.917037	2453.277519
989.213318	2492.598519
989.509563	2485.540904
989.805772	2450.000769
990.101944	2488.817654
990.398080	2459.578962
990.694180	2466.384519
990.990244	2497.639673
991.286271	2451.009000
991.582262	2464.368058
991.878217	2486.549135
992.174136	2487.305308
992.470019	2459.831019
992.765865	2467.644808
993.061676	2466.888635
993.357450	2450.252827
993.653188	2469.913327
993.948890	2478.987404
994.244556	2458.822788
994.540186	2475.710654
994.835780	2460.587192
995.131337	2470.669500
995.426859	2462.099538
995.722345	2478.987404
996.017795	2461.847481
996.313208	2506.209635
996.608586	2459.831019
996.903928	2462.351596
997.199234	2429.079981
997.494504	2498.647904
997.789738	2454.033692
998.084936	2468.653038
998.380099	2500.412308
998.675225	2468.653038
998.970316	2472.181846
999.265371	2500.664365
999.560390	2441.178750
999.855373	2468.148923
1000.150320	2481.003865
1000.445232	2481.255923
1000.740108	2439.918462
1001.034948	2464.368058
1001.329752	2449.244596
1001.624521	2474.954481
1001.919254	2487.809423
1002.213951	2469.913327
1002.508613	2468.905096
1002.803239	2454.285750
1003.097829	2478.735346
1003.392384	2473.694192
1003.686903	2484.784731
1003.981386	2486.297077
1004.275834	2493.606750
1004.570246	2481.003865
1004.864623	2464.872173
1005.158964	2502.428769
1005.453270	2456.050154
1005.747540	2472.938019
1006.041775	2471.929788
1006.335974	2461.595423
1006.630138	2463.611885
1006.924266	2454.285750
1007.218359	2492.850577
1007.512416	2467.644808
1007.806438	2436.641712
1008.100425	2478.987404
1008.394376	2468.905096
1008.688292	2489.825885
1008.982172	2450.000769
1009.276017	2434.625250
1009.569827	2466.888635
1009.863602	2476.970942
1010.157341	2473.946250
1010.451045	2465.124231
1010.744714	2498.647904
1011.038347	2463.863942
1011.331945	2475.962712
1011.625508	2486.045019
1011.919036	2491.590288
1012.212528	2483.776500
1012.505986	2474.954481
1012.799408	2466.636577
1013.092795	2454.789865
1013.386147	2489.321769
1013.679464	2437.397885
1013.972745	2491.338231
1014.265992	2460.587192
1014.559204	2472.938019
1014.852380	2448.740481
1015.145521	2465.880404
1015.438628	2461.343365
1015.731699	2463.611885
1016.024736	2454.789865
1016.317737	2446.219904
1016.610703	2464.620115
1016.903635	2464.368058
1017.196531	2452.521346
1017.489393	2463.611885
1017.782219	2478.483288
1018.075011	2439.414346
1018.367768	2479.743577
1018.660490	2446.219904
1018.953177	2446.219904
1019.245829	2446.219904
