Dividing Wavelength (nm)	Counts (n)	Slit_number_10_of_a_total_of_40	
326.493990	2042.448687
326.888308	2042.448687
327.282561	2042.448687
327.676750	2018.730058
328.070874	2019.738288
328.464933	2032.341173
328.858929	2037.205887
329.252859	2047.918338
329.646726	2062.058775
330.040528	2071.384910
330.434265	2095.229567
330.827938	2113.705396
331.221547	2128.551594
331.615091	2158.067550
332.008571	2175.635971
332.401986	2191.339165
332.795338	2216.544935
333.188625	2236.230640
333.581847	2250.320665
333.975006	2278.475510
334.368100	2291.632921
334.761129	2307.210087
335.154095	2323.619042
335.546996	2343.430777
335.939833	2370.804242
336.332606	2381.415871
336.725315	2389.280071
337.117960	2391.220915
337.510540	2403.244067
337.903056	2414.460635
338.295508	2425.727613
338.687896	2432.961669
339.080220	2437.423090
339.472480	2435.557863
339.864676	2444.153031
340.256807	2441.355190
340.648875	2455.067129
341.040879	2445.388113
341.432818	2447.480192
341.824694	2454.235338
342.216506	2448.639658
342.608253	2452.143260
342.999937	2451.865996
343.391557	2451.689556
343.783113	2449.320213
344.174605	2448.564040
344.566033	2446.749225
344.957397	2443.825356
345.348697	2439.338729
345.739934	2448.992538
346.131106	2437.851588
346.522215	2438.128852
346.913260	2438.431321
347.304241	2431.474529
347.695159	2430.516710
348.086012	2436.490477
348.476802	2428.525454
348.867528	2421.215781
349.258191	2424.442119
349.648789	2418.922056
350.039324	2418.468352
350.429796	2424.517737
350.820203	2417.258475
351.210548	2423.660740
351.600828	2424.240473
351.991045	2425.475556
352.381198	2429.987388
352.771288	2412.166910
353.161314	2417.888619
353.551276	2418.443146
353.941175	2421.215781
354.331010	2417.409710
354.720782	2423.862387
355.110490	2424.442119
355.500135	2415.947775
355.889717	2427.340783
356.279235	2418.443146
356.668689	2426.937490
357.058080	2423.610329
357.447408	2431.575352
357.836672	2425.651996
358.225873	2431.424117
358.615010	2419.577406
359.004084	2428.550660
359.393095	2422.929773
359.782043	2417.082035
360.170927	2425.021852
360.559748	2426.357758
360.948505	2425.021852
361.337199	2429.458067
361.725830	2429.105187
362.114398	2427.819692
362.502903	2427.189548
362.891344	2421.795513
363.279722	2424.064033
363.668037	2424.089238
364.056289	2427.214754
364.444478	2431.046031
364.832603	2433.818665
365.220665	2427.769281
365.608665	2423.786769
365.996601	2435.003337
366.384474	2430.113417
366.772284	2438.254881
367.160031	2431.247677
367.547715	2439.288317
367.935336	2431.424117
368.322893	2434.650456
368.710388	2435.028542
369.097820	2420.661254
369.485189	2435.709098
369.872495	2428.222985
370.259738	2431.020825
370.646918	2431.575352
371.034035	2434.423604
371.421090	2433.919488
371.808081	2437.675148
372.195010	2432.684406
372.581875	2445.337702
372.968678	2448.211160
373.355418	2431.953438
373.742096	2435.280600
374.128710	2437.246650
374.515262	2431.323294
374.901751	2433.894283
375.288177	2437.145827
375.674540	2436.717329
376.060841	2436.641712
376.447079	2439.389140
376.833254	2435.860333
377.219367	2434.146340
377.605417	2438.179263
377.991404	2435.078954
378.377329	2438.456527
378.763191	2443.573298
379.148991	2435.078954
379.534727	2441.834100
379.920402	2427.794487
380.306013	2439.515169
380.691563	2442.514656
381.077049	2435.406629
381.462474	2437.246650
381.847835	2436.868563
382.233134	2437.725560
382.618371	2442.867537
383.003545	2445.589760
383.388657	2446.698813
383.773706	2444.505912
384.158693	2448.438012
384.543618	2447.908690
384.928480	2443.674121
385.313280	2441.934923
385.698017	2442.010540
386.082692	2440.472988
386.467305	2448.059925
386.851856	2448.059925
387.236344	2441.380396
387.620770	2441.077927
388.005133	2442.892742
388.389435	2437.145827
388.773674	2447.076900
389.157851	2445.942640
389.541965	2453.025462
389.926018	2456.705504
390.310008	2447.480192
390.693936	2440.977104
391.077802	2449.471448
391.461606	2447.732250
391.845348	2452.168465
392.229027	2443.875767
392.612645	2446.396344
392.996200	2447.883485
393.379694	2445.740994
393.763125	2455.949331
394.146494	2450.504885
394.529801	2461.872687
394.913047	2444.833587
395.296230	2452.975050
395.679351	2448.992538
396.062410	2445.236879
396.445408	2443.724533
396.828343	2443.245623
397.211217	2452.823815
397.594028	2447.858279
397.976778	2451.462704
398.359466	2448.992538
398.742092	2451.286263
399.124656	2457.007973
399.507158	2449.572271
399.889598	2449.799123
400.271977	2459.226081
400.654294	2452.622169
401.036549	2441.052721
401.418742	2454.840277
401.800874	2457.209619
402.182944	2463.788325
402.564952	2456.453446
402.946898	2454.941100
403.328783	2456.781121
403.710606	2455.293981
404.092367	2454.159721
404.474067	2457.864969
404.855705	2455.218363
405.237282	2445.010027
405.618797	2454.966306
406.000250	2451.059412
406.381642	2456.453446
406.762972	2450.202415
407.144240	2455.243569
407.525447	2452.521346
407.906593	2448.059925
408.287677	2457.234825
408.668700	2454.235338
409.049661	2453.706017
409.430560	2452.193671
409.811399	2451.563527
410.192176	2455.495627
410.572891	2468.400981
410.953545	2454.789865
411.334138	2461.494600
411.714669	2458.016204
412.095139	2456.503858
412.475547	2460.309929
412.855894	2458.545525
413.236180	2459.452933
413.616405	2462.729683
413.996568	2458.343879
414.376670	2464.090794
414.756711	2461.242542
415.136691	2458.293467
415.516609	2459.427727
415.896466	2464.267235
416.276262	2461.872687
416.655997	2456.781121
417.035670	2460.032665
417.415283	2459.629373
417.794834	2453.983281
418.174324	2463.662296
418.553753	2463.233798
418.933121	2462.275979
419.312428	2453.378342
419.691674	2468.148923
420.070859	2460.587192
420.449983	2468.501804
420.829045	2464.846967
421.208047	2452.899433
421.586988	2460.864456
421.965867	2462.351596
422.344686	2464.317646
422.723444	2466.838223
423.102141	2466.460137
423.480777	2463.107769
423.859352	2463.536267
424.237866	2460.385546
424.616319	2462.805300
424.994712	2469.283183
425.373044	2466.838223
425.751314	2467.317133
426.129524	2462.376802
426.507673	2469.510035
426.885762	2461.015690
427.263789	2464.141206
427.641756	2476.366004
428.019662	2463.032152
428.397508	2465.401494
428.775292	2472.484315
429.153016	2463.233798
429.530679	2464.443675
429.908282	2475.987917
430.285824	2469.938533
430.663305	2470.140179
431.040726	2465.552729
431.418086	2479.315079
431.795385	2474.853658
432.172624	2476.492033
432.549802	2474.475571
432.926920	2479.541931
433.303977	2470.367031
433.680974	2468.098512
434.057910	2472.106229
434.434786	2478.785758
434.811601	2469.862915
435.188355	2479.945223
435.565050	2475.055304
435.941683	2472.786785
436.318257	2470.114973
436.694770	2472.030612
437.071222	2468.350569
437.447614	2472.131435
437.823946	2472.786785
438.200218	2481.684421
438.576429	2480.449338
438.952580	2470.215796
439.328670	2479.189050
439.704700	2480.398927
440.080670	2476.239975
440.456580	2474.551188
440.832429	2469.459623
441.208218	2475.458596
441.583947	2475.786271
441.959616	2474.223513
442.335224	2475.635037
442.710773	2475.156127
443.086261	2475.811477
443.461689	2472.358287
443.837057	2481.306335
444.212365	2480.348515
444.587612	2474.652012
444.962800	2480.046046
445.337927	2475.307362
445.712995	2461.847481
446.088002	2480.953454
446.462949	2477.096971
446.837837	2477.575881
447.212664	2477.979173
447.587431	2477.601087
447.962139	2478.231231
448.336786	2485.112406
448.711374	2482.768269
449.085901	2478.130408
449.460369	2476.492033
449.834776	2483.700883
450.209124	2476.592856
450.583412	2479.264667
450.957640	2481.129894
451.331808	2485.918990
451.705917	2477.071765
452.079965	2484.583085
452.453954	2487.506954
452.827883	2486.171048
453.201752	2476.315592
453.575562	2479.340285
453.949311	2492.296050
454.323001	2486.649958
454.696632	2485.515698
455.070202	2481.003865
455.443713	2490.430823
455.817164	2485.339258
456.190556	2488.061481
456.563888	2492.926194
456.937160	2488.389156
457.310373	2499.353665
457.683526	2486.145842
458.056619	2493.329487
458.429653	2483.348002
458.802628	2487.557365
459.175542	2488.868065
459.548398	2490.531646
459.921194	2485.666933
460.293930	2489.599033
460.666607	2496.202944
461.039224	2492.018787
461.411782	2500.513131
461.784280	2503.235354
462.156719	2512.233813
462.529099	2509.083092
462.901419	2505.428256
463.273680	2505.806342
463.645882	2508.629388
464.018024	2496.707060
464.390106	2506.007988
464.762130	2508.352125
465.134094	2515.510563
465.505999	2524.307377
465.877845	2535.271887
466.249631	2531.516227
466.621358	2540.917979
466.993026	2537.011085
467.364634	2530.886083
467.736184	2536.280117
468.107674	2522.971471
468.479105	2533.255425
468.850477	2534.314067
469.221790	2532.121165
469.593043	2534.314067
469.964238	2533.305837
470.335373	2525.769312
470.706449	2531.314581
471.077467	2537.338760
471.448425	2549.387117
471.819324	2554.100596
472.190164	2553.747715
472.560945	2549.210677
472.931667	2544.749256
473.302330	2541.800181
473.672934	2553.394835
474.043479	2536.607792
474.413965	2555.386090
474.784393	2543.539379
475.154761	2544.900490
475.525070	2549.941644
475.895321	2544.623227
476.265513	2547.471479
476.635645	2555.612942
477.005719	2549.311500
477.375734	2553.117571
477.745691	2563.275496
478.115588	2564.434962
478.485427	2569.224058
478.855207	2573.080540
479.224928	2581.776531
479.594591	2584.725606
479.964194	2579.306365
480.333739	2583.465317
480.703226	2593.345979
481.072653	2595.664910
481.442022	2601.739500
481.811333	2589.439085
482.180584	2594.606267
482.549777	2598.689602
482.918912	2591.631987
483.287988	2595.614498
483.657005	2597.656165
484.025964	2600.302771
484.394864	2606.679831
484.763706	2599.748244
485.132489	2593.371185
485.501213	2602.495673
485.869879	2606.377362
486.238487	2614.493619
486.607036	2615.980760
486.975527	2615.073352
487.343959	2624.979219
487.712333	2627.373767
488.080648	2624.449898
488.448905	2629.440640
488.817104	2637.128400
489.185244	2652.932417
489.553326	2658.276040
489.921350	2679.247240
490.289315	2691.472038
490.657222	2712.165975
491.025070	2714.585729
491.392861	2724.491596
491.760593	2722.752398
492.128267	2724.743654
492.495883	2726.986967
492.863440	2721.290463
493.230939	2733.187587
493.598380	2733.364027
493.965763	2742.110429
494.333088	2751.159300
494.700354	2764.241094
495.067563	2780.876902
495.434713	2790.127419
495.801805	2802.427835
496.168839	2815.131542
496.535815	2827.104283
496.902733	2856.847090
497.269593	2870.332177
497.636395	2890.597615
498.003139	2911.341963
498.369825	2934.329625
498.736453	2954.519446
499.103023	2985.724188
499.469535	3013.349712
499.835989	3038.555481
500.202385	3056.880075
500.568723	3094.436671
500.935003	3120.524642
501.301226	3156.342040
501.667390	3219.406875
502.033497	3250.233531
502.399546	3292.201137
502.765537	3318.465548
503.131470	3362.852908
503.497345	3421.229469
503.863163	3443.939867
504.228923	3503.375071
504.594625	3570.724887
504.960269	3611.911113
505.325856	3690.326262
505.691385	3732.193044
506.056856	3803.651400
506.422270	3894.366963
506.787625	3935.981688
507.152924	4012.380375
507.518164	4102.717852
507.883347	4141.408708
508.248472	4237.871187
508.613540	4346.356817
508.978550	4456.178354
509.343503	4521.259650
509.708398	4628.787462
510.073236	4761.369808
510.438016	4873.283423
510.802738	4944.363692
511.167403	5084.608592
511.532010	5227.046394
511.896561	5359.502712
512.261053	5530.019740
512.625488	5630.489937
512.989866	5752.662300
513.354186	5860.064083
513.718449	5998.267315
514.082655	6206.139294
514.446803	6328.891390
514.810894	6513.700090
515.174927	6657.977913
515.538904	6813.522715
515.902822	7036.644185
516.266684	7152.187431
516.630488	7370.469392
516.994235	7528.862446
517.357925	7762.797190
517.721558	7981.986560
518.085133	8205.536527
518.448651	8407.838031
518.812112	8560.937873
519.175516	8767.322712
519.538863	9033.772898
519.902152	9224.958658
520.265385	9508.498356
520.628560	9731.796265
520.991678	9902.136854
521.354739	10156.967181
521.717743	10438.540829
522.080690	10627.432863
522.443580	10972.020935
522.806413	11222.389840
523.169189	11454.610592
523.531908	11733.411606
523.894569	11912.271744
524.257174	12203.852083
524.619722	12510.984381
524.982213	12774.636727
525.344647	13007.008713
525.707025	13257.352413
526.069345	13627.952838
526.431608	13861.333056
526.793815	14194.150033
527.155964	14324.640300
527.518057	14630.613133
527.880093	14841.459392
528.242072	15256.623617
528.603995	15434.425113
528.965860	15711.411312
529.327669	16004.529202
529.689421	16234.355406
530.051117	16470.684698
530.412755	16802.921942
530.774337	17126.916900
531.135862	17300.660267
531.497331	17661.959763
531.858743	17892.113642
532.220098	18347.203806
532.581396	18478.929156
532.942638	18661.318102
533.303824	19043.815650
533.664953	19338.697944
534.026025	19464.651173
534.387040	19966.951742
534.747999	20206.053669
535.108902	20568.462219
535.469748	20605.565112
535.830537	20954.639810
536.191270	21323.954740
536.551947	21469.417235
536.912567	21866.912215
537.273131	22218.280638
537.633638	22241.167477
537.994089	22679.369775
538.354483	22773.992233
538.714821	23356.598383
539.075103	23791.826400
539.435328	23953.470998
539.795497	24167.594008
540.155609	24464.366735
540.515665	24972.313396
540.875665	24939.671925
541.235609	25370.488933
541.595496	25661.388715
541.955328	26273.863702
542.315102	26198.523658
542.674821	26366.973813
543.034483	26629.844781
543.394090	26853.924069
543.753640	27124.407179
544.113134	27970.615263
544.472571	27622.548796
544.831953	28667.504371
545.191278	28438.686398
545.550548	28502.986315
545.909761	29046.095025
546.268918	29392.019002
546.628019	29852.931698
546.987064	29803.427567
547.346053	29563.645085
547.704986	30373.430833
548.063863	30298.393258
548.422684	30655.685037
548.781449	30726.311602
549.140158	31222.159494
549.498811	31319.983085
549.857408	31130.637346
550.215949	31924.341813
550.574434	32041.851110
550.932864	32112.578498
551.291237	32793.209885
551.649555	32731.556573
552.007817	33088.797940
552.366022	32973.985662
552.724173	33280.134935
553.082267	33751.734877
553.440305	34117.168119
553.798288	33736.107300
554.156215	34120.848162
554.514086	34389.113163
554.871902	34366.503588
555.229661	34489.280890
555.587365	34499.942931
555.945014	34737.204837
556.302606	34756.562867
556.660143	35078.163277
557.017625	35237.488944
557.375050	35163.232748
557.732421	35561.685548
558.089735	35588.781750
558.446994	35597.881033
558.804197	36078.655875
559.161345	36115.405887
559.518437	35594.755517
559.875474	35875.623404
560.232455	36130.655377
560.589381	36267.774762
560.946251	36113.691894
561.303065	36655.540315
561.659825	36533.090688
562.016528	36341.829312
562.373177	36121.253625
562.729770	36545.945631
563.086307	36153.466598
563.442789	36555.347383
563.799216	36530.040790
564.155587	36407.061842
564.511904	36411.397235
564.868164	36473.252192
565.224370	36640.265619
565.580520	36385.359675
565.936615	36516.782556
566.292654	36269.337519
566.648638	36425.915758
567.004567	36341.400813
567.360441	36331.343712
567.716260	36085.763902
568.072023	36302.684752
568.427732	36209.221760
568.783385	35740.142394
569.138982	35992.981465
569.494525	35895.031846
569.850013	35599.443790
570.205445	35464.038398
570.560823	35347.814596
570.916145	35109.040344
571.271412	35035.716762
571.626625	34706.756267
571.981782	34661.990821
572.336884	34275.737613
572.691931	34363.100810
573.046923	33942.895431
573.401860	33666.110879
573.756743	33537.863925
574.111570	33482.386027
574.466342	33250.165275
574.821059	33202.551577
575.175722	32670.911492
575.530330	32544.151679
575.884882	32172.643846
576.239380	31936.188525
576.593823	31754.580958
576.948211	31585.273806
577.302544	31017.942352
577.656823	30882.158873
578.011047	30843.316783
578.365216	30500.039412
578.719330	30155.224488
579.073389	29870.979029
579.427394	29698.974860
579.781344	29471.139912
580.135239	29028.249340
580.489080	28903.606812
580.842866	28378.696667
581.196597	28420.462627
581.550273	28207.322642
581.903895	27890.939827
582.257463	27886.705258
582.610975	27294.798179
582.964434	27260.896419
583.317837	26836.078385
583.671186	26487.432185
584.024481	26410.025267
584.377721	25933.283348
584.730906	25855.447933
585.084037	25674.596538
585.437113	25319.548073
585.790135	25067.036677
586.143103	24623.692402
586.496016	24509.737119
586.848874	24290.245281
587.201679	24046.076994
587.554428	23574.754315
587.907124	23416.915788
588.259765	23060.531417
588.612352	22977.604437
588.964884	22442.990071
589.317362	22355.551258
589.669786	22098.477617
590.022155	21777.179677
590.374470	21785.573198
590.726731	21330.634269
591.078937	20866.293588
591.431090	20701.977179
591.783188	20323.134467
592.135232	19974.135387
592.487222	19855.970740
592.839157	19706.198060
593.191038	19354.678402
593.542866	19031.288383
593.894639	18549.959013
594.246358	18455.916288
594.598022	18266.469727
594.949633	17902.952123
595.301190	17664.354312
595.652692	17397.072335
596.004141	17303.861400
596.355535	16737.664206
596.706876	16522.306113
597.058162	16270.601302
597.409395	16247.739669
597.760573	16093.808037
598.111698	15746.573360
598.462768	15556.975563
598.813785	15375.821700
599.164748	14994.357588
599.515657	14945.080310
599.866511	14591.443367
600.217312	14618.791627
600.568060	14142.352177
600.918753	14185.454042
601.269392	13992.428262
601.619978	13714.005335
601.970510	13631.708498
602.320988	13520.803113
602.671412	13421.643617
603.021783	13191.943442
603.372100	12924.963935
603.722363	12809.723158
604.072572	12623.326494
604.422728	12474.461221
604.772830	12272.159717
605.122878	12118.908640
605.472872	11980.251704
605.822813	11904.987277
606.172701	11687.789163
606.522534	11602.694487
606.872314	11529.698579
607.222041	11317.995323
607.571714	11258.232444
607.921333	11004.536377
608.270899	10918.761144
608.620411	10867.442198
608.969870	10689.867554
609.319276	10569.131919
609.668627	10431.785683
610.017926	10392.010979
610.367171	10328.341206
610.716362	10192.582933
611.065500	10071.897710
611.414585	10006.463533
611.763616	9921.721737
612.112594	9789.441860
612.461518	9726.276202
612.810389	9649.020519
613.159207	9530.981902
613.507971	9405.759640
613.856682	9371.656235
614.205340	9255.684490
614.553945	9266.472560
614.902496	9080.201925
615.250994	9047.812512
615.599439	8956.391187
615.947830	8875.984783
616.296169	8775.489381
616.644454	8707.585038
616.992686	8629.774829
617.340864	8629.295919
617.688990	8475.767579
618.037063	8478.338567
618.385082	8389.891523
618.733048	8360.249538
619.080961	8265.627081
619.428821	8148.521077
619.776628	8086.666119
620.124382	7985.893454
620.472083	7903.495794
620.819731	7806.125908
621.167326	7679.492123
621.514868	7599.942715
621.862357	7441.448838
622.209793	7353.934408
622.557176	7224.149902
622.904506	7117.579910
623.251783	6980.636965
623.599007	6883.393108
623.946179	6769.614265
624.293297	6681.318456
624.640363	6526.126535
624.987376	6462.154292
625.334336	6366.296752
625.681243	6269.783862
626.028097	6176.371281
626.374899	6107.282267
626.721647	6047.040479
627.068343	5987.428835
627.414987	5898.855762
627.761577	5824.498742
628.108115	5782.783194
628.454600	5685.463719
628.801032	5636.715762
629.147412	5594.244040
629.493739	5537.405031
629.840014	5461.434842
630.186236	5436.657571
630.532405	5362.350963
630.878521	5331.070604
631.224585	5279.726452
631.570597	5222.257298
631.916556	5193.573133
632.262462	5135.272188
632.608316	5109.965596
632.954117	5059.957350
633.299866	5009.041696
633.645562	4946.934681
633.991206	4865.368812
634.336797	4798.699552
634.682336	4753.505608
635.027823	4698.330179
635.373257	4620.141883
635.718639	4577.544133
636.063968	4525.494219
636.409245	4439.845015
636.754470	4403.851177
637.099642	4354.951985
637.444762	4295.315135
637.789829	4270.109365
638.134845	4212.917475
638.479808	4183.048638
638.824719	4144.735869
639.169577	4085.502312
639.514383	4065.967840
639.859137	4023.168444
640.203839	4004.062471
640.548489	3955.213690
640.893086	3927.310904
641.237632	3893.434350
641.582125	3875.134962
641.926566	3846.022298
642.270955	3807.583500
642.615292	3795.106644
642.959576	3759.642127
643.303809	3743.384406
643.647990	3728.865883
643.992118	3704.214640
644.336195	3681.529448
644.680219	3661.692508
645.024192	3645.459992
645.368112	3650.501146
645.711981	3633.840133
646.055797	3656.046415
646.399562	3632.705873
646.743274	3641.653921
647.086935	3649.366887
647.430544	3631.067498
647.774101	3616.649798
648.117606	3596.157508
648.461059	3590.990325
648.804460	3558.122002
649.147810	3518.548944
649.491108	3497.628156
649.834354	3469.322077
650.177548	3427.858587
650.520690	3389.545817
650.863781	3375.178529
651.206820	3353.526773
651.549807	3324.565344
651.892742	3299.082312
652.235626	3285.445990
652.578458	3261.651744
652.921238	3241.739187
653.263967	3243.251533
653.606644	3209.803477
653.949269	3202.745862
654.291843	3194.125488
654.634365	3177.162006
654.976836	3156.190806
655.319255	3153.241731
655.661622	3136.177425
656.003938	3121.381638
656.346203	3102.477312
656.688416	3091.916094
657.030577	3085.942327
657.372687	3063.332752
657.714746	3060.635735
658.056753	3063.206723
658.398708	3040.950029
658.740612	3028.498379
659.082465	3029.330169
659.424266	3016.903725
659.766016	3005.460306
660.107715	3005.989627
660.449362	2995.075529
660.790958	2986.984477
661.132503	2982.523056
661.473996	2965.988071
661.815438	2968.155767
662.156829	2960.341979
662.498168	2947.436625
662.839456	2939.143927
663.180693	2937.631581
663.521879	2931.052875
663.863013	2919.987542
664.204097	2913.736512
664.545129	2920.390835
664.886110	2909.174267
665.227040	2894.857390
665.567918	2890.597615
665.908746	2886.665515
666.249522	2892.387225
666.590248	2888.177862
666.930922	2882.582181
667.271545	2868.466950
667.612118	2877.843496
667.952639	2862.266331
668.293109	2856.040506
668.633528	2850.797706
668.973896	2843.765296
669.314213	2834.464367
669.654480	2832.876404
669.994695	2828.843481
670.334859	2818.836790
670.674973	2808.754483
671.015035	2809.939154
671.355047	2798.546146
671.695008	2795.017338
672.034918	2789.194806
672.374777	2788.489044
672.714585	2780.473610
673.054342	2780.397992
673.394049	2780.876902
673.733705	2774.348608
674.073310	2771.777619
674.412864	2766.534819
674.752368	2751.638210
675.091820	2757.712800
675.431223	2741.329050
675.770574	2736.867629
676.109875	2745.437590
676.449125	2729.885631
676.788324	2726.306412
677.127473	2721.088817
677.466571	2706.393854
677.805619	2710.073896
678.144616	2705.410829
678.483562	2700.344469
678.822458	2703.091898
679.161303	2686.960206
679.500098	2692.404652
679.838842	2681.818229
680.177535	2682.523990
680.516179	2683.481810
680.854771	2682.196315
681.193314	2685.296625
681.531805	2694.446319
681.870247	2691.446833
682.208638	2700.168029
682.546978	2691.371215
682.885268	2691.623273
683.223508	2687.539938
683.561697	2679.549710
683.899836	2684.414423
684.237925	2674.760613
684.575963	2667.980262
684.913951	2664.098573
685.251889	2662.737462
685.589776	2664.249808
685.927614	2663.644869
686.265401	2657.419044
686.603137	2660.267296
686.940824	2659.032213
687.278460	2659.914415
687.616046	2659.914415
687.953582	2666.467915
688.291068	2657.519867
688.628504	2652.151038
688.965889	2650.714310
689.303224	2658.427275
689.640510	2639.044038
689.977745	2639.044038
690.314930	2634.128913
690.652065	2637.153606
690.989150	2623.189610
691.326185	2619.433950
691.663170	2608.066148
692.000105	2608.318206
692.336990	2601.739500
692.673825	2605.495160
693.010610	2586.767273
693.347345	2588.481265
693.684030	2585.431367
694.020665	2585.254927
694.357251	2570.005437
694.693786	2582.658733
695.030272	2575.676735
695.366707	2573.836713
695.703093	2570.660787
696.039429	2566.955538
696.375716	2560.326421
696.711952	2553.344423
697.048139	2567.106773
697.384276	2567.131979
697.720363	2556.318704
698.056400	2562.141237
698.392388	2557.906667
698.728326	2566.829510
699.064214	2557.730227
699.400053	2552.689073
699.735842	2555.612942
700.071581	2559.292985
700.407270	2540.665921
700.742910	2539.632485
701.078501	2541.144831
701.414042	2542.606765
701.749533	2550.849052
702.084974	2535.397915
702.420366	2540.791950
702.755709	2530.205527
703.091002	2531.163346
703.426246	2533.381454
703.761440	2530.507996
704.096584	2530.331556
704.431679	2530.961700
704.766725	2526.122192
705.101721	2521.282685
705.436668	2532.852133
705.771565	2527.584127
706.106413	2535.221475
706.441212	2533.860363
706.775961	2528.617563
707.110661	2546.059956
707.445311	2524.609846
707.779913	2523.324352
708.114465	2518.913342
708.448967	2524.206554
708.783421	2525.542460
709.117825	2527.004394
709.452180	2527.937008
709.786485	2533.331042
710.120742	2519.241017
710.454949	2525.416431
710.789107	2528.189065
711.123216	2536.809438
711.457275	2534.818183
711.791286	2529.550177
712.125247	2532.020342
712.459159	2531.138140
712.793023	2537.036290
713.126837	2526.122192
713.460602	2530.734848
713.794318	2529.449354
714.127985	2532.297606
714.461602	2520.677746
714.795171	2526.601102
715.128691	2528.289888
715.462162	2526.399456
715.795584	2514.779596
716.128957	2516.090296
716.462281	2515.208094
716.795556	2515.384535
717.128782	2513.342867
717.461960	2515.888650
717.795088	2512.309431
718.128167	2505.503873
718.461198	2508.705006
718.794180	2503.159737
719.127113	2519.669515
719.459997	2508.831035
719.792833	2509.133504
720.125619	2502.554798
720.458357	2506.360869
720.791046	2508.226096
721.123686	2492.774960
721.456278	2494.488952
721.788821	2504.772906
722.121315	2504.016733
722.453761	2501.849037
722.786158	2496.707060
723.118506	2507.495129
723.450805	2499.404077
723.783056	2504.747700
724.115259	2502.580004
724.447412	2496.656648
724.779518	2503.865498
725.111574	2504.495642
725.443582	2507.999244
725.775542	2498.471463
726.107453	2503.411794
726.439315	2500.866012
726.771129	2506.033194
727.102895	2499.177225
727.434612	2495.900475
727.766281	2492.850577
728.097901	2501.622185
728.429473	2511.452435
728.760996	2512.536283
729.092471	2505.327433
729.423897	2500.866012
729.755276	2508.125273
730.086606	2510.545027
730.417887	2495.320742
730.749120	2510.570233
731.080305	2496.757471
731.411442	2513.443690
731.742530	2505.831548
732.073570	2508.301713
732.404562	2496.026504
732.735506	2507.217865
733.066401	2509.133504
733.397249	2505.831548
733.728048	2503.512617
734.058798	2500.815600
734.389501	2499.807369
734.720156	2499.530106
735.050762	2501.092863
735.381320	2496.555825
735.711831	2497.261587
736.042293	2494.841833
736.372707	2488.439567
736.703073	2491.691112
737.033391	2495.497183
737.363661	2488.439567
737.693883	2495.169508
738.024056	2497.564056
738.354182	2490.506440
738.684260	2497.916937
739.014290	2490.783704
739.344272	2491.993581
739.674207	2501.596979
740.004093	2495.698829
740.333931	2502.756444
740.663722	2498.068171
740.993464	2500.235867
741.323159	2496.429796
741.652806	2502.857267
741.982405	2495.320742
742.311956	2491.615494
742.641460	2494.640187
742.970915	2497.891731
743.300323	2481.003865
743.629683	2493.354692
743.958996	2489.951913
744.288260	2489.573827
744.617477	2487.204485
744.946647	2496.984323
745.275768	2491.539877
745.604842	2495.421565
745.933869	2483.952940
746.262847	2501.496156
746.591778	2490.758498
746.920662	2489.069712
747.249498	2494.791421
747.578286	2492.573313
747.907027	2489.321769
748.235720	2487.960658
748.564365	2495.648417
748.892963	2483.776500
749.221514	2492.422079
749.550017	2486.271871
749.878473	2488.565596
750.206881	2489.725062
750.535242	2485.011583
750.863555	2483.952940
751.191821	2487.632983
751.520039	2498.143788
751.848210	2492.094404
752.176334	2494.186483
752.504411	2493.203458
752.832440	2489.876296
753.160421	2486.725575
753.488356	2487.582571
753.816243	2484.507467
754.144082	2489.195740
754.471875	2484.835142
754.799620	2489.624238
755.127318	2499.000785
755.454969	2496.202944
755.782572	2494.665392
756.110129	2490.985350
756.437638	2490.708087
756.765100	2488.515185
757.092515	2488.968888
757.419882	2485.112406
757.747203	2486.196254
758.074477	2480.272898
758.401703	2487.834629
758.728882	2481.180306
759.056014	2499.025990
759.383099	2488.011069
759.710138	2486.196254
760.037129	2495.522388
760.364073	2486.498723
760.690970	2476.592856
761.017820	2488.994094
761.344623	2489.977119
761.671379	2486.826398
761.998088	2486.624752
762.324751	2497.261587
762.651366	2497.816113
762.977935	2508.226096
763.304456	2506.058400
763.630931	2510.494615
763.957359	2506.411281
764.283740	2509.234327
764.610074	2510.292969
764.936362	2492.094404
765.262602	2503.462206
765.588796	2496.833088
765.914943	2487.834629
766.241044	2494.766215
766.567097	2484.457056
766.893104	2493.531133
767.219064	2481.684421
767.544978	2485.944196
767.870845	2479.315079
768.196665	2492.220433
768.522438	2479.995635
768.848165	2483.322796
769.173846	2487.254896
769.499479	2485.112406
769.825066	2484.583085
770.150607	2484.305821
770.476101	2479.214256
770.801548	2484.809937
771.126949	2477.323823
771.452303	2468.249746
771.777611	2481.306335
772.102872	2481.255923
772.428087	2476.794502
772.753256	2479.541931
773.078378	2481.180306
773.403453	2483.045533
773.728482	2488.237921
774.053465	2480.449338
774.378401	2481.482775
774.703291	2476.945737
775.028135	2476.567650
775.352932	2482.818681
775.677683	2471.627319
776.002388	2475.181333
776.327046	2475.887094
776.651658	2479.819194
776.976224	2476.517238
777.300743	2470.089767
777.625216	2473.593369
777.949643	2479.819194
778.274024	2485.162817
778.598359	2481.381952
778.922647	2483.751294
779.246889	2472.383492
779.571086	2475.635037
779.895236	2475.761065
780.219339	2482.743063
780.543397	2490.531646
780.867409	2477.752321
781.191374	2476.744090
781.515294	2469.711681
781.839167	2475.206538
782.162995	2481.054277
782.486776	2479.667960
782.810511	2478.357260
783.134201	2488.086687
783.457844	2478.558906
783.781441	2483.045533
784.104993	2477.449852
784.428498	2484.331027
784.751958	2482.894298
785.075372	2466.863429
785.398739	2478.382465
785.722061	2479.567137
786.045337	2475.962712
786.368568	2475.534213
786.691752	2474.803246
787.014891	2483.700883
787.337983	2470.493060
787.661030	2484.608290
787.984031	2480.373721
788.306987	2483.927735
788.629897	2489.170535
788.952760	2483.045533
789.275579	2480.373721
789.598351	2484.860348
789.921078	2480.222487
790.243759	2479.466313
790.566395	2483.373208
790.888984	2475.004892
791.211529	2485.490492
791.534027	2482.944710
791.856480	2476.063535
792.178888	2477.676704
792.501249	2469.308388
792.823566	2479.995635
793.145836	2476.592856
793.468062	2483.902529
793.790241	2475.836683
794.112375	2478.004379
794.434464	2478.180819
794.756507	2487.179279
795.078505	2476.769296
795.400457	2478.407671
795.722364	2487.280102
796.044226	2476.819708
796.366042	2476.643267
796.687812	2476.290387
797.009538	2476.265181
797.331218	2478.735346
797.652852	2480.222487
797.974442	2481.180306
798.295986	2477.953967
798.617484	2480.877837
798.938938	2480.802219
799.260346	2483.373208
799.581709	2480.877837
799.903026	2479.642754
800.224299	2477.802733
800.545526	2484.759525
800.866708	2474.425160
801.187845	2477.878350
801.508936	2471.450879
801.829983	2474.047073
802.150984	2474.374748
802.471940	2473.013637
802.792851	2479.441108
803.113717	2471.123204
803.434538	2474.904069
803.755314	2480.802219
804.076045	2480.298104
804.396731	2480.424133
804.717372	2477.475058
805.037967	2474.223513
805.358518	2475.987917
805.679024	2482.264154
805.999485	2466.308902
806.319901	2480.625779
806.640272	2479.289873
806.960598	2476.214769
807.280879	2468.022894
807.601115	2480.751808
807.921306	2474.727629
808.241453	2477.197794
808.561554	2473.694192
808.881611	2481.734833
809.201623	2472.912813
809.521590	2468.501804
809.841513	2477.172588
810.161390	2482.037302
810.481223	2471.702937
810.801011	2475.509008
811.120755	2481.961685
811.440453	2473.921044
811.760107	2481.860862
812.079716	2481.381952
812.399281	2477.172588
812.718801	2479.541931
813.038276	2479.189050
813.357707	2481.104688
813.677093	2479.289873
813.996434	2470.291413
814.315731	2475.861888
814.634983	2471.173615
814.954191	2470.089767
815.273354	2474.601600
815.592473	2470.215796
815.911547	2474.904069
816.230577	2485.288846
816.549562	2487.456542
816.868502	2478.206025
817.187399	2476.819708
817.506250	2473.064048
817.825058	2489.170535
818.143821	2475.635037
818.462539	2480.499750
818.781213	2482.163331
819.099843	2471.450879
819.418429	2480.928248
819.736970	2494.766215
820.055466	2481.785244
820.373919	2489.220946
820.692327	2491.035762
821.010691	2501.596979
821.329011	2513.569719
821.647286	2545.076931
821.965517	2563.678788
822.283704	2584.902046
822.601847	2595.740527
822.919945	2573.433421
823.237999	2570.181877
823.556010	2560.906154
823.873976	2543.388144
824.191897	2527.836185
824.509775	2518.031140
824.827609	2509.158710
825.145398	2509.511590
825.463144	2502.101094
825.780845	2505.604696
826.098502	2509.284738
826.416116	2508.352125
826.733685	2517.905112
827.051210	2525.466842
827.368692	2515.107271
827.686129	2515.283712
828.003522	2499.958604
828.320872	2503.789881
828.638177	2495.421565
828.955439	2486.876810
829.272656	2493.354692
829.589830	2492.548108
829.906960	2480.777013
830.224046	2482.818681
830.541088	2472.837196
830.858086	2480.449338
831.175041	2485.036788
831.491952	2483.852117
831.808819	2473.542958
832.125642	2474.425160
832.442421	2482.213742
832.759157	2483.448825
833.075849	2490.254383
833.392497	2494.312512
833.709101	2499.756958
834.025662	2496.530619
834.342179	2495.018273
834.658653	2502.227123
834.975083	2489.775473
835.291469	2484.759525
835.607811	2480.247692
835.924110	2485.213229
836.240366	2479.138638
836.556578	2482.768269
836.872746	2476.265181
837.188871	2474.500777
837.504952	2476.668473
837.820990	2481.281129
838.136984	2476.416415
838.452935	2470.593883
838.768842	2464.922585
839.084706	2471.450879
839.400526	2478.458083
839.716303	2475.030098
840.032037	2491.489465
840.347727	2476.668473
840.663373	2471.702937
840.978977	2472.459110
841.294537	2482.919504
841.610054	2482.364977
841.925527	2482.112919
842.240957	2468.577421
842.556344	2476.366004
842.871687	2470.845940
843.186987	2472.660756
843.502244	2472.433904
843.817458	2470.493060
844.132629	2475.609831
844.447756	2471.425673
844.762840	2477.500263
845.077881	2466.132462
845.392879	2478.054790
845.707833	2476.239975
846.022745	2474.324337
846.337613	2472.030612
846.652438	2474.727629
846.967221	2470.946763
847.281960	2474.576394
847.596656	2469.963738
847.911309	2475.735860
848.225919	2476.416415
848.540485	2471.551702
848.855009	2472.106229
849.169490	2474.626806
849.483928	2470.719912
849.798323	2477.096971
850.112675	2464.368058
850.426984	2466.686988
850.741251	2462.049127
851.055474	2469.837710
851.369654	2470.367031
851.683792	2461.746658
851.997887	2468.350569
852.311938	2472.711167
852.625947	2469.560446
852.939914	2465.603140
853.253837	2466.510548
853.567718	2477.979173
853.881555	2475.408185
854.195350	2463.233798
854.509103	2477.853144
854.822812	2473.845427
855.136479	2475.836683
855.450103	2466.712194
855.763685	2473.845427
856.077224	2461.671040
856.390720	2466.762606
856.704173	2466.082050
857.017584	2468.779067
857.330953	2467.695219
857.644278	2465.754375
857.957561	2471.854171
858.270802	2466.586165
858.584000	2473.391723
858.897155	2467.367544
859.210268	2474.727629
859.523339	2469.510035
859.836367	2470.745117
860.149352	2469.711681
860.462295	2471.980200
860.775195	2472.509521
861.088054	2466.434931
861.400869	2473.719398
861.713642	2466.838223
862.026373	2474.097485
862.339062	2460.083077
862.651708	2475.004892
862.964312	2465.577935
863.276873	2469.963738
863.589392	2472.887608
863.901869	2465.426700
864.214303	2474.021867
864.526696	2466.560960
864.839045	2464.015177
865.151353	2471.224027
865.463619	2469.988944
865.775842	2464.872173
866.088023	2469.636063
866.400162	2479.541931
866.712258	2457.209619
867.024313	2465.199848
867.336325	2469.157154
867.648296	2469.661269
867.960224	2469.257977
868.272110	2471.904583
868.583954	2460.612398
868.895755	2479.592342
869.207515	2466.258490
869.519233	2474.198308
869.830909	2472.786785
870.142542	2470.467854
870.454134	2475.962712
870.765684	2474.601600
871.077191	2472.761579
871.388657	2461.469394
871.700081	2462.906123
872.011463	2468.627833
872.322803	2473.492546
872.634101	2477.223000
872.945357	2471.097998
873.256571	2471.249233
873.567744	2470.014150
873.878874	2467.846454
874.189963	2472.333081
874.501010	2465.779581
874.812015	2471.602113
875.122979	2481.785244
875.433900	2467.165898
875.744780	2480.600573
876.055618	2478.936992
876.366415	2479.012610
876.677169	2479.088227
876.987882	2469.988944
877.298554	2476.618062
877.609183	2476.567650
877.919771	2473.316106
878.230317	2473.719398
878.540822	2489.523415
878.851285	2472.232258
879.161707	2472.055817
879.472087	2476.668473
879.782425	2481.104688
880.092722	2493.027017
880.402977	2493.001812
880.713191	2504.117556
881.023363	2505.881960
881.333494	2517.249762
881.643583	2523.324352
881.953631	2524.534229
882.263637	2512.284225
882.573602	2510.418998
882.883526	2511.124760
883.193408	2509.385562
883.503248	2504.092350
883.813048	2503.260560
884.122806	2502.403563
884.432522	2494.715804
884.742197	2491.439054
885.051831	2492.018787
885.361424	2485.188023
885.670975	2480.474544
885.980485	2479.541931
886.289954	2484.835142
886.599382	2488.212715
886.908768	2472.534727
887.218113	2478.533700
887.527417	2472.912813
887.836680	2470.266208
888.145901	2476.668473
888.455082	2469.510035
888.764221	2485.389669
889.073319	2479.113433
889.382376	2474.097485
889.691392	2470.316619
890.000366	2478.508494
890.309300	2473.971456
890.618193	2475.156127
890.927044	2471.652525
891.235855	2471.022381
891.544625	2468.779067
891.853353	2474.702423
892.162041	2481.356746
892.470687	2475.433390
892.779293	2483.902529
893.087858	2474.601600
893.396381	2476.088740
893.704864	2476.466827
894.013306	2477.122177
894.321707	2484.860348
894.630068	2482.213742
894.938387	2484.532673
895.246665	2480.474544
895.554903	2491.892758
895.863100	2478.458083
896.171256	2487.154073
896.479371	2480.197281
896.787446	2478.382465
897.095480	2481.381952
897.403473	2477.827938
897.711425	2471.476085
898.019336	2478.357260
898.327207	2480.575367
898.635038	2478.105202
898.942827	2482.112919
899.250576	2474.097485
899.558284	2472.509521
899.865952	2470.518265
900.173579	2477.979173
900.481165	2470.795529
900.788711	2473.341312
901.096216	2470.215796
901.403681	2475.509008
901.711105	2473.795015
902.018489	2471.173615
902.325832	2473.694192
902.633135	2470.946763
902.940397	2473.366517
903.247619	2466.283696
903.554800	2479.567137
903.861941	2483.549648
904.169041	2485.137612
904.476101	2491.186996
904.783121	2486.599546
905.090100	2490.909733
905.397039	2484.457056
905.703938	2483.247179
906.010796	2479.869606
906.317614	2475.408185
906.624391	2481.608804
906.931129	2476.466827
907.237826	2475.761065
907.544483	2477.323823
907.851099	2475.710654
908.157675	2475.735860
908.464211	2472.282669
908.770707	2466.031638
909.077163	2476.718885
909.383578	2476.996148
909.689954	2473.316106
909.996289	2473.391723
910.302584	2475.861888
910.608839	2475.761065
910.915054	2471.929788
911.221229	2472.358287
911.527363	2470.341825
911.833458	2469.384006
912.139513	2465.905610
912.445527	2472.156640
912.751502	2471.123204
913.057436	2470.745117
913.363331	2478.357260
913.669186	2471.854171
913.975000	2467.846454
914.280775	2474.248719
914.586510	2472.333081
914.892205	2474.173102
915.197859	2477.122177
915.503475	2484.078969
915.809050	2488.288333
916.114585	2486.826398
916.420081	2491.212202
916.725536	2484.331027
917.030952	2483.902529
917.336328	2490.456029
917.641665	2487.960658
917.946961	2481.331540
918.252218	2477.802733
918.557435	2479.163844
918.862612	2482.314565
919.167750	2485.692138
919.472848	2475.534213
919.777906	2474.803246
920.082925	2475.710654
920.387904	2469.434417
920.692843	2472.358287
920.997743	2476.038329
921.302603	2477.500263
921.607423	2464.443675
921.912204	2466.586165
922.216946	2475.912300
922.521647	2471.375262
922.826310	2474.173102
923.130932	2471.097998
923.435516	2461.368571
923.740059	2467.644808
924.044564	2464.519292
924.349028	2473.139665
924.653454	2468.199335
924.957840	2464.116000
925.262186	2464.090794
925.566493	2473.668987
925.870761	2464.494087
926.174989	2465.073819
926.479178	2473.492546
926.783328	2468.350569
927.087438	2465.981227
927.391509	2473.719398
927.695541	2469.232771
927.999533	2465.779581
928.303486	2459.780608
928.607400	2464.897379
928.911275	2467.972483
929.215110	2468.375775
929.518906	2474.374748
929.822663	2470.140179
930.126381	2467.821248
930.430060	2472.610344
930.733699	2466.107256
931.037299	2467.770837
931.340861	2467.443162
931.644383	2472.635550
931.947866	2467.417956
932.251309	2464.846967
932.554714	2466.863429
932.858080	2460.864456
933.161407	2462.023921
933.464694	2467.266721
933.767943	2463.561473
934.071153	2467.468367
934.374323	2461.166925
934.677455	2465.124231
934.980548	2464.040383
935.283602	2467.241515
935.586617	2468.325363
935.889593	2473.215283
936.192530	2464.720938
936.495428	2464.166412
936.798287	2461.545012
937.101108	2472.181846
937.403890	2467.846454
937.706632	2466.334108
938.009336	2475.534213
938.312002	2465.754375
938.614628	2473.593369
938.917216	2468.375775
939.219765	2457.789352
939.522275	2476.063535
939.824747	2465.829992
940.127179	2464.015177
940.429573	2467.569190
940.731929	2469.308388
941.034246	2468.350569
941.336524	2464.368058
941.638763	2463.813531
941.940964	2475.483802
942.243126	2458.999229
942.545250	2471.476085
942.847335	2477.878350
943.149381	2465.956021
943.451389	2466.560960
943.753359	2469.106742
944.055290	2465.275465
944.357182	2471.778554
944.659036	2466.661783
944.960851	2476.139152
945.262628	2460.385546
945.564367	2467.392750
945.866067	2470.518265
946.167729	2464.569704
946.469352	2462.981740
946.770937	2464.897379
947.072484	2461.418983
947.373992	2472.181846
947.675462	2468.148923
947.976893	2465.048613
948.278286	2461.040896
948.579641	2462.931329
948.880958	2456.881944
949.182236	2464.821762
949.483476	2469.988944
949.784678	2477.424646
950.085841	2466.056844
950.386967	2460.940073
950.688054	2473.215283
950.989103	2470.190590
951.290114	2468.426187
951.591087	2469.888121
951.892021	2469.459623
952.192917	2467.670013
952.493776	2467.216310
952.794596	2465.981227
953.095378	2473.517752
953.396122	2473.668987
953.696828	2462.175156
953.997496	2467.468367
954.298126	2470.997175
954.598718	2460.788838
954.899272	2471.022381
955.199788	2463.989971
955.500266	2473.694192
955.800706	2469.459623
956.101108	2470.266208
956.401472	2465.603140
956.701798	2468.073306
957.002087	2462.074333
957.302337	2464.846967
957.602550	2475.256950
957.902724	2456.629887
958.202861	2464.771350
958.502960	2471.097998
958.803022	2470.014150
959.103045	2467.947277
959.403031	2468.552215
959.702979	2469.913327
960.002889	2478.533700
960.302762	2468.779067
960.602596	2468.753862
960.902393	2470.518265
961.202153	2467.115487
961.501875	2457.134002
961.801559	2462.200362
962.101205	2467.594396
962.400814	2470.820735
962.700385	2466.712194
962.999918	2470.039356
963.299414	2464.897379
963.598873	2458.394290
963.898293	2448.690069
964.197677	2467.216310
964.497022	2457.864969
964.796331	2460.965279
965.095601	2463.385033
965.394835	2467.115487
965.694030	2460.385546
965.993189	2467.972483
966.292309	2465.325877
966.591393	2456.554269
966.890439	2461.771863
967.189447	2464.670527
967.488419	2468.552215
967.787353	2467.796042
968.086249	2467.770837
968.385108	2464.922585
968.683930	2461.469394
968.982714	2461.671040
969.281462	2464.846967
969.580172	2457.738940
969.878844	2464.645321
970.177480	2464.166412
970.476078	2468.426187
970.774639	2466.787812
971.073162	2464.393263
971.371649	2467.720425
971.670098	2462.250773
971.968510	2459.200875
972.266885	2461.671040
972.565223	2474.147896
972.863524	2459.704990
973.161788	2466.939046
973.460014	2472.635550
973.758204	2467.241515
974.056356	2459.024435
974.354471	2463.788325
974.652550	2472.005406
974.950591	2467.191104
975.248595	2457.134002
975.546563	2458.621142
975.844493	2457.436471
976.142386	2457.512088
976.440243	2469.711681
976.738062	2454.310956
977.035845	2465.628346
977.333590	2463.032152
977.631299	2466.460137
977.928971	2460.183900
978.226606	2457.058385
978.524204	2460.587192
978.821765	2458.318673
979.119290	2465.124231
979.416777	2467.392750
979.714228	2461.015690
980.011642	2463.561473
980.309020	2456.226594
980.606360	2458.974023
980.903664	2460.612398
981.200931	2464.342852
981.498162	2467.140692
981.795356	2464.670527
982.092513	2465.451906
982.389633	2474.425160
982.686717	2466.611371
982.983764	2469.005919
983.280775	2468.048100
983.577749	2468.753862
983.874686	2460.158694
984.171587	2457.965792
984.468451	2461.545012
984.765279	2469.131948
985.062070	2468.073306
985.358824	2466.737400
985.655543	2457.965792
985.952224	2469.913327
986.248869	2456.428240
986.545478	2467.039869
986.842050	2454.310956
987.138586	2466.208079
987.435086	2461.217337
987.731549	2466.434931
988.027975	2456.806327
988.324366	2464.695733
988.620719	2458.621142
988.917037	2460.410752
989.213318	2467.720425
989.509563	2463.889148
989.805772	2464.796556
990.101944	2462.880917
990.398080	2468.678244
990.694180	2460.688015
990.990244	2455.646862
991.286271	2461.393777
991.582262	2464.292440
991.878217	2467.846454
992.174136	2466.510548
992.470019	2458.041410
992.765865	2454.915894
993.061676	2457.965792
993.357450	2463.435444
993.653188	2462.099538
993.948890	2456.579475
994.244556	2455.823302
994.540186	2463.132975
994.835780	2459.377315
995.131337	2464.015177
995.426859	2458.243056
995.722345	2463.863942
996.017795	2464.645321
996.313208	2467.493573
996.608586	2466.535754
996.903928	2459.074846
997.199234	2457.083590
997.494504	2461.570217
997.789738	2465.703963
998.084936	2462.124744
998.380099	2460.990485
998.675225	2463.385033
998.970316	2468.804273
999.265371	2459.200875
999.560390	2457.234825
999.855373	2460.990485
1000.150320	2459.704990
1000.445232	2455.520833
1000.740108	2454.336162
1001.034948	2460.360340
1001.329752	2468.274952
1001.624521	2452.949844
1001.919254	2463.813531
1002.213951	2462.754888
1002.508613	2460.309929
1002.803239	2457.688529
1003.097829	2450.958588
1003.392384	2463.586679
1003.686903	2462.981740
1003.981386	2459.301698
1004.275834	2455.167952
1004.570246	2463.006946
1004.864623	2465.451906
1005.158964	2457.915381
1005.453270	2464.645321
1005.747540	2464.443675
1006.041775	2456.806327
1006.335974	2457.007973
1006.630138	2462.855712
1006.924266	2460.435958
1007.218359	2457.764146
1007.512416	2462.402008
1007.806438	2456.453446
1008.100425	2462.780094
1008.394376	2448.564040
1008.688292	2463.435444
1008.982172	2465.628346
1009.276017	2454.058898
1009.569827	2460.688015
1009.863602	2455.646862
1010.157341	2455.999742
1010.451045	2459.704990
1010.744714	2456.302212
1011.038347	2457.638117
1011.331945	2465.325877
1011.625508	2454.310956
1011.919036	2461.973510
1012.212528	2458.822788
1012.505986	2449.748712
1012.799408	2469.686475
1013.092795	2451.387087
1013.386147	2463.208592
1013.679464	2459.679785
1013.972745	2460.839250
1014.265992	2460.587192
1014.559204	2463.284210
1014.852380	2459.200875
1015.145521	2460.007460
1015.438628	2458.293467
1015.731699	2461.040896
1016.024736	2467.972483
1016.317737	2460.284723
1016.610703	2457.789352
1016.903635	2456.125771
1017.196531	2453.479165
1017.489393	2461.923098
1017.782219	2455.470421
1018.075011	2459.352110
1018.367768	2459.881431
1018.660490	2464.972996
1018.953177	2464.972996
1019.245829	2464.972996
