Dividing Wavelength (nm)	Counts (n)	Slit_number_15_of_a_total_of_40	
326.493990	2035.416277
326.888308	2035.416277
327.282561	2035.416277
327.676750	2019.687877
328.070874	2024.754237
328.464933	2024.729031
328.858929	2032.870494
329.252859	2052.329348
329.646726	2059.084494
330.040528	2070.275856
330.434265	2091.725965
330.827938	2114.537187
331.221547	2134.374127
331.615091	2151.564462
332.008571	2173.770744
332.401986	2196.052644
332.795338	2214.377238
333.188625	2231.668396
333.581847	2255.765112
333.975006	2273.913265
334.368100	2289.213167
334.761129	2300.908644
335.154095	2326.366471
335.546996	2341.363904
335.939833	2359.940556
336.332606	2367.678727
336.725315	2377.609800
337.117960	2398.328942
337.510540	2398.606206
337.903056	2405.184912
338.295508	2418.569175
338.687896	2425.551173
339.080220	2422.047571
339.472480	2439.011054
339.864676	2434.347987
340.256807	2439.263112
340.648875	2433.465785
341.040879	2438.834613
341.432818	2438.607762
341.824694	2444.480706
342.216506	2435.356217
342.608253	2442.590273
342.999937	2440.800663
343.391557	2443.170006
343.783113	2433.289344
344.174605	2432.734817
344.566033	2435.683892
344.957397	2434.549633
345.348697	2433.566608
345.739934	2440.951898
346.131106	2427.643252
346.522215	2424.996646
346.913260	2428.298602
347.304241	2423.761563
347.695159	2426.685433
348.086012	2430.415887
348.476802	2417.712179
348.867528	2420.383990
349.258191	2404.277504
349.648789	2407.251785
350.039324	2417.384504
350.429796	2408.940571
350.820203	2415.620100
351.210548	2411.133473
351.600828	2416.124215
351.991045	2409.066600
352.381198	2414.889133
352.771288	2399.085115
353.161314	2415.393248
353.551276	2415.821746
353.941175	2407.881929
354.331010	2416.502302
354.720782	2411.839235
355.110490	2406.999727
355.500135	2402.966804
355.889717	2407.907135
356.279235	2410.704975
356.668689	2415.115985
357.058080	2410.226065
357.447408	2411.940058
357.836672	2413.376787
358.225873	2419.779052
358.615010	2411.410737
359.004084	2420.988929
359.393095	2421.367015
359.782043	2425.904054
360.170927	2412.872671
360.559748	2413.754873
360.948505	2413.124729
361.337199	2420.510019
361.725830	2413.175140
362.114398	2425.979671
362.502903	2420.988929
362.891344	2426.458581
363.279722	2427.113931
363.668037	2423.559917
364.056289	2425.929260
364.444478	2418.291912
364.832603	2417.359298
365.220665	2419.804258
365.608665	2420.963723
365.996601	2422.249217
366.384474	2428.550660
366.772284	2432.079467
367.160031	2439.943667
367.547715	2426.156112
367.935336	2427.492017
368.322893	2421.190575
368.710388	2422.576892
369.097820	2417.334092
369.485189	2429.155598
369.872495	2429.105187
370.259738	2423.761563
370.646918	2421.367015
371.034035	2432.482760
371.421090	2425.576379
371.808081	2435.910744
372.195010	2425.853642
372.581875	2428.550660
372.968678	2425.904054
373.355418	2425.097469
373.742096	2434.751279
374.128710	2432.659200
374.515262	2435.784715
374.901751	2430.214240
375.288177	2431.978644
375.674540	2434.826896
376.060841	2432.230702
376.447079	2436.994592
376.833254	2433.969900
377.219367	2428.827923
377.605417	2433.037287
377.991404	2435.583069
378.377329	2436.666917
378.763191	2430.113417
379.148991	2428.248190
379.534727	2439.414346
379.920402	2432.356731
380.306013	2436.465271
380.691563	2433.490990
381.077049	2427.013108
381.462474	2438.380910
381.847835	2432.810435
382.233134	2433.213727
382.618371	2439.162288
383.003545	2433.768254
383.388657	2435.986362
383.773706	2446.093875
384.158693	2442.136569
384.543618	2436.742535
384.928480	2442.262598
385.313280	2440.472988
385.698017	2435.608275
386.082692	2439.439552
386.467305	2441.632454
386.851856	2434.347987
387.236344	2439.615992
387.620770	2431.272883
388.005133	2432.734817
388.389435	2442.766713
388.773674	2433.465785
389.157851	2436.767740
389.541965	2450.152004
389.926018	2447.177723
390.310008	2440.498194
390.693936	2443.850562
391.077802	2445.892229
391.461606	2441.783688
391.845348	2441.632454
392.229027	2443.422063
392.612645	2442.237392
392.996200	2443.094388
393.379694	2439.817638
393.763125	2446.522373
394.146494	2442.010540
394.529801	2441.985335
394.913047	2444.253854
395.296230	2444.808381
395.679351	2452.697787
396.062410	2447.959102
396.445408	2441.481219
396.828343	2447.303752
397.211217	2439.590787
397.594028	2442.640685
397.976778	2443.522887
398.359466	2446.371138
398.742092	2439.666404
399.124656	2456.705504
399.507158	2457.134002
399.889598	2446.295521
400.271977	2445.715788
400.654294	2446.471962
401.036549	2441.682865
401.418742	2456.403035
401.800874	2454.462190
402.182944	2453.630400
402.564952	2437.070210
402.946898	2445.413319
403.328783	2447.933896
403.710606	2448.916921
404.092367	2456.982767
404.474067	2454.411779
404.855705	2449.698300
405.237282	2452.118054
405.618797	2442.741508
406.000250	2452.874227
406.381642	2450.051181
406.762972	2451.891202
407.144240	2457.915381
407.525447	2455.420010
407.906593	2453.857252
408.287677	2452.496140
408.668700	2452.370112
409.049661	2453.151490
409.430560	2457.134002
409.811399	2448.690069
410.192176	2461.015690
410.572891	2455.394804
410.953545	2457.940587
411.334138	2461.771863
411.714669	2445.362908
412.095139	2455.092335
412.475547	2458.545525
412.855894	2455.823302
413.236180	2455.218363
413.616405	2462.074333
413.996568	2454.764660
414.376670	2448.589246
414.756711	2458.469908
415.136691	2460.914867
415.516609	2450.353650
415.896466	2450.983794
416.276262	2452.470935
416.655997	2461.671040
417.035670	2453.353137
417.415283	2454.285750
417.794834	2467.342338
418.174324	2449.194185
418.553753	2469.610858
418.933121	2460.662810
419.312428	2461.771863
419.691674	2455.798096
420.070859	2464.166412
420.449983	2461.015690
420.829045	2461.393777
421.208047	2458.394290
421.586988	2463.889148
421.965867	2467.543985
422.344686	2460.990485
422.723444	2455.268775
423.102141	2459.503344
423.480777	2465.477112
423.859352	2468.501804
424.237866	2465.502317
424.616319	2461.469394
424.994712	2460.965279
425.373044	2470.971969
425.751314	2469.762092
426.129524	2469.686475
426.507673	2460.259517
426.885762	2460.385546
427.263789	2465.300671
427.641756	2472.862402
428.019662	2471.072792
428.397508	2469.384006
428.775292	2467.543985
429.153016	2477.223000
429.530679	2472.156640
429.908282	2468.249746
430.285824	2472.988431
430.663305	2468.627833
431.040726	2472.232258
431.418086	2473.164871
431.795385	2483.474031
432.172624	2468.527010
432.549802	2479.189050
432.926920	2478.105202
433.303977	2479.365490
433.680974	2478.760552
434.057910	2474.778040
434.434786	2485.944196
434.811601	2475.030098
435.188355	2480.600573
435.565050	2481.911273
435.941683	2489.019300
436.318257	2490.077942
436.694770	2484.179792
437.071222	2489.246152
437.447614	2494.967862
437.823946	2494.665392
438.200218	2492.648931
438.576429	2495.068685
438.952580	2499.504900
439.328670	2508.074862
439.704700	2504.218379
440.080670	2510.771879
440.456580	2507.394306
440.832429	2514.956037
441.208218	2513.544513
441.583947	2517.451408
441.959616	2523.677233
442.335224	2525.466842
442.710773	2527.357275
443.086261	2543.816642
443.461689	2549.588763
443.837057	2548.404092
444.212365	2567.434448
444.587612	2562.216854
444.962800	2575.676735
445.337927	2594.606267
445.712995	2603.302258
446.088002	2619.484362
446.462949	2639.926240
446.837837	2667.022442
447.212664	2672.769358
447.587431	2729.683985
447.962139	2788.791513
448.336786	2854.276102
448.711374	2854.830629
449.085901	2836.001919
449.460369	2864.988554
449.834776	2896.016856
450.209124	2983.455669
450.583412	3021.894467
450.957640	3089.244283
451.331808	3097.915067
451.705917	3120.852317
452.079965	3159.417144
452.453954	3225.758729
452.827883	3282.975825
453.201752	3335.580265
453.575562	3404.341604
453.949311	3506.021677
454.323001	3587.234665
454.696632	3660.885923
455.070202	3815.145231
455.443713	3920.303700
455.817164	4053.768248
456.190556	4176.469933
456.563888	4255.212756
456.937160	4390.114033
457.310373	4399.490579
457.683526	4508.480325
458.056619	4637.710304
458.429653	4760.311165
458.802628	4922.812760
459.175542	5073.316408
459.548398	5345.614333
459.921194	5655.922558
460.293930	5907.425723
460.666607	6318.935112
461.039224	6735.384831
461.411782	6991.198183
461.784280	7028.553133
462.156719	7148.230125
462.529099	7272.015658
462.901419	7231.182312
463.273680	7247.213181
463.645882	7456.874769
464.018024	7636.717933
464.390106	7958.141902
464.762130	8594.436340
465.134094	9545.424808
465.505999	10825.777062
465.877845	12076.941035
466.249631	12769.469544
466.621358	12754.749375
466.993026	12525.402081
467.364634	12341.198319
467.736184	12114.573248
468.107674	12052.919937
468.479105	12100.281577
468.850477	12158.229640
469.221790	12055.869012
469.593043	11801.971298
469.964238	11775.152360
470.335373	11950.382867
470.706449	12585.417017
471.077467	13450.882310
471.448425	15103.422952
471.819324	16367.215015
472.190164	16196.950044
472.560945	15292.415810
472.931667	14462.641887
473.302330	14291.141833
473.672934	14158.861956
474.043479	14528.428944
474.413965	14446.106902
474.784393	14487.898067
475.154761	14988.560262
475.525070	15169.966183
475.895321	15158.850438
476.265513	15531.316090
476.635645	16096.908346
477.005719	16184.120308
477.375734	16503.704256
477.745691	16921.666321
478.115588	17620.949977
478.485427	18509.276902
478.855207	19958.633838
479.224928	21222.904812
479.594591	22200.888658
479.964194	22025.582533
480.333739	22372.590358
480.703226	22555.382596
481.072653	22851.575590
481.442022	23152.456858
481.811333	23451.649338
482.180584	22987.359069
482.549777	22825.941323
482.918912	22619.506073
483.287988	22553.744221
483.657005	22262.894850
484.025964	22021.650433
484.394864	22079.674113
484.763706	21934.438471
485.132489	21541.909027
485.501213	21456.663115
485.869879	21527.516533
486.238487	21331.289619
486.607036	21388.305069
486.975527	21071.544167
487.343959	21137.205196
487.712333	21132.088425
488.080648	21051.480375
488.448905	21212.167154
488.817104	21036.130062
489.185244	21347.522135
489.553326	21868.827854
489.921350	22972.487665
490.289315	24308.670698
490.657222	24574.364712
491.025070	24694.646642
491.392861	24175.231356
491.760593	23459.967242
492.128267	22560.398544
492.495883	21743.403946
492.863440	20982.618213
493.230939	20248.474979
493.598380	19578.455221
493.965763	19278.935065
494.333088	18769.224000
494.700354	18383.021204
495.067563	18103.035519
495.434713	17887.879073
495.801805	17722.655256
496.168839	17375.042492
496.535815	17084.621619
496.902733	16919.599448
497.269593	16568.281437
497.636395	16385.262346
498.003139	16339.690315
498.369825	15956.386183
498.736453	15878.979265
499.103023	15528.064546
499.469535	15293.247600
499.835989	15110.556185
500.202385	14834.426983
500.568723	14639.384740
500.935003	14483.613087
501.301226	14200.275035
501.667390	14220.817737
502.033497	14083.446294
502.399546	13741.404006
502.765537	13339.069517
503.131470	13222.593658
503.497345	13134.121408
503.863163	12527.544571
504.228923	12487.946308
504.594625	12423.974065
504.960269	12006.465704
505.325856	11968.783079
505.691385	11623.186777
506.056856	11451.812752
506.422270	11349.351300
506.787625	11059.434542
507.152924	10898.772969
507.518164	10724.223017
507.883347	10364.209015
508.248472	10219.805163
508.613540	10100.228994
508.978550	9961.193971
509.343503	9720.680521
509.708398	9563.068846
510.073236	9462.850708
510.438016	9288.804871
510.802738	9018.271350
511.167403	8906.030060
511.532010	8757.265610
511.896561	8637.361765
512.261053	8577.674504
512.625488	8316.845204
512.989866	8138.968090
513.354186	7923.156294
513.718449	7738.977738
514.082655	7658.646952
514.446803	7458.815613
514.810894	7339.617531
515.174927	7161.236302
515.538904	7003.851479
515.902822	6907.086531
516.266684	6702.945006
516.630488	6584.301450
516.994235	6422.455206
517.357925	6335.621331
517.721558	6217.229833
518.085133	6093.923210
518.448651	5968.322862
518.812112	5827.573846
519.175516	5696.327406
519.538863	5591.496612
519.902152	5463.148835
520.265385	5377.776894
520.628560	5264.098875
520.991678	5142.102952
521.354739	5038.658475
521.717743	4944.262869
522.080690	4844.952138
522.443580	4770.443885
522.806413	4684.441800
523.169189	4581.753496
523.531908	4509.816231
523.894569	4407.127927
524.257174	4333.426258
524.619722	4267.714817
524.982213	4193.055329
525.344647	4115.421560
525.707025	4043.988410
526.069345	3990.224504
526.431608	3919.597938
526.793815	3880.554202
527.155964	3800.072181
527.518057	3737.864342
527.880093	3681.907535
528.242072	3653.172958
528.603995	3591.393617
528.965860	3547.485167
529.327669	3502.694515
529.689421	3456.895633
530.051117	3433.000563
530.412755	3386.420302
530.774337	3353.274715
531.135862	3314.911535
531.497331	3287.991773
531.858743	3252.905342
532.220098	3223.011300
532.581396	3202.418187
532.942638	3168.944925
533.303824	3134.564256
533.664953	3114.324023
534.026025	3099.477825
534.387040	3080.321440
534.747999	3058.115158
535.108902	3040.773588
535.469748	3012.039012
535.830537	2996.839933
536.191270	2980.178919
536.551947	2959.938687
536.912567	2946.882098
537.273131	2935.363062
537.633638	2906.477250
537.994089	2911.266346
538.354483	2888.959240
538.714821	2885.027140
539.075103	2869.197917
539.435328	2852.763756
539.795497	2838.270438
540.155609	2826.171669
540.515665	2824.886175
540.875665	2807.494194
541.235609	2797.260652
541.595496	2796.504479
541.955328	2785.842438
542.315102	2772.332146
542.674821	2766.938112
543.034483	2750.075452
543.394090	2747.504463
543.753640	2738.581621
544.113134	2737.094481
544.472571	2723.962275
544.831953	2718.290977
545.191278	2720.660319
545.550548	2704.755479
545.909761	2698.706094
546.268918	2695.278110
546.628019	2687.111440
546.987064	2675.365552
547.346053	2669.139727
547.704986	2660.141267
548.063863	2659.435506
548.422684	2654.117088
548.781449	2655.553817
549.140158	2649.454021
549.498811	2637.178812
549.857408	2634.683440
550.215949	2634.179325
550.574434	2642.698875
550.932864	2622.584671
551.291237	2629.591875
551.649555	2620.568210
552.007817	2618.047633
552.366022	2615.653085
552.724173	2610.990017
553.082267	2610.813577
553.440305	2601.941146
553.798288	2600.403594
554.156215	2593.547625
554.514086	2589.035792
554.871902	2577.945254
555.229661	2585.078487
555.587365	2583.188054
555.945014	2575.122208
556.302606	2573.156158
556.660143	2581.877354
557.017625	2574.063565
557.375050	2571.895869
557.732421	2569.728173
558.089735	2573.559450
558.446994	2560.830537
558.804197	2566.148954
559.161345	2562.065619
559.518437	2564.787842
559.875474	2557.881462
560.232455	2556.999260
560.589381	2555.713765
560.946251	2548.933413
561.303065	2541.346477
561.659825	2557.679815
562.016528	2545.455017
562.373177	2538.926723
562.729770	2547.521890
563.086307	2551.580019
563.442789	2542.153062
563.799216	2539.279604
564.155587	2543.035263
564.511904	2540.287835
564.868164	2540.489481
565.224370	2538.876312
565.580520	2532.373223
565.936615	2536.607792
566.292654	2529.827440
566.648638	2524.912315
567.004567	2535.851619
567.360441	2531.843902
567.716260	2537.515200
568.072023	2529.524971
568.427732	2525.970958
568.783385	2532.146371
569.138982	2523.173117
569.494525	2527.231246
569.850013	2536.506969
570.205445	2524.408200
570.560823	2532.549663
570.916145	2520.249248
571.271412	2521.585154
571.626625	2523.324352
571.981782	2520.904598
572.336884	2519.316635
572.691931	2521.484331
573.046923	2518.434433
573.401860	2513.216838
573.756743	2523.147912
574.111570	2516.770852
574.466342	2525.618077
574.821059	2515.737415
575.175722	2522.492562
575.530330	2521.484331
575.884882	2519.291429
576.239380	2522.316121
576.593823	2514.653567
576.948211	2519.971985
577.302544	2519.820750
577.656823	2509.259533
578.011047	2510.066117
578.365216	2512.032167
578.719330	2515.056860
579.073389	2507.974038
579.427394	2515.182888
579.781344	2519.820750
580.135239	2510.645850
580.489080	2507.646363
580.842866	2513.267250
581.196597	2515.586181
581.550273	2507.570746
581.903895	2507.419512
582.257463	2514.426715
582.610975	2505.453462
582.964434	2519.392252
583.317837	2501.370127
583.671186	2518.636079
584.024481	2509.713237
584.377721	2511.628875
584.730906	2505.075375
585.084037	2513.796571
585.437113	2507.721981
585.790135	2499.731752
586.143103	2501.899448
586.496016	2505.050169
586.848874	2506.083606
587.201679	2508.200890
587.554428	2508.957063
587.907124	2510.897908
588.259765	2504.067144
588.612352	2507.066631
588.964884	2505.251815
589.317362	2503.109325
589.669786	2497.992554
590.022155	2498.295023
590.374470	2497.992554
590.726731	2502.756444
591.078937	2496.782677
591.431090	2500.941629
591.783188	2497.337204
592.135232	2497.009529
592.487222	2497.538850
592.839157	2509.435973
593.191038	2493.581544
593.542866	2500.210662
593.894639	2501.874242
594.246358	2506.814573
594.598022	2497.185969
594.949633	2494.917450
595.301190	2500.487925
595.652692	2503.512617
596.004141	2494.413335
596.355535	2504.167967
596.706876	2492.699342
597.058162	2489.825885
597.409395	2492.598519
597.760573	2496.379385
598.111698	2494.841833
598.462768	2500.790394
598.813785	2492.699342
599.164748	2500.084633
599.515657	2496.959117
599.866511	2500.235867
600.217312	2498.370640
600.568060	2495.875269
600.918753	2488.817654
601.269392	2506.260046
601.619978	2498.496669
601.970510	2490.052737
602.320988	2494.867038
602.671412	2493.606750
603.021783	2496.858294
603.372100	2496.001298
603.722363	2495.068685
604.072572	2498.799138
604.422728	2493.178252
604.772830	2503.991527
605.122878	2495.194713
605.472872	2502.227123
605.822813	2495.043479
606.172701	2493.329487
606.522534	2492.094404
606.872314	2503.437000
607.222041	2499.202431
607.571714	2484.608290
607.921333	2493.808396
608.270899	2479.012610
608.620411	2494.388129
608.969870	2493.127840
609.319276	2497.034735
609.668627	2485.515698
610.017926	2495.824858
610.367171	2492.850577
610.716362	2496.883500
611.065500	2498.925167
611.414585	2495.673623
611.763616	2498.017760
612.112594	2495.270331
612.461518	2494.010042
612.810389	2499.630929
613.159207	2499.580517
613.507971	2493.631956
613.856682	2494.917450
614.205340	2498.799138
614.553945	2492.674137
614.902496	2491.565083
615.250994	2498.269817
615.599439	2496.984323
615.947830	2504.621671
616.296169	2502.983296
616.644454	2492.623725
616.992686	2497.866525
617.340864	2495.774446
617.688990	2496.757471
618.037063	2493.858808
618.385082	2495.850063
618.733048	2490.103148
619.080961	2500.261073
619.428821	2505.529079
619.776628	2493.430310
620.124382	2492.699342
620.472083	2491.590288
620.819731	2491.212202
621.167326	2500.235867
621.514868	2496.656648
621.862357	2503.210148
622.209793	2494.665392
622.557176	2492.220433
622.904506	2495.043479
623.251783	2492.926194
623.599007	2502.277535
623.946179	2493.984837
624.293297	2492.926194
624.640363	2493.505927
624.987376	2492.951400
625.334336	2485.036788
625.681243	2491.313025
626.028097	2493.581544
626.374899	2493.858808
626.721647	2496.026504
627.068343	2492.346462
627.414987	2491.035762
627.761577	2491.086173
628.108115	2494.438540
628.454600	2489.876296
628.801032	2496.001298
629.147412	2488.691625
629.493739	2497.589262
629.840014	2482.390183
630.186236	2487.053250
630.532405	2497.236381
630.878521	2498.572287
631.224585	2493.732779
631.570597	2489.624238
631.916556	2488.817654
632.262462	2494.262100
632.608316	2484.305821
632.954117	2493.581544
633.299866	2495.446771
633.645562	2490.607263
633.991206	2500.311485
634.336797	2486.775987
634.682336	2492.926194
635.027823	2485.238435
635.373257	2488.918477
635.718639	2490.153560
636.063968	2490.430823
636.409245	2483.448825
636.754470	2487.305308
637.099642	2490.934938
637.444762	2488.414362
637.789829	2495.850063
638.134845	2492.548108
638.479808	2488.111892
638.824719	2490.808910
639.169577	2487.103662
639.514383	2489.599033
639.859137	2487.985863
640.203839	2483.650471
640.548489	2497.059940
640.893086	2483.650471
641.237632	2495.824858
641.582125	2489.800679
641.926566	2486.297077
642.270955	2482.264154
642.615292	2489.271358
642.959576	2488.338744
643.303809	2484.532673
643.647990	2495.119096
643.992118	2483.751294
644.336195	2484.860348
644.680219	2480.046046
645.024192	2495.900475
645.368112	2500.588748
645.711981	2490.682881
646.055797	2485.742550
646.399562	2487.406131
646.743274	2486.599546
647.086935	2483.045533
647.430544	2497.690085
647.774101	2474.677217
648.117606	2495.169508
648.461059	2484.482262
648.804460	2485.162817
649.147810	2491.590288
649.491108	2490.355206
649.834354	2485.036788
650.177548	2490.103148
650.520690	2489.145329
650.863781	2479.995635
651.206820	2494.816627
651.549807	2497.387615
651.892742	2491.817140
652.235626	2488.464773
652.578458	2489.170535
652.921238	2484.986377
653.263967	2485.591315
653.606644	2491.817140
653.949269	2492.371667
654.291843	2488.716831
654.634365	2485.263640
654.976836	2482.869092
655.319255	2489.599033
655.661622	2491.716317
656.003938	2481.911273
656.346203	2479.441108
656.688416	2489.170535
657.030577	2492.069198
657.372687	2483.952940
657.714746	2485.818167
658.056753	2484.935965
658.398708	2482.566623
658.740612	2487.078456
659.082465	2484.860348
659.424266	2488.137098
659.766016	2476.013123
660.107715	2485.440081
660.449362	2484.406644
660.790958	2491.640700
661.132503	2486.322283
661.473996	2487.532160
661.815438	2483.272385
662.156829	2489.220946
662.498168	2482.995121
662.839456	2491.212202
663.180693	2492.548108
663.521879	2488.616008
663.863013	2484.910760
664.204097	2485.868579
664.545129	2489.195740
664.886110	2487.380925
665.227040	2481.936479
665.567918	2484.608290
665.908746	2493.379898
666.249522	2490.077942
666.590248	2482.894298
666.930922	2486.574340
667.271545	2480.877837
667.612118	2495.547594
667.952639	2482.617035
668.293109	2485.692138
668.633528	2488.994094
668.973896	2493.757985
669.314213	2485.036788
669.654480	2485.314052
669.994695	2486.851604
670.334859	2488.439567
670.674973	2491.640700
671.015035	2489.296563
671.355047	2488.111892
671.695008	2479.869606
672.034918	2491.313025
672.374777	2485.490492
672.714585	2485.238435
673.054342	2493.253869
673.394049	2488.111892
673.733705	2488.237921
674.073310	2487.456542
674.412864	2489.775473
674.752368	2487.582571
675.091820	2487.154073
675.431223	2489.901502
675.770574	2478.105202
676.109875	2489.573827
676.449125	2486.095431
676.788324	2484.280615
677.127473	2480.852631
677.466571	2484.784731
677.805619	2495.446771
678.144616	2490.103148
678.483562	2488.842860
678.822458	2491.060967
679.161303	2485.061994
679.500098	2483.322796
679.838842	2482.667446
680.177535	2481.986890
680.516179	2496.404590
680.854771	2490.027531
681.193314	2488.691625
681.531805	2491.489465
681.870247	2485.087200
682.208638	2496.681854
682.546978	2485.893785
682.885268	2491.413848
683.223508	2490.934938
683.561697	2483.474031
683.899836	2492.422079
684.237925	2483.095944
684.575963	2492.800165
684.913951	2481.306335
685.251889	2491.565083
685.589776	2481.986890
685.927614	2486.624752
686.265401	2492.951400
686.603137	2484.129381
686.940824	2490.708087
687.278460	2488.288333
687.616046	2487.809423
687.953582	2486.977633
688.291068	2488.212715
688.628504	2496.379385
688.965889	2488.086687
689.303224	2495.270331
689.640510	2490.708087
689.977745	2491.439054
690.314930	2490.909733
690.652065	2483.322796
690.989150	2491.439054
691.326185	2490.682881
691.663170	2491.716317
692.000105	2485.540904
692.336990	2486.473517
692.673825	2481.961685
693.010610	2485.465287
693.347345	2490.456029
693.684030	2479.617548
694.020665	2478.911787
694.357251	2488.616008
694.693786	2478.558906
695.030272	2481.356746
695.366707	2482.617035
695.703093	2489.599033
696.039429	2483.927735
696.375716	2485.742550
696.711952	2482.264154
697.048139	2480.726602
697.384276	2486.675163
697.720363	2481.684421
698.056400	2482.944710
698.392388	2485.238435
698.728326	2475.080510
699.064214	2478.508494
699.400053	2479.088227
699.735842	2483.902529
700.071581	2479.768783
700.407270	2476.038329
700.742910	2482.112919
701.078501	2479.466313
701.414042	2482.112919
701.749533	2481.281129
702.084974	2484.129381
702.420366	2481.986890
702.755709	2481.104688
703.091002	2478.634523
703.426246	2480.146869
703.761440	2488.061481
704.096584	2479.869606
704.431679	2481.583598
704.766725	2485.364463
705.101721	2477.046560
705.436668	2479.088227
705.771565	2479.163844
706.106413	2486.599546
706.441212	2479.037815
706.775961	2485.641727
707.110661	2486.145842
707.445311	2482.213742
707.779913	2485.061994
708.114465	2475.282156
708.448967	2483.070738
708.783421	2485.918990
709.117825	2483.297590
709.452180	2482.692652
709.786485	2488.338744
710.120742	2486.675163
710.454949	2479.541931
710.789107	2486.423106
711.123216	2473.240488
711.457275	2481.029071
711.791286	2491.464260
712.125247	2491.212202
712.459159	2498.194200
712.793023	2482.289360
713.126837	2485.238435
713.460602	2487.532160
713.794318	2485.188023
714.127985	2488.137098
714.461602	2490.077942
714.795171	2482.717858
715.128691	2479.415902
715.462162	2481.079483
715.795584	2489.170535
716.128957	2481.054277
716.462281	2486.498723
716.795556	2478.911787
717.128782	2479.441108
717.461960	2478.382465
717.795088	2488.792448
718.128167	2477.928762
718.461198	2481.029071
718.794180	2488.540390
719.127113	2475.156127
719.459997	2480.172075
719.792833	2483.902529
720.125619	2483.776500
720.458357	2484.305821
720.791046	2485.818167
721.123686	2477.853144
721.456278	2476.391210
721.788821	2477.046560
722.121315	2479.289873
722.453761	2474.097485
722.786158	2481.230717
723.118506	2483.322796
723.450805	2483.499237
723.783056	2483.952940
724.115259	2477.802733
724.447412	2470.871146
724.779518	2475.559419
725.111574	2483.221973
725.443582	2481.306335
725.775542	2475.080510
726.107453	2477.071765
726.439315	2483.675677
726.771129	2480.600573
727.102895	2472.484315
727.434612	2474.147896
727.766281	2482.112919
728.097901	2479.289873
728.429473	2474.626806
728.760996	2480.449338
729.092471	2476.970942
729.423897	2483.247179
729.755276	2473.467340
730.086606	2481.356746
730.417887	2485.440081
730.749120	2488.641213
731.080305	2487.002838
731.411442	2480.676190
731.742530	2476.895325
732.073570	2480.575367
732.404562	2499.832575
732.735506	2477.727115
733.066401	2489.750267
733.397249	2483.070738
733.728048	2481.608804
734.058798	2477.802733
734.389501	2476.517238
734.720156	2486.145842
735.050762	2479.037815
735.381320	2478.584112
735.711831	2483.045533
736.042293	2474.047073
736.372707	2476.517238
736.703073	2481.558392
737.033391	2479.667960
737.363661	2482.264154
737.693883	2478.155613
738.024056	2479.743577
738.354182	2470.669500
738.684260	2474.021867
739.014290	2478.432877
739.344272	2477.248206
739.674207	2479.088227
740.004093	2480.777013
740.333931	2480.046046
740.663722	2475.735860
740.993464	2482.112919
741.323159	2493.657162
741.652806	2489.321769
741.982405	2475.206538
742.311956	2479.718371
742.641460	2483.070738
742.970915	2477.096971
743.300323	2477.777527
743.629683	2472.232258
743.958996	2470.341825
744.288260	2476.441621
744.617477	2479.642754
744.946647	2476.239975
745.275768	2482.440594
745.604842	2471.576908
745.933869	2475.105715
746.262847	2482.264154
746.591778	2475.786271
746.920662	2474.727629
747.249498	2477.147383
747.578286	2472.811990
747.907027	2471.501290
748.235720	2476.441621
748.564365	2476.466827
748.892963	2472.307875
749.221514	2470.971969
749.550017	2475.483802
749.878473	2485.641727
750.206881	2478.861375
750.535242	2476.592856
750.863555	2474.349542
751.191821	2478.684935
751.520039	2483.650471
751.848210	2476.013123
752.176334	2471.980200
752.504411	2479.844400
752.832440	2475.408185
753.160421	2480.524956
753.488356	2470.341825
753.816243	2473.517752
754.144082	2475.433390
754.471875	2474.173102
754.799620	2476.920531
755.127318	2471.324850
755.454969	2474.652012
755.782572	2474.525983
756.110129	2476.466827
756.437638	2475.584625
756.765100	2477.399440
757.092515	2480.323310
757.419882	2479.768783
757.747203	2469.762092
758.074477	2472.131435
758.401703	2466.258490
758.728882	2478.231231
759.056014	2480.600573
759.383099	2475.710654
759.710138	2473.467340
760.037129	2469.913327
760.364073	2471.047587
760.690970	2472.862402
761.017820	2476.895325
761.344623	2474.652012
761.671379	2479.541931
761.998088	2476.239975
762.324751	2472.559933
762.651366	2490.153560
762.977935	2481.684421
763.304456	2490.632469
763.630931	2492.119610
763.957359	2487.456542
764.283740	2492.674137
764.610074	2475.710654
764.936362	2491.010556
765.262602	2483.801706
765.588796	2482.264154
765.914943	2477.172588
766.241044	2481.255923
766.567097	2476.895325
766.893104	2473.971456
767.219064	2474.147896
767.544978	2475.685448
767.870845	2473.946250
768.196665	2462.931329
768.522438	2471.602113
768.848165	2470.089767
769.173846	2480.146869
769.499479	2477.601087
769.825066	2474.072279
770.150607	2474.097485
770.476101	2478.911787
770.801548	2465.829992
771.126949	2471.097998
771.452303	2461.822275
771.777611	2474.324337
772.102872	2477.197794
772.428087	2473.492546
772.753256	2469.560446
773.078378	2468.527010
773.403453	2470.089767
773.728482	2472.509521
774.053465	2470.241002
774.378401	2477.827938
774.703291	2469.157154
775.028135	2474.021867
775.352932	2470.241002
775.677683	2472.635550
776.002388	2470.896352
776.327046	2464.897379
776.651658	2457.562500
776.976224	2465.527523
777.300743	2477.878350
777.625216	2466.636577
777.949643	2470.089767
778.274024	2468.879890
778.598359	2477.928762
778.922647	2464.494087
779.246889	2476.718885
779.571086	2467.367544
779.895236	2463.737913
780.219339	2462.402008
780.543397	2480.020840
780.867409	2471.753348
781.191374	2471.728142
781.515294	2471.400467
781.839167	2470.644294
782.162995	2476.214769
782.486776	2463.132975
782.810511	2472.837196
783.134201	2471.677731
783.457844	2478.584112
783.781441	2475.559419
784.104993	2472.862402
784.428498	2465.502317
784.751958	2473.996662
785.075372	2466.308902
785.398739	2464.645321
785.722061	2474.399954
786.045337	2469.661269
786.368568	2471.904583
786.691752	2465.149437
787.014891	2466.535754
787.337983	2472.081023
787.661030	2472.282669
787.984031	2484.280615
788.306987	2475.307362
788.629897	2475.408185
788.952760	2474.904069
789.275579	2470.316619
789.598351	2468.905096
789.921078	2473.013637
790.243759	2464.065588
790.566395	2471.602113
790.888984	2468.350569
791.211529	2469.535240
791.534027	2472.207052
791.856480	2466.082050
792.178888	2459.377315
792.501249	2463.057358
792.823566	2464.670527
793.145836	2466.409725
793.468062	2470.820735
793.790241	2471.501290
794.112375	2473.593369
794.434464	2465.754375
794.756507	2469.988944
795.078505	2469.661269
795.400457	2467.846454
795.722364	2465.981227
796.044226	2472.534727
796.366042	2481.860862
796.687812	2468.048100
797.009538	2470.997175
797.331218	2461.847481
797.652852	2463.435444
797.974442	2472.963225
798.295986	2462.477625
798.617484	2463.359827
798.938938	2474.047073
799.260346	2468.375775
799.581709	2466.964252
799.903026	2467.997688
800.224299	2466.712194
800.545526	2464.720938
800.866708	2470.089767
801.187845	2460.561987
801.508936	2477.147383
801.829983	2468.955508
802.150984	2476.517238
802.471940	2467.770837
802.792851	2475.786271
803.113717	2462.351596
803.434538	2473.341312
803.755314	2472.534727
804.076045	2466.510548
804.396731	2470.568677
804.717372	2458.747171
805.037967	2469.005919
805.358518	2473.265694
805.679024	2472.307875
805.999485	2470.442648
806.319901	2468.552215
806.640272	2471.097998
806.960598	2462.956535
807.280879	2463.813531
807.601115	2468.980713
807.921306	2471.954994
808.241453	2467.342338
808.561554	2463.334621
808.881611	2470.190590
809.201623	2461.368571
809.521590	2464.922585
809.841513	2469.535240
810.161390	2467.090281
810.481223	2461.721452
810.801011	2472.559933
811.120755	2470.845940
811.440453	2473.442135
811.760107	2462.830506
812.079716	2467.115487
812.399281	2465.552729
812.718801	2466.535754
813.038276	2473.517752
813.357707	2464.796556
813.677093	2466.989458
813.996434	2469.988944
814.315731	2473.391723
814.634983	2461.242542
814.954191	2465.754375
815.273354	2458.772377
815.592473	2474.349542
815.911547	2469.510035
816.230577	2473.870633
816.549562	2462.074333
816.868502	2470.518265
817.187399	2471.450879
817.506250	2469.938533
817.825058	2463.763119
818.143821	2463.637090
818.462539	2464.746144
818.781213	2469.510035
819.099843	2465.275465
819.418429	2473.971456
819.736970	2470.795529
820.055466	2475.105715
820.373919	2479.441108
820.692327	2480.852631
821.010691	2480.146869
821.329011	2497.816113
821.647286	2507.369100
821.965517	2542.657177
822.283704	2564.384550
822.601847	2560.502862
822.919945	2559.267779
823.237999	2546.059956
823.556010	2535.271887
823.873976	2524.609846
824.191897	2499.656135
824.509775	2498.395846
824.827609	2500.059427
825.145398	2492.548108
825.463144	2484.532673
825.780845	2487.305308
826.098502	2497.311998
826.416116	2497.286792
826.733685	2508.301713
827.051210	2514.275481
827.368692	2502.403563
827.686129	2502.101094
828.003522	2496.530619
828.320872	2490.909733
828.638177	2480.802219
828.955439	2472.988431
829.272656	2481.079483
829.589830	2477.827938
829.906960	2468.829479
830.224046	2461.066102
830.541088	2466.409725
830.858086	2469.787298
831.175041	2479.617548
831.491952	2475.181333
831.808819	2475.357773
832.125642	2466.939046
832.442421	2475.055304
832.759157	2470.114973
833.075849	2473.517752
833.392497	2481.810450
833.709101	2489.750267
834.025662	2485.213229
834.342179	2487.985863
834.658653	2476.870119
834.975083	2478.483288
835.291469	2479.390696
835.607811	2469.484829
835.924110	2469.711681
836.240366	2468.048100
836.556578	2478.332054
836.872746	2474.525983
837.188871	2468.854685
837.504952	2472.055817
837.820990	2470.467854
838.136984	2457.310442
838.452935	2469.711681
838.768842	2462.729683
839.084706	2474.021867
839.400526	2467.569190
839.716303	2474.652012
840.032037	2470.845940
840.347727	2469.308388
840.663373	2471.450879
840.978977	2461.242542
841.294537	2466.359313
841.610054	2461.923098
841.925527	2471.047587
842.240957	2456.075360
842.556344	2463.183387
842.871687	2463.259004
843.186987	2466.334108
843.502244	2465.250260
843.817458	2470.341825
844.132629	2460.486369
844.447756	2461.418983
844.762840	2463.233798
845.077881	2459.931842
845.392879	2458.646348
845.707833	2467.670013
846.022745	2455.167952
846.337613	2458.847994
846.652438	2460.108283
846.967221	2458.469908
847.281960	2453.353137
847.596656	2456.680298
847.911309	2454.109310
848.225919	2462.981740
848.540485	2454.336162
848.855009	2463.284210
849.169490	2464.569704
849.483928	2465.930815
849.798323	2463.334621
850.112675	2470.946763
850.426984	2458.923612
850.741251	2463.939560
851.055474	2461.847481
851.369654	2460.133488
851.683792	2460.133488
851.997887	2466.434931
852.311938	2468.703450
852.625947	2463.410238
852.939914	2461.973510
853.253837	2461.696246
853.567718	2464.317646
853.881555	2463.284210
854.195350	2454.336162
854.509103	2458.621142
854.822812	2461.015690
855.136479	2472.383492
855.450103	2461.418983
855.763685	2450.303238
856.077224	2455.571244
856.390720	2459.578962
856.704173	2459.881431
857.017584	2464.242029
857.330953	2458.520319
857.644278	2460.536781
857.957561	2465.603140
858.270802	2464.065588
858.584000	2460.965279
858.897155	2452.874227
859.210268	2464.267235
859.523339	2468.905096
859.836367	2458.545525
860.149352	2457.663323
860.462295	2458.974023
860.775195	2466.586165
861.088054	2461.242542
861.400869	2462.250773
861.713642	2461.645835
862.026373	2464.821762
862.339062	2455.319187
862.651708	2453.756429
862.964312	2460.108283
863.276873	2457.789352
863.589392	2465.477112
863.901869	2458.721965
864.214303	2458.167438
864.526696	2471.173615
864.839045	2463.057358
865.151353	2452.319700
865.463619	2460.814044
865.775842	2459.100052
866.088023	2456.705504
866.400162	2465.603140
866.712258	2458.444702
867.024313	2461.343365
867.336325	2464.015177
867.648296	2463.989971
867.960224	2465.477112
868.272110	2454.033692
868.583954	2459.427727
868.895755	2460.133488
869.207515	2461.620629
869.519233	2464.494087
869.830909	2455.268775
870.142542	2465.981227
870.454134	2469.081537
870.765684	2460.259517
871.077191	2464.746144
871.388657	2463.611885
871.700081	2463.107769
872.011463	2446.119081
872.322803	2454.714248
872.634101	2461.166925
872.945357	2459.024435
873.256571	2466.989458
873.567744	2455.092335
873.878874	2470.316619
874.189963	2463.586679
874.501010	2465.729169
874.812015	2460.990485
875.122979	2461.192131
875.433900	2463.435444
875.744780	2465.225054
876.055618	2459.704990
876.366415	2463.183387
876.677169	2464.040383
876.987882	2460.612398
877.298554	2466.636577
877.609183	2459.881431
877.919771	2463.183387
878.230317	2462.326390
878.540822	2459.452933
878.851285	2473.971456
879.161707	2464.342852
879.472087	2474.475571
879.782425	2466.586165
880.092722	2479.466313
880.402977	2482.188537
880.713191	2500.160250
881.023363	2494.438540
881.333494	2516.594412
881.643583	2504.193173
881.953631	2514.502333
882.263637	2504.369613
882.573602	2505.503873
882.883526	2486.019813
883.193408	2491.237408
883.503248	2483.549648
883.813048	2481.659215
884.122806	2484.406644
884.432522	2485.818167
884.742197	2486.246665
885.051831	2478.659729
885.361424	2472.257463
885.670975	2459.982254
885.980485	2470.367031
886.289954	2465.073819
886.599382	2461.570217
886.908768	2463.107769
887.218113	2455.546038
887.527417	2457.562500
887.836680	2460.284723
888.145901	2471.400467
888.455082	2465.527523
888.764221	2464.166412
889.073319	2467.014663
889.382376	2462.603654
889.691392	2458.520319
890.000366	2459.704990
890.309300	2473.467340
890.618193	2465.199848
890.927044	2462.679271
891.235855	2473.442135
891.544625	2460.083077
891.853353	2460.637604
892.162041	2465.023408
892.470687	2466.787812
892.779293	2464.393263
893.087858	2466.006433
893.396381	2462.679271
893.704864	2478.936992
894.013306	2465.225054
894.321707	2465.048613
894.630068	2481.659215
894.938387	2467.065075
895.246665	2475.408185
895.554903	2482.112919
895.863100	2473.895838
896.171256	2480.096458
896.479371	2469.963738
896.787446	2466.737400
897.095480	2458.847994
897.403473	2474.072279
897.711425	2462.855712
898.019336	2469.131948
898.327207	2464.544498
898.635038	2472.408698
898.942827	2456.302212
899.250576	2465.073819
899.558284	2459.957048
899.865952	2464.141206
900.173579	2463.889148
900.481165	2460.360340
900.788711	2468.224540
901.096216	2462.099538
901.403681	2464.216823
901.711105	2466.308902
902.018489	2463.082563
902.325832	2456.957562
902.633135	2462.376802
902.940397	2463.006946
903.247619	2463.057358
903.554800	2466.132462
903.861941	2472.307875
904.169041	2475.584625
904.476101	2473.744604
904.783121	2483.978146
905.090100	2475.962712
905.397039	2473.568163
905.703938	2467.014663
906.010796	2471.047587
906.317614	2471.324850
906.624391	2464.141206
906.931129	2469.232771
907.237826	2463.611885
907.544483	2470.921558
907.851099	2468.375775
908.157675	2463.536267
908.464211	2466.737400
908.770707	2463.637090
909.077163	2456.755915
909.383578	2458.671554
909.689954	2464.443675
909.996289	2457.512088
910.302584	2460.713221
910.608839	2468.022894
910.915054	2460.158694
911.221229	2463.511062
911.527363	2459.200875
911.833458	2464.090794
912.139513	2458.444702
912.445527	2464.090794
912.751502	2455.520833
913.057436	2466.258490
913.363331	2459.024435
913.669186	2454.941100
913.975000	2459.679785
914.280775	2462.729683
914.586510	2469.661269
914.892205	2474.828452
915.197859	2466.989458
915.503475	2464.468881
915.809050	2476.038329
916.114585	2480.903042
916.420081	2479.743577
916.725536	2475.156127
917.030952	2476.239975
917.336328	2480.550162
917.641665	2471.198821
917.946961	2465.250260
918.252218	2474.551188
918.557435	2464.972996
918.862612	2470.493060
919.167750	2461.948304
919.472848	2472.534727
919.777906	2466.082050
920.082925	2461.217337
920.387904	2470.341825
920.692843	2467.266721
920.997743	2463.737913
921.302603	2467.443162
921.607423	2466.863429
921.912204	2456.428240
922.216946	2465.527523
922.521647	2462.452419
922.826310	2459.931842
923.130932	2460.335135
923.435516	2458.041410
923.740059	2460.259517
924.044564	2465.779581
924.349028	2456.075360
924.653454	2457.612912
924.957840	2464.821762
925.262186	2457.940587
925.566493	2458.570731
925.870761	2457.864969
926.174989	2466.384519
926.479178	2461.973510
926.783328	2459.100052
927.087438	2456.428240
927.391509	2455.369598
927.695541	2454.588219
927.999533	2459.200875
928.303486	2464.015177
928.607400	2457.512088
928.911275	2456.655092
929.215110	2460.259517
929.518906	2458.646348
929.822663	2456.150977
930.126381	2452.244083
930.430060	2454.613425
930.733699	2455.898919
931.037299	2461.292954
931.340861	2465.300671
931.644383	2457.209619
931.947866	2454.487396
932.251309	2455.646862
932.554714	2459.629373
932.858080	2458.747171
933.161407	2452.949844
933.464694	2457.184413
933.767943	2448.261571
934.071153	2457.562500
934.374323	2452.647375
934.677455	2457.764146
934.980548	2453.403548
935.283602	2459.074846
935.586617	2459.805813
935.889593	2458.898406
936.192530	2453.151490
936.495428	2456.050154
936.798287	2463.964765
937.101108	2448.488423
937.403890	2453.630400
937.706632	2457.184413
938.009336	2461.141719
938.312002	2457.461677
938.614628	2445.010027
938.917216	2458.999229
939.219765	2458.520319
939.522275	2464.645321
939.824747	2451.487910
940.127179	2464.090794
940.429573	2450.857765
940.731929	2468.174129
941.034246	2447.681838
941.336524	2461.822275
941.638763	2456.226594
941.940964	2464.897379
942.243126	2452.546552
942.545250	2461.393777
942.847335	2456.024948
943.149381	2464.443675
943.451389	2454.310956
943.753359	2469.182360
944.055290	2454.588219
944.357182	2452.697787
944.659036	2462.855712
944.960851	2459.074846
945.262628	2457.234825
945.564367	2461.267748
945.866067	2451.261058
946.167729	2447.707044
946.469352	2458.570731
946.770937	2469.434417
947.072484	2453.504371
947.373992	2460.889662
947.675462	2471.299644
947.976893	2461.570217
948.278286	2464.015177
948.579641	2459.957048
948.880958	2448.740481
949.182236	2463.637090
949.483476	2463.561473
949.784678	2457.764146
950.085841	2454.714248
950.386967	2459.024435
950.688054	2455.016717
950.989103	2457.360854
951.290114	2467.216310
951.591087	2464.166412
951.892021	2455.041923
952.192917	2451.840790
952.493776	2456.251800
952.794596	2451.916408
953.095378	2461.418983
953.396122	2451.790379
953.696828	2458.369085
953.997496	2453.731223
954.298126	2450.857765
954.598718	2458.873200
954.899272	2459.326904
955.199788	2454.638631
955.500266	2460.511575
955.800706	2465.048613
956.101108	2459.755402
956.401472	2462.099538
956.701798	2458.369085
957.002087	2458.268262
957.302337	2461.015690
957.602550	2456.277006
957.902724	2459.805813
958.202861	2462.124744
958.502960	2452.571758
958.803022	2455.596450
959.103045	2464.720938
959.403031	2455.092335
959.702979	2458.520319
960.002889	2461.267748
960.302762	2455.697273
960.602596	2457.436471
960.902393	2457.234825
961.202153	2455.142746
961.501875	2457.159208
961.801559	2460.083077
962.101205	2453.605194
962.400814	2450.328444
962.700385	2445.791406
962.999918	2453.756429
963.299414	2445.539348
963.598873	2459.100052
963.898293	2449.219390
964.197677	2458.948817
964.497022	2454.310956
964.796331	2460.839250
965.095601	2453.050667
965.394835	2461.872687
965.694030	2452.445729
965.993189	2456.655092
966.292309	2458.570731
966.591393	2459.402521
966.890439	2457.310442
967.189447	2457.587706
967.488419	2453.731223
967.787353	2462.351596
968.086249	2460.360340
968.385108	2455.420010
968.683930	2450.832560
968.982714	2454.815071
969.281462	2452.849021
969.580172	2455.092335
969.878844	2461.242542
970.177480	2456.655092
970.476078	2462.553242
970.774639	2455.293981
971.073162	2456.755915
971.371649	2455.520833
971.670098	2461.343365
971.968510	2456.100565
972.266885	2449.471448
972.565223	2463.082563
972.863524	2448.211160
973.161788	2459.175669
973.460014	2452.622169
973.758204	2455.167952
974.056356	2455.268775
974.354471	2455.898919
974.652550	2459.125258
974.950591	2464.594910
975.248595	2440.750252
975.546563	2458.721965
975.844493	2450.051181
976.142386	2459.150463
976.440243	2466.006433
976.738062	2453.252313
977.035845	2458.369085
977.333590	2459.629373
977.631299	2453.983281
977.928971	2450.832560
978.226606	2450.202415
978.524204	2451.765173
978.821765	2449.345419
979.119290	2457.587706
979.416777	2453.907663
979.714228	2460.713221
980.011642	2455.571244
980.309020	2451.109823
980.606360	2458.898406
980.903664	2456.453446
981.200931	2459.604167
981.498162	2450.908177
981.795356	2456.226594
982.092513	2454.084104
982.389633	2455.016717
982.686717	2454.184927
982.983764	2465.855198
983.280775	2454.210133
983.577749	2458.091821
983.874686	2449.471448
984.171587	2451.992025
984.468451	2458.495113
984.765279	2453.882458
985.062070	2460.587192
985.358824	2458.444702
985.655543	2462.578448
985.952224	2447.505398
986.248869	2460.713221
986.545478	2452.168465
986.842050	2462.830506
987.138586	2462.553242
987.435086	2452.949844
987.731549	2454.361367
988.027975	2456.075360
988.324366	2459.906637
988.620719	2450.227621
988.917037	2458.999229
989.213318	2455.520833
989.509563	2455.117540
989.805772	2459.226081
990.101944	2467.367544
990.398080	2452.420523
990.694180	2442.993565
990.990244	2455.445215
991.286271	2456.428240
991.582262	2450.832560
991.878217	2451.765173
992.174136	2454.008487
992.470019	2448.211160
992.765865	2447.631427
993.061676	2455.621656
993.357450	2454.184927
993.653188	2450.983794
993.948890	2446.799637
994.244556	2450.404062
994.540186	2450.479679
994.835780	2446.976077
995.131337	2455.445215
995.426859	2453.630400
995.722345	2454.890688
996.017795	2453.579988
996.313208	2453.403548
996.608586	2460.587192
996.903928	2466.813017
997.199234	2458.117027
997.494504	2450.328444
997.789738	2454.865483
998.084936	2457.688529
998.380099	2454.285750
998.675225	2459.780608
998.970316	2454.184927
999.265371	2457.159208
999.560390	2454.840277
999.855373	2456.125771
1000.150320	2462.578448
1000.445232	2454.235338
1000.740108	2454.588219
1001.034948	2454.689042
1001.329752	2448.463217
1001.624521	2456.100565
1001.919254	2453.101079
1002.213951	2455.697273
1002.508613	2451.513115
1002.803239	2454.714248
1003.097829	2449.496654
1003.392384	2457.033179
1003.686903	2450.681325
1003.981386	2456.680298
1004.275834	2453.075873
1004.570246	2453.453960
1004.864623	2453.101079
1005.158964	2460.410752
1005.453270	2454.210133
1005.747540	2455.394804
1006.041775	2460.234312
1006.335974	2447.051694
1006.630138	2450.731737
1006.924266	2460.234312
1007.218359	2450.933383
1007.512416	2450.782148
1007.806438	2452.647375
1008.100425	2453.126285
1008.394376	2440.195725
1008.688292	2456.932356
1008.982172	2450.152004
1009.276017	2457.663323
1009.569827	2453.932869
1009.863602	2455.974537
1010.157341	2451.462704
1010.451045	2450.782148
1010.744714	2444.379883
1011.038347	2452.722992
1011.331945	2456.554269
1011.625508	2453.958075
1011.919036	2445.816612
1012.212528	2447.858279
1012.505986	2461.368571
1012.799408	2460.788838
1013.092795	2454.613425
1013.386147	2456.907150
1013.679464	2454.134515
1013.972745	2451.462704
1014.265992	2452.445729
1014.559204	2455.672067
1014.852380	2455.949331
1015.145521	2455.596450
1015.438628	2454.235338
1015.731699	2455.924125
1016.024736	2461.066102
1016.317737	2457.083590
1016.610703	2450.152004
1016.903635	2462.578448
1017.196531	2456.352623
1017.489393	2457.915381
1017.782219	2456.327417
1018.075011	2458.520319
1018.367768	2468.451392
1018.660490	2450.126798
1018.953177	2450.126798
1019.245829	2450.126798
