Dividing Wavelength (nm)	Counts (n)	Slit_number_4_of_a_total_of_40	
326.493990	2152.320635
326.888308	2152.320635
327.282561	2152.320635
327.676750	2128.459173
328.070874	2140.221865
328.464933	2132.408077
328.858929	2145.010962
329.252859	2151.060346
329.646726	2170.048692
330.040528	2195.842596
330.434265	2214.830942
330.827938	2235.835750
331.221547	2241.969154
331.615091	2285.071019
332.008571	2278.013404
332.401986	2311.453058
332.795338	2329.601212
333.188625	2339.347442
333.581847	2365.813500
333.975006	2382.281269
334.368100	2397.572769
334.761129	2410.427712
335.154095	2439.834442
335.546996	2459.999058
335.939833	2492.010385
336.332606	2491.002154
336.725315	2517.468212
337.117960	2509.906481
337.510540	2533.935981
337.903056	2535.112250
338.295508	2537.716846
338.687896	2542.673981
339.080220	2568.383865
339.472480	2569.560135
339.864676	2592.749442
340.256807	2571.996692
340.648875	2567.963769
341.040879	2573.593058
341.432818	2572.836885
341.824694	2575.357462
342.216506	2568.887981
342.608253	2577.457942
342.999937	2575.273442
343.391557	2592.077288
343.783113	2567.879750
344.174605	2566.199365
344.566033	2569.728173
344.957397	2564.855058
345.348697	2565.107115
345.739934	2558.469596
346.131106	2566.199365
346.522215	2545.110538
346.913260	2581.154788
347.304241	2558.553615
347.695159	2563.258692
348.086012	2553.764519
348.476802	2553.848538
348.867528	2543.514173
349.258191	2548.555327
349.648789	2551.327962
350.039324	2547.463077
350.429796	2539.061154
350.820203	2543.094077
351.210548	2547.883173
351.600828	2540.153404
351.991045	2542.253885
352.381198	2547.295038
352.771288	2536.876654
353.161314	2543.430154
353.551276	2559.561846
353.941175	2539.481250
354.331010	2549.311500
354.720782	2541.245654
355.110490	2536.372538
355.500135	2539.901346
355.889717	2549.731596
356.279235	2538.725077
356.668689	2555.360885
357.058080	2564.098885
357.447408	2540.489481
357.836672	2539.565269
358.225873	2550.151692
358.615010	2536.624596
359.004084	2536.288519
359.393095	2544.606423
359.782043	2536.456558
360.170927	2539.985365
360.559748	2553.848538
360.948505	2554.436673
361.337199	2552.924327
361.725830	2548.807385
362.114398	2563.762808
362.502903	2561.830365
362.891344	2546.118769
363.279722	2550.655808
363.668037	2553.428442
364.056289	2544.438385
364.444478	2545.530635
364.832603	2560.402038
365.220665	2552.000115
365.608665	2552.756288
365.996601	2566.871519
366.384474	2558.217538
366.772284	2564.434962
367.160031	2552.168154
367.547715	2571.072481
367.935336	2556.537154
368.322893	2555.360885
368.710388	2533.851962
369.097820	2557.209308
369.485189	2557.545385
369.872495	2558.049500
370.259738	2564.266923
370.646918	2563.846827
371.034035	2573.845115
371.421090	2560.402038
371.808081	2543.094077
372.195010	2555.865000
372.581875	2546.958962
372.968678	2557.629404
373.355418	2571.912673
373.742096	2554.184615
374.128710	2564.771038
374.515262	2562.166442
374.901751	2558.217538
375.288177	2569.560135
375.674540	2546.538865
376.060841	2552.084135
376.447079	2563.258692
376.833254	2564.939077
377.219367	2556.285096
377.605417	2564.098885
377.991404	2560.906154
378.377329	2574.013154
378.763191	2563.594769
379.148991	2580.986750
379.534727	2562.250462
379.920402	2564.603000
380.306013	2557.797442
380.691563	2581.406846
381.077049	2564.266923
381.462474	2572.584827
381.847835	2574.433250
382.233134	2558.721654
382.618371	2559.645865
383.003545	2568.131808
383.388657	2567.123577
383.773706	2579.642442
384.158693	2573.845115
384.543618	2558.637635
384.928480	2564.687019
385.313280	2561.662327
385.698017	2570.820423
386.082692	2579.390385
386.467305	2560.906154
386.851856	2569.392096
387.236344	2574.349231
387.620770	2567.711712
388.005133	2570.820423
388.389435	2568.635923
388.773674	2563.594769
389.157851	2569.980231
389.541965	2573.172962
389.926018	2570.316308
390.310008	2563.846827
390.693936	2557.209308
391.077802	2584.767615
391.461606	2566.535442
391.845348	2563.426731
392.229027	2571.660615
392.612645	2563.594769
392.996200	2568.383865
393.379694	2573.677077
393.763125	2560.990173
394.146494	2571.912673
394.529801	2577.794019
394.913047	2575.609519
395.296230	2573.425019
395.679351	2565.443192
396.062410	2559.141750
396.445408	2581.658904
396.828343	2572.836885
397.211217	2573.761096
397.594028	2583.423308
397.976778	2580.902731
398.359466	2574.517269
398.742092	2580.314596
399.124656	2594.009731
399.507158	2569.644154
399.889598	2564.771038
400.271977	2574.181192
400.654294	2560.570077
401.036549	2579.306365
401.418742	2569.896212
401.800874	2562.754577
402.182944	2568.047788
402.564952	2587.120154
402.946898	2575.777558
403.328783	2562.586538
403.710606	2574.013154
404.092367	2575.945596
404.474067	2580.062538
404.855705	2577.037846
405.237282	2564.603000
405.618797	2579.054308
406.000250	2578.298135
406.381642	2576.365692
406.762972	2575.777558
407.144240	2580.146558
407.525447	2565.947308
407.906593	2575.861577
408.287677	2588.380442
408.668700	2567.627692
409.049661	2593.169538
409.430560	2581.658904
409.811399	2586.700058
410.192176	2577.710000
410.572891	2593.169538
410.953545	2589.892788
411.334138	2576.281673
411.714669	2581.322827
412.095139	2589.976808
412.475547	2584.263500
412.855894	2575.693538
413.236180	2580.230577
413.616405	2574.769327
413.996568	2586.952115
414.376670	2582.163019
414.756711	2581.742923
415.136691	2573.256981
415.516609	2577.541962
415.896466	2581.574885
416.276262	2586.195942
416.655997	2578.550192
417.035670	2578.382154
417.415283	2579.054308
417.794834	2582.919192
418.174324	2584.851635
418.553753	2582.415077
418.933121	2579.306365
419.312428	2591.993269
419.691674	2593.757673
420.070859	2579.978519
420.449983	2566.535442
420.829045	2590.060827
421.208047	2587.540250
421.586988	2574.685308
421.965867	2581.322827
422.344686	2573.677077
422.723444	2585.355750
423.102141	2594.261788
423.480777	2592.245327
423.859352	2585.187712
424.237866	2579.894500
424.616319	2586.279962
424.994712	2586.952115
425.373044	2593.673654
425.751314	2589.724750
426.129524	2585.103692
426.507673	2584.179481
426.885762	2600.395192
427.263789	2586.363981
427.641756	2580.314596
428.019662	2588.044365
428.397508	2583.927423
428.775292	2590.228865
429.153016	2577.710000
429.530679	2579.222346
429.908282	2594.429827
430.285824	2587.456231
430.663305	2600.143135
431.040726	2582.667135
431.418086	2594.177769
431.795385	2599.639019
432.172624	2598.546769
432.549802	2592.245327
432.926920	2589.556712
433.303977	2582.163019
433.680974	2591.825231
434.057910	2589.724750
434.434786	2583.255269
434.811601	2569.560135
435.188355	2585.019673
435.565050	2580.650673
435.941683	2587.120154
436.318257	2585.355750
436.694770	2588.044365
437.071222	2561.242231
437.447614	2576.113635
437.823946	2593.169538
438.200218	2593.841692
438.576429	2589.136615
438.952580	2576.113635
439.328670	2590.817000
439.704700	2568.972000
440.080670	2582.583115
440.456580	2584.683596
440.832429	2569.392096
441.208218	2575.525500
441.583947	2587.708288
441.959616	2592.413365
442.335224	2584.599577
442.710773	2591.741212
443.086261	2577.457942
443.461689	2590.312885
443.837057	2584.179481
444.212365	2607.032712
444.587612	2590.648962
444.962800	2587.624269
445.337927	2589.304654
445.712995	2580.902731
446.088002	2588.380442
446.462949	2585.103692
446.837837	2587.708288
447.212664	2576.113635
447.587431	2578.046077
447.962139	2588.968577
448.336786	2594.933942
448.711374	2597.286481
449.085901	2602.327635
449.460369	2580.398615
449.834776	2584.935654
450.209124	2587.624269
450.583412	2585.439769
450.957640	2598.546769
451.331808	2595.858154
451.705917	2583.927423
452.079965	2597.538538
452.453954	2575.693538
452.827883	2592.497385
453.201752	2600.311173
453.575562	2582.835173
453.949311	2578.382154
454.323001	2601.319404
454.696632	2609.805346
455.070202	2584.347519
455.443713	2596.194231
455.817164	2583.255269
456.190556	2594.765904
456.563888	2579.222346
456.937160	2587.540250
457.310373	2580.986750
457.683526	2582.499096
458.056619	2591.069058
458.429653	2591.405135
458.802628	2599.386962
459.175542	2603.083808
459.548398	2588.464462
459.921194	2593.169538
460.293930	2589.472692
460.666607	2587.624269
461.039224	2593.505615
461.411782	2595.270019
461.784280	2598.630788
462.156719	2604.764192
462.529099	2583.087231
462.901419	2590.901019
463.273680	2596.278250
463.645882	2579.810481
464.018024	2595.017962
464.390106	2591.153077
464.762130	2589.136615
465.134094	2600.479212
465.505999	2597.706577
465.877845	2597.622558
466.249631	2602.915769
466.621358	2603.924000
466.993026	2605.352327
467.364634	2612.914058
467.736184	2593.421596
468.107674	2604.596154
468.479105	2598.714808
468.850477	2584.599577
469.221790	2580.062538
469.593043	2587.876327
469.964238	2590.228865
470.335373	2596.698346
470.706449	2596.950404
471.077467	2598.042654
471.448425	2596.614327
471.819324	2591.069058
472.190164	2605.856442
472.560945	2608.713096
472.931667	2583.675365
473.302330	2607.200750
473.672934	2592.665423
474.043479	2597.790596
474.413965	2602.327635
474.784393	2596.698346
475.154761	2604.092038
475.525070	2603.503904
475.895321	2594.093750
476.265513	2580.146558
476.635645	2603.671942
477.005719	2599.975096
477.375734	2603.083808
477.745691	2605.856442
478.115588	2595.101981
478.485427	2597.202462
478.855207	2604.932231
479.224928	2596.110212
479.594591	2606.528596
479.964194	2608.461038
480.333739	2600.311173
480.703226	2590.985038
481.072653	2597.034423
481.442022	2610.141423
481.811333	2601.151365
482.180584	2591.825231
482.549777	2595.690115
482.918912	2614.342385
483.287988	2609.217212
483.657005	2604.260077
484.025964	2615.266596
484.394864	2588.716519
484.763706	2597.874615
485.132489	2595.690115
485.501213	2578.970288
485.869879	2599.555000
486.238487	2601.235385
486.607036	2574.181192
486.975527	2593.925712
487.343959	2590.985038
487.712333	2601.487442
488.080648	2595.858154
488.448905	2593.001500
488.817104	2592.917481
489.185244	2594.177769
489.553326	2599.134904
489.921350	2589.892788
490.289315	2603.755962
490.657222	2600.563231
491.025070	2610.897596
491.392861	2604.008019
491.760593	2597.874615
492.128267	2607.872904
492.495883	2600.563231
492.863440	2607.284769
493.230939	2610.057404
493.598380	2594.849923
493.965763	2595.354038
494.333088	2599.891077
494.700354	2597.454519
495.067563	2604.344096
495.434713	2592.329346
495.801805	2614.258365
496.168839	2603.671942
496.535815	2604.428115
496.902733	2617.199038
497.269593	2602.243615
497.636395	2601.991558
498.003139	2601.403423
498.369825	2614.846500
498.736453	2608.040942
499.103023	2588.968577
499.469535	2602.831750
499.835989	2602.075577
500.202385	2604.428115
500.568723	2590.564942
500.935003	2609.469269
501.301226	2596.026192
501.667390	2612.493962
502.033497	2602.579692
502.399546	2601.991558
502.765537	2602.999788
503.131470	2593.421596
503.497345	2594.345808
503.863163	2605.772423
504.228923	2594.177769
504.594625	2586.616038
504.960269	2608.713096
505.325856	2606.360558
505.691385	2589.220635
506.056856	2591.489154
506.422270	2586.448000
506.787625	2599.050885
507.152924	2587.288192
507.518164	2594.597865
507.883347	2599.470981
508.248472	2592.329346
508.613540	2614.006308
508.978550	2609.469269
509.343503	2605.940462
509.708398	2609.217212
510.073236	2604.260077
510.438016	2603.503904
510.802738	2601.655481
511.167403	2599.975096
511.532010	2591.405135
511.896561	2600.815288
512.261053	2590.060827
512.625488	2586.111923
512.989866	2611.233673
513.354186	2594.093750
513.718449	2590.228865
514.082655	2596.278250
514.446803	2603.671942
514.810894	2599.639019
515.174927	2631.818385
515.538904	2607.368788
515.902822	2606.864673
516.266684	2617.703154
516.630488	2618.795404
516.994235	2603.671942
517.357925	2615.350615
517.721558	2616.610904
518.085133	2620.223731
518.448651	2614.258365
518.812112	2614.846500
519.175516	2612.073865
519.538863	2614.174346
519.902152	2612.830038
520.265385	2620.391769
520.628560	2627.365365
520.991678	2600.563231
521.354739	2627.953500
521.717743	2606.864673
522.080690	2626.609192
522.443580	2605.604385
522.806413	2615.350615
523.169189	2624.172635
523.531908	2623.416462
523.894569	2624.256654
524.257174	2624.088615
524.619722	2623.416462
524.982213	2615.350615
525.344647	2616.022769
525.707025	2605.940462
526.069345	2630.390058
526.431608	2622.324212
526.793815	2623.500481
527.155964	2623.332442
527.518057	2630.053981
527.880093	2623.416462
528.242072	2630.558096
528.603995	2626.525173
528.965860	2638.539923
529.327669	2608.293000
529.689421	2637.867769
530.051117	2626.945269
530.412755	2632.994654
530.774337	2619.131481
531.135862	2614.930519
531.497331	2630.810154
531.858743	2635.347192
532.220098	2631.230250
532.581396	2640.724423
532.942638	2628.961731
533.303824	2625.600962
533.664953	2634.843077
534.026025	2631.398288
534.387040	2621.820096
534.747999	2628.373596
535.108902	2632.658577
535.469748	2632.154462
535.830537	2634.422981
536.191270	2625.769000
536.551947	2635.683269
536.912567	2621.736077
537.273131	2632.742596
537.633638	2625.684981
537.994089	2638.876000
538.354483	2624.256654
538.714821	2630.726135
539.075103	2634.422981
539.435328	2629.801923
539.795497	2639.296096
540.155609	2635.515231
540.515665	2634.675038
540.875665	2635.683269
541.235609	2648.874288
541.595496	2632.658577
541.955328	2628.709673
542.315102	2638.623942
542.674821	2634.591019
543.034483	2636.607481
543.394090	2625.684981
543.753640	2640.388346
544.113134	2634.338962
544.472571	2636.355423
544.831953	2629.549865
545.191278	2644.505288
545.550548	2627.365365
545.909761	2644.925385
546.268918	2636.439442
546.628019	2638.035808
546.987064	2637.783750
547.346053	2648.286154
547.704986	2650.302615
548.063863	2630.726135
548.422684	2647.950077
548.781449	2641.984712
549.140158	2639.464135
549.498811	2642.908923
549.857408	2638.287865
550.215949	2633.162692
550.574434	2647.529981
550.932864	2635.515231
551.291237	2636.355423
551.649555	2644.169212
552.007817	2631.230250
552.366022	2642.992942
552.724173	2640.976481
553.082267	2646.185673
553.440305	2642.992942
553.798288	2646.689788
554.156215	2630.642115
554.514086	2641.312558
554.871902	2638.623942
555.229661	2646.185673
555.587365	2642.740885
555.945014	2646.101654
556.302606	2644.085192
556.660143	2651.394865
557.017625	2642.068731
557.375050	2644.589308
557.732421	2642.908923
558.089735	2648.370173
558.446994	2654.083481
558.804197	2640.304327
559.161345	2649.294385
559.518437	2637.867769
559.875474	2638.287865
560.232455	2657.612288
560.589381	2644.757346
560.946251	2641.396577
561.303065	2648.790269
561.659825	2645.597538
562.016528	2645.009404
562.373177	2648.790269
562.729770	2636.187385
563.086307	2639.800212
563.442789	2653.579365
563.799216	2645.849596
564.155587	2643.833135
564.511904	2647.361942
564.868164	2650.974769
565.224370	2635.851308
565.580520	2641.816673
565.936615	2659.124635
566.292654	2653.579365
566.648638	2646.521750
567.004567	2655.259750
567.360441	2659.460712
567.716260	2644.925385
568.072023	2652.235058
568.427732	2640.892462
568.783385	2659.460712
569.138982	2641.648635
569.494525	2643.917154
569.850013	2640.136288
570.205445	2652.487115
570.560823	2643.245000
570.916145	2663.241577
571.271412	2649.546442
571.626625	2647.025865
571.981782	2649.798500
572.336884	2650.806731
572.691931	2658.116404
573.046923	2663.157558
573.401860	2647.950077
573.756743	2662.485404
574.111570	2654.587596
574.466342	2649.126346
574.821059	2657.360231
575.175722	2658.368462
575.530330	2656.940135
575.884882	2645.933615
576.239380	2658.116404
576.593823	2646.185673
576.948211	2655.007692
577.302544	2656.688077
577.656823	2650.974769
578.011047	2659.460712
578.365216	2640.556385
578.719330	2647.698019
579.073389	2649.042327
579.427394	2658.284442
579.781344	2670.131154
580.135239	2643.833135
580.489080	2658.536500
580.842866	2644.001173
581.196597	2647.782038
581.550273	2653.999462
581.903895	2650.134577
582.257463	2654.839654
582.610975	2645.009404
582.964434	2652.907212
583.317837	2662.485404
583.671186	2653.327308
584.024481	2648.874288
584.377721	2651.478885
584.730906	2650.302615
585.084037	2651.058788
585.437113	2659.628750
585.790135	2640.472365
586.143103	2651.814962
586.496016	2655.763865
586.848874	2655.679846
587.201679	2661.813250
587.554428	2661.141096
587.907124	2655.847885
588.259765	2671.727519
588.612352	2663.997750
588.964884	2641.312558
589.317362	2663.409615
589.669786	2651.394865
590.022155	2668.450769
590.374470	2659.796788
590.726731	2664.669904
591.078937	2647.866058
591.431090	2665.678135
591.783188	2664.249808
592.135232	2649.210365
592.487222	2665.594115
592.839157	2671.307423
593.191038	2671.559481
593.542866	2666.854404
593.894639	2664.837942
594.246358	2676.348577
594.598022	2669.038904
594.949633	2673.743981
595.301190	2671.811538
595.652692	2675.508385
596.004141	2662.737462
596.355535	2665.090000
596.706876	2673.071827
597.058162	2674.584173
597.409395	2675.172308
597.760573	2660.973058
598.111698	2657.780327
598.462768	2667.778615
598.813785	2673.407904
599.164748	2672.651731
599.515657	2667.862635
599.866511	2668.450769
600.217312	2677.104750
600.568060	2672.147615
600.918753	2699.369846
601.269392	2682.145904
601.619978	2662.485404
601.970510	2677.776904
602.320988	2685.086577
602.671412	2675.004269
603.021783	2684.918538
603.372100	2687.019019
603.722363	2683.154135
604.072572	2697.017308
604.422728	2680.465519
604.772830	2680.969635
605.122878	2678.197000
605.472872	2700.210038
605.822813	2683.910308
606.172701	2684.078346
606.522534	2694.328692
606.872314	2698.613673
607.222041	2685.002558
607.571714	2707.015596
607.921333	2694.748788
608.270899	2694.580750
608.620411	2710.124308
608.969870	2695.673000
609.319276	2710.544404
609.668627	2709.368135
610.017926	2703.486788
610.367171	2710.712442
610.716362	2708.695981
611.065500	2701.470327
611.414585	2725.163750
611.763616	2724.071500
612.112594	2721.382885
612.461518	2751.965885
612.810389	2729.952846
613.159207	2717.938096
613.507971	2732.221365
613.856682	2730.456962
614.205340	2741.715538
614.553945	2727.516288
614.902496	2742.975827
615.250994	2751.209712
615.599439	2745.916500
615.947830	2749.277269
616.296169	2754.906558
616.644454	2758.771442
616.992686	2778.684000
617.340864	2778.263904
617.688990	2788.850327
618.037063	2778.515962
618.385082	2784.229269
618.733048	2788.094154
619.080961	2799.688808
619.428821	2807.838673
619.776628	2814.056096
620.124382	2825.986827
620.472083	2818.173038
620.819731	2804.141827
621.167326	2821.449788
621.514868	2829.431615
621.862357	2852.872981
622.209793	2835.817077
622.557176	2833.716596
622.904506	2820.273519
623.251783	2828.339365
623.599007	2851.864750
623.946179	2839.177846
624.293297	2850.688481
624.640363	2840.354115
624.987376	2840.186077
625.334336	2852.284846
625.681243	2849.260154
626.028097	2851.528673
626.374899	2860.434712
626.721647	2862.199115
627.068343	2870.012904
627.414987	2878.246788
627.761577	2869.676827
628.108115	2874.717981
628.454600	2886.396654
628.801032	2882.195692
629.147412	2910.594192
629.493739	2902.696385
629.840014	2902.276288
630.186236	2922.104827
630.532405	2914.795154
630.878521	2934.203596
631.224585	2936.640154
631.570597	2944.621981
631.916556	2973.440577
632.262462	2961.761904
632.608316	2970.415885
632.954117	2973.692635
633.299866	2982.850731
633.645562	2974.364788
633.991206	2995.873712
634.336797	2996.293808
634.682336	2990.244423
635.027823	2990.076385
635.373257	2998.394288
635.718639	3020.995462
636.063968	3002.091135
636.409245	3011.333250
636.754470	3002.259173
637.099642	3012.425500
637.444762	3014.862058
637.789829	3016.374404
638.134845	3041.832231
638.479808	3030.405615
638.824719	3049.982096
639.169577	3037.715288
639.514383	3045.781135
639.859137	3068.298288
640.203839	3067.626135
640.548489	3070.986904
640.893086	3089.303096
641.237632	3083.421750
641.582125	3104.342538
641.926566	3113.248577
642.270955	3113.332596
642.615292	3111.652212
642.959576	3132.657019
643.303809	3152.569577
643.647990	3131.144673
643.992118	3147.864500
644.336195	3164.920404
644.680219	3164.920404
645.024192	3205.837769
645.368112	3205.501692
645.711981	3219.448885
646.055797	3247.595327
646.399562	3259.946154
646.743274	3286.580250
647.086935	3311.786019
647.430544	3341.612846
647.774101	3371.859769
648.117606	3384.126577
648.461059	3411.852923
648.804460	3427.984615
649.147810	3411.768904
649.491108	3418.994558
649.834354	3416.221923
650.177548	3415.297712
650.520690	3415.633788
650.863781	3434.118019
651.206820	3425.464038
651.549807	3434.958212
651.892742	3434.790173
652.235626	3439.747308
652.578458	3449.997654
652.921238	3451.762058
653.263967	3485.201712
653.606644	3482.513096
653.949269	3464.112885
654.291843	3464.701019
654.634365	3511.331692
654.976836	3518.053231
655.319255	3517.465096
655.661622	3533.092673
656.003938	3553.173269
656.346203	3571.153385
656.688416	3576.950712
657.030577	3570.229173
657.372687	3615.179462
657.714746	3616.523769
658.056753	3647.442846
658.398708	3635.260058
658.740612	3624.001481
659.082465	3670.296077
659.424266	3690.964808
659.766016	3697.854385
660.107715	3700.795058
660.449362	3708.440808
660.790958	3752.046788
661.132503	3749.190135
661.473996	3783.469981
661.815438	3813.464846
662.156829	3828.672327
662.498168	3827.412038
662.839456	3840.855115
663.180693	3873.202519
663.521879	3884.881192
663.863013	3924.118173
664.204097	3941.510154
664.545129	3979.738904
664.886110	3994.610308
665.227040	4018.051673
665.567918	4046.786250
665.908746	4068.295173
666.249522	4094.509173
666.590248	4139.123385
666.930922	4135.174481
667.271545	4159.372019
667.612118	4190.963250
667.952639	4207.178962
668.293109	4233.645019
668.633528	4250.028769
668.973896	4300.020212
669.314213	4272.629942
669.654480	4271.369654
669.994695	4308.590173
670.334859	4318.252385
670.674973	4340.433462
671.015035	4368.159808
671.355047	4377.317904
671.695008	4398.994865
672.034918	4416.638904
672.374777	4464.361827
672.714585	4456.968135
673.054342	4492.172192
673.394049	4527.712327
673.733705	4562.748346
674.073310	4565.857058
674.412864	4590.810769
674.752368	4595.179769
675.091820	4622.990135
675.431223	4622.990135
675.770574	4650.128346
676.109875	4649.036096
676.449125	4653.405096
676.788324	4652.648923
677.127473	4660.378692
677.466571	4668.780615
677.805619	4670.376981
678.144616	4692.810115
678.483562	4689.029250
678.822458	4704.992904
679.161303	4708.689750
679.500098	4719.276173
679.838842	4747.422615
680.177535	4746.246346
680.516179	4820.771404
680.854771	4833.458308
681.193314	4915.881173
681.531805	5017.040327
681.870247	5115.006750
682.208638	5234.230038
682.546978	5313.208115
682.885268	5356.478019
683.223508	5343.959154
683.561697	5333.036654
683.899836	5364.963962
684.237925	5338.918000
684.575963	5339.506135
684.913951	5335.305173
685.251889	5387.397096
685.589776	5399.075769
685.927614	5428.734558
686.265401	5463.938615
686.603137	5515.946519
686.940824	5569.466769
687.278460	5630.380712
687.616046	5664.324481
687.953582	5771.280962
688.291068	5783.379731
688.628504	5865.802596
688.965889	5920.163038
689.303224	5946.293019
689.640510	5951.166135
689.977745	5902.098904
690.314930	5829.590308
690.652065	5807.745308
690.989150	5775.818000
691.326185	5705.157827
691.663170	5658.023038
692.000105	5624.499365
692.336990	5545.353250
692.673825	5521.827865
693.010610	5468.727712
693.347345	5445.118308
693.684030	5375.466365
694.020665	5377.146750
694.357251	5319.677596
694.693786	5349.252365
695.030272	5337.573692
695.366707	5276.743769
695.703093	5308.923135
696.039429	5298.252692
696.375716	5282.961192
696.711952	5299.512981
697.048139	5287.162154
697.384276	5292.287327
697.720363	5301.361404
698.056400	5325.726981
698.392388	5348.748250
698.728326	5362.695442
699.064214	5353.537346
699.400053	5384.876519
699.735842	5341.606615
700.071581	5331.944404
700.407270	5335.557231
700.742910	5334.633019
701.078501	5313.544192
701.414042	5302.117577
701.749533	5267.753712
702.084974	5238.431000
702.420366	5278.676212
702.755709	5250.445750
703.091002	5233.389846
703.426246	5265.317154
703.761440	5285.313731
704.096584	5253.386423
704.431679	5275.735538
704.766725	5228.768788
705.101721	5250.697808
705.436668	5304.050019
705.771565	5292.371346
706.106413	5332.532538
706.441212	5346.899827
706.775961	5368.828846
707.110661	5392.774327
707.445311	5462.678327
707.779913	5468.223596
708.114465	5514.602212
708.448967	5574.087827
708.783421	5690.958577
709.117825	5727.590962
709.452180	5782.875615
709.786485	5841.268981
710.120742	5989.899000
710.454949	5982.001192
710.789107	6090.806096
711.123216	6198.518750
711.457275	6227.001269
711.791286	6345.468385
712.125247	6417.304827
712.459159	6408.314769
712.793023	6540.813096
713.126837	6386.385750
713.460602	6499.223577
713.794318	6445.787346
714.127985	6437.553462
714.461602	6341.183404
714.795171	6366.977308
715.128691	6239.520135
715.462162	6154.072577
715.795584	6095.931269
716.128957	6085.932981
716.462281	6067.112673
716.795556	6036.193596
717.128782	5969.818404
717.461960	5899.830385
717.795088	5929.405154
718.128167	5871.599923
718.461198	5762.626981
718.794180	5774.977808
719.127113	5707.174288
719.459997	5718.852962
719.792833	5641.051154
720.125619	5682.976750
720.458357	5613.324808
720.791046	5599.713692
721.123686	5578.120750
721.456278	5551.234596
721.788821	5568.542558
722.121315	5524.600500
722.453761	5537.455442
722.786158	5524.012365
723.118506	5549.806269
723.450805	5508.804885
723.783056	5566.358058
724.115259	5554.259288
724.447412	5516.534654
724.779518	5590.891673
725.111574	5642.479481
725.443582	5689.026135
725.775542	5680.120096
726.107453	5762.879038
726.439315	5736.917096
726.771129	5844.965827
727.102895	5902.350962
727.434612	5950.914077
727.766281	6022.330423
728.097901	6077.615077
728.429473	6093.914808
728.760996	6136.176481
729.092471	6168.943981
729.423897	6181.042750
729.755276	6176.421692
730.086606	6192.889462
730.417887	6274.220077
730.749120	6395.963942
731.080305	6459.062385
731.411442	6578.789788
731.742530	6640.039808
732.073570	6658.187962
732.404562	6788.585808
732.735506	6740.946904
733.066401	6777.159192
733.397249	6743.131404
733.728048	6651.802500
734.058798	6475.362115
734.389501	6371.850423
734.720156	6285.562673
735.050762	6207.928904
735.381320	6090.722077
735.711831	6051.737154
736.042293	5965.113327
736.372707	5946.797135
736.703073	5903.947327
737.033391	5916.718250
737.363661	5937.218942
737.693883	5939.235404
738.024056	5941.251865
738.354182	5970.742615
738.684260	6038.714173
739.014290	6113.827365
739.344272	6118.784500
739.674207	6201.207365
740.004093	6222.044135
740.333931	6241.956692
740.663722	6293.796558
740.993464	6312.952942
741.323159	6337.066462
741.652806	6274.136058
741.982405	6242.712865
742.311956	6199.358942
742.641460	6190.704962
742.970915	6138.192942
743.300323	6067.028654
743.629683	6056.526250
743.958996	6023.926788
744.288260	5978.640423
744.617477	5893.612962
744.946647	5928.060846
745.275768	5858.324885
745.604842	5806.485019
745.933869	5766.575885
746.262847	5768.256269
746.591778	5759.686308
746.920662	5745.066962
747.249498	5734.312500
747.578286	5746.411269
747.907027	5767.920192
748.235720	5840.344769
748.564365	5854.123923
748.892963	5874.288538
749.221514	5898.318038
749.550017	5857.400673
749.878473	5850.006981
750.206881	5809.089615
750.535242	5795.394481
750.863555	5771.701058
751.191821	5755.653385
751.520039	5790.605385
751.848210	5765.819712
752.176334	5775.397904
752.504411	5733.808385
752.832440	5690.034365
753.160421	5740.866000
753.488356	5731.119769
753.816243	5696.083750
754.144082	5647.940731
754.471875	5623.071038
754.799620	5598.705462
755.127318	5602.906423
755.454969	5623.743192
755.782572	5620.382423
756.110129	5638.194500
756.437638	5595.344692
756.765100	5589.715404
757.092515	5610.888250
757.419882	5585.766500
757.747203	5584.758269
758.074477	5626.431808
758.401703	5593.832346
758.728882	5655.082365
759.056014	5655.838538
759.383099	5677.599519
759.710138	5727.759000
760.037129	5763.215115
760.364073	5805.980904
760.690970	5802.032000
761.017820	5781.531308
761.344623	5836.479885
761.671379	5920.667154
761.998088	6038.882212
762.324751	6304.298962
762.651366	6816.984308
762.977935	7756.991462
763.304456	8571.641923
763.630931	9148.349923
763.957359	9259.339327
764.283740	8947.459942
764.610074	8574.162500
764.936362	7987.624250
765.262602	7528.711212
765.588796	7037.618808
765.914943	6659.952365
766.241044	6315.725577
766.567097	6055.686058
766.893104	5818.247712
767.219064	5672.474346
767.544978	5503.763731
767.870845	5346.983846
768.196665	5278.088077
768.522438	5214.485519
768.848165	5169.031115
769.173846	5085.936096
769.499479	5057.453577
769.825066	4985.365077
770.150607	4900.421635
770.476101	4942.515269
770.801548	4908.739538
771.126949	4869.166481
771.452303	4853.874981
771.777611	4769.939769
772.102872	4791.448692
772.428087	4741.877346
772.753256	4711.294346
773.078378	4715.495308
773.403453	4647.523750
773.728482	4580.980519
774.053465	4570.814192
774.378401	4558.883462
774.703291	4529.896827
775.028135	4470.075135
775.352932	4482.425962
775.677683	4438.988019
776.002388	4411.513731
776.327046	4398.826827
776.651658	4403.363865
776.976224	4352.196154
777.300743	4353.708500
777.625216	4347.827154
777.949643	4314.555538
778.274024	4324.637846
778.598359	4292.122404
778.922647	4321.277077
779.246889	4287.753404
779.571086	4297.163558
779.895236	4278.595308
780.219339	4303.801077
780.543397	4281.872058
780.867409	4311.614865
781.191374	4314.219462
781.515294	4286.577135
781.839167	4337.240731
782.162995	4303.717058
782.486776	4301.448538
782.810511	4299.936192
783.134201	4291.954365
783.457844	4295.819250
783.781441	4286.661154
784.104993	4267.672808
784.428498	4245.407712
784.751958	4244.735558
785.075372	4257.590500
785.398739	4244.819577
785.722061	4251.289058
786.045337	4244.987615
786.368568	4284.560673
786.691752	4286.157038
787.014891	4342.113846
787.337983	4407.228750
787.661030	4506.959577
787.984031	4636.433212
788.306987	4770.107808
788.629897	4866.729923
788.952760	4928.988173
789.275579	4903.110250
789.598351	4835.222712
789.921078	4780.862269
790.243759	4683.568000
790.566395	4622.149942
790.888984	4547.624885
791.211529	4502.674596
791.534027	4411.681769
791.856480	4347.070981
792.178888	4321.277077
792.501249	4280.359712
792.823566	4242.299000
793.145836	4218.605577
793.468062	4202.725942
793.790241	4181.217019
794.112375	4190.543154
794.434464	4200.457423
794.756507	4188.526692
795.078505	4201.381635
795.400457	4284.056558
795.722364	4346.482846
796.044226	4410.841577
796.366042	4470.747288
796.687812	4504.691058
797.009538	4528.552519
797.331218	4536.954442
797.652852	4525.947923
797.974442	4493.516500
798.295986	4494.608750
798.617484	4451.422865
798.938938	4391.265096
799.260346	4388.744519
799.581709	4317.496212
799.903026	4325.057942
800.224299	4264.648115
800.545526	4209.867577
800.866708	4185.081904
801.187845	4160.296231
801.508936	4137.190942
801.829983	4123.579827
802.150984	4070.311635
802.471940	4059.389135
802.792851	4050.567115
803.113717	4036.367865
803.434538	4025.361346
803.755314	4004.608596
804.076045	3990.493365
804.396731	3948.063654
804.717372	3955.037250
805.037967	3953.860981
805.358518	3952.096577
805.679024	3947.139442
805.999485	3964.951519
806.319901	3988.897000
806.640272	3979.822923
806.960598	3991.921692
807.280879	3993.181981
807.601115	4003.096250
807.921306	3995.282462
808.241453	3997.130885
808.561554	4004.776635
808.881611	3999.651462
809.201623	4007.297212
809.521590	4016.959423
809.841513	3999.063327
810.161390	4011.750231
810.481223	3966.967981
810.801011	4005.448788
811.120755	3968.900423
811.440453	3969.068462
811.760107	3957.305769
812.079716	3924.706308
812.399281	3937.813308
812.718801	3953.776962
813.038276	3904.205615
813.357707	3889.250192
813.677093	3926.134635
813.996434	3893.367135
814.315731	3895.551635
814.634983	3910.170981
814.954191	3917.312615
815.273354	3936.553019
815.592473	3956.465577
815.911547	3987.384654
816.230577	4002.088019
816.549562	4033.847288
816.868502	4081.738250
817.187399	4109.632635
817.506250	4146.937173
817.825058	4179.116538
818.143821	4249.692692
818.462539	4293.634750
818.781213	4410.421481
819.099843	4523.091269
819.418429	4762.378038
819.736970	4989.902115
820.055466	5293.547615
820.373919	5723.053923
820.692327	6199.190904
821.010691	6920.243942
821.329011	8465.189558
821.647286	10806.553462
821.965517	14015.163865
822.283704	16680.505923
822.601847	18902.898596
822.919945	18889.539538
823.237999	18215.201192
823.556010	16915.339673
823.873976	15425.678712
824.191897	13804.863731
824.509775	12534.492962
824.827609	11181.699327
825.145398	10238.835519
825.463144	9522.235500
825.780845	9254.970327
826.098502	9209.683962
826.416116	9718.420404
826.733685	10493.413788
827.051210	11088.353962
827.368692	11175.061808
827.686129	10526.517365
828.003522	9662.295558
828.320872	8681.287019
828.638177	7865.796365
828.955439	7212.210769
829.272656	6627.184865
829.589830	6132.647673
829.906960	5703.645481
830.224046	5309.343231
830.541088	5025.526269
830.858086	4769.855750
831.175041	4592.491154
831.491952	4495.616981
831.808819	4460.749000
832.125642	4518.134135
832.442421	4639.037808
832.759157	4943.355462
833.075849	5496.790135
833.392497	6255.651827
833.709101	6983.678462
834.025662	7272.704615
834.342179	7192.802327
834.658653	6795.307346
834.975083	6308.079827
835.291469	5866.138673
835.607811	5479.902269
835.924110	5215.493750
836.240366	4917.645577
836.556578	4652.144808
836.872746	4404.876212
837.188871	4214.320596
837.504952	4056.196404
837.820990	3888.073923
838.136984	3802.878423
838.452935	3751.038558
838.768842	3705.164058
839.084706	3713.734019
839.400526	3893.535173
839.716303	4225.999269
840.032037	4617.696923
840.347727	4809.848904
840.663373	4695.498731
840.978977	4485.534673
841.294537	4247.340154
841.610054	4048.718692
841.925527	3921.093481
842.240957	3811.616423
842.556344	3694.997731
842.871687	3594.678769
843.186987	3494.107750
843.502244	3387.823423
843.817458	3339.260308
844.132629	3275.321673
844.447756	3231.631673
844.762840	3186.093250
845.077881	3177.019173
845.392879	3145.848038
845.707833	3135.849750
846.022745	3121.230404
846.337613	3085.354192
846.652438	3086.110365
846.967221	3059.896365
847.281960	3048.721808
847.596656	3043.176538
847.911309	3036.539019
848.225919	3021.919673
848.540485	3040.151846
848.855009	3017.634692
849.169490	2998.646346
849.483928	3016.458423
849.798323	3005.451904
850.112675	2990.664519
850.426984	3001.671038
850.741251	2983.690923
851.055474	2992.596962
851.369654	2987.471788
851.683792	2971.004019
851.997887	2966.214923
852.311938	2976.885365
852.625947	2987.219731
852.939914	3003.519462
853.253837	2981.002308
853.567718	2988.900115
853.881555	2971.760192
854.195350	2971.760192
854.509103	2958.569173
854.822812	2972.768423
855.136479	2959.073288
855.450103	2974.112731
855.763685	2958.065058
856.077224	2951.175481
856.390720	2970.079808
856.704173	2974.532827
857.017584	2987.975904
857.330953	2982.346615
857.644278	2996.713904
857.957561	3003.771519
858.270802	2978.901827
858.584000	2984.111019
858.897155	3007.720423
859.210268	2977.473500
859.523339	2974.364788
859.836367	2991.924808
860.149352	2983.606904
860.462295	2974.112731
860.775195	2962.518077
861.088054	2961.005731
861.400869	2973.524596
861.713642	2960.669654
862.026373	2978.061635
862.339062	2981.254365
862.651708	2958.065058
862.964312	2971.256077
863.276873	2977.809577
863.589392	3007.888462
863.901869	2990.916577
864.214303	3020.827423
864.526696	3016.458423
864.839045	3042.840462
865.151353	3032.001981
865.463619	3040.824000
865.775842	3062.416942
866.088023	3060.232442
866.400162	3055.611385
866.712258	3060.148423
867.024313	3064.769481
867.336325	3069.642596
867.648296	3077.288346
867.960224	3066.281827
868.272110	3077.204327
868.583954	3061.324692
868.895755	3062.921058
869.207515	3069.222500
869.519233	3069.978673
869.830909	3080.733135
870.142542	3081.405288
870.454134	3076.868250
870.765684	3105.686846
871.077191	3112.072308
871.388657	3117.449538
871.700081	3119.970115
872.011463	3137.530135
872.322803	3146.016077
872.634101	3151.477327
872.945357	3165.844615
873.256571	3166.684808
873.567744	3188.949904
873.878874	3188.865885
874.189963	3202.561019
874.501010	3225.834346
874.812015	3217.600462
875.122979	3219.112808
875.433900	3202.477000
875.744780	3213.063423
876.055618	3244.234558
876.366415	3214.995865
876.677169	3227.178654
876.987882	3250.788058
877.298554	3255.409115
877.609183	3286.748288
877.919771	3272.465019
878.230317	3321.028135
878.540822	3382.446192
878.851285	3449.577558
879.161707	3517.885192
879.472087	3659.121519
879.782425	3897.736135
880.092722	4285.820962
880.402977	4922.518692
880.713191	5772.961346
881.023363	6804.465442
881.333494	7600.463635
881.643583	8188.178154
881.953631	8443.008481
882.263637	8384.279038
882.573602	8174.903115
882.883526	7890.161942
883.193408	7505.857981
883.503248	7136.929538
883.813048	6783.712692
884.122806	6423.018135
884.432522	6017.877404
884.742197	5648.612885
885.051831	5298.504750
885.361424	4961.419596
885.670975	4666.932192
885.980485	4424.704750
886.289954	4214.152558
886.599382	4036.451885
886.908768	3897.988192
887.218113	3760.448712
887.527417	3669.035788
887.836680	3577.622865
888.145901	3483.689365
888.455082	3431.681462
888.764221	3385.638923
889.073319	3336.823750
889.382376	3289.520923
889.691392	3258.433808
890.000366	3252.636481
890.309300	3250.367962
890.618193	3238.017135
890.927044	3233.228038
891.235855	3234.824404
891.544625	3217.600462
891.853353	3230.707462
892.162041	3228.186885
892.470687	3310.861808
892.779293	3326.825462
893.087858	3403.955115
893.396381	3522.086154
893.704864	3677.605750
894.013306	3899.500538
894.321707	4202.725942
894.630068	4468.394750
894.938387	4623.746308
895.246665	4651.724712
895.554903	4587.534019
895.863100	4447.305923
896.171256	4320.941000
896.479371	4179.788692
896.787446	4065.522538
897.095480	3938.317423
897.403473	3852.029673
897.711425	3759.440481
898.019336	3685.839635
898.327207	3616.103673
898.635038	3524.942808
898.942827	3455.626942
899.250576	3387.151269
899.558284	3317.415308
899.865952	3267.675923
900.173579	3233.396077
900.481165	3190.462250
900.788711	3170.717731
901.096216	3144.587750
901.403681	3118.457769
901.711105	3098.293154
902.018489	3101.653923
902.325832	3095.604538
902.633135	3108.543500
902.940397	3144.755788
903.247619	3253.644712
903.554800	3496.880385
903.861941	3901.517000
904.169041	4351.103904
904.476101	4705.328981
904.783121	4769.687712
905.090100	4651.976769
905.397039	4475.452365
905.703938	4310.354577
906.010796	4149.793827
906.317614	4008.221423
906.624391	3884.125019
906.931129	3768.430538
907.237826	3665.338942
907.544483	3559.558731
907.851099	3464.196904
908.157675	3360.013058
908.464211	3236.588808
908.770707	3138.706404
909.077163	3057.795885
909.383578	2982.850731
909.689954	2954.368212
909.996289	2933.195365
910.302584	2912.778692
910.608839	2883.624019
910.915054	2862.367154
911.221229	2860.938827
911.527363	2872.197404
911.833458	2865.307827
912.139513	2882.195692
912.445527	2893.034173
912.751502	2883.792058
913.057436	2919.752288
913.363331	2931.683019
913.669186	2981.926519
913.975000	3009.820904
914.280775	3096.528750
914.586510	3189.958135
914.892205	3364.298038
915.197859	3565.608115
915.503475	3866.060885
915.809050	4150.802058
916.114585	4367.655692
916.420081	4505.783308
916.725536	4582.492865
917.030952	4519.226385
917.336328	4467.974654
917.641665	4385.047673
917.946961	4281.367942
918.252218	4207.347000
918.557435	4079.049635
918.862612	3983.099673
919.167750	3901.853077
919.472848	3794.476500
919.777906	3673.236750
920.082925	3575.354346
920.387904	3468.649923
920.692843	3370.347423
920.997743	3283.975654
921.302603	3216.256154
921.607423	3164.080212
921.912204	3113.668673
922.216946	3073.339442
922.521647	3032.842173
922.826310	2998.814385
923.130932	2972.096269
923.435516	2941.849346
923.740059	2920.340423
924.044564	2894.966615
924.349028	2868.080462
924.653454	2869.172712
924.957840	2846.571538
925.262186	2825.062615
925.566493	2821.365769
925.870761	2809.435038
926.174989	2784.649365
926.479178	2778.179885
926.783328	2773.138731
927.087438	2764.232692
927.391509	2735.246058
927.695541	2737.178500
927.999533	2733.313615
928.303486	2722.307096
928.607400	2712.392827
928.911275	2720.626712
929.215110	2698.865731
929.518906	2703.486788
929.822663	2702.478558
930.126381	2707.015596
930.430060	2704.411000
930.733699	2702.394538
931.037299	2718.022115
931.340861	2702.310519
931.644383	2709.956269
931.947866	2699.369846
932.251309	2693.908596
932.554714	2697.017308
932.858080	2696.429173
933.161407	2703.066692
933.464694	2690.799885
933.767943	2717.770058
934.071153	2709.200096
934.374323	2700.210038
934.677455	2711.804692
934.980548	2695.504962
935.283602	2698.613673
935.586617	2699.621904
935.889593	2691.556058
936.192530	2697.857500
936.495428	2708.611962
936.798287	2699.789942
937.101108	2702.982673
937.403890	2700.798173
937.706632	2729.700788
938.009336	2735.582135
938.312002	2761.208000
938.614628	2761.208000
938.917216	2781.036538
939.219765	2796.328038
939.522275	2805.990250
939.824747	2803.301635
940.127179	2815.988538
940.429573	2798.176462
940.731929	2813.047865
941.034246	2811.283462
941.336524	2816.072558
941.638763	2811.871596
941.940964	2809.182981
942.243126	2797.420288
942.545250	2790.698750
942.847335	2790.362673
943.149381	2763.140442
943.451389	2753.982346
943.753359	2760.787904
944.055290	2736.086250
944.357182	2737.850654
944.659036	2744.236115
944.960851	2731.045096
945.262628	2726.340019
945.564367	2726.508058
945.866067	2731.633231
946.167729	2719.954558
946.469352	2737.934673
946.770937	2720.878769
947.072484	2722.979250
947.373992	2715.333500
947.675462	2724.743654
947.976893	2718.610250
948.278286	2705.419231
948.579641	2731.885288
948.880958	2730.120885
949.182236	2721.214846
949.483476	2716.677808
949.784678	2704.074923
950.085841	2698.277596
950.386967	2712.644885
950.688054	2705.251192
950.989103	2716.677808
951.290114	2718.778288
951.591087	2741.043385
951.892021	2726.171981
952.192917	2749.529327
952.493776	2731.885288
952.794596	2753.814308
953.095378	2757.679192
953.396122	2760.871923
953.696828	2737.682615
953.997496	2762.972404
954.298126	2738.018692
954.598718	2749.781385
954.899272	2747.260808
955.199788	2743.311904
955.500266	2716.257712
955.800706	2724.743654
956.101108	2722.475135
956.401472	2715.165462
956.701798	2688.363327
957.002087	2689.119500
957.302337	2690.631846
957.602550	2675.760442
957.902724	2662.485404
958.202861	2664.753923
958.502960	2656.267981
958.803022	2649.630462
959.103045	2641.816673
959.403031	2632.238481
959.702979	2637.447673
960.002889	2622.996365
960.302762	2642.572846
960.602596	2634.422981
960.902393	2637.195615
961.202153	2601.571462
961.501875	2604.680173
961.801559	2608.545058
962.101205	2628.709673
962.400814	2621.568038
962.700385	2615.350615
962.999918	2614.258365
963.299414	2602.999788
963.598873	2611.737788
963.898293	2613.502192
964.197677	2604.428115
964.497022	2607.704865
964.796331	2615.182577
965.095601	2607.116731
965.394835	2586.532019
965.694030	2596.782365
965.993189	2601.235385
966.292309	2602.999788
966.591393	2621.063923
966.890439	2592.245327
967.189447	2595.690115
967.488419	2596.782365
967.787353	2610.477500
968.086249	2604.596154
968.385108	2592.917481
968.683930	2603.167827
968.982714	2594.597865
969.281462	2599.639019
969.580172	2591.153077
969.878844	2601.151365
970.177480	2604.344096
970.476078	2619.635596
970.774639	2611.737788
971.073162	2614.510423
971.371649	2604.932231
971.670098	2605.436346
971.968510	2608.629077
972.266885	2625.012827
972.565223	2627.953500
972.863524	2615.854731
973.161788	2618.963442
973.460014	2623.668519
973.758204	2629.045750
974.056356	2625.012827
974.354471	2616.610904
974.652550	2604.596154
974.950591	2625.432923
975.248595	2633.246712
975.546563	2630.053981
975.844493	2623.584500
976.142386	2640.976481
976.440243	2627.281346
976.738062	2606.108500
977.035845	2623.164404
977.333590	2605.604385
977.631299	2622.156173
977.928971	2615.602673
978.226606	2606.864673
978.524204	2609.637308
978.821765	2596.782365
979.119290	2610.981615
979.416777	2608.965154
979.714228	2607.116731
980.011642	2594.597865
980.309020	2598.630788
980.606360	2605.772423
980.903664	2613.670231
981.200931	2625.012827
981.498162	2619.635596
981.795356	2654.503577
982.092513	2660.300904
982.389633	2670.803308
982.686717	2696.345154
982.983764	2721.802981
983.280775	2752.133923
983.577749	2774.146962
983.874686	2771.122269
984.171587	2763.644558
984.468451	2760.199769
984.765279	2762.300250
985.062070	2733.229596
985.358824	2740.371231
985.655543	2720.962788
985.952224	2718.022115
986.248869	2696.765250
986.545478	2674.080058
986.842050	2661.981288
987.138586	2646.437731
987.435086	2627.197327
987.731549	2631.146231
988.027975	2620.811865
988.324366	2608.629077
988.620719	2615.182577
988.917037	2616.442865
989.213318	2600.731269
989.509563	2605.100269
989.805772	2594.849923
990.101944	2601.067346
990.398080	2590.564942
990.694180	2580.314596
990.990244	2584.095462
991.286271	2578.298135
991.582262	2582.583115
991.878217	2589.808769
992.174136	2591.657192
992.470019	2597.790596
992.765865	2596.278250
993.061676	2594.513846
993.357450	2594.597865
993.653188	2610.225442
993.948890	2593.505615
994.244556	2607.536827
994.540186	2596.110212
994.835780	2606.360558
995.131337	2619.887654
995.426859	2635.515231
995.722345	2657.192192
996.017795	2665.258038
996.313208	2659.964827
996.608586	2671.307423
996.903928	2685.842750
997.199234	2691.219981
997.494504	2684.918538
997.789738	2688.279308
998.084936	2669.374981
998.380099	2677.860923
998.675225	2672.903788
998.970316	2653.579365
999.265371	2655.427788
999.560390	2640.892462
999.855373	2632.490538
1000.150320	2629.633885
1000.445232	2609.637308
1000.740108	2604.428115
1001.034948	2611.821808
1001.329752	2605.688404
1001.624521	2597.958635
1001.919254	2589.892788
1002.213951	2595.606096
1002.508613	2592.329346
1002.803239	2598.294712
1003.097829	2588.464462
1003.392384	2595.774135
1003.686903	2593.505615
1003.981386	2593.169538
1004.275834	2576.617750
1004.570246	2577.541962
1004.864623	2581.742923
1005.158964	2593.085519
1005.453270	2566.619462
1005.747540	2591.909250
1006.041775	2584.851635
1006.335974	2585.187712
1006.630138	2583.675365
1006.924266	2583.087231
1007.218359	2571.492577
1007.512416	2586.784077
1007.806438	2580.818712
1008.100425	2576.113635
1008.394376	2577.457942
1008.688292	2567.795731
1008.982172	2585.355750
1009.276017	2576.533731
1009.569827	2576.449712
1009.863602	2580.650673
1010.157341	2552.252173
1010.451045	2581.406846
1010.744714	2590.480923
1011.038347	2576.029615
1011.331945	2569.476115
1011.625508	2591.657192
1011.919036	2561.410269
1012.212528	2570.568365
1012.505986	2572.164731
1012.799408	2579.306365
1013.092795	2585.607808
1013.386147	2591.405135
1013.679464	2569.728173
1013.972745	2560.654096
1014.265992	2578.466173
1014.559204	2574.265212
1014.852380	2570.568365
1015.145521	2568.215827
1015.438628	2579.726462
1015.731699	2563.510750
1016.024736	2568.383865
1016.317737	2577.373923
1016.610703	2588.212404
1016.903635	2570.064250
1017.196531	2591.405135
1017.489393	2576.953827
1017.782219	2576.533731
1018.075011	2576.701769
1018.367768	2568.131808
1018.660490	2587.708288
1018.953177	2587.708288
1019.245829	2587.708288
