Dividing Wavelength (nm)	Counts (n)	Slit_number_31_of_a_total_of_40	
326.493990	2049.355067
326.888308	2049.355067
327.282561	2049.355067
327.676750	2013.285612
328.070874	2014.243431
328.464933	2020.519667
328.858929	2025.611233
329.252859	2045.246527
329.646726	2054.219781
330.040528	2074.686865
330.434265	2089.028948
330.827938	2110.100971
331.221547	2127.745010
331.615091	2156.479587
332.008571	2176.644202
332.401986	2191.087108
332.795338	2219.443598
333.188625	2231.139075
333.581847	2245.934862
333.975006	2273.308327
334.368100	2285.860800
334.761129	2307.537762
335.154095	2311.369038
335.546996	2333.776967
335.939833	2341.389110
336.332606	2356.915863
336.725315	2372.165354
337.117960	2374.963194
337.510540	2386.608260
337.903056	2401.756927
338.295508	2411.662794
338.687896	2407.125756
339.080220	2418.972467
339.472480	2418.014648
339.864676	2426.483787
340.256807	2431.449323
340.648875	2439.716815
341.040879	2428.752306
341.432818	2431.398912
341.824694	2433.717842
342.216506	2435.078954
342.608253	2431.020825
342.999937	2434.549633
343.391557	2434.726073
343.783113	2426.861873
344.174605	2422.904567
344.566033	2432.936463
344.957397	2422.249217
345.348697	2422.551687
345.739934	2420.106727
346.131106	2424.492531
346.522215	2418.695204
346.913260	2417.132446
347.304241	2408.108781
347.695159	2410.200860
348.086012	2418.644792
348.476802	2410.679769
348.867528	2410.654563
349.258191	2405.361352
349.648789	2408.965777
350.039324	2405.638615
350.429796	2401.000754
350.820203	2406.520817
351.210548	2410.553740
351.600828	2407.176167
351.991045	2407.655077
352.381198	2406.974521
352.771288	2403.571742
353.161314	2396.892213
353.551276	2401.731721
353.941175	2405.386558
354.331010	2395.682337
354.720782	2405.613410
355.110490	2399.564025
355.500135	2403.773388
355.889717	2395.304250
356.279235	2413.427198
356.668689	2405.588204
357.058080	2412.091292
357.447408	2406.949315
357.836672	2397.043448
358.225873	2412.797054
358.615010	2411.309913
359.004084	2407.629871
359.393095	2406.369583
359.782043	2409.495098
360.170927	2401.126783
360.559748	2415.141190
360.948505	2404.479150
361.337199	2418.014648
361.725830	2399.614437
362.114398	2409.469892
362.502903	2411.435942
362.891344	2413.452404
363.279722	2405.084088
363.668037	2410.906621
364.056289	2405.310940
364.444478	2406.571229
364.832603	2411.133473
365.220665	2417.434915
365.608665	2414.460635
365.996601	2417.661767
366.384474	2411.914852
366.772284	2415.771335
367.160031	2413.225552
367.547715	2417.586150
367.935336	2418.014648
368.322893	2411.234296
368.710388	2416.426685
369.097820	2411.486354
369.485189	2406.117525
369.872495	2414.208577
370.259738	2411.435942
370.646918	2422.072777
371.034035	2418.317117
371.421090	2420.686460
371.808081	2418.443146
372.195010	2415.191602
372.581875	2420.736871
372.968678	2416.552713
373.355418	2415.141190
373.742096	2416.855183
374.128710	2415.544483
374.515262	2413.780079
374.901751	2418.821233
375.288177	2423.786769
375.674540	2417.283681
376.060841	2411.864440
376.447079	2415.544483
376.833254	2421.140163
377.219367	2425.399938
377.605417	2412.620613
377.991404	2418.619587
378.377329	2425.097469
378.763191	2416.325862
379.148991	2424.668971
379.534727	2426.332552
379.920402	2419.325348
380.306013	2427.718869
380.691563	2429.180804
381.077049	2432.860846
381.462474	2422.602098
381.847835	2428.122162
382.233134	2426.710638
382.618371	2421.467838
383.003545	2427.819692
383.388657	2420.308373
383.773706	2431.726587
384.158693	2427.693663
384.543618	2427.365988
384.928480	2426.836667
385.313280	2423.106213
385.698017	2419.022879
386.082692	2422.677715
386.467305	2422.274423
386.851856	2422.677715
387.236344	2418.922056
387.620770	2423.938004
388.005133	2415.594894
388.389435	2430.264652
388.773674	2426.282140
389.157851	2421.140163
389.541965	2438.834613
389.926018	2427.744075
390.310008	2429.836154
390.693936	2429.584096
391.077802	2440.851075
391.461606	2438.809408
391.845348	2421.165369
392.229027	2423.761563
392.612645	2422.097983
392.996200	2429.735331
393.379694	2426.912285
393.763125	2426.811462
394.146494	2423.862387
394.529801	2434.801690
394.913047	2428.701894
395.296230	2427.643252
395.679351	2427.844898
396.062410	2425.097469
396.445408	2429.105187
396.828343	2435.280600
397.211217	2433.995106
397.594028	2429.382450
397.976778	2426.408169
398.359466	2422.980185
398.742092	2427.542429
399.124656	2427.996133
399.507158	2428.928746
399.889598	2446.824842
400.271977	2426.156112
400.654294	2427.164342
401.036549	2437.120621
401.418742	2434.978131
401.800874	2439.994079
402.182944	2437.322267
402.564952	2437.775971
402.946898	2438.481733
403.328783	2424.820206
403.710606	2435.532658
404.092367	2433.314550
404.474067	2435.255394
404.855705	2433.717842
405.237282	2435.557863
405.618797	2443.674121
406.000250	2437.473502
406.381642	2434.070723
406.762972	2436.566094
407.144240	2421.745102
407.525447	2438.582556
407.906593	2422.576892
408.287677	2440.800663
408.668700	2431.474529
409.049661	2441.783688
409.430560	2429.861360
409.811399	2435.583069
410.192176	2439.389140
410.572891	2435.683892
410.953545	2438.431321
411.334138	2435.078954
411.714669	2434.927719
412.095139	2435.809921
412.475547	2443.976590
412.855894	2438.708585
413.236180	2433.314550
413.616405	2440.145313
413.996568	2435.633481
414.376670	2434.196752
414.756711	2437.725560
415.136691	2443.043977
415.516609	2438.355704
415.896466	2437.725560
416.276262	2443.069183
416.655997	2440.220931
417.035670	2442.338215
417.415283	2447.732250
417.794834	2439.363935
418.174324	2439.439552
418.553753	2442.413833
418.933121	2438.632967
419.312428	2440.951898
419.691674	2437.725560
420.070859	2436.742535
420.449983	2439.111877
420.829045	2450.227621
421.208047	2437.549119
421.586988	2448.110337
421.965867	2437.297062
422.344686	2441.481219
422.723444	2443.573298
423.102141	2440.624223
423.480777	2438.758996
423.859352	2441.052721
424.237866	2447.177723
424.616319	2438.632967
424.994712	2441.229162
425.373044	2440.094902
425.751314	2439.893256
426.129524	2435.683892
426.507673	2441.153544
426.885762	2436.616506
427.263789	2444.027002
427.641756	2439.061465
428.019662	2442.388627
428.397508	2434.196752
428.775292	2445.640171
429.153016	2441.985335
429.530679	2445.110850
429.908282	2441.103133
430.285824	2447.202929
430.663305	2442.842331
431.040726	2446.119081
431.418086	2440.321754
431.795385	2440.170519
432.172624	2446.119081
432.549802	2444.556323
432.926920	2447.152517
433.303977	2437.473502
433.680974	2443.321240
434.057910	2442.691096
434.434786	2446.623196
434.811601	2443.548092
435.188355	2450.101592
435.565050	2445.236879
435.941683	2440.044490
436.318257	2447.908690
436.694770	2448.488423
437.071222	2444.178237
437.447614	2444.505912
437.823946	2447.757456
438.200218	2448.034719
438.576429	2441.708071
438.952580	2446.169492
439.328670	2438.885025
439.704700	2444.934410
440.080670	2440.876281
440.456580	2446.976077
440.832429	2438.002823
441.208218	2445.186467
441.583947	2446.497167
441.959616	2448.362394
442.335224	2448.564040
442.710773	2442.766713
443.086261	2439.338729
443.461689	2445.211673
443.837057	2437.977617
444.212365	2443.220417
444.587612	2443.875767
444.962800	2448.513629
445.337927	2443.598504
445.712995	2447.303752
446.088002	2451.739967
446.462949	2440.599017
446.837837	2447.001283
447.212664	2448.715275
447.587431	2449.421037
447.962139	2445.917435
448.336786	2442.136569
448.711374	2450.479679
449.085901	2453.907663
449.460369	2456.176183
449.834776	2441.657660
450.209124	2446.648402
450.583412	2455.041923
450.957640	2450.857765
451.331808	2435.230188
451.705917	2445.791406
452.079965	2451.563527
452.453954	2451.664350
452.827883	2446.446756
453.201752	2444.102619
453.575562	2449.723506
453.949311	2452.924638
454.323001	2450.051181
454.696632	2452.798610
455.070202	2447.127312
455.443713	2450.908177
455.817164	2447.984308
456.190556	2445.186467
456.563888	2455.672067
456.937160	2449.345419
457.310373	2455.672067
457.683526	2455.722479
458.056619	2455.495627
458.429653	2451.009000
458.802628	2450.933383
459.175542	2454.361367
459.548398	2451.739967
459.921194	2446.446756
460.293930	2449.748712
460.666607	2455.596450
461.039224	2451.160235
461.411782	2457.159208
461.784280	2453.706017
462.156719	2451.891202
462.529099	2448.286777
462.901419	2441.934923
463.273680	2449.042950
463.645882	2449.244596
464.018024	2447.707044
464.390106	2452.092848
464.762130	2446.698813
465.134094	2459.578962
465.505999	2460.032665
465.877845	2451.412292
466.249631	2447.480192
466.621358	2450.933383
466.993026	2451.412292
467.364634	2455.218363
467.736184	2447.505398
468.107674	2450.303238
468.479105	2453.453960
468.850477	2448.967333
469.221790	2450.882971
469.593043	2460.032665
469.964238	2449.521860
470.335373	2458.495113
470.706449	2448.992538
471.077467	2453.453960
471.448425	2443.270829
471.819324	2447.933896
472.190164	2449.572271
472.560945	2444.783175
472.931667	2455.319187
473.302330	2457.486883
473.672934	2454.563013
474.043479	2462.981740
474.413965	2452.269288
474.784393	2454.613425
475.154761	2458.469908
475.525070	2454.008487
475.895321	2457.411265
476.265513	2448.085131
476.635645	2457.260031
477.005719	2449.647888
477.375734	2456.831533
477.745691	2452.496140
478.115588	2459.226081
478.485427	2438.708585
478.855207	2457.411265
479.224928	2454.991512
479.594591	2450.252827
479.964194	2452.722992
480.333739	2451.361881
480.703226	2451.815585
481.072653	2450.530090
481.442022	2447.076900
481.811333	2453.277519
482.180584	2451.261058
482.549777	2449.219390
482.918912	2439.212700
483.287988	2449.370625
483.657005	2447.757456
484.025964	2450.429267
484.394864	2455.193158
484.763706	2456.428240
485.132489	2460.335135
485.501213	2450.630913
485.869879	2454.865483
486.238487	2454.184927
486.607036	2445.236879
486.975527	2459.957048
487.343959	2455.596450
487.712333	2457.915381
488.080648	2469.661269
488.448905	2463.914354
488.817104	2448.589246
489.185244	2457.134002
489.553326	2461.444188
489.921350	2462.502831
490.289315	2446.698813
490.657222	2461.973510
491.025070	2457.260031
491.392861	2456.881944
491.760593	2458.873200
492.128267	2449.521860
492.495883	2448.564040
492.863440	2459.125258
493.230939	2458.192644
493.598380	2456.226594
493.965763	2454.537808
494.333088	2460.940073
494.700354	2452.571758
495.067563	2457.915381
495.434713	2454.890688
495.801805	2456.529063
496.168839	2458.646348
496.535815	2462.250773
496.902733	2455.445215
497.269593	2458.898406
497.636395	2450.706531
498.003139	2457.461677
498.369825	2459.074846
498.736453	2453.453960
499.103023	2451.009000
499.469535	2454.739454
499.835989	2446.245110
500.202385	2449.269802
500.568723	2457.663323
500.935003	2453.327931
501.301226	2447.631427
501.667390	2463.359827
502.033497	2451.462704
502.399546	2458.948817
502.765537	2449.219390
503.131470	2454.638631
503.497345	2460.083077
503.863163	2457.486883
504.228923	2458.192644
504.594625	2449.647888
504.960269	2455.268775
505.325856	2455.646862
505.691385	2450.454473
506.056856	2455.798096
506.422270	2458.142233
506.787625	2465.905610
507.152924	2460.587192
507.518164	2459.326904
507.883347	2461.948304
508.248472	2462.981740
508.613540	2464.670527
508.978550	2459.553756
509.343503	2456.327417
509.708398	2463.107769
510.073236	2454.537808
510.438016	2456.478652
510.802738	2461.418983
511.167403	2464.166412
511.532010	2454.714248
511.896561	2462.855712
512.261053	2456.881944
512.625488	2458.217850
512.989866	2454.235338
513.354186	2459.654579
513.718449	2455.596450
514.082655	2459.402521
514.446803	2464.191617
514.810894	2457.335648
515.174927	2456.705504
515.538904	2454.613425
515.902822	2448.614452
516.266684	2455.268775
516.630488	2462.654065
516.994235	2447.102106
517.357925	2452.521346
517.721558	2456.352623
518.085133	2459.049640
518.448651	2449.446242
518.812112	2463.435444
519.175516	2450.807354
519.538863	2454.285750
519.902152	2465.199848
520.265385	2460.713221
520.628560	2456.982767
520.991678	2453.680812
521.354739	2464.015177
521.717743	2456.251800
522.080690	2455.016717
522.443580	2459.276492
522.806413	2459.654579
523.169189	2459.150463
523.531908	2458.923612
523.894569	2465.729169
524.257174	2454.764660
524.619722	2461.368571
524.982213	2452.975050
525.344647	2466.863429
525.707025	2460.083077
526.069345	2459.175669
526.431608	2453.227108
526.793815	2458.797583
527.155964	2457.436471
527.518057	2463.006946
527.880093	2458.621142
528.242072	2447.253340
528.603995	2454.663837
528.965860	2458.142233
529.327669	2457.134002
529.689421	2460.511575
530.051117	2456.579475
530.412755	2462.452419
530.774337	2454.159721
531.135862	2455.041923
531.497331	2458.520319
531.858743	2457.839763
532.220098	2453.176696
532.581396	2471.350056
532.942638	2458.469908
533.303824	2460.234312
533.664953	2466.208079
534.026025	2455.445215
534.387040	2453.353137
534.747999	2456.680298
535.108902	2458.545525
535.469748	2454.235338
535.830537	2457.587706
536.191270	2457.663323
536.551947	2462.981740
536.912567	2451.739967
537.273131	2460.435958
537.633638	2456.302212
537.994089	2465.577935
538.354483	2458.999229
538.714821	2465.325877
539.075103	2458.747171
539.435328	2464.116000
539.795497	2456.806327
540.155609	2456.806327
540.515665	2456.176183
540.875665	2470.795529
541.235609	2452.672581
541.595496	2455.848508
541.955328	2465.073819
542.315102	2458.545525
542.674821	2453.680812
543.034483	2458.646348
543.394090	2464.494087
543.753640	2463.359827
544.113134	2460.763633
544.472571	2453.756429
544.831953	2460.234312
545.191278	2452.924638
545.550548	2461.721452
545.909761	2459.150463
546.268918	2456.428240
546.628019	2463.006946
546.987064	2458.091821
547.346053	2464.141206
547.704986	2466.636577
548.063863	2462.528037
548.422684	2458.595937
548.781449	2458.192644
549.140158	2463.561473
549.498811	2466.661783
549.857408	2459.251287
550.215949	2465.552729
550.574434	2471.274438
550.932864	2458.394290
551.291237	2461.242542
551.649555	2457.209619
552.007817	2453.327931
552.366022	2464.166412
552.724173	2460.839250
553.082267	2457.234825
553.440305	2461.393777
553.798288	2457.134002
554.156215	2464.393263
554.514086	2445.539348
554.871902	2449.295008
555.229661	2466.838223
555.587365	2460.587192
555.945014	2465.275465
556.302606	2455.243569
556.660143	2459.352110
557.017625	2463.183387
557.375050	2466.334108
557.732421	2458.822788
558.089735	2452.596963
558.446994	2464.897379
558.804197	2452.722992
559.161345	2454.815071
559.518437	2460.990485
559.875474	2452.546552
560.232455	2458.268262
560.589381	2459.780608
560.946251	2462.124744
561.303065	2461.897892
561.659825	2457.839763
562.016528	2465.981227
562.373177	2470.089767
562.729770	2456.327417
563.086307	2460.864456
563.442789	2461.822275
563.799216	2459.780608
564.155587	2453.126285
564.511904	2458.898406
564.868164	2456.579475
565.224370	2460.284723
565.580520	2459.805813
565.936615	2447.833073
566.292654	2457.234825
566.648638	2461.545012
567.004567	2462.855712
567.360441	2464.645321
567.716260	2462.981740
568.072023	2455.571244
568.427732	2463.712708
568.783385	2457.965792
569.138982	2463.611885
569.494525	2457.386060
569.850013	2457.033179
570.205445	2459.100052
570.560823	2457.965792
570.916145	2462.074333
571.271412	2451.865996
571.626625	2450.630913
571.981782	2455.167952
572.336884	2452.470935
572.691931	2461.418983
573.046923	2458.268262
573.401860	2449.950358
573.756743	2457.234825
574.111570	2458.646348
574.466342	2457.033179
574.821059	2456.604681
575.175722	2455.999742
575.530330	2461.267748
575.884882	2468.829479
576.239380	2457.940587
576.593823	2467.065075
576.948211	2457.083590
577.302544	2458.444702
577.656823	2462.830506
578.011047	2457.587706
578.365216	2461.066102
578.719330	2456.503858
579.073389	2461.872687
579.427394	2459.049640
579.781344	2464.015177
580.135239	2454.739454
580.489080	2463.611885
580.842866	2455.924125
581.196597	2461.847481
581.550273	2448.740481
581.903895	2462.931329
582.257463	2457.033179
582.610975	2457.083590
582.964434	2457.890175
583.317837	2455.646862
583.671186	2460.007460
584.024481	2455.319187
584.377721	2457.058385
584.730906	2462.502831
585.084037	2464.015177
585.437113	2455.193158
585.790135	2458.822788
586.143103	2461.444188
586.496016	2455.722479
586.848874	2470.467854
587.201679	2457.310442
587.554428	2460.183900
587.907124	2466.661783
588.259765	2455.823302
588.612352	2458.293467
588.964884	2458.117027
589.317362	2469.762092
589.669786	2461.645835
590.022155	2465.754375
590.374470	2454.058898
590.726731	2459.679785
591.078937	2452.344906
591.431090	2461.797069
591.783188	2463.460650
592.135232	2464.166412
592.487222	2456.831533
592.839157	2461.318160
593.191038	2460.133488
593.542866	2456.302212
593.894639	2462.805300
594.246358	2458.999229
594.598022	2463.813531
594.949633	2454.537808
595.301190	2455.268775
595.652692	2455.319187
596.004141	2452.748198
596.355535	2452.395317
596.706876	2451.387087
597.058162	2457.789352
597.409395	2454.764660
597.760573	2457.335648
598.111698	2461.620629
598.462768	2458.469908
598.813785	2458.066615
599.164748	2459.150463
599.515657	2466.586165
599.866511	2461.469394
600.217312	2463.485856
600.568060	2457.587706
600.918753	2461.746658
601.269392	2457.537294
601.619978	2461.822275
601.970510	2464.796556
602.320988	2453.378342
602.671412	2459.326904
603.021783	2458.974023
603.372100	2457.587706
603.722363	2465.754375
604.072572	2464.569704
604.422728	2455.142746
604.772830	2462.553242
605.122878	2457.864969
605.472872	2466.283696
605.822813	2455.798096
606.172701	2459.503344
606.522534	2463.334621
606.872314	2459.074846
607.222041	2461.998715
607.571714	2451.487910
607.921333	2454.840277
608.270899	2451.689556
608.620411	2458.343879
608.969870	2463.107769
609.319276	2461.746658
609.668627	2463.284210
610.017926	2459.906637
610.367171	2454.159721
610.716362	2461.368571
611.065500	2460.309929
611.414585	2462.628860
611.763616	2453.630400
612.112594	2463.233798
612.461518	2462.830506
612.810389	2463.359827
613.159207	2464.922585
613.507971	2463.914354
613.856682	2466.964252
614.205340	2455.218363
614.553945	2463.107769
614.902496	2459.704990
615.250994	2460.688015
615.599439	2458.117027
615.947830	2469.988944
616.296169	2457.764146
616.644454	2459.326904
616.992686	2457.486883
617.340864	2470.971969
617.688990	2456.982767
618.037063	2460.965279
618.385082	2461.242542
618.733048	2470.367031
619.080961	2462.402008
619.428821	2463.334621
619.776628	2456.302212
620.124382	2465.829992
620.472083	2459.931842
620.819731	2451.790379
621.167326	2459.049640
621.514868	2457.083590
621.862357	2460.914867
622.209793	2457.915381
622.557176	2462.855712
622.904506	2462.326390
623.251783	2463.208592
623.599007	2467.443162
623.946179	2457.864969
624.293297	2462.805300
624.640363	2464.116000
624.987376	2463.359827
625.334336	2456.982767
625.681243	2454.991512
626.028097	2456.755915
626.374899	2458.797583
626.721647	2463.385033
627.068343	2462.376802
627.414987	2463.511062
627.761577	2456.604681
628.108115	2463.082563
628.454600	2461.872687
628.801032	2452.949844
629.147412	2455.470421
629.493739	2466.384519
629.840014	2457.890175
630.186236	2467.216310
630.532405	2459.478138
630.878521	2459.024435
631.224585	2466.888635
631.570597	2451.387087
631.916556	2454.840277
632.262462	2461.192131
632.608316	2462.855712
632.954117	2460.360340
633.299866	2452.218877
633.645562	2466.334108
633.991206	2461.545012
634.336797	2456.529063
634.682336	2458.495113
635.027823	2455.218363
635.373257	2455.924125
635.718639	2457.814558
636.063968	2464.242029
636.409245	2462.679271
636.754470	2464.116000
637.099642	2455.369598
637.444762	2460.385546
637.789829	2455.949331
638.134845	2459.881431
638.479808	2460.864456
638.824719	2452.596963
639.169577	2465.603140
639.514383	2462.502831
639.859137	2451.865996
640.203839	2462.326390
640.548489	2464.746144
640.893086	2461.797069
641.237632	2452.319700
641.582125	2465.351083
641.926566	2466.359313
642.270955	2462.376802
642.615292	2460.461163
642.959576	2459.276492
643.303809	2449.471448
643.647990	2453.832046
643.992118	2458.721965
644.336195	2460.839250
644.680219	2464.569704
645.024192	2456.377829
645.368112	2460.234312
645.711981	2461.116513
646.055797	2466.964252
646.399562	2457.335648
646.743274	2470.140179
647.086935	2460.209106
647.430544	2461.267748
647.774101	2457.007973
648.117606	2459.352110
648.461059	2454.487396
648.804460	2459.704990
649.147810	2458.772377
649.491108	2459.100052
649.834354	2460.410752
650.177548	2458.469908
650.520690	2460.158694
650.863781	2459.377315
651.206820	2459.251287
651.549807	2460.587192
651.892742	2453.252313
652.235626	2467.796042
652.578458	2462.528037
652.921238	2459.881431
653.263967	2461.418983
653.606644	2462.301185
653.949269	2452.092848
654.291843	2464.972996
654.634365	2451.412292
654.976836	2455.041923
655.319255	2462.023921
655.661622	2462.351596
656.003938	2465.754375
656.346203	2454.865483
656.688416	2455.772890
657.030577	2464.090794
657.372687	2455.848508
657.714746	2465.275465
658.056753	2457.562500
658.398708	2458.595937
658.740612	2459.805813
659.082465	2459.150463
659.424266	2464.494087
659.766016	2464.695733
660.107715	2450.882971
660.449362	2458.091821
660.790958	2461.671040
661.132503	2470.039356
661.473996	2461.973510
661.815438	2459.805813
662.156829	2457.814558
662.498168	2465.956021
662.839456	2455.470421
663.180693	2464.771350
663.521879	2456.982767
663.863013	2460.234312
664.204097	2454.966306
664.545129	2458.117027
664.886110	2457.285237
665.227040	2464.141206
665.567918	2460.965279
665.908746	2464.191617
666.249522	2457.234825
666.590248	2464.494087
666.930922	2450.958588
667.271545	2468.653038
667.612118	2459.982254
667.952639	2459.427727
668.293109	2458.117027
668.633528	2458.318673
668.973896	2451.563527
669.314213	2455.243569
669.654480	2459.301698
669.994695	2462.603654
670.334859	2457.058385
670.674973	2456.907150
671.015035	2455.697273
671.355047	2466.208079
671.695008	2461.570217
672.034918	2449.673094
672.374777	2466.208079
672.714585	2449.042950
673.054342	2450.530090
673.394049	2461.040896
673.733705	2464.922585
674.073310	2460.486369
674.412864	2460.158694
674.752368	2456.377829
675.091820	2467.922071
675.431223	2460.435958
675.770574	2455.646862
676.109875	2462.855712
676.449125	2465.678758
676.788324	2446.673608
677.127473	2461.066102
677.466571	2441.985335
677.805619	2465.779581
678.144616	2460.410752
678.483562	2455.697273
678.822458	2458.545525
679.161303	2459.301698
679.500098	2458.595937
679.838842	2461.948304
680.177535	2455.722479
680.516179	2461.696246
680.854771	2456.781121
681.193314	2460.083077
681.531805	2460.309929
681.870247	2460.612398
682.208638	2462.729683
682.546978	2464.342852
682.885268	2462.880917
683.223508	2454.714248
683.561697	2466.762606
683.899836	2456.503858
684.237925	2458.419496
684.575963	2460.209106
684.913951	2459.074846
685.251889	2467.443162
685.589776	2455.293981
685.927614	2453.075873
686.265401	2464.544498
686.603137	2451.361881
686.940824	2461.267748
687.278460	2452.042437
687.616046	2463.410238
687.953582	2450.429267
688.291068	2458.999229
688.628504	2461.015690
688.965889	2460.713221
689.303224	2460.284723
689.640510	2458.142233
689.977745	2445.614965
690.314930	2458.873200
690.652065	2460.889662
690.989150	2463.914354
691.326185	2459.150463
691.663170	2451.185440
692.000105	2456.907150
692.336990	2455.092335
692.673825	2457.713735
693.010610	2460.309929
693.347345	2461.242542
693.684030	2449.269802
694.020665	2462.754888
694.357251	2453.504371
694.693786	2462.754888
695.030272	2458.469908
695.366707	2459.024435
695.703093	2461.141719
696.039429	2452.496140
696.375716	2464.065588
696.711952	2454.764660
697.048139	2468.350569
697.384276	2469.938533
697.720363	2460.133488
698.056400	2467.770837
698.392388	2455.344392
698.728326	2469.736887
699.064214	2452.697787
699.400053	2460.738427
699.735842	2460.108283
700.071581	2460.410752
700.407270	2465.552729
700.742910	2461.696246
701.078501	2466.510548
701.414042	2466.611371
701.749533	2461.217337
702.084974	2458.293467
702.420366	2456.907150
702.755709	2464.594910
703.091002	2451.311469
703.426246	2454.058898
703.761440	2460.738427
704.096584	2464.191617
704.431679	2453.050667
704.766725	2456.377829
705.101721	2459.049640
705.436668	2465.199848
705.771565	2455.873713
706.106413	2459.755402
706.441212	2453.579988
706.775961	2452.218877
707.110661	2461.948304
707.445311	2463.410238
707.779913	2460.511575
708.114465	2445.136056
708.448967	2461.746658
708.783421	2452.420523
709.117825	2457.234825
709.452180	2463.662296
709.786485	2458.343879
710.120742	2457.612912
710.454949	2454.512602
710.789107	2454.563013
711.123216	2459.200875
711.457275	2458.192644
711.791286	2459.024435
712.125247	2459.452933
712.459159	2459.629373
712.793023	2466.586165
713.126837	2448.740481
713.460602	2461.847481
713.794318	2456.478652
714.127985	2460.763633
714.461602	2464.242029
714.795171	2458.974023
715.128691	2459.150463
715.462162	2461.368571
715.795584	2447.782662
716.128957	2457.638117
716.462281	2454.991512
716.795556	2456.705504
717.128782	2460.461163
717.461960	2463.586679
717.795088	2452.596963
718.128167	2455.041923
718.461198	2459.200875
718.794180	2466.636577
719.127113	2462.376802
719.459997	2457.007973
719.792833	2454.411779
720.125619	2464.065588
720.458357	2463.385033
720.791046	2457.108796
721.123686	2455.218363
721.456278	2461.822275
721.788821	2456.730710
722.121315	2451.790379
722.453761	2460.889662
722.786158	2457.915381
723.118506	2454.537808
723.450805	2454.184927
723.783056	2457.386060
724.115259	2466.636577
724.447412	2453.479165
724.779518	2465.250260
725.111574	2458.847994
725.443582	2455.772890
725.775542	2465.729169
726.107453	2451.185440
726.439315	2461.015690
726.771129	2466.510548
727.102895	2463.435444
727.434612	2453.756429
727.766281	2457.285237
728.097901	2457.688529
728.429473	2455.722479
728.760996	2455.646862
729.092471	2459.503344
729.423897	2461.393777
729.755276	2454.865483
730.086606	2442.161775
730.417887	2458.898406
730.749120	2455.747685
731.080305	2460.814044
731.411442	2459.074846
731.742530	2457.612912
732.073570	2461.897892
732.404562	2463.132975
732.735506	2457.940587
733.066401	2458.243056
733.397249	2457.360854
733.728048	2465.930815
734.058798	2456.781121
734.389501	2467.796042
734.720156	2457.663323
735.050762	2460.688015
735.381320	2456.806327
735.711831	2453.428754
736.042293	2448.110337
736.372707	2457.612912
736.703073	2462.780094
737.033391	2463.536267
737.363661	2455.596450
737.693883	2455.974537
738.024056	2450.681325
738.354182	2456.100565
738.684260	2455.672067
739.014290	2464.720938
739.344272	2451.689556
739.674207	2451.689556
740.004093	2453.201902
740.333931	2455.369598
740.663722	2454.563013
740.993464	2458.142233
741.323159	2461.897892
741.652806	2456.150977
741.982405	2458.268262
742.311956	2460.814044
742.641460	2452.521346
742.970915	2458.570731
743.300323	2446.194698
743.629683	2451.059412
743.958996	2455.167952
744.288260	2456.705504
744.617477	2459.629373
744.946647	2457.713735
745.275768	2452.370112
745.604842	2449.799123
745.933869	2463.964765
746.262847	2454.512602
746.591778	2452.143260
746.920662	2462.704477
747.249498	2460.410752
747.578286	2457.612912
747.907027	2456.806327
748.235720	2457.360854
748.564365	2449.925152
748.892963	2465.855198
749.221514	2457.738940
749.550017	2454.613425
749.878473	2460.637604
750.206881	2457.814558
750.535242	2455.747685
750.863555	2452.118054
751.191821	2465.956021
751.520039	2463.889148
751.848210	2456.907150
752.176334	2459.049640
752.504411	2457.965792
752.832440	2453.882458
753.160421	2458.369085
753.488356	2464.090794
753.816243	2457.486883
754.144082	2457.461677
754.471875	2454.184927
754.799620	2468.224540
755.127318	2454.941100
755.454969	2457.688529
755.782572	2451.639144
756.110129	2459.100052
756.437638	2453.806840
756.765100	2450.605708
757.092515	2462.528037
757.419882	2460.864456
757.747203	2463.586679
758.074477	2457.007973
758.401703	2451.891202
758.728882	2456.327417
759.056014	2460.940073
759.383099	2451.664350
759.710138	2456.932356
760.037129	2453.781635
760.364073	2458.142233
760.690970	2452.596963
761.017820	2460.007460
761.344623	2462.654065
761.671379	2452.445729
761.998088	2454.689042
762.324751	2452.470935
762.651366	2457.940587
762.977935	2453.025462
763.304456	2464.494087
763.630931	2466.082050
763.957359	2460.108283
764.283740	2452.370112
764.610074	2459.730196
764.936362	2463.838737
765.262602	2452.899433
765.588796	2460.083077
765.914943	2454.537808
766.241044	2458.822788
766.567097	2459.906637
766.893104	2453.126285
767.219064	2457.915381
767.544978	2458.948817
767.870845	2458.217850
768.196665	2466.107256
768.522438	2453.806840
768.848165	2461.595423
769.173846	2451.689556
769.499479	2457.713735
769.825066	2460.637604
770.150607	2459.982254
770.476101	2455.621656
770.801548	2460.864456
771.126949	2452.899433
771.452303	2455.672067
771.777611	2455.445215
772.102872	2459.730196
772.428087	2451.336675
772.753256	2457.108796
773.078378	2449.320213
773.403453	2458.747171
773.728482	2454.260544
774.053465	2460.738427
774.378401	2455.747685
774.703291	2464.620115
775.028135	2461.393777
775.352932	2458.696760
775.677683	2456.856738
776.002388	2456.957562
776.327046	2450.807354
776.651658	2450.580502
776.976224	2457.562500
777.300743	2457.285237
777.625216	2461.721452
777.949643	2455.823302
778.274024	2462.124744
778.598359	2458.520319
778.922647	2463.435444
779.246889	2457.990998
779.571086	2454.739454
779.895236	2453.882458
780.219339	2453.958075
780.543397	2453.932869
780.867409	2467.821248
781.191374	2453.756429
781.515294	2458.293467
781.839167	2451.538321
782.162995	2458.016204
782.486776	2452.899433
782.810511	2453.932869
783.134201	2465.023408
783.457844	2450.530090
783.781441	2460.309929
784.104993	2452.168465
784.428498	2449.521860
784.751958	2452.874227
785.075372	2452.042437
785.398739	2454.789865
785.722061	2463.032152
786.045337	2457.764146
786.368568	2458.923612
786.691752	2458.974023
787.014891	2461.721452
787.337983	2460.536781
787.661030	2458.167438
787.984031	2456.730710
788.306987	2459.730196
788.629897	2448.362394
788.952760	2463.208592
789.275579	2461.015690
789.598351	2458.217850
789.921078	2441.203956
790.243759	2458.369085
790.566395	2452.017231
790.888984	2456.377829
791.211529	2447.681838
791.534027	2452.722992
791.856480	2464.342852
792.178888	2454.764660
792.501249	2445.287290
792.823566	2447.505398
793.145836	2456.024948
793.468062	2459.679785
793.790241	2451.840790
794.112375	2459.049640
794.434464	2460.940073
794.756507	2465.477112
795.078505	2455.293981
795.400457	2460.083077
795.722364	2454.058898
796.044226	2456.932356
796.366042	2451.235852
796.687812	2460.259517
797.009538	2456.781121
797.331218	2458.595937
797.652852	2455.798096
797.974442	2456.503858
798.295986	2451.462704
798.617484	2456.755915
798.938938	2453.882458
799.260346	2458.898406
799.581709	2457.083590
799.903026	2462.502831
800.224299	2453.579988
800.545526	2464.645321
800.866708	2453.882458
801.187845	2455.798096
801.508936	2457.512088
801.829983	2452.042437
802.150984	2461.217337
802.471940	2453.731223
802.792851	2450.731737
803.113717	2446.295521
803.434538	2449.773917
803.755314	2451.210646
804.076045	2456.201388
804.396731	2451.513115
804.717372	2455.319187
805.037967	2456.932356
805.358518	2455.571244
805.679024	2452.269288
805.999485	2468.400981
806.319901	2461.519806
806.640272	2461.217337
806.960598	2456.655092
807.280879	2454.563013
807.601115	2449.899946
807.921306	2460.435958
808.241453	2447.177723
808.561554	2448.967333
808.881611	2461.570217
809.201623	2458.797583
809.521590	2450.202415
809.841513	2453.781635
810.161390	2448.992538
810.481223	2453.554783
810.801011	2454.764660
811.120755	2453.605194
811.440453	2458.243056
811.760107	2451.739967
812.079716	2462.981740
812.399281	2455.823302
812.718801	2448.866510
813.038276	2457.285237
813.357707	2455.546038
813.677093	2452.899433
813.996434	2467.241515
814.315731	2450.706531
814.634983	2458.091821
814.954191	2455.999742
815.273354	2451.992025
815.592473	2452.697787
815.911547	2451.689556
816.230577	2450.983794
816.549562	2453.252313
816.868502	2450.681325
817.187399	2462.427213
817.506250	2461.318160
817.825058	2452.445729
818.143821	2455.621656
818.462539	2458.621142
818.781213	2452.773404
819.099843	2456.907150
819.418429	2451.311469
819.736970	2445.816612
820.055466	2452.571758
820.373919	2457.587706
820.692327	2458.268262
821.010691	2452.697787
821.329011	2457.562500
821.647286	2451.865996
821.965517	2460.688015
822.283704	2445.287290
822.601847	2450.958588
822.919945	2464.947790
823.237999	2448.589246
823.556010	2452.975050
823.873976	2460.284723
824.191897	2449.799123
824.509775	2457.612912
824.827609	2452.420523
825.145398	2448.135542
825.463144	2465.754375
825.780845	2455.722479
826.098502	2450.278033
826.416116	2460.486369
826.733685	2452.370112
827.051210	2453.428754
827.368692	2454.411779
827.686129	2458.822788
828.003522	2462.275979
828.320872	2451.992025
828.638177	2456.554269
828.955439	2453.806840
829.272656	2464.494087
829.589830	2453.932869
829.906960	2454.109310
830.224046	2452.546552
830.541088	2443.800150
830.858086	2462.225567
831.175041	2452.420523
831.491952	2456.705504
831.808819	2464.166412
832.125642	2457.058385
832.442421	2454.058898
832.759157	2455.672067
833.075849	2444.480706
833.392497	2449.723506
833.709101	2454.865483
834.025662	2452.344906
834.342179	2460.461163
834.658653	2452.370112
834.975083	2456.781121
835.291469	2466.989458
835.607811	2458.621142
835.924110	2460.536781
836.240366	2456.503858
836.556578	2456.907150
836.872746	2455.898919
837.188871	2455.041923
837.504952	2456.100565
837.820990	2459.931842
838.136984	2448.009513
838.452935	2451.462704
838.768842	2454.008487
839.084706	2460.990485
839.400526	2453.252313
839.716303	2452.748198
840.032037	2450.832560
840.347727	2453.479165
840.663373	2454.588219
840.978977	2452.017231
841.294537	2453.176696
841.610054	2450.782148
841.925527	2462.200362
842.240957	2458.847994
842.556344	2450.908177
842.871687	2446.799637
843.186987	2449.647888
843.502244	2453.680812
843.817458	2446.270315
844.132629	2450.756942
844.447756	2460.335135
844.762840	2456.403035
845.077881	2456.176183
845.392879	2457.915381
845.707833	2447.707044
846.022745	2460.158694
846.337613	2458.444702
846.652438	2463.057358
846.967221	2457.738940
847.281960	2449.320213
847.596656	2453.000256
847.911309	2453.504371
848.225919	2459.780608
848.540485	2453.706017
848.855009	2455.646862
849.169490	2454.613425
849.483928	2449.017744
849.798323	2457.285237
850.112675	2453.958075
850.426984	2451.513115
850.741251	2454.815071
851.055474	2457.007973
851.369654	2460.385546
851.683792	2455.596450
851.997887	2457.335648
852.311938	2455.798096
852.625947	2459.251287
852.939914	2449.698300
853.253837	2456.277006
853.567718	2457.083590
853.881555	2460.637604
854.195350	2451.009000
854.509103	2451.135029
854.822812	2458.167438
855.136479	2464.846967
855.450103	2454.084104
855.763685	2453.151490
856.077224	2444.783175
856.390720	2462.906123
856.704173	2451.840790
857.017584	2455.142746
857.330953	2461.166925
857.644278	2454.235338
857.957561	2452.496140
858.270802	2448.236365
858.584000	2460.158694
858.897155	2457.940587
859.210268	2451.664350
859.523339	2458.847994
859.836367	2455.470421
860.149352	2455.873713
860.462295	2454.386573
860.775195	2456.957562
861.088054	2453.655606
861.400869	2462.906123
861.713642	2455.697273
862.026373	2456.629887
862.339062	2459.049640
862.651708	2444.883998
862.964312	2455.747685
863.276873	2448.438012
863.589392	2454.689042
863.901869	2455.268775
864.214303	2457.386060
864.526696	2451.689556
864.839045	2450.933383
865.151353	2448.916921
865.463619	2449.723506
865.775842	2452.470935
866.088023	2463.158181
866.400162	2457.814558
866.712258	2452.168465
867.024313	2462.931329
867.336325	2454.764660
867.648296	2453.151490
867.960224	2451.664350
868.272110	2441.733277
868.583954	2443.245623
868.895755	2455.394804
869.207515	2452.092848
869.519233	2460.864456
869.830909	2458.243056
870.142542	2455.873713
870.454134	2455.319187
870.765684	2447.505398
871.077191	2451.992025
871.388657	2449.168979
871.700081	2459.478138
872.011463	2454.991512
872.322803	2451.210646
872.634101	2447.656633
872.945357	2452.798610
873.256571	2452.949844
873.567744	2456.453446
873.878874	2454.512602
874.189963	2457.083590
874.501010	2451.034206
874.812015	2459.200875
875.122979	2453.000256
875.433900	2453.958075
875.744780	2452.874227
876.055618	2447.757456
876.366415	2456.428240
876.677169	2457.335648
876.987882	2453.832046
877.298554	2448.589246
877.609183	2450.908177
877.919771	2455.646862
878.230317	2457.461677
878.540822	2452.798610
878.851285	2457.234825
879.161707	2449.925152
879.472087	2452.697787
879.782425	2458.142233
880.092722	2455.420010
880.402977	2456.529063
880.713191	2448.085131
881.023363	2444.707558
881.333494	2452.647375
881.643583	2456.100565
881.953631	2455.798096
882.263637	2454.235338
882.573602	2460.461163
882.883526	2453.428754
883.193408	2454.537808
883.503248	2450.177210
883.813048	2450.278033
884.122806	2453.605194
884.432522	2448.564040
884.742197	2452.218877
885.051831	2452.622169
885.361424	2459.805813
885.670975	2454.210133
885.980485	2455.974537
886.289954	2451.916408
886.599382	2444.959615
886.908768	2454.336162
887.218113	2449.748712
887.527417	2453.403548
887.836680	2453.403548
888.145901	2453.378342
888.455082	2452.319700
888.764221	2451.462704
889.073319	2450.983794
889.382376	2456.176183
889.691392	2450.908177
890.000366	2446.673608
890.309300	2447.681838
890.618193	2454.764660
890.927044	2453.151490
891.235855	2450.605708
891.544625	2456.881944
891.853353	2454.966306
892.162041	2448.286777
892.470687	2461.519806
892.779293	2455.319187
893.087858	2457.436471
893.396381	2461.872687
893.704864	2457.386060
894.013306	2451.613938
894.321707	2447.303752
894.630068	2455.218363
894.938387	2459.074846
895.246665	2455.873713
895.554903	2456.075360
895.863100	2456.075360
896.171256	2457.789352
896.479371	2449.597477
896.787446	2454.058898
897.095480	2449.572271
897.403473	2457.285237
897.711425	2456.075360
898.019336	2450.252827
898.327207	2452.269288
898.635038	2451.210646
898.942827	2456.604681
899.250576	2456.403035
899.558284	2447.228135
899.865952	2452.496140
900.173579	2448.236365
900.481165	2454.588219
900.788711	2452.849021
901.096216	2451.563527
901.403681	2445.564554
901.711105	2453.630400
902.018489	2442.439038
902.325832	2447.732250
902.633135	2444.732763
902.940397	2449.395831
903.247619	2442.161775
903.554800	2446.068669
903.861941	2458.268262
904.169041	2457.335648
904.476101	2449.547065
904.783121	2454.210133
905.090100	2454.714248
905.397039	2457.486883
905.703938	2451.361881
906.010796	2447.328958
906.317614	2455.092335
906.624391	2449.622683
906.931129	2446.623196
907.237826	2453.025462
907.544483	2448.992538
907.851099	2453.479165
908.157675	2455.798096
908.464211	2454.462190
908.770707	2456.150977
909.077163	2449.950358
909.383578	2461.822275
909.689954	2456.050154
909.996289	2455.823302
910.302584	2449.068156
910.608839	2448.034719
910.915054	2456.655092
911.221229	2456.755915
911.527363	2456.982767
911.833458	2460.385546
912.139513	2455.016717
912.445527	2454.865483
912.751502	2453.201902
913.057436	2453.101079
913.363331	2450.076387
913.669186	2457.713735
913.975000	2458.167438
914.280775	2454.563013
914.586510	2450.051181
914.892205	2447.076900
915.197859	2449.572271
915.503475	2451.513115
915.809050	2449.446242
916.114585	2458.671554
916.420081	2444.052208
916.725536	2461.166925
917.030952	2459.024435
917.336328	2452.975050
917.641665	2455.420010
917.946961	2452.092848
918.252218	2448.664863
918.557435	2449.093362
918.862612	2452.395317
919.167750	2450.051181
919.472848	2449.723506
919.777906	2463.208592
920.082925	2452.420523
920.387904	2461.267748
920.692843	2456.881944
920.997743	2454.436985
921.302603	2452.168465
921.607423	2446.371138
921.912204	2457.864969
922.216946	2455.041923
922.521647	2457.461677
922.826310	2442.313010
923.130932	2445.060438
923.435516	2451.135029
923.740059	2456.806327
924.044564	2459.326904
924.349028	2465.829992
924.653454	2453.706017
924.957840	2447.807867
925.262186	2448.362394
925.566493	2453.025462
925.870761	2454.462190
926.174989	2461.771863
926.479178	2453.000256
926.783328	2450.051181
927.087438	2451.261058
927.391509	2458.142233
927.695541	2447.833073
927.999533	2455.420010
928.303486	2447.102106
928.607400	2450.051181
928.911275	2448.488423
929.215110	2457.007973
929.518906	2451.034206
929.822663	2452.319700
930.126381	2456.529063
930.430060	2445.640171
930.733699	2457.965792
931.037299	2453.554783
931.340861	2461.973510
931.644383	2455.268775
931.947866	2445.085644
932.251309	2447.202929
932.554714	2456.302212
932.858080	2445.060438
933.161407	2451.639144
933.464694	2446.900460
933.767943	2448.110337
934.071153	2447.782662
934.374323	2458.167438
934.677455	2447.959102
934.980548	2451.210646
935.283602	2455.898919
935.586617	2448.513629
935.889593	2456.075360
936.192530	2446.396344
936.495428	2455.445215
936.798287	2451.135029
937.101108	2460.536781
937.403890	2455.293981
937.706632	2447.782662
938.009336	2448.438012
938.312002	2447.152517
938.614628	2448.286777
938.917216	2455.092335
939.219765	2453.252313
939.522275	2449.320213
939.824747	2446.774431
940.127179	2456.579475
940.429573	2445.388113
940.731929	2453.453960
941.034246	2442.413833
941.336524	2450.152004
941.638763	2457.814558
941.940964	2449.194185
942.243126	2445.766200
942.545250	2449.421037
942.847335	2460.410752
943.149381	2451.286263
943.451389	2460.435958
943.753359	2455.974537
944.055290	2450.908177
944.357182	2449.874740
944.659036	2453.731223
944.960851	2444.329471
945.262628	2460.032665
945.564367	2450.353650
945.866067	2454.991512
946.167729	2447.959102
946.469352	2460.234312
946.770937	2445.564554
947.072484	2446.572785
947.373992	2451.387087
947.675462	2451.664350
947.976893	2446.698813
948.278286	2451.992025
948.579641	2446.446756
948.880958	2442.388627
949.182236	2446.900460
949.483476	2450.782148
949.784678	2452.445729
950.085841	2455.067129
950.386967	2450.706531
950.688054	2455.117540
950.989103	2452.244083
951.290114	2447.303752
951.591087	2458.898406
951.892021	2450.278033
952.192917	2447.782662
952.493776	2446.799637
952.794596	2457.890175
953.095378	2453.680812
953.396122	2461.595423
953.696828	2442.917948
953.997496	2462.175156
954.298126	2447.984308
954.598718	2451.790379
954.899272	2455.394804
955.199788	2448.412806
955.500266	2445.640171
955.800706	2452.622169
956.101108	2456.856738
956.401472	2446.698813
956.701798	2445.665377
957.002087	2446.597990
957.302337	2454.487396
957.602550	2451.513115
957.902724	2444.783175
958.202861	2449.647888
958.502960	2447.530604
958.803022	2456.579475
959.103045	2454.134515
959.403031	2449.950358
959.702979	2454.890688
960.002889	2446.245110
960.302762	2449.194185
960.602596	2451.286263
960.902393	2449.597477
961.202153	2448.740481
961.501875	2445.690583
961.801559	2457.285237
962.101205	2455.546038
962.400814	2447.833073
962.700385	2443.976590
962.999918	2447.883485
963.299414	2451.462704
963.598873	2453.252313
963.898293	2440.649429
964.197677	2447.177723
964.497022	2452.722992
964.796331	2446.471962
965.095601	2451.059412
965.394835	2444.808381
965.694030	2453.428754
965.993189	2449.698300
966.292309	2449.118567
966.591393	2454.159721
966.890439	2461.242542
967.189447	2448.513629
967.488419	2447.606221
967.787353	2451.311469
968.086249	2454.386573
968.385108	2459.604167
968.683930	2455.142746
968.982714	2448.059925
969.281462	2446.068669
969.580172	2447.429781
969.878844	2451.815585
970.177480	2449.647888
970.476078	2450.782148
970.774639	2453.479165
971.073162	2443.774944
971.371649	2453.554783
971.670098	2450.051181
971.968510	2447.480192
972.266885	2452.470935
972.565223	2447.127312
972.863524	2450.832560
973.161788	2453.201902
973.460014	2454.184927
973.758204	2455.243569
974.056356	2449.042950
974.354471	2449.647888
974.652550	2447.001283
974.950591	2445.514142
975.248595	2460.587192
975.546563	2453.857252
975.844493	2450.076387
976.142386	2447.177723
976.440243	2447.051694
976.738062	2447.581015
977.035845	2449.622683
977.333590	2453.479165
977.631299	2448.564040
977.928971	2452.823815
978.226606	2447.833073
978.524204	2443.371652
978.821765	2445.438525
979.119290	2458.671554
979.416777	2447.656633
979.714228	2448.715275
980.011642	2447.782662
980.309020	2447.303752
980.606360	2447.606221
980.903664	2458.570731
981.200931	2448.916921
981.498162	2454.436985
981.795356	2449.042950
982.092513	2454.033692
982.389633	2449.824329
982.686717	2444.959615
982.983764	2454.386573
983.280775	2455.016717
983.577749	2456.881944
983.874686	2449.320213
984.171587	2464.040383
984.468451	2453.252313
984.765279	2454.991512
985.062070	2445.312496
985.358824	2456.932356
985.655543	2454.285750
985.952224	2452.672581
986.248869	2458.822788
986.545478	2454.184927
986.842050	2458.570731
987.138586	2445.614965
987.435086	2451.714762
987.731549	2446.421550
988.027975	2449.572271
988.324366	2455.697273
988.620719	2444.077413
988.917037	2452.395317
989.213318	2453.378342
989.509563	2451.109823
989.805772	2448.438012
990.101944	2452.042437
990.398080	2449.521860
990.694180	2448.639658
990.990244	2446.572785
991.286271	2458.696760
991.582262	2450.429267
991.878217	2453.025462
992.174136	2443.094388
992.470019	2453.479165
992.765865	2444.480706
993.061676	2448.639658
993.357450	2444.001796
993.653188	2445.362908
993.948890	2449.395831
994.244556	2447.026488
994.540186	2451.034206
994.835780	2447.177723
995.131337	2445.337702
995.426859	2446.219904
995.722345	2446.774431
996.017795	2451.588733
996.313208	2442.060952
996.608586	2452.798610
996.903928	2448.916921
997.199234	2447.228135
997.494504	2454.411779
997.789738	2446.673608
998.084936	2456.680298
998.380099	2452.773404
998.675225	2436.616506
998.970316	2449.471448
999.265371	2455.420010
999.560390	2452.722992
999.855373	2448.387600
1000.150320	2449.370625
1000.445232	2450.152004
1000.740108	2455.495627
1001.034948	2442.968360
1001.329752	2451.361881
1001.624521	2447.606221
1001.919254	2452.949844
1002.213951	2447.228135
1002.508613	2457.411265
1002.803239	2456.982767
1003.097829	2446.749225
1003.392384	2450.908177
1003.686903	2447.707044
1003.981386	2450.908177
1004.275834	2452.092848
1004.570246	2452.244083
1004.864623	2451.235852
1005.158964	2449.471448
1005.453270	2440.321754
1005.747540	2443.623710
1006.041775	2445.388113
1006.335974	2445.186467
1006.630138	2444.707558
1006.924266	2449.496654
1007.218359	2444.405088
1007.512416	2451.765173
1007.806438	2441.279573
1008.100425	2446.093875
1008.394376	2448.135542
1008.688292	2449.597477
1008.982172	2446.547579
1009.276017	2451.865996
1009.569827	2450.882971
1009.863602	2447.984308
1010.157341	2449.194185
1010.451045	2450.076387
1010.744714	2450.025975
1011.038347	2449.748712
1011.331945	2444.228648
1011.625508	2445.514142
1011.919036	2449.168979
1012.212528	2446.522373
1012.505986	2448.639658
1012.799408	2447.858279
1013.092795	2448.967333
1013.386147	2446.749225
1013.679464	2443.321240
1013.972745	2454.336162
1014.265992	2448.639658
1014.559204	2455.470421
1014.852380	2448.337188
1015.145521	2446.169492
1015.438628	2449.698300
1015.731699	2441.279573
1016.024736	2453.554783
1016.317737	2444.379883
1016.610703	2447.681838
1016.903635	2454.487396
1017.196531	2446.547579
1017.489393	2451.059412
1017.782219	2448.286777
1018.075011	2446.547579
1018.367768	2453.806840
1018.660490	2449.219390
1018.953177	2449.219390
1019.245829	2449.219390
