Dividing Wavelength (nm)	Counts (n)	Slit_number_12_of_a_total_of_40	
326.493990	2146.439288
326.888308	2146.439288
327.282561	2146.439288
327.676750	2133.836404
328.070874	2138.709519
328.464933	2133.920423
328.858929	2149.211923
329.252859	2148.707808
329.646726	2172.317212
330.040528	2195.590538
330.434265	2200.883750
330.827938	2223.400904
331.221547	2248.186577
331.615091	2265.242481
332.008571	2284.314846
332.401986	2298.346058
332.795338	2311.537077
333.188625	2336.406769
333.581847	2350.353962
333.975006	2386.818308
334.368100	2402.529904
334.761129	2415.048769
335.154095	2425.467154
335.546996	2449.664692
335.939833	2460.503173
336.332606	2479.407500
336.725315	2498.815942
337.117960	2506.629731
337.510540	2501.000442
337.903056	2523.349558
338.295508	2525.870135
338.687896	2534.692154
339.080220	2548.051212
339.472480	2539.229192
339.864676	2535.700385
340.256807	2558.217538
340.648875	2543.850250
341.040879	2549.563558
341.432818	2563.510750
341.824694	2547.631115
342.216506	2559.309788
342.608253	2571.660615
342.999937	2570.568365
343.391557	2562.586538
343.783113	2549.983654
344.174605	2560.318019
344.566033	2554.772750
344.957397	2538.389000
345.348697	2534.776173
345.739934	2543.010058
346.131106	2534.944212
346.522215	2558.217538
346.913260	2539.481250
347.304241	2541.161635
347.695159	2539.565269
348.086012	2535.616365
348.476802	2538.052923
348.867528	2533.263827
349.258191	2540.489481
349.648789	2511.754904
350.039324	2537.128712
350.429796	2511.586865
350.820203	2541.581731
351.210548	2534.440096
351.600828	2512.259019
351.991045	2527.886596
352.381198	2513.183231
352.771288	2517.384192
353.161314	2515.619788
353.551276	2528.642769
353.941175	2522.593385
354.331010	2522.929462
354.720782	2536.456558
355.110490	2524.357788
355.500135	2525.618077
355.889717	2536.372538
356.279235	2528.978846
356.668689	2535.532346
357.058080	2518.980558
357.447408	2523.685635
357.836672	2519.064577
358.225873	2519.316635
358.615010	2521.249077
359.004084	2515.871846
359.393095	2525.029942
359.782043	2517.888308
360.170927	2530.491192
360.559748	2522.845442
360.948505	2542.842019
361.337199	2526.374250
361.725830	2527.298462
362.114398	2526.626308
362.502903	2521.081038
362.891344	2535.616365
363.279722	2540.153404
363.668037	2527.886596
364.056289	2528.306692
364.444478	2521.501135
364.832603	2528.894827
365.220665	2532.339615
365.608665	2526.206212
365.996601	2529.398942
366.384474	2526.122192
366.772284	2537.548808
367.160031	2540.657519
367.547715	2546.958962
367.935336	2549.983654
368.322893	2552.672269
368.710388	2541.917808
369.097820	2540.405462
369.485189	2541.497712
369.872495	2543.346135
370.259738	2538.473019
370.646918	2538.641058
371.034035	2548.051212
371.421090	2530.239135
371.808081	2540.657519
372.195010	2521.165058
372.581875	2538.809096
372.968678	2536.708615
373.355418	2553.512462
373.742096	2548.471308
374.128710	2541.581731
374.515262	2540.573500
374.901751	2538.725077
375.288177	2542.842019
375.674540	2542.758000
376.060841	2541.917808
376.447079	2557.041269
376.833254	2562.166442
377.219367	2541.749769
377.605417	2546.118769
377.991404	2538.473019
378.377329	2539.481250
378.763191	2539.817327
379.148991	2556.705192
379.534727	2552.336192
379.920402	2531.331385
380.306013	2556.537154
380.691563	2541.077615
381.077049	2555.024808
381.462474	2538.304981
381.847835	2539.145173
382.233134	2537.800865
382.618371	2543.094077
383.003545	2536.036462
383.388657	2542.085846
383.773706	2549.059442
384.158693	2554.520692
384.543618	2554.184615
384.928480	2543.850250
385.313280	2554.436673
385.698017	2535.700385
386.082692	2551.664038
386.467305	2554.520692
386.851856	2543.682212
387.236344	2544.018288
387.620770	2551.243942
388.005133	2548.051212
388.389435	2537.464788
388.773674	2568.467885
389.157851	2554.688731
389.541965	2544.942500
389.926018	2538.977135
390.310008	2558.301558
390.693936	2545.362596
391.077802	2542.337904
391.461606	2538.473019
391.845348	2543.514173
392.229027	2548.555327
392.612645	2559.561846
392.996200	2554.352654
393.379694	2550.319731
393.763125	2539.145173
394.146494	2549.311500
394.529801	2540.153404
394.913047	2559.981942
395.296230	2545.866712
395.679351	2546.538865
396.062410	2564.687019
396.445408	2552.672269
396.828343	2553.344423
397.211217	2551.916096
397.594028	2564.014865
397.976778	2540.825558
398.359466	2572.416788
398.742092	2555.276865
399.124656	2544.186327
399.507158	2549.143462
399.889598	2559.729885
400.271977	2552.504231
400.654294	2553.176385
401.036549	2548.555327
401.418742	2570.568365
401.800874	2546.874942
402.182944	2563.678788
402.564952	2555.696962
402.946898	2564.855058
403.328783	2564.939077
403.710606	2567.879750
404.092367	2551.664038
404.474067	2554.016577
404.855705	2558.301558
405.237282	2561.662327
405.618797	2548.471308
406.000250	2553.764519
406.381642	2576.785788
406.762972	2545.110538
407.144240	2544.438385
407.525447	2564.434962
407.906593	2555.949019
408.287677	2548.891404
408.668700	2581.490865
409.049661	2561.410269
409.430560	2549.731596
409.811399	2559.813904
410.192176	2562.502519
410.572891	2567.459654
410.953545	2547.211019
411.334138	2558.721654
411.714669	2560.654096
412.095139	2560.149981
412.475547	2543.178096
412.855894	2558.049500
413.236180	2563.426731
413.616405	2564.014865
413.996568	2564.098885
414.376670	2570.652385
414.756711	2564.603000
415.136691	2559.393808
415.516609	2563.006635
415.896466	2557.125288
416.276262	2573.929135
416.655997	2573.088942
417.035670	2583.507327
417.415283	2569.896212
417.794834	2572.836885
418.174324	2571.996692
418.553753	2546.538865
418.933121	2563.678788
419.312428	2569.644154
419.691674	2575.105404
420.070859	2563.678788
420.449983	2569.476115
420.829045	2570.064250
421.208047	2571.576596
421.586988	2571.240519
421.965867	2558.553615
422.344686	2567.795731
422.723444	2555.192846
423.102141	2570.568365
423.480777	2564.603000
423.859352	2566.871519
424.237866	2556.957250
424.616319	2578.802250
424.994712	2577.037846
425.373044	2576.533731
425.751314	2575.693538
426.129524	2563.006635
426.507673	2576.113635
426.885762	2556.873231
427.263789	2567.039558
427.641756	2574.517269
428.019662	2567.963769
428.397508	2571.660615
428.775292	2572.836885
429.153016	2563.762808
429.530679	2571.156500
429.908282	2568.551904
430.285824	2586.195942
430.663305	2568.383865
431.040726	2583.339288
431.418086	2559.309788
431.795385	2579.222346
432.172624	2577.457942
432.549802	2569.476115
432.926920	2567.711712
433.303977	2560.654096
433.680974	2567.543673
434.057910	2571.744635
434.434786	2581.658904
434.811601	2577.625981
435.188355	2571.156500
435.565050	2574.349231
435.941683	2576.617750
436.318257	2583.591346
436.694770	2574.769327
437.071222	2584.263500
437.447614	2568.131808
437.823946	2570.652385
438.200218	2562.670558
438.576429	2571.072481
438.952580	2581.490865
439.328670	2565.947308
439.704700	2573.341000
440.080670	2580.314596
440.456580	2590.648962
440.832429	2580.314596
441.208218	2587.372212
441.583947	2582.247038
441.959616	2571.744635
442.335224	2578.046077
442.710773	2578.718231
443.086261	2569.476115
443.461689	2572.920904
443.837057	2570.568365
444.212365	2583.591346
444.587612	2589.976808
444.962800	2587.876327
445.337927	2579.138327
445.712995	2580.566654
446.088002	2590.228865
446.462949	2580.314596
446.837837	2570.736404
447.212664	2577.457942
447.587431	2592.581404
447.962139	2576.281673
448.336786	2587.960346
448.711374	2572.332769
449.085901	2581.658904
449.460369	2589.304654
449.834776	2605.940462
450.209124	2590.985038
450.583412	2587.204173
450.957640	2568.972000
451.331808	2592.581404
451.705917	2592.917481
452.079965	2598.294712
452.453954	2581.406846
452.827883	2590.396904
453.201752	2593.169538
453.575562	2584.179481
453.949311	2601.403423
454.323001	2595.522077
454.696632	2578.214115
455.070202	2602.327635
455.443713	2590.312885
455.817164	2605.772423
456.190556	2603.083808
456.563888	2581.154788
456.937160	2580.650673
457.310373	2600.563231
457.683526	2596.698346
458.056619	2595.858154
458.429653	2600.311173
458.802628	2613.418173
459.175542	2587.288192
459.548398	2602.831750
459.921194	2598.210692
460.293930	2593.589635
460.666607	2594.597865
461.039224	2600.059115
461.411782	2596.782365
461.784280	2596.614327
462.156719	2601.655481
462.529099	2610.645538
462.901419	2626.189096
463.273680	2608.208981
463.645882	2594.345808
464.018024	2605.268308
464.390106	2604.344096
464.762130	2611.401712
465.134094	2622.156173
465.505999	2613.166115
465.877845	2625.348904
466.249631	2628.877712
466.621358	2637.111596
466.993026	2621.315981
467.364634	2637.027577
467.736184	2632.826615
468.107674	2641.312558
468.479105	2644.169212
468.850477	2638.371885
469.221790	2629.297808
469.593043	2632.826615
469.964238	2639.884231
470.335373	2628.709673
470.706449	2629.045750
471.077467	2642.572846
471.448425	2663.577654
471.819324	2680.381500
472.190164	2675.592404
472.560945	2663.409615
472.931667	2684.498442
473.302330	2695.420942
473.672934	2672.399673
474.043479	2683.070115
474.413965	2686.935000
474.784393	2686.514904
475.154761	2689.287538
475.525070	2709.368135
475.895321	2716.089673
476.265513	2720.878769
476.635645	2730.877058
477.005719	2736.002231
477.375734	2752.722058
477.745691	2764.988865
478.115588	2786.581808
478.485427	2811.031404
478.855207	2826.995058
479.224928	2880.515308
479.594591	2905.300981
479.964194	2938.404558
480.333739	2959.577404
480.703226	2958.821231
481.072653	3000.410750
481.442022	3037.631269
481.811333	3073.003365
482.180584	3094.176212
482.549777	3103.250288
482.918912	3142.319231
483.287988	3181.976308
483.657005	3193.318904
484.025964	3228.522962
484.394864	3273.389231
484.763706	3293.385808
485.132489	3306.408788
485.501213	3371.439673
485.869879	3394.881038
486.238487	3433.025769
486.607036	3484.445538
486.975527	3528.471615
487.343959	3587.621154
487.712333	3650.635577
488.080648	3694.661654
488.448905	3770.026904
488.817104	3831.528981
489.185244	3911.263231
489.553326	4014.186788
489.921350	4194.324019
490.289315	4421.428000
490.657222	4592.911250
491.025070	4720.788519
491.392861	4805.984019
491.760593	4876.980269
492.128267	4913.444615
492.495883	4885.550231
492.863440	4957.722750
493.230939	4960.747442
493.598380	5008.302327
493.965763	5115.930962
494.333088	5165.082212
494.700354	5255.150827
495.067563	5355.721846
495.434713	5458.729423
495.801805	5587.782962
496.168839	5685.917423
496.535815	5807.661288
496.902733	5925.120173
497.269593	6052.577346
497.636395	6171.380538
498.003139	6341.939577
498.369825	6458.390231
498.736453	6615.002077
499.103023	6728.596077
499.469535	6868.824173
499.835989	7038.206942
500.202385	7181.375712
500.568723	7314.966288
500.935003	7508.546596
501.301226	7631.046635
501.667390	7857.226404
502.033497	8137.514558
502.399546	8277.406577
502.765537	8292.530038
503.131470	8574.330538
503.497345	8781.101865
503.863163	8770.347404
504.228923	9016.103654
504.594625	9289.922327
504.960269	9369.572558
505.325856	9670.109346
505.691385	9707.161827
506.056856	9938.046673
506.422270	10222.283731
506.787625	10315.377038
507.152924	10534.835269
507.518164	10732.868596
507.883347	10763.619635
508.248472	10985.934519
508.613540	11293.865000
508.978550	11515.003615
509.343503	11629.773885
509.708398	11882.671769
510.073236	12180.603962
510.438016	12380.485712
510.802738	12411.404788
511.167403	12724.964558
511.532010	12934.340481
511.896561	13266.888596
512.261053	13640.690154
512.625488	13700.343808
512.989866	13841.496115
513.354186	13952.233462
513.718449	14074.901538
514.082655	14414.003154
514.446803	14453.828269
514.810894	14762.094827
515.174927	14881.570173
515.538904	14993.147712
515.902822	15341.659481
516.266684	15283.686212
516.630488	15501.127981
516.994235	15589.684250
517.357925	15882.911365
517.721558	16079.936462
518.085133	16212.518808
518.448651	16398.789442
518.812112	16436.093981
519.175516	16475.583019
519.538863	16707.056000
519.902152	16800.317346
520.265385	17076.152481
520.628560	17108.415865
520.991678	17060.020788
521.354739	17220.917615
521.717743	17387.443731
522.080690	17380.386115
522.443580	17678.486346
522.806413	17696.214404
523.169189	17720.243904
523.531908	17850.809788
523.894569	17731.586500
524.257174	17778.637269
524.619722	17934.408923
524.982213	17929.367769
525.344647	17915.420577
525.707025	17909.623250
526.069345	18062.538250
526.431608	17986.836923
526.793815	18086.231673
527.155964	17845.264519
527.518057	17896.516250
527.880093	17748.642404
528.242072	17877.948000
528.603995	17686.804250
528.965860	17627.150596
529.327669	17624.798058
529.689421	17462.304865
530.051117	17424.664250
530.412755	17432.982154
530.774337	17312.918673
531.135862	17133.453596
531.497331	17124.379519
531.858743	16978.858212
532.220098	17020.363712
532.581396	16723.943865
532.942638	16542.378308
533.303824	16521.037423
533.664953	16359.132365
534.026025	16113.964250
534.387040	16165.300000
534.747999	16021.459077
535.108902	15921.308154
535.469748	15620.099212
535.830537	15475.838192
536.191270	15355.774712
536.551947	15133.543846
536.912567	15032.888808
537.273131	14959.203942
537.633638	14599.349577
537.994089	14534.654769
538.354483	14304.190019
538.714821	14280.580615
539.075103	14159.088808
539.435328	13942.403212
539.795497	13734.119538
540.155609	13558.183269
540.515665	13475.340308
540.875665	13168.250019
541.235609	13075.492788
541.595496	12868.385385
541.955328	12870.821942
542.315102	12537.685692
542.674821	12269.748365
543.034483	12099.357365
543.394090	11910.650173
543.753640	11754.626462
544.113134	11795.375788
544.472571	11382.169212
544.831953	11449.972731
545.191278	11094.907462
545.550548	10882.002731
545.909761	10782.355923
546.268918	10658.679615
546.628019	10503.076000
546.987064	10242.784423
547.346053	9966.361154
547.704986	9938.130692
548.063863	9680.191654
548.422684	9572.394981
548.781449	9340.837981
549.140158	9240.014904
549.498811	9076.597500
549.857408	8797.149538
550.215949	8784.294596
550.574434	8619.280827
550.932864	8404.443654
551.291237	8360.165519
551.649555	8158.183288
552.007817	8036.103346
552.366022	7845.043615
552.724173	7733.298038
553.082267	7616.259250
553.440305	7517.956750
553.798288	7288.668269
554.156215	7218.932308
554.514086	7088.702500
554.871902	6906.716846
555.229661	6805.557692
555.587365	6654.659154
555.945014	6558.877231
556.302606	6426.210865
556.660143	6313.961173
557.017625	6245.065404
557.375050	6147.771135
557.732421	6047.788250
558.089735	5922.851654
558.446994	5795.562519
558.804197	5732.800154
559.161345	5630.800808
559.518437	5487.127923
559.875474	5416.551769
560.232455	5347.235904
560.589381	5263.048635
560.946251	5153.319519
561.303065	5087.280404
561.659825	5003.009115
562.016528	4898.909288
562.373177	4825.140404
562.729770	4765.066654
563.086307	4671.469231
563.442789	4622.906115
563.799216	4534.349846
564.155587	4482.005865
564.511904	4398.490750
564.868164	4354.632712
565.224370	4289.685846
565.580520	4252.045231
565.936615	4180.712904
566.292654	4100.642577
566.648638	4076.024942
567.004567	4021.664500
567.360441	3975.201865
567.716260	3928.067077
568.072023	3905.129827
568.427732	3846.484404
568.783385	3779.941173
569.138982	3752.634923
569.494525	3717.262827
569.850013	3666.263154
570.205445	3630.975077
570.560823	3604.256962
570.916145	3556.954135
571.271412	3528.891712
571.626625	3467.137577
571.981782	3462.684558
572.336884	3411.264788
572.691931	3411.264788
573.046923	3352.955442
573.401860	3324.893019
573.756743	3326.993500
574.111570	3290.193077
574.466342	3268.600135
574.821059	3232.135788
575.175722	3203.233173
575.530330	3181.220135
575.884882	3185.253058
576.239380	3146.352154
576.593823	3115.685135
576.948211	3089.639173
577.302544	3092.411808
577.656823	3060.904596
578.011047	3025.028385
578.365216	3029.145327
578.719330	3028.641212
579.073389	3004.443673
579.427394	2983.018769
579.781344	2985.035231
580.135239	2958.821231
580.489080	2942.437481
580.842866	2927.566077
581.196597	2937.480346
581.550273	2912.862712
581.903895	2898.747481
582.257463	2897.991308
582.610975	2889.673404
582.964434	2888.665173
583.317837	2874.802000
583.671186	2858.166192
584.024481	2845.479288
584.377721	2833.968654
584.730906	2842.706654
585.084037	2845.059192
585.437113	2825.902808
585.790135	2821.113712
586.143103	2809.182981
586.496016	2804.729962
586.848874	2800.276942
587.201679	2795.403827
587.554428	2780.784481
587.907124	2776.919596
588.259765	2765.829058
588.612352	2772.466577
588.964884	2748.437077
589.317362	2747.764923
589.669786	2764.484750
590.022155	2748.605115
590.374470	2758.519385
590.726731	2728.776577
591.078937	2728.440500
591.431090	2715.417519
591.783188	2725.247769
592.135232	2732.641462
592.487222	2720.374654
592.839157	2720.962788
593.191038	2709.284115
593.542866	2697.941519
593.894639	2714.409288
594.246358	2718.022115
594.598022	2707.939808
594.949633	2691.304000
595.301190	2693.908596
595.652692	2702.562577
596.004141	2689.959692
596.355535	2689.203519
596.706876	2674.080058
597.058162	2673.743981
597.409395	2663.661673
597.760573	2680.549538
598.111698	2682.734038
598.462768	2675.256327
598.813785	2679.373269
599.164748	2664.501865
599.515657	2680.885615
599.866511	2657.360231
600.217312	2663.493635
600.568060	2659.292673
600.918753	2667.274500
601.269392	2663.997750
601.619978	2637.027577
601.970510	2655.511808
602.320988	2645.345481
602.671412	2666.350288
603.021783	2652.907212
603.372100	2649.294385
603.722363	2643.245000
604.072572	2656.688077
604.422728	2648.706250
604.772830	2639.128058
605.122878	2634.338962
605.472872	2648.706250
605.822813	2627.029288
606.172701	2636.523462
606.522534	2637.363654
606.872314	2649.042327
607.222041	2638.960019
607.571714	2638.539923
607.921333	2641.228538
608.270899	2633.414750
608.620411	2621.400000
608.969870	2628.793692
609.319276	2638.623942
609.668627	2626.441154
610.017926	2620.559808
610.367171	2636.439442
610.716362	2623.668519
611.065500	2619.803635
611.414585	2625.012827
611.763616	2642.488827
612.112594	2624.172635
612.461518	2615.938750
612.810389	2621.736077
613.159207	2610.981615
613.507971	2629.969962
613.856682	2623.920577
614.205340	2629.381827
614.553945	2614.846500
614.902496	2617.451096
615.250994	2594.345808
615.599439	2597.622558
615.947830	2626.777231
616.296169	2616.694923
616.644454	2615.854731
616.992686	2623.080385
617.340864	2614.006308
617.688990	2617.367077
618.037063	2606.108500
618.385082	2626.525173
618.733048	2620.643827
619.080961	2620.391769
619.428821	2602.579692
619.776628	2612.325923
620.124382	2622.912346
620.472083	2625.012827
620.819731	2622.996365
621.167326	2614.258365
621.514868	2619.047462
621.862357	2617.787173
622.209793	2629.297808
622.557176	2610.225442
622.904506	2622.828327
623.251783	2613.922288
623.599007	2610.729558
623.946179	2610.309462
624.293297	2618.963442
624.640363	2604.428115
624.987376	2595.522077
625.334336	2617.199038
625.681243	2613.166115
626.028097	2617.787173
626.374899	2598.294712
626.721647	2612.662000
627.068343	2608.881135
627.414987	2608.040942
627.761577	2585.439769
628.108115	2593.589635
628.454600	2603.839981
628.801032	2610.393481
629.147412	2617.787173
629.493739	2601.235385
629.840014	2607.200750
630.186236	2593.421596
630.532405	2612.830038
630.878521	2612.073865
631.224585	2595.858154
631.570597	2585.859865
631.916556	2607.788885
632.262462	2615.602673
632.608316	2593.841692
632.954117	2599.470981
633.299866	2609.301231
633.645562	2610.561519
633.991206	2598.462750
634.336797	2606.612615
634.682336	2622.240192
635.027823	2608.293000
635.373257	2597.538538
635.718639	2600.731269
636.063968	2607.620846
636.409245	2600.143135
636.754470	2597.202462
637.099642	2594.765904
637.444762	2602.915769
637.789829	2603.083808
638.134845	2592.833462
638.479808	2596.698346
638.824719	2598.126673
639.169577	2602.327635
639.514383	2597.790596
639.859137	2598.126673
640.203839	2601.655481
640.548489	2607.368788
640.893086	2596.446288
641.237632	2608.545058
641.582125	2598.882846
641.926566	2603.587923
642.270955	2605.688404
642.615292	2597.286481
642.959576	2609.133192
643.303809	2603.924000
643.647990	2597.706577
643.992118	2597.454519
644.336195	2598.378731
644.680219	2591.909250
645.024192	2602.999788
645.368112	2584.095462
645.711981	2598.966865
646.055797	2598.882846
646.399562	2596.782365
646.743274	2590.901019
647.086935	2583.003212
647.430544	2604.260077
647.774101	2591.489154
648.117606	2603.924000
648.461059	2603.419885
648.804460	2605.940462
649.147810	2585.859865
649.491108	2602.999788
649.834354	2586.448000
650.177548	2602.327635
650.520690	2587.456231
650.863781	2586.700058
651.206820	2583.171250
651.549807	2587.036135
651.892742	2580.230577
652.235626	2593.925712
652.578458	2601.235385
652.921238	2597.370500
653.263967	2600.059115
653.606644	2601.151365
653.949269	2593.085519
654.291843	2585.439769
654.634365	2590.396904
654.976836	2586.027904
655.319255	2599.470981
655.661622	2595.101981
656.003938	2582.247038
656.346203	2590.480923
656.688416	2598.798827
657.030577	2592.749442
657.372687	2612.325923
657.714746	2590.144846
658.056753	2597.286481
658.398708	2586.700058
658.740612	2589.136615
659.082465	2604.008019
659.424266	2592.077288
659.766016	2577.710000
660.107715	2590.060827
660.449362	2598.546769
660.790958	2595.270019
661.132503	2585.019673
661.473996	2587.036135
661.815438	2589.136615
662.156829	2591.657192
662.498168	2586.784077
662.839456	2591.069058
663.180693	2600.731269
663.521879	2600.983327
663.863013	2588.380442
664.204097	2585.439769
664.545129	2587.876327
664.886110	2588.968577
665.227040	2603.167827
665.567918	2583.591346
665.908746	2579.978519
666.249522	2598.210692
666.590248	2594.513846
666.930922	2587.288192
667.271545	2594.849923
667.612118	2589.472692
667.952639	2601.655481
668.293109	2588.380442
668.633528	2594.177769
668.973896	2579.978519
669.314213	2593.421596
669.654480	2597.622558
669.994695	2594.765904
670.334859	2586.027904
670.674973	2603.924000
671.015035	2590.901019
671.355047	2600.563231
671.695008	2596.194231
672.034918	2593.673654
672.374777	2584.851635
672.714585	2598.462750
673.054342	2579.642442
673.394049	2584.347519
673.733705	2599.302942
674.073310	2598.378731
674.412864	2591.741212
674.752368	2587.960346
675.091820	2597.034423
675.431223	2586.700058
675.770574	2599.134904
676.109875	2581.406846
676.449125	2579.222346
676.788324	2577.878038
677.127473	2584.683596
677.466571	2583.255269
677.805619	2583.423308
678.144616	2595.438058
678.483562	2595.522077
678.822458	2599.134904
679.161303	2589.808769
679.500098	2598.294712
679.838842	2595.774135
680.177535	2582.499096
680.516179	2575.273442
680.854771	2593.505615
681.193314	2598.714808
681.531805	2590.228865
681.870247	2577.878038
682.208638	2591.573173
682.546978	2594.513846
682.885268	2583.759385
683.223508	2598.126673
683.561697	2592.329346
683.899836	2592.581404
684.237925	2594.261788
684.575963	2593.925712
684.913951	2587.288192
685.251889	2584.599577
685.589776	2590.312885
685.927614	2588.296423
686.265401	2590.732981
686.603137	2600.143135
686.940824	2598.126673
687.278460	2588.800538
687.616046	2589.556712
687.953582	2594.681885
688.291068	2583.003212
688.628504	2598.462750
688.965889	2610.813577
689.303224	2590.480923
689.640510	2595.101981
689.977745	2588.044365
690.314930	2590.817000
690.652065	2583.255269
690.989150	2579.558423
691.326185	2593.589635
691.663170	2593.505615
692.000105	2599.807058
692.336990	2576.281673
692.673825	2583.507327
693.010610	2577.794019
693.347345	2595.186000
693.684030	2590.564942
694.020665	2601.655481
694.357251	2585.019673
694.693786	2584.851635
695.030272	2580.902731
695.366707	2581.322827
695.703093	2589.892788
696.039429	2591.825231
696.375716	2570.988462
696.711952	2601.655481
697.048139	2588.632500
697.384276	2585.523788
697.720363	2573.845115
698.056400	2583.171250
698.392388	2597.790596
698.728326	2575.777558
699.064214	2588.464462
699.400053	2584.683596
699.735842	2587.456231
700.071581	2588.044365
700.407270	2578.886269
700.742910	2586.195942
701.078501	2578.550192
701.414042	2586.448000
701.749533	2587.876327
702.084974	2585.943885
702.420366	2590.396904
702.755709	2601.067346
703.091002	2585.439769
703.426246	2590.480923
703.761440	2580.146558
704.096584	2592.665423
704.431679	2580.902731
704.766725	2579.306365
705.101721	2584.851635
705.436668	2589.388673
705.771565	2592.833462
706.106413	2571.072481
706.441212	2583.171250
706.775961	2579.894500
707.110661	2577.625981
707.445311	2579.978519
707.779913	2580.482635
708.114465	2596.614327
708.448967	2574.433250
708.783421	2590.480923
709.117825	2591.489154
709.452180	2580.566654
709.786485	2599.134904
710.120742	2594.093750
710.454949	2584.263500
710.789107	2581.154788
711.123216	2583.171250
711.457275	2572.332769
711.791286	2587.120154
712.125247	2585.439769
712.459159	2584.179481
712.793023	2584.851635
713.126837	2589.388673
713.460602	2593.337577
713.794318	2595.186000
714.127985	2588.800538
714.461602	2582.583115
714.795171	2584.095462
715.128691	2578.970288
715.462162	2576.701769
715.795584	2577.541962
716.128957	2592.245327
716.462281	2562.838596
716.795556	2579.474404
717.128782	2590.060827
717.461960	2592.749442
717.795088	2585.439769
718.128167	2583.087231
718.461198	2587.288192
718.794180	2583.423308
719.127113	2590.901019
719.459997	2575.609519
719.792833	2578.802250
720.125619	2575.441481
720.458357	2574.265212
720.791046	2570.904442
721.123686	2563.006635
721.456278	2584.179481
721.788821	2578.718231
722.121315	2587.792308
722.453761	2585.355750
722.786158	2585.607808
723.118506	2588.464462
723.450805	2598.546769
723.783056	2584.347519
724.115259	2579.138327
724.447412	2574.349231
724.779518	2574.853346
725.111574	2584.683596
725.443582	2585.019673
725.775542	2580.146558
726.107453	2582.919192
726.439315	2586.363981
726.771129	2609.889365
727.102895	2581.826942
727.434612	2595.186000
727.766281	2583.087231
728.097901	2589.976808
728.429473	2569.140038
728.760996	2570.988462
729.092471	2577.794019
729.423897	2582.331058
729.755276	2579.054308
730.086606	2589.808769
730.417887	2581.406846
730.749120	2565.023096
731.080305	2581.322827
731.411442	2590.396904
731.742530	2579.390385
732.073570	2587.372212
732.404562	2583.591346
732.735506	2581.826942
733.066401	2571.912673
733.397249	2585.355750
733.728048	2581.574885
734.058798	2572.836885
734.389501	2576.113635
734.720156	2588.884558
735.050762	2572.920904
735.381320	2574.097173
735.711831	2572.668846
736.042293	2587.456231
736.372707	2585.187712
736.703073	2583.003212
737.033391	2581.238808
737.363661	2581.154788
737.693883	2593.253558
738.024056	2589.892788
738.354182	2595.270019
738.684260	2581.322827
739.014290	2601.823519
739.344272	2583.255269
739.674207	2583.675365
740.004093	2580.314596
740.333931	2591.153077
740.663722	2592.917481
740.993464	2588.212404
741.323159	2578.970288
741.652806	2587.456231
741.982405	2586.868096
742.311956	2575.777558
742.641460	2593.001500
742.970915	2583.843404
743.300323	2583.171250
743.629683	2598.546769
743.958996	2585.523788
744.288260	2587.456231
744.617477	2576.869808
744.946647	2588.128385
745.275768	2580.986750
745.604842	2594.681885
745.933869	2580.398615
746.262847	2576.197654
746.591778	2584.851635
746.920662	2575.525500
747.249498	2564.266923
747.578286	2588.464462
747.907027	2570.484346
748.235720	2594.681885
748.564365	2569.224058
748.892963	2580.146558
749.221514	2599.891077
749.550017	2578.214115
749.878473	2589.640731
750.206881	2600.563231
750.535242	2576.365692
750.863555	2574.685308
751.191821	2584.263500
751.520039	2571.408558
751.848210	2574.685308
752.176334	2592.749442
752.504411	2592.245327
752.832440	2594.681885
753.160421	2579.558423
753.488356	2572.752865
753.816243	2588.716519
754.144082	2587.792308
754.471875	2592.497385
754.799620	2580.482635
755.127318	2567.123577
755.454969	2573.845115
755.782572	2584.515558
756.110129	2589.724750
756.437638	2576.869808
756.765100	2582.163019
757.092515	2567.711712
757.419882	2587.456231
757.747203	2571.492577
758.074477	2579.222346
758.401703	2575.861577
758.728882	2571.744635
759.056014	2577.878038
759.383099	2580.482635
759.710138	2578.214115
760.037129	2590.312885
760.364073	2579.138327
760.690970	2575.861577
761.017820	2579.474404
761.344623	2583.087231
761.671379	2586.195942
761.998088	2567.627692
762.324751	2580.566654
762.651366	2592.497385
762.977935	2583.255269
763.304456	2603.335865
763.630931	2585.943885
763.957359	2581.742923
764.283740	2587.960346
764.610074	2590.480923
764.936362	2589.052596
765.262602	2602.663712
765.588796	2576.869808
765.914943	2562.166442
766.241044	2588.464462
766.567097	2564.855058
766.893104	2575.273442
767.219064	2581.406846
767.544978	2583.255269
767.870845	2584.935654
768.196665	2580.650673
768.522438	2590.060827
768.848165	2570.064250
769.173846	2576.953827
769.499479	2577.037846
769.825066	2570.064250
770.150607	2566.619462
770.476101	2569.560135
770.801548	2579.054308
771.126949	2586.952115
771.452303	2577.289904
771.777611	2575.357462
772.102872	2590.228865
772.428087	2571.912673
772.753256	2571.996692
773.078378	2572.668846
773.403453	2579.474404
773.728482	2563.846827
774.053465	2578.718231
774.378401	2579.390385
774.703291	2581.154788
775.028135	2597.118442
775.352932	2575.105404
775.677683	2573.593058
776.002388	2571.240519
776.327046	2562.754577
776.651658	2584.515558
776.976224	2575.525500
777.300743	2570.232288
777.625216	2573.593058
777.949643	2583.843404
778.274024	2596.530308
778.598359	2580.230577
778.922647	2589.640731
779.246889	2574.769327
779.571086	2566.283385
779.895236	2586.616038
780.219339	2572.920904
780.543397	2578.214115
780.867409	2591.237096
781.191374	2578.718231
781.515294	2585.523788
781.839167	2577.205885
782.162995	2576.617750
782.486776	2578.298135
782.810511	2578.382154
783.134201	2590.144846
783.457844	2572.248750
783.781441	2579.222346
784.104993	2579.978519
784.428498	2582.499096
784.751958	2573.845115
785.075372	2577.625981
785.398739	2571.072481
785.722061	2580.146558
786.045337	2584.851635
786.368568	2578.802250
786.691752	2583.423308
787.014891	2584.263500
787.337983	2568.467885
787.661030	2572.164731
787.984031	2581.826942
788.306987	2571.240519
788.629897	2595.942173
788.952760	2570.400327
789.275579	2579.138327
789.598351	2601.067346
789.921078	2570.820423
790.243759	2576.785788
790.566395	2574.853346
790.888984	2572.500808
791.211529	2580.482635
791.534027	2567.291615
791.856480	2570.316308
792.178888	2567.459654
792.501249	2571.828654
792.823566	2585.187712
793.145836	2580.566654
793.468062	2581.574885
793.790241	2567.039558
794.112375	2583.339288
794.434464	2570.904442
794.756507	2585.607808
795.078505	2574.937365
795.400457	2578.634212
795.722364	2574.265212
796.044226	2575.861577
796.366042	2575.357462
796.687812	2578.634212
797.009538	2574.097173
797.331218	2567.795731
797.652852	2568.467885
797.974442	2580.566654
798.295986	2581.910962
798.617484	2581.574885
798.938938	2580.398615
799.260346	2577.625981
799.581709	2588.464462
799.903026	2579.978519
800.224299	2584.767615
800.545526	2573.509038
800.866708	2576.533731
801.187845	2589.724750
801.508936	2568.383865
801.829983	2587.036135
802.150984	2579.894500
802.471940	2585.775846
802.792851	2585.355750
803.113717	2569.560135
803.434538	2575.441481
803.755314	2581.574885
804.076045	2569.392096
804.396731	2558.889692
804.717372	2569.392096
805.037967	2581.490865
805.358518	2586.952115
805.679024	2568.803962
805.999485	2584.599577
806.319901	2571.240519
806.640272	2566.619462
806.960598	2571.240519
807.280879	2589.724750
807.601115	2575.357462
807.921306	2583.675365
808.241453	2569.896212
808.561554	2571.240519
808.881611	2583.339288
809.201623	2588.212404
809.521590	2567.375635
809.841513	2562.418500
810.161390	2570.736404
810.481223	2573.088942
810.801011	2574.433250
811.120755	2568.972000
811.440453	2566.703481
811.760107	2565.359173
812.079716	2587.288192
812.399281	2586.279962
812.718801	2572.248750
813.038276	2571.744635
813.357707	2574.601288
813.677093	2574.181192
813.996434	2582.499096
814.315731	2580.062538
814.634983	2570.148269
814.954191	2590.312885
815.273354	2591.993269
815.592473	2562.334481
815.911547	2576.029615
816.230577	2588.128385
816.549562	2576.197654
816.868502	2584.347519
817.187399	2579.390385
817.506250	2568.131808
817.825058	2584.011442
818.143821	2587.876327
818.462539	2576.869808
818.781213	2577.373923
819.099843	2573.845115
819.418429	2577.625981
819.736970	2575.861577
820.055466	2574.433250
820.373919	2574.769327
820.692327	2583.675365
821.010691	2593.337577
821.329011	2597.286481
821.647286	2599.891077
821.965517	2588.212404
822.283704	2609.637308
822.601847	2612.577981
822.919945	2615.686692
823.237999	2595.354038
823.556010	2594.093750
823.873976	2599.639019
824.191897	2592.833462
824.509775	2595.017962
824.827609	2594.849923
825.145398	2584.851635
825.463144	2585.439769
825.780845	2583.843404
826.098502	2586.868096
826.416116	2584.515558
826.733685	2606.780654
827.051210	2590.060827
827.368692	2594.513846
827.686129	2585.355750
828.003522	2584.011442
828.320872	2599.050885
828.638177	2580.818712
828.955439	2588.884558
829.272656	2588.212404
829.589830	2578.634212
829.906960	2585.523788
830.224046	2584.095462
830.541088	2567.627692
830.858086	2580.650673
831.175041	2566.115346
831.491952	2590.228865
831.808819	2590.228865
832.125642	2576.953827
832.442421	2573.677077
832.759157	2566.535442
833.075849	2579.054308
833.392497	2567.711712
833.709101	2578.298135
834.025662	2583.423308
834.342179	2586.027904
834.658653	2575.105404
834.975083	2569.980231
835.291469	2598.210692
835.607811	2572.164731
835.924110	2573.509038
836.240366	2572.920904
836.556578	2581.910962
836.872746	2570.484346
837.188871	2572.920904
837.504952	2588.716519
837.820990	2584.095462
838.136984	2575.693538
838.452935	2574.937365
838.768842	2587.624269
839.084706	2584.851635
839.400526	2570.904442
839.716303	2565.779269
840.032037	2569.392096
840.347727	2574.265212
840.663373	2571.156500
840.978977	2566.955538
841.294537	2575.861577
841.610054	2576.533731
841.925527	2575.189423
842.240957	2576.113635
842.556344	2577.625981
842.871687	2564.603000
843.186987	2567.879750
843.502244	2573.004923
843.817458	2587.456231
844.132629	2560.570077
844.447756	2566.031327
844.762840	2580.398615
845.077881	2556.621173
845.392879	2561.914385
845.707833	2568.299846
846.022745	2587.876327
846.337613	2579.054308
846.652438	2565.443192
846.967221	2577.037846
847.281960	2562.250462
847.596656	2583.759385
847.911309	2568.551904
848.225919	2575.105404
848.540485	2570.316308
848.855009	2567.123577
849.169490	2579.306365
849.483928	2570.904442
849.798323	2578.214115
850.112675	2588.128385
850.426984	2567.039558
850.741251	2568.972000
851.055474	2583.675365
851.369654	2578.466173
851.683792	2566.115346
851.997887	2565.695250
852.311938	2574.265212
852.625947	2571.660615
852.939914	2563.594769
853.253837	2568.972000
853.567718	2575.189423
853.881555	2577.289904
854.195350	2583.759385
854.509103	2558.889692
854.822812	2556.285096
855.136479	2554.268635
855.450103	2573.509038
855.763685	2577.962058
856.077224	2576.533731
856.390720	2577.962058
856.704173	2577.710000
857.017584	2578.466173
857.330953	2582.583115
857.644278	2564.266923
857.957561	2590.901019
858.270802	2573.509038
858.584000	2565.779269
858.897155	2585.943885
859.210268	2565.443192
859.523339	2562.586538
859.836367	2576.449712
860.149352	2581.658904
860.462295	2571.996692
860.775195	2581.154788
861.088054	2565.443192
861.400869	2573.172962
861.713642	2569.308077
862.026373	2575.777558
862.339062	2560.570077
862.651708	2566.451423
862.964312	2569.728173
863.276873	2565.191135
863.589392	2592.245327
863.901869	2578.634212
864.214303	2573.256981
864.526696	2565.107115
864.839045	2563.930846
865.151353	2577.205885
865.463619	2557.209308
865.775842	2572.248750
866.088023	2574.013154
866.400162	2574.685308
866.712258	2575.273442
867.024313	2572.248750
867.336325	2562.754577
867.648296	2568.131808
867.960224	2562.334481
868.272110	2562.418500
868.583954	2576.113635
868.895755	2574.097173
869.207515	2572.500808
869.519233	2576.197654
869.830909	2578.550192
870.142542	2582.499096
870.454134	2573.761096
870.765684	2580.734692
871.077191	2577.541962
871.388657	2568.887981
871.700081	2581.154788
872.011463	2586.868096
872.322803	2578.046077
872.634101	2568.047788
872.945357	2575.021385
873.256571	2570.988462
873.567744	2569.308077
873.878874	2569.056019
874.189963	2574.517269
874.501010	2574.937365
874.812015	2568.467885
875.122979	2580.734692
875.433900	2585.691827
875.744780	2578.046077
876.055618	2581.574885
876.366415	2575.441481
876.677169	2576.785788
876.987882	2579.642442
877.298554	2565.527212
877.609183	2587.960346
877.919771	2571.912673
878.230317	2559.225769
878.540822	2573.929135
878.851285	2572.584827
879.161707	2572.752865
879.472087	2575.189423
879.782425	2579.306365
880.092722	2583.087231
880.402977	2580.818712
880.713191	2574.769327
881.023363	2576.869808
881.333494	2572.416788
881.643583	2601.991558
881.953631	2598.378731
882.263637	2583.423308
882.573602	2592.833462
882.883526	2594.849923
883.193408	2600.395192
883.503248	2590.060827
883.813048	2585.355750
884.122806	2601.571462
884.432522	2576.113635
884.742197	2589.640731
885.051831	2582.499096
885.361424	2577.794019
885.670975	2576.533731
885.980485	2576.449712
886.289954	2562.334481
886.599382	2589.640731
886.908768	2583.171250
887.218113	2594.429827
887.527417	2567.123577
887.836680	2564.939077
888.145901	2572.668846
888.455082	2572.164731
888.764221	2587.120154
889.073319	2571.408558
889.382376	2582.667135
889.691392	2568.635923
890.000366	2566.451423
890.309300	2576.113635
890.618193	2585.523788
890.927044	2575.021385
891.235855	2561.074192
891.544625	2570.904442
891.853353	2570.232288
892.162041	2593.001500
892.470687	2578.046077
892.779293	2581.070769
893.087858	2561.410269
893.396381	2583.423308
893.704864	2571.996692
894.013306	2567.963769
894.321707	2583.255269
894.630068	2567.879750
894.938387	2586.027904
895.246665	2580.566654
895.554903	2577.373923
895.863100	2568.887981
896.171256	2588.548481
896.479371	2572.332769
896.787446	2580.650673
897.095480	2578.382154
897.403473	2572.584827
897.711425	2567.627692
898.019336	2567.375635
898.327207	2566.787500
898.635038	2584.515558
898.942827	2584.095462
899.250576	2582.331058
899.558284	2563.174673
899.865952	2567.795731
900.173579	2566.115346
900.481165	2568.299846
900.788711	2566.955538
901.096216	2567.963769
901.403681	2578.466173
901.711105	2573.761096
902.018489	2561.410269
902.325832	2571.912673
902.633135	2563.258692
902.940397	2579.138327
903.247619	2569.812192
903.554800	2560.906154
903.861941	2571.072481
904.169041	2574.601288
904.476101	2592.749442
904.783121	2583.843404
905.090100	2582.499096
905.397039	2562.670558
905.703938	2571.576596
906.010796	2578.970288
906.317614	2569.980231
906.624391	2586.616038
906.931129	2578.634212
907.237826	2592.077288
907.544483	2571.828654
907.851099	2572.500808
908.157675	2573.425019
908.464211	2589.388673
908.770707	2576.365692
909.077163	2573.172962
909.383578	2569.056019
909.689954	2568.047788
909.996289	2590.732981
910.302584	2552.336192
910.608839	2568.803962
910.915054	2566.367404
911.221229	2578.802250
911.527363	2564.939077
911.833458	2570.988462
912.139513	2586.784077
912.445527	2572.164731
912.751502	2569.812192
913.057436	2570.736404
913.363331	2566.199365
913.669186	2578.046077
913.975000	2576.785788
914.280775	2579.054308
914.586510	2559.645865
914.892205	2565.779269
915.197859	2586.868096
915.503475	2561.746346
915.809050	2570.568365
916.114585	2575.861577
916.420081	2563.006635
916.725536	2582.499096
917.030952	2596.446288
917.336328	2592.917481
917.641665	2593.337577
917.946961	2579.138327
918.252218	2577.541962
918.557435	2585.019673
918.862612	2582.835173
919.167750	2578.550192
919.472848	2568.299846
919.777906	2580.818712
920.082925	2553.596481
920.387904	2581.070769
920.692843	2574.517269
920.997743	2574.937365
921.302603	2574.601288
921.607423	2578.298135
921.912204	2585.355750
922.216946	2582.331058
922.521647	2586.700058
922.826310	2576.785788
923.130932	2560.318019
923.435516	2570.652385
923.740059	2577.794019
924.044564	2579.390385
924.349028	2575.609519
924.653454	2588.800538
924.957840	2567.711712
925.262186	2570.568365
925.566493	2552.336192
925.870761	2583.423308
926.174989	2567.711712
926.479178	2567.459654
926.783328	2570.232288
927.087438	2578.550192
927.391509	2560.486058
927.695541	2575.189423
927.999533	2576.449712
928.303486	2576.953827
928.607400	2549.983654
928.911275	2571.492577
929.215110	2576.029615
929.518906	2569.140038
929.822663	2568.803962
930.126381	2573.593058
930.430060	2572.332769
930.733699	2555.612942
931.037299	2566.031327
931.340861	2576.449712
931.644383	2561.998404
931.947866	2563.930846
932.251309	2572.836885
932.554714	2558.805673
932.858080	2570.988462
933.161407	2567.291615
933.464694	2561.830365
933.767943	2574.097173
934.071153	2570.064250
934.374323	2567.879750
934.677455	2569.896212
934.980548	2566.283385
935.283602	2563.930846
935.586617	2564.687019
935.889593	2576.617750
936.192530	2561.410269
936.495428	2576.533731
936.798287	2565.527212
937.101108	2567.963769
937.403890	2575.273442
937.706632	2564.603000
938.009336	2565.695250
938.312002	2560.570077
938.614628	2577.962058
938.917216	2569.056019
939.219765	2578.214115
939.522275	2570.316308
939.824747	2575.021385
940.127179	2577.710000
940.429573	2582.667135
940.731929	2582.163019
941.034246	2577.373923
941.336524	2561.746346
941.638763	2571.576596
941.940964	2559.981942
942.243126	2573.004923
942.545250	2585.691827
942.847335	2577.205885
943.149381	2563.342712
943.451389	2572.332769
943.753359	2562.082423
944.055290	2571.912673
944.357182	2553.260404
944.659036	2577.625981
944.960851	2574.937365
945.262628	2571.072481
945.564367	2580.398615
945.866067	2576.533731
946.167729	2572.248750
946.469352	2578.466173
946.770937	2572.332769
947.072484	2573.593058
947.373992	2576.617750
947.675462	2563.258692
947.976893	2556.789212
948.278286	2565.947308
948.579641	2560.486058
948.880958	2573.341000
949.182236	2557.041269
949.483476	2566.871519
949.784678	2568.383865
950.085841	2573.425019
950.386967	2573.845115
950.688054	2567.963769
950.989103	2582.163019
951.290114	2570.064250
951.591087	2562.082423
951.892021	2578.046077
952.192917	2581.994981
952.493776	2555.949019
952.794596	2568.131808
953.095378	2571.576596
953.396122	2560.065962
953.696828	2588.128385
953.997496	2571.492577
954.298126	2561.242231
954.598718	2576.029615
954.899272	2566.703481
955.199788	2577.457942
955.500266	2561.158212
955.800706	2587.288192
956.101108	2554.352654
956.401472	2558.133519
956.701798	2570.400327
957.002087	2563.678788
957.302337	2561.494288
957.602550	2565.611231
957.902724	2582.331058
958.202861	2551.496000
958.502960	2561.494288
958.803022	2575.693538
959.103045	2560.149981
959.403031	2561.410269
959.702979	2569.644154
960.002889	2576.281673
960.302762	2572.836885
960.602596	2564.350942
960.902393	2565.947308
961.202153	2562.250462
961.501875	2564.855058
961.801559	2580.650673
962.101205	2575.777558
962.400814	2577.121865
962.700385	2547.379058
962.999918	2569.140038
963.299414	2565.359173
963.598873	2568.719942
963.898293	2570.820423
964.197677	2568.887981
964.497022	2560.234000
964.796331	2559.981942
965.095601	2560.149981
965.394835	2573.425019
965.694030	2565.359173
965.993189	2557.461365
966.292309	2569.140038
966.591393	2563.762808
966.890439	2560.234000
967.189447	2565.023096
967.488419	2570.904442
967.787353	2576.197654
968.086249	2562.922615
968.385108	2549.059442
968.683930	2570.568365
968.982714	2560.570077
969.281462	2573.172962
969.580172	2573.593058
969.878844	2567.459654
970.177480	2586.952115
970.476078	2568.803962
970.774639	2569.308077
971.073162	2561.998404
971.371649	2584.347519
971.670098	2569.308077
971.968510	2572.584827
972.266885	2563.426731
972.565223	2567.963769
972.863524	2568.383865
973.161788	2573.593058
973.460014	2566.367404
973.758204	2575.105404
974.056356	2577.962058
974.354471	2584.935654
974.652550	2562.838596
974.950591	2563.930846
975.248595	2561.830365
975.546563	2586.111923
975.844493	2572.248750
976.142386	2563.762808
976.440243	2561.242231
976.738062	2555.696962
977.035845	2573.593058
977.333590	2550.319731
977.631299	2571.744635
977.928971	2555.108827
978.226606	2565.275154
978.524204	2570.652385
978.821765	2577.289904
979.119290	2575.861577
979.416777	2577.373923
979.714228	2568.383865
980.011642	2576.953827
980.309020	2569.476115
980.606360	2574.517269
980.903664	2566.031327
981.200931	2567.123577
981.498162	2554.268635
981.795356	2571.072481
982.092513	2572.416788
982.389633	2571.744635
982.686717	2583.171250
982.983764	2561.410269
983.280775	2555.444904
983.577749	2569.728173
983.874686	2571.492577
984.171587	2569.224058
984.468451	2554.016577
984.765279	2572.836885
985.062070	2568.887981
985.358824	2577.541962
985.655543	2569.980231
985.952224	2565.275154
986.248869	2577.878038
986.545478	2571.240519
986.842050	2567.459654
987.138586	2562.166442
987.435086	2567.123577
987.731549	2568.299846
988.027975	2573.593058
988.324366	2555.192846
988.620719	2559.645865
988.917037	2583.927423
989.213318	2575.021385
989.509563	2562.838596
989.805772	2559.057731
990.101944	2563.594769
990.398080	2572.332769
990.694180	2567.963769
990.990244	2564.182904
991.286271	2576.533731
991.582262	2565.611231
991.878217	2561.410269
992.174136	2557.209308
992.470019	2563.846827
992.765865	2569.980231
993.061676	2569.224058
993.357450	2559.561846
993.653188	2564.182904
993.948890	2562.334481
994.244556	2565.779269
994.540186	2559.057731
994.835780	2569.644154
995.131337	2570.232288
995.426859	2569.728173
995.722345	2565.611231
996.017795	2570.820423
996.313208	2564.939077
996.608586	2560.738115
996.903928	2564.182904
997.199234	2563.426731
997.494504	2566.871519
997.789738	2559.057731
998.084936	2566.619462
998.380099	2569.560135
998.675225	2572.500808
998.970316	2582.331058
999.265371	2563.090654
999.560390	2559.141750
999.855373	2570.568365
1000.150320	2547.883173
1000.445232	2565.107115
1000.740108	2574.181192
1001.034948	2556.621173
1001.329752	2564.014865
1001.624521	2556.957250
1001.919254	2569.728173
1002.213951	2562.922615
1002.508613	2573.593058
1002.803239	2565.359173
1003.097829	2569.644154
1003.392384	2566.871519
1003.686903	2559.393808
1003.981386	2549.731596
1004.275834	2564.687019
1004.570246	2567.459654
1004.864623	2569.812192
1005.158964	2560.738115
1005.453270	2555.780981
1005.747540	2588.380442
1006.041775	2556.285096
1006.335974	2561.578308
1006.630138	2584.011442
1006.924266	2558.805673
1007.218359	2564.855058
1007.512416	2578.382154
1007.806438	2563.510750
1008.100425	2561.830365
1008.394376	2566.619462
1008.688292	2565.191135
1008.982172	2557.209308
1009.276017	2557.713423
1009.569827	2565.107115
1009.863602	2574.517269
1010.157341	2566.535442
1010.451045	2570.064250
1010.744714	2560.402038
1011.038347	2558.553615
1011.331945	2574.433250
1011.625508	2559.813904
1011.919036	2548.051212
1012.212528	2552.588250
1012.505986	2570.568365
1012.799408	2566.031327
1013.092795	2571.324538
1013.386147	2577.541962
1013.679464	2561.998404
1013.972745	2567.879750
1014.265992	2569.812192
1014.559204	2565.275154
1014.852380	2547.631115
1015.145521	2558.553615
1015.438628	2565.023096
1015.731699	2578.046077
1016.024736	2553.260404
1016.317737	2574.013154
1016.610703	2566.199365
1016.903635	2563.510750
1017.196531	2568.972000
1017.489393	2559.477827
1017.782219	2558.553615
1018.075011	2561.494288
1018.367768	2556.621173
1018.660490	2560.570077
1018.953177	2560.570077
1019.245829	2560.570077
