Dividing Wavelength (nm)	Counts (n)	Slit_number_37_of_a_total_of_40	
326.493990	2145.599096
326.888308	2145.599096
327.282561	2145.599096
327.676750	2114.427962
328.070874	2113.671788
328.464933	2118.880981
328.858929	2132.492096
329.252859	2142.154308
329.646726	2167.528115
330.040528	2165.763712
330.434265	2197.775038
330.827938	2219.788077
331.221547	2234.323404
331.615091	2252.555577
332.008571	2279.693788
332.401986	2289.440019
332.795338	2303.135154
333.188625	2332.877962
333.581847	2355.563154
333.975006	2370.518577
334.368100	2391.271327
334.761129	2388.498692
335.154095	2422.190404
335.546996	2430.844385
335.939833	2457.898577
336.332606	2468.737058
336.725315	2480.583769
337.117960	2505.873558
337.510540	2490.077942
337.903056	2506.881788
338.295508	2520.492904
338.687896	2520.913000
339.080220	2529.146885
339.472480	2528.306692
339.864676	2539.565269
340.256807	2545.782692
340.648875	2527.214442
341.040879	2542.589962
341.432818	2537.212731
341.824694	2525.870135
342.216506	2544.690442
342.608253	2555.865000
342.999937	2545.194558
343.391557	2549.815615
343.783113	2548.219250
344.174605	2519.652712
344.566033	2543.766231
344.957397	2532.843731
345.348697	2530.827269
345.739934	2523.013481
346.131106	2520.072808
346.522215	2520.492904
346.913260	2532.843731
347.304241	2528.054635
347.695159	2542.169865
348.086012	2518.476442
348.476802	2509.654423
348.867528	2523.265538
349.258191	2525.534058
349.648789	2511.334808
350.039324	2513.519308
350.429796	2522.593385
350.820203	2516.964096
351.210548	2505.285423
351.600828	2499.068000
351.991045	2507.890019
352.381198	2512.763135
352.771288	2509.318346
353.161314	2522.257308
353.551276	2506.881788
353.941175	2507.721981
354.331010	2514.107442
354.720782	2508.142077
355.110490	2527.046404
355.500135	2501.336519
355.889717	2506.545712
356.279235	2486.465115
356.668689	2517.300173
357.058080	2496.295365
357.447408	2516.123904
357.836672	2520.576923
358.225873	2508.478154
358.615010	2516.375962
359.004084	2508.730212
359.393095	2498.143788
359.782043	2519.736731
360.170927	2512.343038
360.559748	2519.064577
360.948505	2514.107442
361.337199	2521.753192
361.725830	2540.321442
362.114398	2503.605038
362.502903	2527.886596
362.891344	2523.517596
363.279722	2517.132135
363.668037	2521.081038
364.056289	2513.183231
364.444478	2517.804288
364.832603	2520.324865
365.220665	2503.941115
365.608665	2506.461692
365.996601	2529.566981
366.384474	2520.828981
366.772284	2512.259019
367.160031	2525.029942
367.547715	2519.484673
367.935336	2529.398942
368.322893	2526.458269
368.710388	2509.738442
369.097820	2533.599904
369.485189	2512.931173
369.872495	2524.441808
370.259738	2511.922942
370.646918	2524.357788
371.034035	2515.283712
371.421090	2524.105731
371.808081	2514.947635
372.195010	2528.726788
372.581875	2523.517596
372.968678	2524.105731
373.355418	2518.644481
373.742096	2527.466500
374.128710	2532.591673
374.515262	2519.232615
374.901751	2526.878365
375.288177	2539.985365
375.674540	2519.568692
376.060841	2532.171577
376.447079	2521.249077
376.833254	2537.296750
377.219367	2519.904769
377.605417	2528.978846
377.991404	2516.964096
378.377329	2526.374250
378.763191	2531.667462
379.148991	2528.138654
379.534727	2518.980558
379.920402	2529.398942
380.306013	2529.482962
380.691563	2526.794346
381.077049	2531.079327
381.462474	2536.792635
381.847835	2518.056346
382.233134	2525.197981
382.618371	2523.349558
383.003545	2540.825558
383.388657	2533.263827
383.773706	2527.466500
384.158693	2539.733308
384.543618	2525.870135
384.928480	2531.079327
385.313280	2532.255596
385.698017	2511.670885
386.082692	2532.339615
386.467305	2512.343038
386.851856	2537.128712
387.236344	2531.667462
387.620770	2538.473019
388.005133	2533.347846
388.389435	2542.169865
388.773674	2531.163346
389.157851	2543.346135
389.541965	2535.364308
389.926018	2538.304981
390.310008	2524.945923
390.693936	2542.085846
391.077802	2531.835500
391.461606	2530.071096
391.845348	2535.532346
392.229027	2544.186327
392.612645	2547.042981
392.996200	2525.954154
393.379694	2524.861904
393.763125	2532.423635
394.146494	2546.706904
394.529801	2538.473019
394.913047	2532.255596
395.296230	2533.263827
395.679351	2543.934269
396.062410	2526.710327
396.445408	2553.932558
396.828343	2542.169865
397.211217	2545.530635
397.594028	2524.021712
397.976778	2542.505942
398.359466	2550.571788
398.742092	2544.354365
399.124656	2544.942500
399.507158	2547.042981
399.889598	2550.571788
400.271977	2555.360885
400.654294	2517.132135
401.036549	2546.286808
401.418742	2544.270346
401.800874	2544.942500
402.182944	2532.507654
402.564952	2547.042981
402.946898	2536.204500
403.328783	2533.851962
403.710606	2531.331385
404.092367	2536.288519
404.474067	2536.708615
404.855705	2529.314923
405.237282	2537.968904
405.618797	2537.548808
406.000250	2552.000115
406.381642	2538.893115
406.762972	2546.958962
407.144240	2536.036462
407.525447	2537.632827
407.906593	2535.868423
408.287677	2553.680500
408.668700	2533.515885
409.049661	2547.295038
409.430560	2556.957250
409.811399	2543.934269
410.192176	2530.743250
410.572891	2550.487769
410.953545	2551.243942
411.334138	2543.262115
411.714669	2544.438385
412.095139	2544.690442
412.475547	2554.772750
412.855894	2547.295038
413.236180	2543.598192
413.616405	2538.893115
413.996568	2563.426731
414.376670	2561.242231
414.756711	2556.117058
415.136691	2539.901346
415.516609	2546.286808
415.896466	2542.842019
416.276262	2545.950731
416.655997	2534.860192
417.035670	2543.850250
417.415283	2548.303269
417.794834	2540.489481
418.174324	2552.672269
418.553753	2552.924327
418.933121	2545.530635
419.312428	2558.469596
419.691674	2557.461365
420.070859	2547.295038
420.449983	2543.766231
420.829045	2547.715135
421.208047	2549.815615
421.586988	2553.092365
421.965867	2558.301558
422.344686	2546.118769
422.723444	2537.212731
423.102141	2547.883173
423.480777	2535.532346
423.859352	2552.840308
424.237866	2551.496000
424.616319	2556.369115
424.994712	2518.896538
425.373044	2548.639346
425.751314	2567.627692
426.129524	2544.690442
426.507673	2560.149981
426.885762	2542.505942
427.263789	2542.926038
427.641756	2544.858481
428.019662	2535.700385
428.397508	2540.993596
428.775292	2567.711712
429.153016	2543.262115
429.530679	2540.741538
429.908282	2553.764519
430.285824	2549.143462
430.663305	2542.085846
431.040726	2565.359173
431.418086	2551.664038
431.795385	2554.352654
432.172624	2553.680500
432.549802	2558.973712
432.926920	2541.917808
433.303977	2551.832077
433.680974	2556.201077
434.057910	2553.008346
434.434786	2557.629404
434.811601	2545.698673
435.188355	2543.010058
435.565050	2556.957250
435.941683	2565.611231
436.318257	2537.632827
436.694770	2568.215827
437.071222	2550.151692
437.447614	2560.906154
437.823946	2546.538865
438.200218	2540.069385
438.576429	2544.270346
438.952580	2545.782692
439.328670	2535.868423
439.704700	2554.856769
440.080670	2558.889692
440.456580	2556.285096
440.832429	2554.772750
441.208218	2550.655808
441.583947	2565.779269
441.959616	2558.637635
442.335224	2554.352654
442.710773	2548.723365
443.086261	2555.276865
443.461689	2560.149981
443.837057	2559.897923
444.212365	2570.736404
444.587612	2564.266923
444.962800	2556.705192
445.337927	2563.930846
445.712995	2549.563558
446.088002	2555.024808
446.462949	2562.586538
446.837837	2563.594769
447.212664	2554.604712
447.587431	2555.360885
447.962139	2562.586538
448.336786	2561.578308
448.711374	2557.797442
449.085901	2562.670558
449.460369	2556.873231
449.834776	2553.596481
450.209124	2554.856769
450.583412	2559.561846
450.957640	2546.538865
451.331808	2569.980231
451.705917	2546.706904
452.079965	2563.342712
452.453954	2549.815615
452.827883	2553.932558
453.201752	2561.242231
453.575562	2546.202788
453.949311	2551.580019
454.323001	2565.443192
454.696632	2562.754577
455.070202	2557.797442
455.443713	2557.797442
455.817164	2559.561846
456.190556	2570.484346
456.563888	2569.392096
456.937160	2555.949019
457.310373	2555.780981
457.683526	2562.922615
458.056619	2558.889692
458.429653	2555.612942
458.802628	2560.570077
459.175542	2552.840308
459.548398	2574.181192
459.921194	2547.042981
460.293930	2560.570077
460.666607	2581.070769
461.039224	2554.856769
461.411782	2563.846827
461.784280	2560.318019
462.156719	2554.016577
462.529099	2566.451423
462.901419	2569.728173
463.273680	2553.512462
463.645882	2556.285096
464.018024	2554.688731
464.390106	2558.133519
464.762130	2550.823846
465.134094	2540.489481
465.505999	2565.023096
465.877845	2575.441481
466.249631	2561.494288
466.621358	2555.192846
466.993026	2558.385577
467.364634	2580.902731
467.736184	2557.797442
468.107674	2556.789212
468.479105	2558.889692
468.850477	2555.528923
469.221790	2566.535442
469.593043	2564.518981
469.964238	2566.199365
470.335373	2565.779269
470.706449	2555.444904
471.077467	2563.090654
471.448425	2569.812192
471.819324	2543.178096
472.190164	2546.370827
472.560945	2576.113635
472.931667	2564.182904
473.302330	2543.850250
473.672934	2562.922615
474.043479	2568.551904
474.413965	2552.000115
474.784393	2550.403750
475.154761	2559.309788
475.525070	2556.957250
475.895321	2561.494288
476.265513	2557.629404
476.635645	2579.054308
477.005719	2549.899635
477.375734	2549.311500
477.745691	2574.433250
478.115588	2548.891404
478.485427	2557.965481
478.855207	2555.528923
479.224928	2564.182904
479.594591	2579.726462
479.964194	2563.258692
480.333739	2563.342712
480.703226	2564.855058
481.072653	2560.738115
481.442022	2549.311500
481.811333	2565.023096
482.180584	2563.762808
482.549777	2563.006635
482.918912	2551.580019
483.287988	2551.496000
483.657005	2574.769327
484.025964	2555.024808
484.394864	2538.052923
484.763706	2578.634212
485.132489	2560.738115
485.501213	2564.518981
485.869879	2562.334481
486.238487	2555.024808
486.607036	2561.494288
486.975527	2558.637635
487.343959	2567.123577
487.712333	2558.973712
488.080648	2564.266923
488.448905	2569.476115
488.817104	2573.425019
489.185244	2561.578308
489.553326	2579.978519
489.921350	2562.418500
490.289315	2547.463077
490.657222	2559.645865
491.025070	2562.754577
491.392861	2565.107115
491.760593	2556.369115
492.128267	2568.047788
492.495883	2572.164731
492.863440	2563.762808
493.230939	2575.021385
493.598380	2568.719942
493.965763	2559.897923
494.333088	2549.143462
494.700354	2575.357462
495.067563	2559.057731
495.434713	2561.242231
495.801805	2564.603000
496.168839	2569.560135
496.535815	2575.189423
496.902733	2556.537154
497.269593	2575.357462
497.636395	2557.293327
498.003139	2565.191135
498.369825	2563.594769
498.736453	2553.176385
499.103023	2565.611231
499.469535	2575.861577
499.835989	2562.166442
500.202385	2559.645865
500.568723	2574.853346
500.935003	2563.594769
501.301226	2553.428442
501.667390	2564.687019
502.033497	2577.373923
502.399546	2564.603000
502.765537	2577.121865
503.131470	2554.016577
503.497345	2548.807385
503.863163	2558.889692
504.228923	2578.466173
504.594625	2576.533731
504.960269	2573.677077
505.325856	2572.752865
505.691385	2561.830365
506.056856	2571.576596
506.422270	2565.779269
506.787625	2556.285096
507.152924	2569.056019
507.518164	2563.090654
507.883347	2568.551904
508.248472	2560.318019
508.613540	2540.741538
508.978550	2567.543673
509.343503	2556.705192
509.708398	2565.863288
510.073236	2557.041269
510.438016	2568.551904
510.802738	2565.107115
511.167403	2557.209308
511.532010	2587.960346
511.896561	2556.453135
512.261053	2569.896212
512.625488	2572.332769
512.989866	2564.603000
513.354186	2562.082423
513.718449	2556.453135
514.082655	2566.871519
514.446803	2553.764519
514.810894	2575.021385
515.174927	2580.230577
515.538904	2555.865000
515.902822	2562.586538
516.266684	2571.660615
516.630488	2574.013154
516.994235	2550.655808
517.357925	2569.056019
517.721558	2555.444904
518.085133	2577.289904
518.448651	2567.039558
518.812112	2559.981942
519.175516	2560.570077
519.538863	2564.350942
519.902152	2565.191135
520.265385	2575.105404
520.628560	2567.291615
520.991678	2572.752865
521.354739	2587.540250
521.717743	2560.822135
522.080690	2576.449712
522.443580	2576.953827
522.806413	2555.444904
523.169189	2576.113635
523.531908	2566.199365
523.894569	2566.955538
524.257174	2559.057731
524.619722	2566.451423
524.982213	2564.771038
525.344647	2571.072481
525.707025	2562.670558
526.069345	2565.695250
526.431608	2571.660615
526.793815	2577.373923
527.155964	2558.133519
527.518057	2556.537154
527.880093	2574.517269
528.242072	2551.748058
528.603995	2575.105404
528.965860	2559.897923
529.327669	2569.980231
529.689421	2563.510750
530.051117	2565.107115
530.412755	2556.369115
530.774337	2570.484346
531.135862	2571.492577
531.497331	2551.664038
531.858743	2556.789212
532.220098	2559.645865
532.581396	2565.695250
532.942638	2563.258692
533.303824	2577.962058
533.664953	2544.186327
534.026025	2555.612942
534.387040	2572.416788
534.747999	2565.023096
535.108902	2573.509038
535.469748	2569.308077
535.830537	2556.705192
536.191270	2587.792308
536.551947	2551.411981
536.912567	2558.889692
537.273131	2565.527212
537.633638	2571.996692
537.994089	2572.668846
538.354483	2576.869808
538.714821	2566.031327
539.075103	2568.131808
539.435328	2559.225769
539.795497	2578.130096
540.155609	2566.031327
540.515665	2560.486058
540.875665	2570.064250
541.235609	2574.013154
541.595496	2567.459654
541.955328	2566.031327
542.315102	2559.729885
542.674821	2553.680500
543.034483	2568.047788
543.394090	2568.383865
543.753640	2571.408558
544.113134	2566.619462
544.472571	2554.268635
544.831953	2560.906154
545.191278	2583.339288
545.550548	2566.535442
545.909761	2571.324538
546.268918	2558.469596
546.628019	2569.392096
546.987064	2555.528923
547.346053	2560.738115
547.704986	2569.308077
548.063863	2553.932558
548.422684	2571.912673
548.781449	2561.074192
549.140158	2563.510750
549.498811	2569.728173
549.857408	2569.812192
550.215949	2567.291615
550.574434	2574.349231
550.932864	2564.603000
551.291237	2558.301558
551.649555	2575.609519
552.007817	2559.309788
552.366022	2572.164731
552.724173	2574.097173
553.082267	2569.056019
553.440305	2577.037846
553.798288	2580.902731
554.156215	2574.013154
554.514086	2552.840308
554.871902	2559.225769
555.229661	2563.342712
555.587365	2582.667135
555.945014	2561.662327
556.302606	2557.797442
556.660143	2549.983654
557.017625	2564.771038
557.375050	2562.250462
557.732421	2559.729885
558.089735	2564.014865
558.446994	2562.670558
558.804197	2579.054308
559.161345	2576.281673
559.518437	2548.723365
559.875474	2569.896212
560.232455	2564.855058
560.589381	2560.402038
560.946251	2574.349231
561.303065	2555.024808
561.659825	2578.970288
562.016528	2570.400327
562.373177	2571.156500
562.729770	2573.172962
563.086307	2562.334481
563.442789	2564.182904
563.799216	2561.158212
564.155587	2566.451423
564.511904	2567.879750
564.868164	2556.453135
565.224370	2556.957250
565.580520	2565.611231
565.936615	2567.375635
566.292654	2570.232288
566.648638	2568.972000
567.004567	2569.140038
567.360441	2562.922615
567.716260	2566.871519
568.072023	2561.578308
568.427732	2562.334481
568.783385	2566.871519
569.138982	2563.846827
569.494525	2568.551904
569.850013	2559.141750
570.205445	2576.533731
570.560823	2547.042981
570.916145	2572.668846
571.271412	2569.224058
571.626625	2565.527212
571.981782	2572.416788
572.336884	2561.914385
572.691931	2570.316308
573.046923	2572.248750
573.401860	2569.392096
573.756743	2570.148269
574.111570	2561.410269
574.466342	2571.660615
574.821059	2574.265212
575.175722	2556.117058
575.530330	2580.650673
575.884882	2558.721654
576.239380	2555.780981
576.593823	2569.980231
576.948211	2564.014865
577.302544	2588.128385
577.656823	2563.930846
578.011047	2568.383865
578.365216	2572.164731
578.719330	2558.637635
579.073389	2559.141750
579.427394	2559.057731
579.781344	2559.645865
580.135239	2562.838596
580.489080	2562.166442
580.842866	2561.914385
581.196597	2556.453135
581.550273	2563.594769
581.903895	2568.719942
582.257463	2560.822135
582.610975	2563.174673
582.964434	2570.904442
583.317837	2568.719942
583.671186	2566.367404
584.024481	2563.258692
584.377721	2569.896212
584.730906	2551.411981
585.084037	2578.298135
585.437113	2566.955538
585.790135	2563.090654
586.143103	2570.148269
586.496016	2563.510750
586.848874	2575.693538
587.201679	2575.525500
587.554428	2574.853346
587.907124	2568.467885
588.259765	2563.678788
588.612352	2567.039558
588.964884	2549.479538
589.317362	2561.158212
589.669786	2568.887981
590.022155	2557.545385
590.374470	2567.711712
590.726731	2569.308077
591.078937	2573.004923
591.431090	2568.803962
591.783188	2589.220635
592.135232	2557.377346
592.487222	2574.349231
592.839157	2565.695250
593.191038	2575.105404
593.542866	2576.449712
593.894639	2561.998404
594.246358	2566.199365
594.598022	2569.308077
594.949633	2572.836885
595.301190	2560.822135
595.652692	2569.140038
596.004141	2570.736404
596.355535	2556.621173
596.706876	2566.115346
597.058162	2568.635923
597.409395	2575.357462
597.760573	2570.988462
598.111698	2584.263500
598.462768	2562.670558
598.813785	2564.603000
599.164748	2554.100596
599.515657	2567.039558
599.866511	2581.742923
600.217312	2557.713423
600.568060	2568.299846
600.918753	2574.433250
601.269392	2573.425019
601.619978	2570.316308
601.970510	2568.299846
602.320988	2565.695250
602.671412	2571.576596
603.021783	2560.738115
603.372100	2554.520692
603.722363	2569.560135
604.072572	2568.131808
604.422728	2567.795731
604.772830	2579.306365
605.122878	2571.240519
605.472872	2571.828654
605.822813	2580.734692
606.172701	2562.670558
606.522534	2560.906154
606.872314	2561.662327
607.222041	2553.008346
607.571714	2570.652385
607.921333	2561.494288
608.270899	2557.797442
608.620411	2574.433250
608.969870	2553.596481
609.319276	2556.537154
609.668627	2563.006635
610.017926	2559.897923
610.367171	2567.711712
610.716362	2563.930846
611.065500	2562.166442
611.414585	2562.082423
611.763616	2574.181192
612.112594	2556.369115
612.461518	2571.996692
612.810389	2568.551904
613.159207	2576.701769
613.507971	2578.466173
613.856682	2555.865000
614.205340	2571.156500
614.553945	2571.744635
614.902496	2562.502519
615.250994	2560.234000
615.599439	2557.377346
615.947830	2563.006635
616.296169	2572.080712
616.644454	2559.729885
616.992686	2570.904442
617.340864	2556.705192
617.688990	2571.912673
618.037063	2557.797442
618.385082	2570.400327
618.733048	2571.576596
619.080961	2565.527212
619.428821	2562.082423
619.776628	2563.678788
620.124382	2566.115346
620.472083	2566.703481
620.819731	2573.004923
621.167326	2574.265212
621.514868	2563.846827
621.862357	2569.812192
622.209793	2557.377346
622.557176	2564.182904
622.904506	2570.652385
623.251783	2568.551904
623.599007	2560.906154
623.946179	2574.601288
624.293297	2575.189423
624.640363	2562.586538
624.987376	2568.047788
625.334336	2576.785788
625.681243	2555.865000
626.028097	2565.359173
626.374899	2566.283385
626.721647	2569.644154
627.068343	2575.105404
627.414987	2563.762808
627.761577	2571.408558
628.108115	2573.593058
628.454600	2554.772750
628.801032	2569.560135
629.147412	2570.652385
629.493739	2558.385577
629.840014	2563.006635
630.186236	2560.402038
630.532405	2569.476115
630.878521	2570.904442
631.224585	2560.822135
631.570597	2571.072481
631.916556	2569.224058
632.262462	2575.357462
632.608316	2572.836885
632.954117	2564.687019
633.299866	2570.148269
633.645562	2562.754577
633.991206	2564.350942
634.336797	2560.402038
634.682336	2554.016577
635.027823	2568.131808
635.373257	2567.375635
635.718639	2573.004923
636.063968	2559.141750
636.409245	2567.291615
636.754470	2559.813904
637.099642	2566.535442
637.444762	2586.616038
637.789829	2578.550192
638.134845	2557.377346
638.479808	2562.250462
638.824719	2569.896212
639.169577	2575.777558
639.514383	2570.316308
639.859137	2556.789212
640.203839	2575.273442
640.548489	2570.148269
640.893086	2578.214115
641.237632	2584.431538
641.582125	2557.713423
641.926566	2565.779269
642.270955	2573.341000
642.615292	2573.088942
642.959576	2567.543673
643.303809	2574.685308
643.647990	2561.830365
643.992118	2566.199365
644.336195	2560.654096
644.680219	2560.906154
645.024192	2561.242231
645.368112	2576.785788
645.711981	2572.248750
646.055797	2562.754577
646.399562	2569.728173
646.743274	2572.248750
647.086935	2557.713423
647.430544	2563.090654
647.774101	2568.131808
648.117606	2567.795731
648.461059	2558.805673
648.804460	2577.625981
649.147810	2571.660615
649.491108	2570.484346
649.834354	2559.561846
650.177548	2567.543673
650.520690	2551.580019
650.863781	2565.779269
651.206820	2552.000115
651.549807	2560.234000
651.892742	2563.174673
652.235626	2570.904442
652.578458	2570.736404
652.921238	2573.004923
653.263967	2566.199365
653.606644	2578.550192
653.949269	2569.812192
654.291843	2570.484346
654.634365	2557.209308
654.976836	2570.736404
655.319255	2569.560135
655.661622	2559.729885
656.003938	2567.375635
656.346203	2568.551904
656.688416	2580.566654
657.030577	2576.281673
657.372687	2573.593058
657.714746	2567.711712
658.056753	2562.502519
658.398708	2550.655808
658.740612	2575.273442
659.082465	2575.273442
659.424266	2561.494288
659.766016	2564.518981
660.107715	2559.645865
660.449362	2559.645865
660.790958	2581.070769
661.132503	2570.904442
661.473996	2567.963769
661.815438	2572.752865
662.156829	2559.729885
662.498168	2564.182904
662.839456	2573.929135
663.180693	2569.140038
663.521879	2563.930846
663.863013	2570.988462
664.204097	2567.291615
664.545129	2565.275154
664.886110	2569.812192
665.227040	2568.215827
665.567918	2565.275154
665.908746	2568.719942
666.249522	2564.098885
666.590248	2561.914385
666.930922	2568.047788
667.271545	2552.840308
667.612118	2577.541962
667.952639	2566.283385
668.293109	2569.560135
668.633528	2561.578308
668.973896	2558.973712
669.314213	2568.383865
669.654480	2572.752865
669.994695	2572.248750
670.334859	2547.799154
670.674973	2555.528923
671.015035	2566.031327
671.355047	2562.838596
671.695008	2566.283385
672.034918	2574.349231
672.374777	2556.369115
672.714585	2559.645865
673.054342	2576.869808
673.394049	2572.080712
673.733705	2572.080712
674.073310	2576.533731
674.412864	2558.049500
674.752368	2564.434962
675.091820	2564.098885
675.431223	2577.794019
675.770574	2558.805673
676.109875	2565.611231
676.449125	2559.645865
676.788324	2576.365692
677.127473	2578.130096
677.466571	2550.823846
677.805619	2544.186327
678.144616	2561.830365
678.483562	2557.377346
678.822458	2575.273442
679.161303	2555.024808
679.500098	2572.080712
679.838842	2575.273442
680.177535	2558.805673
680.516179	2552.168154
680.854771	2547.211019
681.193314	2560.906154
681.531805	2574.685308
681.870247	2574.769327
682.208638	2558.637635
682.546978	2553.008346
682.885268	2569.056019
683.223508	2565.023096
683.561697	2573.004923
683.899836	2577.037846
684.237925	2560.486058
684.575963	2556.621173
684.913951	2557.461365
685.251889	2566.199365
685.589776	2571.828654
685.927614	2558.721654
686.265401	2559.561846
686.603137	2562.838596
686.940824	2564.350942
687.278460	2569.812192
687.616046	2573.256981
687.953582	2557.629404
688.291068	2567.459654
688.628504	2573.425019
688.965889	2548.807385
689.303224	2558.721654
689.640510	2561.998404
689.977745	2562.250462
690.314930	2550.655808
690.652065	2573.172962
690.989150	2570.820423
691.326185	2558.469596
691.663170	2562.754577
692.000105	2563.342712
692.336990	2566.703481
692.673825	2560.570077
693.010610	2557.965481
693.347345	2555.780981
693.684030	2564.014865
694.020665	2565.023096
694.357251	2547.042981
694.693786	2550.319731
695.030272	2573.677077
695.366707	2576.365692
695.703093	2580.062538
696.039429	2555.528923
696.375716	2563.846827
696.711952	2565.611231
697.048139	2568.972000
697.384276	2574.517269
697.720363	2573.172962
698.056400	2582.835173
698.392388	2565.443192
698.728326	2574.265212
699.064214	2561.074192
699.400053	2570.064250
699.735842	2559.057731
700.071581	2572.836885
700.407270	2568.131808
700.742910	2571.492577
701.078501	2574.769327
701.414042	2569.476115
701.749533	2557.377346
702.084974	2581.322827
702.420366	2561.326250
702.755709	2551.916096
703.091002	2568.972000
703.426246	2562.586538
703.761440	2574.097173
704.096584	2571.996692
704.431679	2560.234000
704.766725	2563.342712
705.101721	2556.873231
705.436668	2571.408558
705.771565	2571.660615
706.106413	2564.855058
706.441212	2566.535442
706.775961	2578.802250
707.110661	2559.141750
707.445311	2561.242231
707.779913	2558.973712
708.114465	2573.172962
708.448967	2558.469596
708.783421	2565.275154
709.117825	2554.688731
709.452180	2556.033038
709.786485	2560.822135
710.120742	2551.580019
710.454949	2555.949019
710.789107	2557.797442
711.123216	2562.754577
711.457275	2566.283385
711.791286	2564.939077
712.125247	2571.828654
712.459159	2556.201077
712.793023	2564.855058
713.126837	2564.350942
713.460602	2580.146558
713.794318	2553.008346
714.127985	2566.031327
714.461602	2577.205885
714.795171	2563.174673
715.128691	2579.054308
715.462162	2570.568365
715.795584	2558.973712
716.128957	2555.444904
716.462281	2549.983654
716.795556	2580.818712
717.128782	2549.227481
717.461960	2566.199365
717.795088	2552.924327
718.128167	2562.418500
718.461198	2577.794019
718.794180	2550.907865
719.127113	2553.596481
719.459997	2558.385577
719.792833	2552.504231
720.125619	2569.560135
720.458357	2574.097173
720.791046	2560.822135
721.123686	2562.334481
721.456278	2560.570077
721.788821	2572.248750
722.121315	2570.568365
722.453761	2570.904442
722.786158	2561.998404
723.118506	2567.963769
723.450805	2558.973712
723.783056	2550.403750
724.115259	2554.016577
724.447412	2569.308077
724.779518	2563.174673
725.111574	2565.947308
725.443582	2561.158212
725.775542	2569.980231
726.107453	2552.000115
726.439315	2574.433250
726.771129	2581.154788
727.102895	2549.899635
727.434612	2578.718231
727.766281	2557.965481
728.097901	2557.965481
728.429473	2570.820423
728.760996	2567.543673
729.092471	2563.426731
729.423897	2559.225769
729.755276	2564.182904
730.086606	2588.632500
730.417887	2559.813904
730.749120	2552.000115
731.080305	2556.873231
731.411442	2568.635923
731.742530	2574.097173
732.073570	2573.509038
732.404562	2567.627692
732.735506	2552.420212
733.066401	2571.072481
733.397249	2560.738115
733.728048	2557.377346
734.058798	2562.838596
734.389501	2554.436673
734.720156	2576.785788
735.050762	2555.192846
735.381320	2563.594769
735.711831	2586.784077
736.042293	2559.225769
736.372707	2565.359173
736.703073	2561.242231
737.033391	2571.828654
737.363661	2569.140038
737.693883	2582.499096
738.024056	2545.362596
738.354182	2564.603000
738.684260	2559.141750
739.014290	2573.256981
739.344272	2548.135231
739.674207	2550.487769
740.004093	2577.205885
740.333931	2561.326250
740.663722	2564.266923
740.993464	2568.047788
741.323159	2561.242231
741.652806	2573.256981
741.982405	2566.535442
742.311956	2550.403750
742.641460	2564.687019
742.970915	2563.174673
743.300323	2569.980231
743.629683	2560.654096
743.958996	2563.426731
744.288260	2574.181192
744.617477	2553.428442
744.946647	2559.141750
745.275768	2558.637635
745.604842	2556.537154
745.933869	2559.393808
746.262847	2551.832077
746.591778	2563.426731
746.920662	2567.207596
747.249498	2561.998404
747.578286	2565.527212
747.907027	2556.033038
748.235720	2548.051212
748.564365	2566.535442
748.892963	2560.149981
749.221514	2576.533731
749.550017	2574.097173
749.878473	2566.787500
750.206881	2555.696962
750.535242	2567.039558
750.863555	2569.812192
751.191821	2561.830365
751.520039	2563.930846
751.848210	2569.980231
752.176334	2575.105404
752.504411	2563.846827
752.832440	2562.670558
753.160421	2571.240519
753.488356	2564.014865
753.816243	2559.897923
754.144082	2563.006635
754.471875	2558.637635
754.799620	2564.182904
755.127318	2551.411981
755.454969	2562.082423
755.782572	2553.848538
756.110129	2562.334481
756.437638	2568.383865
756.765100	2556.369115
757.092515	2574.433250
757.419882	2567.795731
757.747203	2569.308077
758.074477	2571.828654
758.401703	2551.916096
758.728882	2563.006635
759.056014	2568.467885
759.383099	2553.512462
759.710138	2568.719942
760.037129	2551.411981
760.364073	2555.360885
760.690970	2557.545385
761.017820	2557.629404
761.344623	2564.939077
761.671379	2555.192846
761.998088	2559.141750
762.324751	2551.327962
762.651366	2565.359173
762.977935	2569.728173
763.304456	2570.484346
763.630931	2567.711712
763.957359	2565.443192
764.283740	2574.349231
764.610074	2559.477827
764.936362	2569.980231
765.262602	2577.962058
765.588796	2572.248750
765.914943	2548.555327
766.241044	2567.123577
766.567097	2551.580019
766.893104	2568.803962
767.219064	2566.199365
767.544978	2564.603000
767.870845	2567.711712
768.196665	2571.324538
768.522438	2549.143462
768.848165	2570.820423
769.173846	2562.754577
769.499479	2556.537154
769.825066	2572.584827
770.150607	2556.537154
770.476101	2561.746346
770.801548	2562.754577
771.126949	2577.625981
771.452303	2566.115346
771.777611	2560.570077
772.102872	2580.398615
772.428087	2570.736404
772.753256	2577.541962
773.078378	2578.130096
773.403453	2556.285096
773.728482	2569.812192
774.053465	2560.822135
774.378401	2547.211019
774.703291	2567.543673
775.028135	2553.092365
775.352932	2565.023096
775.677683	2582.079000
776.002388	2569.392096
776.327046	2556.201077
776.651658	2572.164731
776.976224	2572.080712
777.300743	2567.795731
777.625216	2550.991885
777.949643	2563.342712
778.274024	2573.088942
778.598359	2563.426731
778.922647	2564.098885
779.246889	2576.785788
779.571086	2550.739827
779.895236	2551.832077
780.219339	2557.125288
780.543397	2561.746346
780.867409	2550.487769
781.191374	2571.156500
781.515294	2554.016577
781.839167	2565.191135
782.162995	2551.159923
782.486776	2560.738115
782.810511	2554.268635
783.134201	2553.512462
783.457844	2551.411981
783.781441	2563.258692
784.104993	2570.820423
784.428498	2555.528923
784.751958	2549.983654
785.075372	2565.611231
785.398739	2555.276865
785.722061	2562.586538
786.045337	2570.064250
786.368568	2555.528923
786.691752	2568.551904
787.014891	2561.746346
787.337983	2555.528923
787.661030	2561.830365
787.984031	2570.988462
788.306987	2554.940788
788.629897	2554.688731
788.952760	2561.494288
789.275579	2553.512462
789.598351	2565.275154
789.921078	2563.594769
790.243759	2572.164731
790.566395	2572.752865
790.888984	2578.130096
791.211529	2544.942500
791.534027	2550.403750
791.856480	2556.705192
792.178888	2562.418500
792.501249	2571.744635
792.823566	2555.192846
793.145836	2573.761096
793.468062	2560.318019
793.790241	2553.596481
794.112375	2568.047788
794.434464	2562.586538
794.756507	2551.832077
795.078505	2549.647577
795.400457	2550.235712
795.722364	2546.538865
796.044226	2562.670558
796.366042	2576.113635
796.687812	2568.803962
797.009538	2572.248750
797.331218	2570.148269
797.652852	2556.117058
797.974442	2558.973712
798.295986	2575.189423
798.617484	2566.451423
798.938938	2548.051212
799.260346	2562.586538
799.581709	2569.812192
799.903026	2575.357462
800.224299	2557.965481
800.545526	2559.393808
800.866708	2559.141750
801.187845	2556.873231
801.508936	2572.080712
801.829983	2559.309788
802.150984	2548.219250
802.471940	2574.097173
802.792851	2560.486058
803.113717	2568.047788
803.434538	2560.570077
803.755314	2572.080712
804.076045	2578.886269
804.396731	2561.830365
804.717372	2551.748058
805.037967	2568.972000
805.358518	2553.512462
805.679024	2570.400327
805.999485	2560.402038
806.319901	2563.594769
806.640272	2554.184615
806.960598	2545.866712
807.280879	2557.461365
807.601115	2562.250462
807.921306	2556.621173
808.241453	2558.805673
808.561554	2564.014865
808.881611	2577.205885
809.201623	2568.887981
809.521590	2558.889692
809.841513	2549.311500
810.161390	2563.594769
810.481223	2566.367404
810.801011	2553.344423
811.120755	2558.637635
811.440453	2560.486058
811.760107	2565.443192
812.079716	2555.360885
812.399281	2560.822135
812.718801	2573.341000
813.038276	2562.922615
813.357707	2578.886269
813.677093	2556.117058
813.996434	2560.822135
814.315731	2543.010058
814.634983	2557.209308
814.954191	2563.930846
815.273354	2571.828654
815.592473	2555.780981
815.911547	2560.822135
816.230577	2562.418500
816.549562	2556.453135
816.868502	2557.545385
817.187399	2568.887981
817.506250	2562.502519
817.825058	2564.939077
818.143821	2559.477827
818.462539	2577.710000
818.781213	2553.008346
819.099843	2560.822135
819.418429	2556.033038
819.736970	2566.115346
820.055466	2558.889692
820.373919	2564.687019
820.692327	2558.301558
821.010691	2567.207596
821.329011	2554.940788
821.647286	2568.383865
821.965517	2551.748058
822.283704	2578.466173
822.601847	2569.392096
822.919945	2565.359173
823.237999	2558.049500
823.556010	2569.140038
823.873976	2552.252173
824.191897	2568.215827
824.509775	2570.484346
824.827609	2560.570077
825.145398	2568.635923
825.463144	2556.117058
825.780845	2554.520692
826.098502	2560.906154
826.416116	2574.349231
826.733685	2542.758000
827.051210	2570.568365
827.368692	2565.359173
827.686129	2567.207596
828.003522	2576.281673
828.320872	2542.421923
828.638177	2550.655808
828.955439	2555.696962
829.272656	2555.024808
829.589830	2556.033038
829.906960	2554.520692
830.224046	2569.224058
830.541088	2573.929135
830.858086	2574.517269
831.175041	2550.235712
831.491952	2559.057731
831.808819	2571.744635
832.125642	2563.510750
832.442421	2568.383865
832.759157	2550.991885
833.075849	2557.209308
833.392497	2570.400327
833.709101	2560.402038
834.025662	2543.178096
834.342179	2563.006635
834.658653	2564.014865
834.975083	2565.275154
835.291469	2580.314596
835.607811	2563.678788
835.924110	2556.285096
836.240366	2582.583115
836.556578	2573.172962
836.872746	2560.906154
837.188871	2558.469596
837.504952	2567.375635
837.820990	2559.225769
838.136984	2551.832077
838.452935	2550.571788
838.768842	2564.350942
839.084706	2544.438385
839.400526	2556.789212
839.716303	2548.891404
840.032037	2563.174673
840.347727	2556.369115
840.663373	2579.726462
840.978977	2553.764519
841.294537	2556.369115
841.610054	2567.879750
841.925527	2569.392096
842.240957	2565.443192
842.556344	2550.151692
842.871687	2567.375635
843.186987	2555.780981
843.502244	2555.444904
843.817458	2577.962058
844.132629	2540.657519
844.447756	2561.158212
844.762840	2567.291615
845.077881	2560.318019
845.392879	2567.627692
845.707833	2567.543673
846.022745	2565.611231
846.337613	2564.603000
846.652438	2560.065962
846.967221	2551.916096
847.281960	2563.678788
847.596656	2559.645865
847.911309	2565.779269
848.225919	2560.402038
848.540485	2566.703481
848.855009	2553.008346
849.169490	2555.696962
849.483928	2575.105404
849.798323	2561.746346
850.112675	2559.645865
850.426984	2564.350942
850.741251	2559.729885
851.055474	2558.889692
851.369654	2552.336192
851.683792	2566.703481
851.997887	2555.696962
852.311938	2559.645865
852.625947	2556.957250
852.939914	2552.084135
853.253837	2559.897923
853.567718	2548.387288
853.881555	2556.453135
854.195350	2557.629404
854.509103	2561.326250
854.822812	2544.354365
855.136479	2559.981942
855.450103	2564.603000
855.763685	2556.033038
856.077224	2567.123577
856.390720	2561.578308
856.704173	2573.509038
857.017584	2579.138327
857.330953	2553.008346
857.644278	2578.550192
857.957561	2580.818712
858.270802	2553.932558
858.584000	2564.855058
858.897155	2563.930846
859.210268	2549.563558
859.523339	2561.074192
859.836367	2561.830365
860.149352	2566.367404
860.462295	2547.631115
860.775195	2555.024808
861.088054	2553.260404
861.400869	2555.360885
861.713642	2555.696962
862.026373	2567.291615
862.339062	2559.309788
862.651708	2551.580019
862.964312	2569.056019
863.276873	2553.848538
863.589392	2555.024808
863.901869	2561.326250
864.214303	2558.217538
864.526696	2565.611231
864.839045	2556.369115
865.151353	2552.084135
865.463619	2560.990173
865.775842	2555.612942
866.088023	2546.622885
866.400162	2555.444904
866.712258	2565.527212
867.024313	2567.627692
867.336325	2555.360885
867.648296	2567.375635
867.960224	2563.762808
868.272110	2559.897923
868.583954	2565.947308
868.895755	2556.285096
869.207515	2555.949019
869.519233	2565.527212
869.830909	2566.871519
870.142542	2560.486058
870.454134	2547.379058
870.765684	2557.377346
871.077191	2569.140038
871.388657	2568.803962
871.700081	2553.932558
872.011463	2555.949019
872.322803	2565.863288
872.634101	2545.530635
872.945357	2557.293327
873.256571	2559.729885
873.567744	2557.545385
873.878874	2567.795731
874.189963	2543.346135
874.501010	2541.413692
874.812015	2555.696962
875.122979	2547.799154
875.433900	2565.191135
875.744780	2554.436673
876.055618	2555.780981
876.366415	2562.670558
876.677169	2574.517269
876.987882	2565.947308
877.298554	2558.889692
877.609183	2551.916096
877.919771	2554.100596
878.230317	2555.276865
878.540822	2563.846827
878.851285	2553.092365
879.161707	2563.510750
879.472087	2551.664038
879.782425	2566.283385
880.092722	2547.715135
880.402977	2550.571788
880.713191	2567.207596
881.023363	2565.695250
881.333494	2562.250462
881.643583	2555.360885
881.953631	2556.117058
882.263637	2554.940788
882.573602	2567.543673
882.883526	2561.326250
883.193408	2558.889692
883.503248	2573.088942
883.813048	2574.097173
884.122806	2554.268635
884.432522	2565.023096
884.742197	2551.243942
885.051831	2560.318019
885.361424	2555.865000
885.670975	2554.688731
885.980485	2553.848538
886.289954	2549.395519
886.599382	2544.018288
886.908768	2552.840308
887.218113	2565.359173
887.527417	2568.887981
887.836680	2565.611231
888.145901	2566.199365
888.455082	2551.916096
888.764221	2540.069385
889.073319	2579.474404
889.382376	2563.678788
889.691392	2557.713423
890.000366	2561.326250
890.309300	2566.283385
890.618193	2561.410269
890.927044	2560.318019
891.235855	2575.357462
891.544625	2558.889692
891.853353	2555.865000
892.162041	2561.326250
892.470687	2558.805673
892.779293	2546.706904
893.087858	2561.158212
893.396381	2559.477827
893.704864	2541.077615
894.013306	2556.873231
894.321707	2556.537154
894.630068	2552.336192
894.938387	2557.881462
895.246665	2565.443192
895.554903	2562.586538
895.863100	2568.803962
896.171256	2555.192846
896.479371	2568.299846
896.787446	2564.098885
897.095480	2554.604712
897.403473	2545.950731
897.711425	2559.393808
898.019336	2573.004923
898.327207	2566.451423
898.635038	2558.301558
898.942827	2551.243942
899.250576	2555.780981
899.558284	2562.502519
899.865952	2551.496000
900.173579	2569.140038
900.481165	2561.326250
900.788711	2552.588250
901.096216	2570.568365
901.403681	2570.820423
901.711105	2584.599577
902.018489	2555.192846
902.325832	2558.217538
902.633135	2561.074192
902.940397	2561.746346
903.247619	2561.074192
903.554800	2554.184615
903.861941	2569.224058
904.169041	2571.660615
904.476101	2569.644154
904.783121	2553.428442
905.090100	2544.774462
905.397039	2547.211019
905.703938	2552.924327
906.010796	2555.276865
906.317614	2551.832077
906.624391	2571.576596
906.931129	2565.863288
907.237826	2566.787500
907.544483	2553.596481
907.851099	2557.461365
908.157675	2549.059442
908.464211	2558.973712
908.770707	2542.673981
909.077163	2555.192846
909.383578	2568.299846
909.689954	2571.492577
909.996289	2557.545385
910.302584	2555.865000
910.608839	2556.957250
910.915054	2582.247038
911.221229	2545.782692
911.527363	2542.085846
911.833458	2546.454846
912.139513	2551.243942
912.445527	2550.151692
912.751502	2554.772750
913.057436	2549.227481
913.363331	2557.041269
913.669186	2566.619462
913.975000	2550.151692
914.280775	2548.807385
914.586510	2560.906154
914.892205	2555.612942
915.197859	2572.164731
915.503475	2560.906154
915.809050	2560.486058
916.114585	2550.067673
916.420081	2551.916096
916.725536	2564.771038
917.030952	2548.975423
917.336328	2555.108827
917.641665	2552.336192
917.946961	2565.779269
918.252218	2567.711712
918.557435	2542.085846
918.862612	2569.896212
919.167750	2564.939077
919.472848	2553.428442
919.777906	2553.512462
920.082925	2571.828654
920.387904	2553.428442
920.692843	2560.149981
920.997743	2567.291615
921.302603	2547.631115
921.607423	2563.846827
921.912204	2554.352654
922.216946	2567.459654
922.521647	2570.148269
922.826310	2549.395519
923.130932	2549.563558
923.435516	2561.998404
923.740059	2559.141750
924.044564	2563.258692
924.349028	2557.041269
924.653454	2558.553615
924.957840	2556.369115
925.262186	2560.402038
925.566493	2569.056019
925.870761	2550.067673
926.174989	2551.748058
926.479178	2561.494288
926.783328	2552.504231
927.087438	2564.603000
927.391509	2550.739827
927.695541	2574.853346
927.999533	2552.420212
928.303486	2562.922615
928.607400	2566.787500
928.911275	2554.352654
929.215110	2565.359173
929.518906	2551.916096
929.822663	2555.780981
930.126381	2562.838596
930.430060	2551.159923
930.733699	2549.059442
931.037299	2566.535442
931.340861	2560.318019
931.644383	2568.131808
931.947866	2566.787500
932.251309	2555.444904
932.554714	2556.957250
932.858080	2562.838596
933.161407	2561.074192
933.464694	2557.293327
933.767943	2549.059442
934.071153	2565.275154
934.374323	2563.090654
934.677455	2540.993596
934.980548	2561.830365
935.283602	2547.799154
935.586617	2557.629404
935.889593	2568.887981
936.192530	2556.789212
936.495428	2555.612942
936.798287	2553.680500
937.101108	2566.703481
937.403890	2555.192846
937.706632	2566.955538
938.009336	2549.563558
938.312002	2567.879750
938.614628	2553.932558
938.917216	2554.688731
939.219765	2553.764519
939.522275	2560.149981
939.824747	2565.863288
940.127179	2554.184615
940.429573	2554.352654
940.731929	2578.214115
941.034246	2548.891404
941.336524	2565.107115
941.638763	2564.687019
941.940964	2571.156500
942.243126	2567.795731
942.545250	2551.327962
942.847335	2553.260404
943.149381	2569.140038
943.451389	2560.822135
943.753359	2560.402038
944.055290	2563.510750
944.357182	2562.250462
944.659036	2568.803962
944.960851	2547.211019
945.262628	2556.117058
945.564367	2551.916096
945.866067	2558.721654
946.167729	2555.360885
946.469352	2567.711712
946.770937	2549.059442
947.072484	2552.924327
947.373992	2555.949019
947.675462	2552.588250
947.976893	2562.250462
948.278286	2550.235712
948.579641	2546.706904
948.880958	2550.151692
949.182236	2566.535442
949.483476	2556.285096
949.784678	2554.688731
950.085841	2548.555327
950.386967	2559.477827
950.688054	2562.334481
950.989103	2557.461365
951.290114	2555.528923
951.591087	2564.603000
951.892021	2569.224058
952.192917	2564.687019
952.493776	2550.907865
952.794596	2546.706904
953.095378	2546.454846
953.396122	2559.477827
953.696828	2534.776173
953.997496	2557.713423
954.298126	2556.201077
954.598718	2558.301558
954.899272	2559.057731
955.199788	2560.906154
955.500266	2550.655808
955.800706	2565.107115
956.101108	2559.897923
956.401472	2554.184615
956.701798	2556.873231
957.002087	2549.143462
957.302337	2568.383865
957.602550	2553.680500
957.902724	2562.166442
958.202861	2551.748058
958.502960	2565.443192
958.803022	2560.822135
959.103045	2553.260404
959.403031	2555.360885
959.702979	2551.411981
960.002889	2554.856769
960.302762	2565.275154
960.602596	2555.696962
960.902393	2564.518981
961.202153	2561.074192
961.501875	2550.151692
961.801559	2559.225769
962.101205	2549.731596
962.400814	2556.873231
962.700385	2545.950731
962.999918	2547.799154
963.299414	2559.057731
963.598873	2567.795731
963.898293	2556.621173
964.197677	2568.131808
964.497022	2564.350942
964.796331	2557.545385
965.095601	2554.184615
965.394835	2547.631115
965.694030	2540.909577
965.993189	2551.159923
966.292309	2545.950731
966.591393	2558.805673
966.890439	2562.418500
967.189447	2562.838596
967.488419	2554.772750
967.787353	2553.008346
968.086249	2554.688731
968.385108	2557.629404
968.683930	2557.797442
968.982714	2560.738115
969.281462	2542.253885
969.580172	2554.268635
969.878844	2553.848538
970.177480	2552.336192
970.476078	2553.260404
970.774639	2551.327962
971.073162	2584.011442
971.371649	2562.838596
971.670098	2553.680500
971.968510	2542.505942
972.266885	2565.611231
972.565223	2547.127000
972.863524	2550.655808
973.161788	2550.907865
973.460014	2557.545385
973.758204	2550.235712
974.056356	2564.603000
974.354471	2560.738115
974.652550	2559.645865
974.950591	2548.135231
975.248595	2560.822135
975.546563	2555.528923
975.844493	2576.617750
976.142386	2545.278577
976.440243	2556.369115
976.738062	2567.291615
977.035845	2544.270346
977.333590	2562.250462
977.631299	2559.645865
977.928971	2555.192846
978.226606	2561.578308
978.524204	2548.471308
978.821765	2555.444904
979.119290	2550.655808
979.416777	2554.772750
979.714228	2556.957250
980.011642	2565.275154
980.309020	2556.789212
980.606360	2550.067673
980.903664	2559.393808
981.200931	2554.520692
981.498162	2552.000115
981.795356	2554.436673
982.092513	2556.621173
982.389633	2565.191135
982.686717	2552.924327
982.983764	2559.057731
983.280775	2551.411981
983.577749	2552.168154
983.874686	2550.991885
984.171587	2552.420212
984.468451	2553.344423
984.765279	2560.065962
985.062070	2570.568365
985.358824	2553.764519
985.655543	2558.721654
985.952224	2565.023096
986.248869	2555.360885
986.545478	2549.479538
986.842050	2564.098885
987.138586	2552.672269
987.435086	2545.614654
987.731549	2554.604712
988.027975	2541.833788
988.324366	2549.395519
988.620719	2557.797442
988.917037	2557.629404
989.213318	2539.061154
989.509563	2545.866712
989.805772	2554.520692
990.101944	2537.632827
990.398080	2550.823846
990.694180	2554.856769
990.990244	2555.024808
991.286271	2558.553615
991.582262	2561.074192
991.878217	2560.149981
992.174136	2547.127000
992.470019	2558.217538
992.765865	2556.957250
993.061676	2553.008346
993.357450	2566.031327
993.653188	2562.418500
993.948890	2561.242231
994.244556	2543.178096
994.540186	2541.497712
994.835780	2542.842019
995.131337	2557.377346
995.426859	2547.631115
995.722345	2534.944212
996.017795	2547.127000
996.313208	2547.883173
996.608586	2549.059442
996.903928	2577.962058
997.199234	2559.393808
997.494504	2561.998404
997.789738	2560.906154
998.084936	2557.377346
998.380099	2560.149981
998.675225	2551.159923
998.970316	2552.168154
999.265371	2544.942500
999.560390	2551.832077
999.855373	2556.789212
1000.150320	2540.825558
1000.445232	2552.840308
1000.740108	2568.131808
1001.034948	2569.056019
1001.329752	2546.706904
1001.624521	2558.973712
1001.919254	2559.309788
1002.213951	2550.319731
1002.508613	2565.947308
1002.803239	2544.522404
1003.097829	2557.377346
1003.392384	2550.067673
1003.686903	2552.252173
1003.981386	2569.140038
1004.275834	2554.100596
1004.570246	2554.688731
1004.864623	2545.782692
1005.158964	2553.344423
1005.453270	2541.581731
1005.747540	2553.932558
1006.041775	2551.327962
1006.335974	2558.637635
1006.630138	2558.973712
1006.924266	2537.380769
1007.218359	2560.990173
1007.512416	2565.443192
1007.806438	2556.453135
1008.100425	2563.174673
1008.394376	2555.528923
1008.688292	2546.034750
1008.982172	2560.486058
1009.276017	2567.795731
1009.569827	2535.868423
1009.863602	2552.420212
1010.157341	2554.520692
1010.451045	2557.545385
1010.744714	2550.151692
1011.038347	2551.411981
1011.331945	2571.996692
1011.625508	2558.637635
1011.919036	2558.889692
1012.212528	2552.924327
1012.505986	2549.983654
1012.799408	2549.227481
1013.092795	2547.463077
1013.386147	2561.074192
1013.679464	2567.627692
1013.972745	2554.436673
1014.265992	2576.953827
1014.559204	2543.934269
1014.852380	2552.336192
1015.145521	2552.336192
1015.438628	2562.754577
1015.731699	2531.667462
1016.024736	2550.571788
1016.317737	2547.295038
1016.610703	2545.278577
1016.903635	2548.303269
1017.196531	2557.965481
1017.489393	2552.084135
1017.782219	2558.889692
1018.075011	2553.596481
1018.367768	2561.158212
1018.660490	2558.469596
1018.953177	2558.469596
1019.245829	2558.469596
