Dividing Wavelength (nm)	Counts (n)	Slit_number_32_of_a_total_of_40	
326.493990	2033.601462
326.888308	2033.601462
327.282561	2033.601462
327.676750	2001.590135
328.070874	2006.127173
328.464933	2021.754750
328.858929	2023.519154
329.252859	2044.439942
329.646726	2057.042827
330.040528	2062.336038
330.434265	2096.615885
330.827938	2099.136462
331.221547	2115.520212
331.615091	2144.002731
332.008571	2169.964673
332.401986	2187.104596
332.795338	2220.376212
333.188625	2230.962635
333.581847	2243.565519
333.975006	2247.850500
334.368100	2285.659154
334.761129	2306.075827
335.154095	2325.736327
335.546996	2326.996615
335.939833	2349.681808
336.332606	2358.503827
336.725315	2375.139635
337.117960	2400.849519
337.510540	2409.923596
337.903056	2393.539846
338.295508	2404.630385
338.687896	2437.902000
339.080220	2435.633481
339.472480	2450.756942
339.864676	2443.195212
340.256807	2422.274423
340.648875	2441.682865
341.040879	2452.521346
341.432818	2482.516212
341.824694	2426.307346
342.216506	2456.554269
342.608253	2439.666404
342.999937	2429.584096
343.391557	2441.430808
343.783113	2430.088212
344.174605	2430.844385
344.566033	2446.219904
344.957397	2433.869077
345.348697	2433.112904
345.739934	2421.518250
346.131106	2405.638615
346.522215	2428.575865
346.913260	2427.063519
347.304241	2410.931827
347.695159	2439.162288
348.086012	2413.452404
348.476802	2435.633481
348.867528	2421.014135
349.258191	2389.506923
349.648789	2384.213712
350.039324	2411.435942
350.429796	2408.915365
350.820203	2405.134500
351.210548	2400.597462
351.600828	2393.287788
351.991045	2402.613923
352.381198	2404.630385
352.771288	2412.948288
353.161314	2390.263096
353.551276	2372.114942
353.941175	2386.734288
354.331010	2406.646846
354.720782	2398.076885
355.110490	2427.315577
355.500135	2397.572769
355.889717	2412.444173
356.279235	2431.348500
356.668689	2408.159192
357.058080	2412.192115
357.447408	2441.934923
357.836672	2421.014135
358.225873	2423.282654
358.615010	2407.150962
359.004084	2410.427712
359.393095	2394.800135
359.782043	2406.898904
360.170927	2400.597462
360.559748	2398.581000
360.948505	2439.414346
361.337199	2422.274423
361.725830	2402.865981
362.114398	2398.833058
362.502903	2408.663308
362.891344	2423.534712
363.279722	2433.617019
363.668037	2412.948288
364.056289	2404.630385
364.444478	2409.419481
364.832603	2431.348500
365.220665	2437.902000
365.608665	2432.608788
365.996601	2416.729154
366.384474	2426.559404
366.772284	2407.150962
367.160031	2413.200346
367.547715	2418.241500
367.935336	2402.361865
368.322893	2410.427712
368.710388	2420.005904
369.097820	2457.310442
369.485189	2401.857750
369.872495	2431.348500
370.259738	2431.600558
370.646918	2435.129365
371.034035	2407.655077
371.421090	2431.852615
371.808081	2412.192115
372.195010	2427.567635
372.581875	2410.931827
372.968678	2440.422577
373.355418	2412.444173
373.742096	2421.770308
374.128710	2443.951385
374.515262	2413.200346
374.901751	2427.063519
375.288177	2409.419481
375.674540	2442.439038
376.060841	2432.104673
376.447079	2417.485327
376.833254	2424.038827
377.219367	2403.874212
377.605417	2448.488423
377.991404	2424.290885
378.377329	2424.038827
378.763191	2411.688000
379.148991	2444.959615
379.534727	2443.951385
379.920402	2446.219904
380.306013	2411.940058
380.691563	2428.071750
381.077049	2442.691096
381.462474	2436.893769
381.847835	2409.167423
382.233134	2450.252827
382.618371	2431.348500
383.003545	2451.765173
383.388657	2440.674635
383.773706	2428.071750
384.158693	2405.638615
384.543618	2422.778538
384.928480	2439.414346
385.313280	2436.137596
385.698017	2454.537808
386.082692	2444.707558
386.467305	2426.055288
386.851856	2429.332038
387.236344	2449.496654
387.620770	2438.910231
388.005133	2420.005904
388.389435	2449.748712
388.773674	2416.981212
389.157851	2433.617019
389.541965	2424.290885
389.926018	2445.211673
390.310008	2420.510019
390.693936	2443.447269
391.077802	2437.397885
391.461606	2436.137596
391.845348	2439.414346
392.229027	2431.600558
392.612645	2427.567635
392.996200	2432.104673
393.379694	2409.419481
393.763125	2438.154058
394.146494	2474.702423
394.529801	2440.170519
394.913047	2427.819692
395.296230	2454.033692
395.679351	2442.691096
396.062410	2427.567635
396.445408	2432.104673
396.828343	2435.129365
397.211217	2440.674635
397.594028	2437.902000
397.976778	2458.318673
398.359466	2438.910231
398.742092	2457.562500
399.124656	2423.786769
399.507158	2440.674635
399.889598	2441.934923
400.271977	2431.852615
400.654294	2465.376288
401.036549	2450.504885
401.418742	2438.154058
401.800874	2457.058385
402.182944	2442.439038
402.564952	2443.699327
402.946898	2450.504885
403.328783	2434.625250
403.710606	2435.885538
404.092367	2434.877308
404.474067	2470.417442
404.855705	2445.715788
405.237282	2447.480192
405.618797	2443.447269
406.000250	2459.326904
406.381642	2446.976077
406.762972	2436.137596
407.144240	2428.827923
407.525447	2436.641712
407.906593	2435.129365
408.287677	2435.885538
408.668700	2444.959615
409.049661	2426.811462
409.430560	2467.140692
409.811399	2461.847481
410.192176	2454.285750
410.572891	2445.463731
410.953545	2436.389654
411.334138	2423.282654
411.714669	2437.145827
412.095139	2463.863942
412.475547	2432.860846
412.855894	2426.811462
413.236180	2435.633481
413.616405	2453.025462
413.996568	2453.781635
414.376670	2469.661269
414.756711	2446.976077
415.136691	2442.691096
415.516609	2428.071750
415.896466	2440.674635
416.276262	2441.430808
416.655997	2453.025462
417.035670	2453.277519
417.415283	2429.584096
417.794834	2452.017231
418.174324	2433.617019
418.553753	2423.534712
418.933121	2456.554269
419.312428	2429.079981
419.691674	2445.211673
420.070859	2464.872173
420.449983	2428.575865
420.829045	2454.033692
421.208047	2458.318673
421.586988	2416.225038
421.965867	2442.943154
422.344686	2444.203442
422.723444	2433.617019
423.102141	2460.083077
423.480777	2452.521346
423.859352	2444.707558
424.237866	2431.600558
424.616319	2461.343365
424.994712	2455.293981
425.373044	2437.902000
425.751314	2418.997673
426.129524	2452.521346
426.507673	2467.644808
426.885762	2453.529577
427.263789	2450.000769
427.641756	2455.041923
428.019662	2459.578962
428.397508	2444.203442
428.775292	2433.869077
429.153016	2452.269288
429.530679	2462.099538
429.908282	2448.740481
430.285824	2434.877308
430.663305	2464.116000
431.040726	2435.129365
431.418086	2444.455500
431.795385	2451.765173
432.172624	2455.041923
432.549802	2464.872173
432.926920	2461.847481
433.303977	2449.496654
433.680974	2453.781635
434.057910	2440.422577
434.434786	2465.880404
434.811601	2462.603654
435.188355	2449.748712
435.565050	2468.653038
435.941683	2438.406115
436.318257	2454.537808
436.694770	2448.236365
437.071222	2457.058385
437.447614	2427.063519
437.823946	2454.285750
438.200218	2442.691096
438.576429	2462.351596
438.952580	2444.959615
439.328670	2456.554269
439.704700	2445.463731
440.080670	2437.649942
440.456580	2431.600558
440.832429	2472.433904
441.208218	2453.025462
441.583947	2439.414346
441.959616	2448.992538
442.335224	2455.798096
442.710773	2460.335135
443.086261	2450.756942
443.461689	2450.252827
443.837057	2461.343365
444.212365	2469.157154
444.587612	2468.905096
444.962800	2447.228135
445.337927	2434.373192
445.712995	2445.715788
446.088002	2438.910231
446.462949	2438.154058
446.837837	2443.447269
447.212664	2464.368058
447.587431	2452.773404
447.962139	2466.888635
448.336786	2413.956519
448.711374	2452.773404
449.085901	2435.633481
449.460369	2469.409212
449.834776	2460.839250
450.209124	2444.203442
450.583412	2464.368058
450.957640	2472.433904
451.331808	2459.326904
451.705917	2454.537808
452.079965	2458.066615
452.453954	2443.195212
452.827883	2443.951385
453.201752	2442.439038
453.575562	2427.315577
453.949311	2455.041923
454.323001	2432.104673
454.696632	2453.781635
455.070202	2447.228135
455.443713	2452.269288
455.817164	2462.099538
456.190556	2466.888635
456.563888	2441.934923
456.937160	2432.356731
457.310373	2440.422577
457.683526	2447.480192
458.056619	2448.488423
458.429653	2428.323808
458.802628	2460.587192
459.175542	2446.976077
459.548398	2459.578962
459.921194	2448.236365
460.293930	2469.409212
460.666607	2446.976077
461.039224	2449.496654
461.411782	2452.017231
461.784280	2461.343365
462.156719	2452.017231
462.529099	2463.359827
462.901419	2462.855712
463.273680	2462.855712
463.645882	2464.116000
464.018024	2452.773404
464.390106	2456.050154
464.762130	2489.573827
465.134094	2470.165385
465.505999	2482.012096
465.877845	2462.603654
466.249631	2439.918462
466.621358	2449.496654
466.993026	2458.066615
467.364634	2467.644808
467.736184	2458.570731
468.107674	2483.020327
468.479105	2465.880404
468.850477	2452.017231
469.221790	2475.962712
469.593043	2459.326904
469.964238	2477.475058
470.335373	2465.124231
470.706449	2457.814558
471.077467	2476.214769
471.448425	2468.400981
471.819324	2467.392750
472.190164	2442.943154
472.560945	2454.285750
472.931667	2461.343365
473.302330	2463.359827
473.672934	2477.979173
474.043479	2472.433904
474.413965	2464.116000
474.784393	2467.896865
475.154761	2461.595423
475.525070	2457.058385
475.895321	2452.521346
476.265513	2462.855712
476.635645	2469.409212
477.005719	2471.173615
477.375734	2445.967846
477.745691	2446.976077
478.115588	2459.326904
478.485427	2450.252827
478.855207	2470.165385
479.224928	2496.127327
479.594591	2444.203442
479.964194	2456.554269
480.333739	2460.083077
480.703226	2466.636577
481.072653	2467.140692
481.442022	2457.310442
481.811333	2481.255923
482.180584	2457.058385
482.549777	2433.112904
482.918912	2445.967846
483.287988	2450.252827
483.657005	2451.009000
484.025964	2444.707558
484.394864	2456.806327
484.763706	2481.507981
485.132489	2472.685962
485.501213	2467.896865
485.869879	2473.946250
486.238487	2457.310442
486.607036	2446.219904
486.975527	2470.165385
487.343959	2488.313538
487.712333	2475.206538
488.080648	2468.148923
488.448905	2469.913327
488.817104	2441.178750
489.185244	2447.984308
489.553326	2430.088212
489.921350	2463.107769
490.289315	2482.264154
490.657222	2446.471962
491.025070	2462.603654
491.392861	2427.063519
491.760593	2486.549135
492.128267	2479.491519
492.495883	2451.009000
492.863440	2457.814558
493.230939	2451.261058
493.598380	2471.173615
493.965763	2429.836154
494.333088	2459.326904
494.700354	2465.124231
495.067563	2439.162288
495.434713	2447.732250
495.801805	2467.392750
496.168839	2447.480192
496.535815	2431.096442
496.902733	2482.012096
497.269593	2453.025462
497.636395	2457.562500
498.003139	2455.293981
498.369825	2464.620115
498.736453	2461.343365
499.103023	2464.116000
499.469535	2469.913327
499.835989	2463.359827
500.202385	2428.575865
500.568723	2463.359827
500.935003	2444.455500
501.301226	2423.282654
501.667390	2456.050154
502.033497	2457.310442
502.399546	2453.529577
502.765537	2445.967846
503.131470	2452.269288
503.497345	2462.099538
503.863163	2469.913327
504.228923	2443.195212
504.594625	2486.801192
504.960269	2461.091308
505.325856	2476.718885
505.691385	2458.822788
506.056856	2458.066615
506.422270	2477.727115
506.787625	2452.269288
507.152924	2445.211673
507.518164	2469.913327
507.883347	2462.099538
508.248472	2420.510019
508.613540	2462.603654
508.978550	2464.368058
509.343503	2444.203442
509.708398	2478.987404
510.073236	2457.310442
510.438016	2467.140692
510.802738	2470.165385
511.167403	2479.239462
511.532010	2442.943154
511.896561	2478.483288
512.261053	2440.926692
512.625488	2461.595423
512.989866	2445.715788
513.354186	2459.831019
513.718449	2452.773404
514.082655	2463.611885
514.446803	2461.595423
514.810894	2470.165385
515.174927	2493.606750
515.538904	2451.261058
515.902822	2457.814558
516.266684	2462.099538
516.630488	2453.781635
516.994235	2482.516212
517.357925	2460.083077
517.721558	2480.499750
518.085133	2469.157154
518.448651	2453.781635
518.812112	2454.789865
519.175516	2440.170519
519.538863	2463.107769
519.902152	2464.872173
520.265385	2469.157154
520.628560	2464.116000
520.991678	2473.694192
521.354739	2483.524442
521.717743	2467.392750
522.080690	2446.724019
522.443580	2483.020327
522.806413	2498.143788
523.169189	2463.359827
523.531908	2486.045019
523.894569	2476.970942
524.257174	2467.392750
524.619722	2446.471962
524.982213	2463.611885
525.344647	2467.644808
525.707025	2460.083077
526.069345	2460.335135
526.431608	2482.516212
526.793815	2460.587192
527.155964	2447.732250
527.518057	2485.540904
527.880093	2479.743577
528.242072	2461.343365
528.603995	2455.546038
528.965860	2461.343365
529.327669	2470.921558
529.689421	2466.384519
530.051117	2441.178750
530.412755	2464.620115
530.774337	2462.603654
531.135862	2475.206538
531.497331	2446.471962
531.858743	2459.074846
532.220098	2476.214769
532.581396	2473.946250
532.942638	2453.781635
533.303824	2458.822788
533.664953	2459.578962
534.026025	2461.847481
534.387040	2459.831019
534.747999	2446.976077
535.108902	2479.239462
535.469748	2466.636577
535.830537	2466.132462
536.191270	2480.247692
536.551947	2449.748712
536.912567	2451.261058
537.273131	2456.050154
537.633638	2452.773404
537.994089	2485.792962
538.354483	2478.987404
538.714821	2466.888635
539.075103	2481.003865
539.435328	2468.653038
539.795497	2463.611885
540.155609	2422.778538
540.515665	2475.458596
540.875665	2478.987404
541.235609	2465.880404
541.595496	2465.376288
541.955328	2461.091308
542.315102	2464.620115
542.674821	2429.836154
543.034483	2461.847481
543.394090	2466.888635
543.753640	2454.033692
544.113134	2467.644808
544.472571	2471.929788
544.831953	2429.079981
545.191278	2465.124231
545.550548	2482.768269
545.909761	2476.970942
546.268918	2486.045019
546.628019	2468.653038
546.987064	2466.888635
547.346053	2476.970942
547.704986	2476.970942
548.063863	2459.326904
548.422684	2439.162288
548.781449	2469.409212
549.140158	2456.302212
549.498811	2481.255923
549.857408	2471.425673
550.215949	2434.625250
550.574434	2452.773404
550.932864	2464.368058
551.291237	2452.773404
551.649555	2457.058385
552.007817	2465.376288
552.366022	2454.537808
552.724173	2486.549135
553.082267	2463.107769
553.440305	2455.798096
553.798288	2486.297077
554.156215	2473.442135
554.514086	2459.578962
554.871902	2466.132462
555.229661	2465.124231
555.587365	2452.269288
555.945014	2472.685962
556.302606	2470.669500
556.660143	2455.546038
557.017625	2470.669500
557.375050	2452.269288
557.732421	2458.570731
558.089735	2463.107769
558.446994	2444.203442
558.804197	2463.107769
559.161345	2486.297077
559.518437	2464.872173
559.875474	2467.140692
560.232455	2467.896865
560.589381	2468.905096
560.946251	2464.872173
561.303065	2464.872173
561.659825	2465.376288
562.016528	2464.368058
562.373177	2463.359827
562.729770	2484.280615
563.086307	2493.102635
563.442789	2488.061481
563.799216	2500.412308
564.155587	2473.190077
564.511904	2456.806327
564.868164	2458.570731
565.224370	2432.104673
565.580520	2468.148923
565.936615	2456.554269
566.292654	2468.653038
566.648638	2456.554269
567.004567	2460.587192
567.360441	2451.513115
567.716260	2455.546038
568.072023	2479.491519
568.427732	2489.825885
568.783385	2462.855712
569.138982	2467.644808
569.494525	2432.860846
569.850013	2444.455500
570.205445	2483.776500
570.560823	2460.335135
570.916145	2482.768269
571.271412	2481.760038
571.626625	2470.669500
571.981782	2489.069712
572.336884	2461.091308
572.691931	2470.165385
573.046923	2458.318673
573.401860	2470.417442
573.756743	2461.091308
574.111570	2445.715788
574.466342	2460.083077
574.821059	2470.165385
575.175722	2441.934923
575.530330	2461.091308
575.884882	2461.343365
576.239380	2475.206538
576.593823	2467.392750
576.948211	2478.483288
577.302544	2442.943154
577.656823	2452.773404
578.011047	2460.587192
578.365216	2470.417442
578.719330	2444.455500
579.073389	2487.809423
579.427394	2472.433904
579.781344	2450.252827
580.135239	2461.595423
580.489080	2465.124231
580.842866	2461.595423
581.196597	2501.168481
581.550273	2439.414346
581.903895	2464.116000
582.257463	2473.442135
582.610975	2507.469923
582.964434	2505.201404
583.317837	2446.976077
583.671186	2457.310442
584.024481	2433.869077
584.377721	2463.863942
584.730906	2475.710654
585.084037	2470.165385
585.437113	2457.058385
585.790135	2491.590288
586.143103	2453.277519
586.496016	2442.691096
586.848874	2440.926692
587.201679	2430.340269
587.554428	2486.045019
587.907124	2472.181846
588.259765	2453.781635
588.612352	2470.417442
588.964884	2468.905096
589.317362	2461.091308
589.669786	2423.282654
590.022155	2453.025462
590.374470	2479.743577
590.726731	2467.392750
591.078937	2462.855712
591.431090	2478.483288
591.783188	2485.540904
592.135232	2452.773404
592.487222	2472.433904
592.839157	2472.181846
593.191038	2471.425673
593.542866	2460.839250
593.894639	2485.036788
594.246358	2460.839250
594.598022	2447.228135
594.949633	2461.343365
595.301190	2445.463731
595.652692	2462.099538
596.004141	2476.466827
596.355535	2479.239462
596.706876	2438.658173
597.058162	2459.326904
597.409395	2453.277519
597.760573	2474.954481
598.111698	2458.570731
598.462768	2459.831019
598.813785	2435.129365
599.164748	2470.921558
599.515657	2441.934923
599.866511	2493.354692
600.217312	2462.603654
600.568060	2474.450365
600.918753	2454.537808
601.269392	2458.570731
601.619978	2461.847481
601.970510	2457.562500
602.320988	2447.480192
602.671412	2437.397885
603.021783	2455.798096
603.372100	2498.647904
603.722363	2464.116000
604.072572	2483.776500
604.422728	2440.674635
604.772830	2461.595423
605.122878	2459.831019
605.472872	2466.132462
605.822813	2486.045019
606.172701	2464.620115
606.522534	2478.735346
606.872314	2456.806327
607.222041	2459.831019
607.571714	2463.359827
607.921333	2462.855712
608.270899	2467.392750
608.620411	2436.893769
608.969870	2468.148923
609.319276	2452.017231
609.668627	2462.099538
610.017926	2473.190077
610.367171	2470.417442
610.716362	2472.433904
611.065500	2472.938019
611.414585	2448.488423
611.763616	2478.987404
612.112594	2471.677731
612.461518	2484.280615
612.810389	2434.625250
613.159207	2460.839250
613.507971	2468.905096
613.856682	2474.954481
614.205340	2461.595423
614.553945	2484.280615
614.902496	2457.310442
615.250994	2475.458596
615.599439	2457.058385
615.947830	2467.644808
616.296169	2466.384519
616.644454	2477.979173
616.992686	2455.293981
617.340864	2481.255923
617.688990	2484.280615
618.037063	2491.590288
618.385082	2476.466827
618.733048	2469.913327
619.080961	2446.724019
619.428821	2476.718885
619.776628	2461.343365
620.124382	2484.280615
620.472083	2463.107769
620.819731	2456.806327
621.167326	2447.228135
621.514868	2472.181846
621.862357	2459.831019
622.209793	2475.962712
622.557176	2467.644808
622.904506	2445.715788
623.251783	2480.751808
623.599007	2458.318673
623.946179	2478.735346
624.293297	2462.351596
624.640363	2488.061481
624.987376	2468.905096
625.334336	2457.814558
625.681243	2460.083077
626.028097	2478.987404
626.374899	2452.269288
626.721647	2482.768269
627.068343	2443.699327
627.414987	2478.735346
627.761577	2454.285750
628.108115	2484.280615
628.454600	2471.677731
628.801032	2465.880404
629.147412	2449.496654
629.493739	2450.000769
629.840014	2460.587192
630.186236	2472.181846
630.532405	2470.165385
630.878521	2459.326904
631.224585	2468.905096
631.570597	2453.781635
631.916556	2488.061481
632.262462	2479.743577
632.608316	2455.798096
632.954117	2468.653038
633.299866	2466.384519
633.645562	2460.587192
633.991206	2465.628346
634.336797	2445.463731
634.682336	2488.817654
635.027823	2444.203442
635.373257	2469.913327
635.718639	2477.475058
636.063968	2444.959615
636.409245	2438.910231
636.754470	2464.620115
637.099642	2441.430808
637.444762	2468.905096
637.789829	2474.198308
638.134845	2457.058385
638.479808	2474.450365
638.824719	2488.061481
639.169577	2455.293981
639.514383	2464.116000
639.859137	2477.979173
640.203839	2489.321769
640.548489	2489.069712
640.893086	2454.789865
641.237632	2441.178750
641.582125	2457.562500
641.926566	2475.962712
642.270955	2472.181846
642.615292	2465.880404
642.959576	2446.724019
643.303809	2457.814558
643.647990	2462.855712
643.992118	2426.055288
644.336195	2464.872173
644.680219	2481.760038
645.024192	2476.466827
645.368112	2477.223000
645.711981	2464.620115
646.055797	2459.578962
646.399562	2441.682865
646.743274	2469.913327
647.086935	2469.409212
647.430544	2462.099538
647.774101	2476.466827
648.117606	2474.954481
648.461059	2461.595423
648.804460	2457.310442
649.147810	2440.170519
649.491108	2464.116000
649.834354	2448.236365
650.177548	2494.614981
650.520690	2480.247692
650.863781	2478.987404
651.206820	2434.877308
651.549807	2467.140692
651.892742	2467.140692
652.235626	2464.872173
652.578458	2473.694192
652.921238	2481.507981
653.263967	2472.181846
653.606644	2477.475058
653.949269	2480.499750
654.291843	2468.905096
654.634365	2463.863942
654.976836	2484.532673
655.319255	2465.628346
655.661622	2463.611885
656.003938	2462.099538
656.346203	2444.455500
656.688416	2458.066615
657.030577	2444.959615
657.372687	2463.611885
657.714746	2447.480192
658.056753	2484.784731
658.398708	2458.066615
658.740612	2444.203442
659.082465	2475.710654
659.424266	2487.053250
659.766016	2486.549135
660.107715	2451.009000
660.449362	2446.724019
660.790958	2470.921558
661.132503	2455.798096
661.473996	2444.959615
661.815438	2448.740481
662.156829	2477.223000
662.498168	2458.066615
662.839456	2470.417442
663.180693	2486.549135
663.521879	2476.466827
663.863013	2458.570731
664.204097	2476.214769
664.545129	2462.099538
664.886110	2470.165385
665.227040	2465.124231
665.567918	2482.768269
665.908746	2441.934923
666.249522	2476.970942
666.590248	2457.058385
666.930922	2463.863942
667.271545	2482.768269
667.612118	2464.620115
667.952639	2470.669500
668.293109	2470.669500
668.633528	2455.798096
668.973896	2469.913327
669.314213	2471.677731
669.654480	2471.425673
669.994695	2477.223000
670.334859	2459.074846
670.674973	2471.425673
671.015035	2467.896865
671.355047	2459.831019
671.695008	2484.532673
672.034918	2459.326904
672.374777	2486.801192
672.714585	2469.157154
673.054342	2467.140692
673.394049	2471.677731
673.733705	2453.277519
674.073310	2445.967846
674.412864	2464.368058
674.752368	2478.483288
675.091820	2469.157154
675.431223	2470.921558
675.770574	2464.116000
676.109875	2430.088212
676.449125	2454.285750
676.788324	2438.910231
677.127473	2458.066615
677.466571	2451.261058
677.805619	2458.066615
678.144616	2459.578962
678.483562	2459.831019
678.822458	2442.691096
679.161303	2436.389654
679.500098	2468.653038
679.838842	2483.020327
680.177535	2481.003865
680.516179	2484.028558
680.854771	2441.430808
681.193314	2491.086173
681.531805	2449.496654
681.870247	2463.863942
682.208638	2464.620115
682.546978	2485.792962
682.885268	2457.562500
683.223508	2460.839250
683.561697	2463.359827
683.899836	2451.009000
684.237925	2451.009000
684.575963	2460.839250
684.913951	2450.504885
685.251889	2468.148923
685.589776	2469.157154
685.927614	2450.504885
686.265401	2488.061481
686.603137	2456.050154
686.940824	2450.756942
687.278460	2461.091308
687.616046	2466.384519
687.953582	2462.855712
688.291068	2478.483288
688.628504	2474.198308
688.965889	2489.069712
689.303224	2474.450365
689.640510	2474.450365
689.977745	2465.628346
690.314930	2460.335135
690.652065	2477.475058
690.989150	2469.913327
691.326185	2471.173615
691.663170	2461.847481
692.000105	2478.735346
692.336990	2435.885538
692.673825	2442.943154
693.010610	2439.666404
693.347345	2447.984308
693.684030	2453.781635
694.020665	2467.140692
694.357251	2469.913327
694.693786	2463.863942
695.030272	2470.417442
695.366707	2468.148923
695.703093	2462.855712
696.039429	2475.458596
696.375716	2474.198308
696.711952	2443.951385
697.048139	2457.310442
697.384276	2478.987404
697.720363	2464.116000
698.056400	2467.644808
698.392388	2454.285750
698.728326	2441.178750
699.064214	2441.430808
699.400053	2468.400981
699.735842	2439.414346
700.071581	2449.244596
700.407270	2464.368058
700.742910	2463.107769
701.078501	2470.921558
701.414042	2453.277519
701.749533	2479.491519
702.084974	2446.471962
702.420366	2474.954481
702.755709	2459.831019
703.091002	2467.140692
703.426246	2442.943154
703.761440	2460.587192
704.096584	2468.905096
704.431679	2452.521346
704.766725	2434.121135
705.101721	2484.784731
705.436668	2461.847481
705.771565	2462.603654
706.106413	2462.351596
706.441212	2468.653038
706.775961	2430.844385
707.110661	2472.938019
707.445311	2458.822788
707.779913	2444.455500
708.114465	2462.603654
708.448967	2482.768269
708.783421	2448.992538
709.117825	2473.946250
709.452180	2467.896865
709.786485	2452.521346
710.120742	2471.173615
710.454949	2441.934923
710.789107	2480.499750
711.123216	2431.600558
711.457275	2473.442135
711.791286	2452.521346
712.125247	2473.946250
712.459159	2455.293981
712.793023	2462.351596
713.126837	2438.658173
713.460602	2467.896865
713.794318	2458.822788
714.127985	2463.611885
714.461602	2490.330000
714.795171	2456.806327
715.128691	2479.239462
715.462162	2467.896865
715.795584	2458.318673
716.128957	2441.934923
716.462281	2483.524442
716.795556	2450.756942
717.128782	2451.009000
717.461960	2451.261058
717.795088	2470.417442
718.128167	2452.269288
718.461198	2456.806327
718.794180	2461.847481
719.127113	2477.475058
719.459997	2443.951385
719.792833	2459.074846
720.125619	2434.121135
720.458357	2445.967846
720.791046	2468.653038
721.123686	2455.546038
721.456278	2457.310442
721.788821	2463.359827
722.121315	2476.214769
722.453761	2458.570731
722.786158	2462.351596
723.118506	2445.463731
723.450805	2457.058385
723.783056	2473.190077
724.115259	2447.984308
724.447412	2458.066615
724.779518	2455.041923
725.111574	2473.694192
725.443582	2449.244596
725.775542	2467.644808
726.107453	2469.157154
726.439315	2456.050154
726.771129	2454.789865
727.102895	2483.524442
727.434612	2436.893769
727.766281	2484.784731
728.097901	2454.537808
728.429473	2475.458596
728.760996	2466.384519
729.092471	2469.913327
729.423897	2445.967846
729.755276	2468.905096
730.086606	2476.718885
730.417887	2454.033692
730.749120	2476.214769
731.080305	2475.962712
731.411442	2464.620115
731.742530	2462.099538
732.073570	2459.074846
732.404562	2481.760038
732.735506	2445.715788
733.066401	2456.050154
733.397249	2449.496654
733.728048	2430.592327
734.058798	2472.433904
734.389501	2458.318673
734.720156	2459.578962
735.050762	2460.335135
735.381320	2476.466827
735.711831	2456.806327
736.042293	2463.359827
736.372707	2436.137596
736.703073	2470.921558
737.033391	2467.140692
737.363661	2465.376288
737.693883	2472.685962
738.024056	2463.863942
738.354182	2462.351596
738.684260	2483.776500
739.014290	2458.066615
739.344272	2478.483288
739.674207	2450.000769
740.004093	2477.475058
740.333931	2477.223000
740.663722	2474.198308
740.993464	2446.471962
741.323159	2464.872173
741.652806	2469.913327
741.982405	2450.252827
742.311956	2466.636577
742.641460	2466.636577
742.970915	2463.863942
743.300323	2458.570731
743.629683	2475.710654
743.958996	2441.430808
744.288260	2453.277519
744.617477	2445.967846
744.946647	2466.384519
745.275768	2457.814558
745.604842	2463.611885
745.933869	2439.918462
746.262847	2489.573827
746.591778	2444.455500
746.920662	2454.537808
747.249498	2451.765173
747.578286	2463.863942
747.907027	2447.480192
748.235720	2476.970942
748.564365	2455.798096
748.892963	2440.674635
749.221514	2469.913327
749.550017	2444.203442
749.878473	2483.020327
750.206881	2460.587192
750.535242	2452.521346
750.863555	2484.784731
751.191821	2463.863942
751.520039	2470.417442
751.848210	2443.447269
752.176334	2436.137596
752.504411	2472.685962
752.832440	2462.099538
753.160421	2476.970942
753.488356	2442.439038
753.816243	2463.611885
754.144082	2469.661269
754.471875	2450.504885
754.799620	2477.979173
755.127318	2456.554269
755.454969	2456.050154
755.782572	2445.463731
756.110129	2460.839250
756.437638	2483.776500
756.765100	2474.702423
757.092515	2473.190077
757.419882	2463.863942
757.747203	2473.442135
758.074477	2483.020327
758.401703	2465.376288
758.728882	2440.674635
759.056014	2457.562500
759.383099	2451.009000
759.710138	2476.970942
760.037129	2470.669500
760.364073	2448.992538
760.690970	2451.009000
761.017820	2443.951385
761.344623	2445.211673
761.671379	2457.058385
761.998088	2448.740481
762.324751	2458.570731
762.651366	2482.768269
762.977935	2459.831019
763.304456	2458.318673
763.630931	2446.471962
763.957359	2456.554269
764.283740	2490.077942
764.610074	2445.715788
764.936362	2455.798096
765.262602	2445.715788
765.588796	2461.091308
765.914943	2452.521346
766.241044	2480.499750
766.567097	2468.905096
766.893104	2444.455500
767.219064	2465.628346
767.544978	2465.124231
767.870845	2452.269288
768.196665	2463.611885
768.522438	2465.880404
768.848165	2473.190077
769.173846	2456.302212
769.499479	2439.666404
769.825066	2452.017231
770.150607	2451.513115
770.476101	2483.524442
770.801548	2481.255923
771.126949	2443.699327
771.452303	2453.529577
771.777611	2492.598519
772.102872	2455.293981
772.428087	2459.578962
772.753256	2452.269288
773.078378	2450.252827
773.403453	2461.091308
773.728482	2434.121135
774.053465	2458.570731
774.378401	2456.806327
774.703291	2457.814558
775.028135	2453.277519
775.352932	2457.058385
775.677683	2479.995635
776.002388	2478.987404
776.327046	2466.888635
776.651658	2488.313538
776.976224	2453.529577
777.300743	2469.409212
777.625216	2464.620115
777.949643	2474.198308
778.274024	2458.318673
778.598359	2464.368058
778.922647	2470.921558
779.246889	2467.644808
779.571086	2465.124231
779.895236	2438.406115
780.219339	2443.447269
780.543397	2483.272385
780.867409	2474.198308
781.191374	2471.425673
781.515294	2480.499750
781.839167	2458.570731
782.162995	2435.129365
782.486776	2471.425673
782.810511	2441.430808
783.134201	2466.636577
783.457844	2470.417442
783.781441	2450.252827
784.104993	2486.549135
784.428498	2448.992538
784.751958	2469.157154
785.075372	2466.636577
785.398739	2483.272385
785.722061	2460.839250
786.045337	2470.921558
786.368568	2430.088212
786.691752	2479.491519
787.014891	2461.343365
787.337983	2456.554269
787.661030	2457.562500
787.984031	2436.893769
788.306987	2468.905096
788.629897	2467.896865
788.952760	2477.223000
789.275579	2448.488423
789.598351	2444.455500
789.921078	2440.926692
790.243759	2447.732250
790.566395	2464.620115
790.888984	2454.285750
791.211529	2464.368058
791.534027	2484.532673
791.856480	2448.236365
792.178888	2467.896865
792.501249	2456.554269
792.823566	2475.962712
793.145836	2456.302212
793.468062	2490.077942
793.790241	2469.157154
794.112375	2474.702423
794.434464	2461.847481
794.756507	2462.351596
795.078505	2469.913327
795.400457	2482.012096
795.722364	2439.666404
796.044226	2475.206538
796.366042	2463.359827
796.687812	2460.335135
797.009538	2464.116000
797.331218	2444.707558
797.652852	2461.595423
797.974442	2474.954481
798.295986	2476.718885
798.617484	2451.261058
798.938938	2488.313538
799.260346	2474.198308
799.581709	2447.732250
799.903026	2475.710654
800.224299	2498.899962
800.545526	2465.376288
800.866708	2447.732250
801.187845	2471.425673
801.508936	2469.661269
801.829983	2450.756942
802.150984	2479.491519
802.471940	2476.214769
802.792851	2463.107769
803.113717	2463.863942
803.434538	2450.504885
803.755314	2470.165385
804.076045	2456.554269
804.396731	2473.190077
804.717372	2472.938019
805.037967	2470.921558
805.358518	2468.400981
805.679024	2465.880404
805.999485	2479.491519
806.319901	2454.537808
806.640272	2456.554269
806.960598	2453.529577
807.280879	2460.083077
807.601115	2459.578962
807.921306	2455.798096
808.241453	2453.781635
808.561554	2445.211673
808.881611	2467.644808
809.201623	2442.943154
809.521590	2428.323808
809.841513	2476.970942
810.161390	2441.934923
810.481223	2443.447269
810.801011	2465.124231
811.120755	2446.724019
811.440453	2472.685962
811.760107	2437.649942
812.079716	2452.773404
812.399281	2464.872173
812.718801	2480.751808
813.038276	2466.132462
813.357707	2470.417442
813.677093	2437.649942
813.996434	2460.335135
814.315731	2464.620115
814.634983	2461.091308
814.954191	2446.219904
815.273354	2463.863942
815.592473	2450.756942
815.911547	2473.442135
816.230577	2452.773404
816.549562	2433.617019
816.868502	2448.236365
817.187399	2466.132462
817.506250	2472.181846
817.825058	2430.088212
818.143821	2463.863942
818.462539	2442.439038
818.781213	2473.442135
819.099843	2463.107769
819.418429	2460.839250
819.736970	2469.913327
820.055466	2457.310442
820.373919	2476.718885
820.692327	2461.847481
821.010691	2459.831019
821.329011	2469.409212
821.647286	2443.195212
821.965517	2466.636577
822.283704	2479.491519
822.601847	2459.831019
822.919945	2419.249731
823.237999	2447.480192
823.556010	2436.893769
823.873976	2473.190077
824.191897	2475.458596
824.509775	2458.318673
824.827609	2428.323808
825.145398	2449.244596
825.463144	2459.074846
825.780845	2465.628346
826.098502	2464.368058
826.416116	2495.623212
826.733685	2444.959615
827.051210	2447.228135
827.368692	2501.168481
827.686129	2457.562500
828.003522	2466.636577
828.320872	2464.872173
828.638177	2490.330000
828.955439	2440.170519
829.272656	2462.099538
829.589830	2460.587192
829.906960	2475.710654
830.224046	2460.839250
830.541088	2471.425673
830.858086	2459.074846
831.175041	2452.269288
831.491952	2454.789865
831.808819	2456.050154
832.125642	2442.943154
832.442421	2455.798096
832.759157	2453.529577
833.075849	2439.414346
833.392497	2452.269288
833.709101	2475.206538
834.025662	2475.710654
834.342179	2459.074846
834.658653	2449.496654
834.975083	2453.277519
835.291469	2485.288846
835.607811	2453.529577
835.924110	2434.625250
836.240366	2489.069712
836.556578	2472.685962
836.872746	2464.872173
837.188871	2450.252827
837.504952	2480.499750
837.820990	2466.132462
838.136984	2470.669500
838.452935	2470.669500
838.768842	2460.587192
839.084706	2463.863942
839.400526	2459.578962
839.716303	2479.743577
840.032037	2469.661269
840.347727	2428.323808
840.663373	2465.628346
840.978977	2443.447269
841.294537	2457.310442
841.610054	2459.578962
841.925527	2451.765173
842.240957	2476.214769
842.556344	2420.762077
842.871687	2452.521346
843.186987	2454.285750
843.502244	2462.099538
843.817458	2479.743577
844.132629	2422.778538
844.447756	2494.110865
844.762840	2484.532673
845.077881	2434.625250
845.392879	2452.773404
845.707833	2457.058385
846.022745	2444.203442
846.337613	2482.768269
846.652438	2467.140692
846.967221	2459.326904
847.281960	2468.148923
847.596656	2447.480192
847.911309	2476.718885
848.225919	2468.905096
848.540485	2435.381423
848.855009	2461.847481
849.169490	2465.376288
849.483928	2444.959615
849.798323	2441.682865
850.112675	2478.987404
850.426984	2432.356731
850.741251	2461.595423
851.055474	2459.326904
851.369654	2491.086173
851.683792	2437.145827
851.997887	2463.863942
852.311938	2460.587192
852.625947	2457.310442
852.939914	2445.463731
853.253837	2475.458596
853.567718	2452.521346
853.881555	2480.751808
854.195350	2465.628346
854.509103	2468.148923
854.822812	2458.318673
855.136479	2437.145827
855.450103	2476.214769
855.763685	2471.929788
856.077224	2447.984308
856.390720	2436.893769
856.704173	2464.620115
857.017584	2471.677731
857.330953	2470.165385
857.644278	2454.285750
857.957561	2464.116000
858.270802	2447.228135
858.584000	2451.261058
858.897155	2470.669500
859.210268	2447.228135
859.523339	2435.381423
859.836367	2460.839250
860.149352	2446.724019
860.462295	2460.335135
860.775195	2472.685962
861.088054	2479.995635
861.400869	2440.926692
861.713642	2463.359827
862.026373	2451.261058
862.339062	2461.091308
862.651708	2460.083077
862.964312	2452.269288
863.276873	2481.760038
863.589392	2463.863942
863.901869	2467.140692
864.214303	2475.206538
864.526696	2459.831019
864.839045	2454.033692
865.151353	2460.839250
865.463619	2435.381423
865.775842	2464.116000
866.088023	2449.496654
866.400162	2469.913327
866.712258	2447.732250
867.024313	2441.430808
867.336325	2455.798096
867.648296	2466.384519
867.960224	2475.206538
868.272110	2449.748712
868.583954	2463.863942
868.895755	2459.578962
869.207515	2483.272385
869.519233	2471.425673
869.830909	2464.620115
870.142542	2446.471962
870.454134	2460.335135
870.765684	2479.491519
871.077191	2444.455500
871.388657	2480.247692
871.700081	2432.860846
872.011463	2462.855712
872.322803	2449.748712
872.634101	2474.198308
872.945357	2453.781635
873.256571	2448.236365
873.567744	2453.781635
873.878874	2484.280615
874.189963	2474.198308
874.501010	2472.685962
874.812015	2453.025462
875.122979	2474.198308
875.433900	2438.406115
875.744780	2455.546038
876.055618	2443.195212
876.366415	2472.685962
876.677169	2449.496654
876.987882	2489.825885
877.298554	2468.653038
877.609183	2463.863942
877.919771	2473.190077
878.230317	2439.162288
878.540822	2438.658173
878.851285	2462.351596
879.161707	2421.014135
879.472087	2466.132462
879.782425	2452.017231
880.092722	2487.809423
880.402977	2447.228135
880.713191	2458.318673
881.023363	2469.409212
881.333494	2447.228135
881.643583	2462.603654
881.953631	2463.107769
882.263637	2463.107769
882.573602	2452.017231
882.883526	2470.921558
883.193408	2442.439038
883.503248	2472.685962
883.813048	2467.896865
884.122806	2447.480192
884.432522	2473.946250
884.742197	2462.603654
885.051831	2471.929788
885.361424	2438.910231
885.670975	2466.888635
885.980485	2448.992538
886.289954	2437.145827
886.599382	2441.682865
886.908768	2426.559404
887.218113	2468.905096
887.527417	2447.732250
887.836680	2470.921558
888.145901	2471.173615
888.455082	2450.756942
888.764221	2444.707558
889.073319	2476.466827
889.382376	2438.406115
889.691392	2458.318673
890.000366	2476.214769
890.309300	2435.885538
890.618193	2460.083077
890.927044	2439.918462
891.235855	2467.392750
891.544625	2446.219904
891.853353	2475.458596
892.162041	2464.368058
892.470687	2462.855712
892.779293	2469.913327
893.087858	2461.343365
893.396381	2432.860846
893.704864	2449.244596
894.013306	2469.661269
894.321707	2445.463731
894.630068	2436.893769
894.938387	2482.012096
895.246665	2457.562500
895.554903	2470.165385
895.863100	2423.030596
896.171256	2423.534712
896.479371	2455.546038
896.787446	2443.699327
897.095480	2443.447269
897.403473	2459.831019
897.711425	2473.190077
898.019336	2459.326904
898.327207	2458.318673
898.635038	2458.318673
898.942827	2465.124231
899.250576	2465.628346
899.558284	2442.943154
899.865952	2468.653038
900.173579	2497.639673
900.481165	2475.206538
900.788711	2483.524442
901.096216	2421.770308
901.403681	2453.781635
901.711105	2436.137596
902.018489	2464.620115
902.325832	2463.611885
902.633135	2437.902000
902.940397	2484.028558
903.247619	2471.677731
903.554800	2479.743577
903.861941	2445.715788
904.169041	2475.962712
904.476101	2447.228135
904.783121	2449.244596
905.090100	2475.206538
905.397039	2470.417442
905.703938	2480.499750
906.010796	2457.814558
906.317614	2448.236365
906.624391	2455.546038
906.931129	2448.740481
907.237826	2483.272385
907.544483	2475.458596
907.851099	2454.789865
908.157675	2439.666404
908.464211	2466.132462
908.770707	2462.603654
909.077163	2464.872173
909.383578	2481.003865
909.689954	2477.979173
909.996289	2467.140692
910.302584	2439.414346
910.608839	2458.570731
910.915054	2480.499750
911.221229	2457.814558
911.527363	2442.439038
911.833458	2466.384519
912.139513	2456.050154
912.445527	2479.743577
912.751502	2476.466827
913.057436	2461.595423
913.363331	2449.748712
913.669186	2481.255923
913.975000	2440.674635
914.280775	2439.162288
914.586510	2456.050154
914.892205	2428.575865
915.197859	2453.277519
915.503475	2442.691096
915.809050	2463.611885
916.114585	2466.384519
916.420081	2439.666404
916.725536	2453.781635
917.030952	2464.872173
917.336328	2474.450365
917.641665	2440.170519
917.946961	2484.028558
918.252218	2455.546038
918.557435	2455.546038
918.862612	2467.392750
919.167750	2458.066615
919.472848	2464.620115
919.777906	2461.091308
920.082925	2418.493558
920.387904	2444.203442
920.692843	2470.921558
920.997743	2451.513115
921.302603	2444.455500
921.607423	2478.231231
921.912204	2461.091308
922.216946	2436.137596
922.521647	2450.756942
922.826310	2467.140692
923.130932	2440.422577
923.435516	2464.872173
923.740059	2475.710654
924.044564	2480.247692
924.349028	2448.992538
924.653454	2440.422577
924.957840	2470.417442
925.262186	2473.946250
925.566493	2453.025462
925.870761	2454.033692
926.174989	2440.422577
926.479178	2454.789865
926.783328	2448.740481
927.087438	2441.682865
927.391509	2460.839250
927.695541	2466.384519
927.999533	2470.417442
928.303486	2433.112904
928.607400	2463.107769
928.911275	2466.888635
929.215110	2455.293981
929.518906	2450.504885
929.822663	2443.699327
930.126381	2425.299115
930.430060	2453.025462
930.733699	2458.066615
931.037299	2436.641712
931.340861	2463.107769
931.644383	2448.740481
931.947866	2465.880404
932.251309	2450.504885
932.554714	2449.244596
932.858080	2477.979173
933.161407	2456.302212
933.464694	2447.228135
933.767943	2452.773404
934.071153	2441.430808
934.374323	2439.414346
934.677455	2469.157154
934.980548	2471.677731
935.283602	2457.310442
935.586617	2464.620115
935.889593	2461.091308
936.192530	2442.439038
936.495428	2453.025462
936.798287	2465.880404
937.101108	2479.743577
937.403890	2442.691096
937.706632	2445.715788
938.009336	2439.918462
938.312002	2455.293981
938.614628	2440.926692
938.917216	2468.148923
939.219765	2477.727115
939.522275	2469.157154
939.824747	2444.203442
940.127179	2426.811462
940.429573	2439.414346
940.731929	2490.582058
941.034246	2447.732250
941.336524	2451.765173
941.638763	2470.165385
941.940964	2459.831019
942.243126	2452.521346
942.545250	2442.439038
942.847335	2453.277519
943.149381	2457.562500
943.451389	2460.839250
943.753359	2453.529577
944.055290	2462.855712
944.357182	2434.877308
944.659036	2496.883500
944.960851	2448.992538
945.262628	2442.186981
945.564367	2455.041923
945.866067	2468.400981
946.167729	2461.091308
946.469352	2431.096442
946.770937	2452.017231
947.072484	2454.033692
947.373992	2477.727115
947.675462	2453.277519
947.976893	2448.236365
948.278286	2454.285750
948.579641	2450.000769
948.880958	2462.351596
949.182236	2454.537808
949.483476	2448.992538
949.784678	2453.025462
950.085841	2450.756942
950.386967	2450.756942
950.688054	2456.806327
950.989103	2472.938019
951.290114	2446.471962
951.591087	2466.384519
951.892021	2459.831019
952.192917	2481.760038
952.493776	2453.277519
952.794596	2436.137596
953.095378	2469.409212
953.396122	2465.376288
953.696828	2481.255923
953.997496	2436.641712
954.298126	2483.020327
954.598718	2471.929788
954.899272	2455.293981
955.199788	2444.203442
955.500266	2444.455500
955.800706	2450.756942
956.101108	2455.546038
956.401472	2448.740481
956.701798	2449.748712
957.002087	2468.905096
957.302337	2446.724019
957.602550	2431.852615
957.902724	2445.211673
958.202861	2450.504885
958.502960	2445.463731
958.803022	2443.447269
959.103045	2455.546038
959.403031	2445.463731
959.702979	2460.335135
960.002889	2453.025462
960.302762	2458.318673
960.602596	2447.984308
960.902393	2426.811462
961.202153	2453.277519
961.501875	2478.735346
961.801559	2442.943154
962.101205	2448.236365
962.400814	2453.529577
962.700385	2456.806327
962.999918	2464.368058
963.299414	2447.480192
963.598873	2424.038827
963.898293	2469.661269
964.197677	2469.409212
964.497022	2444.455500
964.796331	2452.773404
965.095601	2463.107769
965.394835	2493.102635
965.694030	2454.537808
965.993189	2434.373192
966.292309	2436.137596
966.591393	2460.587192
966.890439	2471.929788
967.189447	2435.129365
967.488419	2439.918462
967.787353	2471.173615
968.086249	2481.255923
968.385108	2455.041923
968.683930	2453.529577
968.982714	2477.727115
969.281462	2455.293981
969.580172	2445.967846
969.878844	2432.860846
970.177480	2489.321769
970.476078	2460.839250
970.774639	2479.995635
971.073162	2457.814558
971.371649	2445.211673
971.670098	2449.244596
971.968510	2455.293981
972.266885	2457.310442
972.565223	2455.546038
972.863524	2465.124231
973.161788	2443.447269
973.460014	2447.732250
973.758204	2478.735346
974.056356	2448.992538
974.354471	2458.822788
974.652550	2417.989442
974.950591	2435.885538
975.248595	2441.430808
975.546563	2463.611885
975.844493	2482.516212
976.142386	2487.305308
976.440243	2458.066615
976.738062	2480.499750
977.035845	2455.798096
977.333590	2434.121135
977.631299	2464.872173
977.928971	2469.661269
978.226606	2445.463731
978.524204	2451.513115
978.821765	2420.762077
979.119290	2475.962712
979.416777	2456.302212
979.714228	2470.921558
980.011642	2442.186981
980.309020	2476.718885
980.606360	2449.496654
980.903664	2466.636577
981.200931	2462.855712
981.498162	2431.852615
981.795356	2453.277519
982.092513	2453.781635
982.389633	2462.351596
982.686717	2436.893769
982.983764	2449.496654
983.280775	2483.776500
983.577749	2442.691096
983.874686	2472.433904
984.171587	2455.041923
984.468451	2441.178750
984.765279	2448.236365
985.062070	2469.409212
985.358824	2433.869077
985.655543	2430.088212
985.952224	2430.592327
986.248869	2443.699327
986.545478	2440.926692
986.842050	2463.863942
987.138586	2449.244596
987.435086	2461.847481
987.731549	2454.285750
988.027975	2440.422577
988.324366	2452.773404
988.620719	2452.521346
988.917037	2451.261058
989.213318	2472.938019
989.509563	2460.839250
989.805772	2450.756942
990.101944	2473.442135
990.398080	2455.293981
990.694180	2441.430808
990.990244	2457.058385
991.286271	2447.480192
991.582262	2437.649942
991.878217	2435.633481
992.174136	2440.926692
992.470019	2447.984308
992.765865	2439.162288
993.061676	2460.839250
993.357450	2486.297077
993.653188	2451.009000
993.948890	2427.567635
994.244556	2455.041923
994.540186	2458.318673
994.835780	2457.562500
995.131337	2449.244596
995.426859	2468.400981
995.722345	2439.414346
996.017795	2452.269288
996.313208	2455.041923
996.608586	2456.050154
996.903928	2438.406115
997.199234	2468.905096
997.494504	2452.773404
997.789738	2475.458596
998.084936	2482.012096
998.380099	2458.318673
998.675225	2474.198308
998.970316	2453.781635
999.265371	2461.091308
999.560390	2461.343365
999.855373	2466.132462
1000.150320	2460.335135
1000.445232	2475.710654
1000.740108	2466.132462
1001.034948	2454.789865
1001.329752	2424.542942
1001.624521	2459.831019
1001.919254	2472.685962
1002.213951	2458.066615
1002.508613	2465.628346
1002.803239	2466.384519
1003.097829	2454.537808
1003.392384	2473.946250
1003.686903	2423.534712
1003.981386	2459.326904
1004.275834	2442.186981
1004.570246	2472.181846
1004.864623	2427.315577
1005.158964	2451.765173
1005.453270	2459.578962
1005.747540	2458.318673
1006.041775	2463.863942
1006.335974	2458.822788
1006.630138	2438.154058
1006.924266	2479.995635
1007.218359	2455.041923
1007.512416	2434.373192
1007.806438	2472.938019
1008.100425	2436.641712
1008.394376	2440.674635
1008.688292	2462.855712
1008.982172	2451.765173
1009.276017	2449.244596
1009.569827	2455.546038
1009.863602	2468.400981
1010.157341	2430.340269
1010.451045	2444.203442
1010.744714	2468.653038
1011.038347	2450.252827
1011.331945	2438.154058
1011.625508	2438.910231
1011.919036	2459.578962
1012.212528	2437.145827
1012.505986	2446.976077
1012.799408	2436.137596
1013.092795	2440.926692
1013.386147	2441.934923
1013.679464	2467.392750
1013.972745	2456.806327
1014.265992	2460.083077
1014.559204	2448.236365
1014.852380	2473.442135
1015.145521	2438.406115
1015.438628	2451.009000
1015.731699	2450.504885
1016.024736	2459.831019
1016.317737	2448.488423
1016.610703	2454.285750
1016.903635	2472.433904
1017.196531	2445.211673
1017.489393	2455.293981
1017.782219	2451.513115
1018.075011	2454.033692
1018.367768	2472.433904
1018.660490	2450.000769
1018.953177	2450.000769
1019.245829	2450.000769
