Dividing Wavelength (nm)	Counts (n)	Slit_number_39_of_a_total_of_40	
326.493990	2147.531538
326.888308	2147.531538
327.282561	2147.531538
327.676750	2114.259923
328.070874	2116.948538
328.464933	2135.264731
328.858929	2137.533250
329.252859	2147.027423
329.646726	2174.081615
330.040528	2169.376538
330.434265	2200.295615
330.827938	2213.318596
331.221547	2225.585404
331.615091	2252.807635
332.008571	2273.560385
332.401986	2294.481173
332.795338	2310.696885
333.188625	2322.207519
333.581847	2360.688327
333.975006	2380.180788
334.368100	2391.019269
334.761129	2422.442462
335.154095	2413.452404
335.546996	2443.867365
335.939833	2439.330327
336.332606	2471.005577
336.725315	2474.450365
337.117960	2499.908192
337.510540	2507.217865
337.903056	2523.433577
338.295508	2508.478154
338.687896	2526.542288
339.080220	2524.777885
339.472480	2528.726788
339.864676	2542.673981
340.256807	2526.542288
340.648875	2560.654096
341.040879	2533.683923
341.432818	2539.817327
341.824694	2537.632827
342.216506	2539.733308
342.608253	2540.489481
342.999937	2553.932558
343.391557	2537.800865
343.783113	2536.204500
344.174605	2532.423635
344.566033	2530.575212
344.957397	2538.977135
345.348697	2537.716846
345.739934	2531.415404
346.131106	2531.247365
346.522215	2539.985365
346.913260	2522.593385
347.304241	2536.876654
347.695159	2519.400654
348.086012	2531.247365
348.476802	2503.268962
348.867528	2523.517596
349.258191	2516.880077
349.648789	2510.242558
350.039324	2520.408885
350.429796	2511.670885
350.820203	2507.133846
351.210548	2496.883500
351.600828	2517.384192
351.991045	2503.352981
352.381198	2506.881788
352.771288	2510.494615
353.161314	2507.974038
353.551276	2518.476442
353.941175	2513.099212
354.331010	2510.494615
354.720782	2510.998731
355.110490	2523.517596
355.500135	2527.214442
355.889717	2511.250788
356.279235	2520.324865
356.668689	2513.267250
357.058080	2521.081038
357.447408	2519.652712
357.836672	2531.415404
358.225873	2514.947635
358.615010	2519.148596
359.004084	2507.301885
359.393095	2523.517596
359.782043	2525.618077
360.170927	2523.433577
360.559748	2510.746673
360.948505	2524.525827
361.337199	2524.105731
361.725830	2515.451750
362.114398	2525.282000
362.502903	2516.123904
362.891344	2517.048115
363.279722	2512.427058
363.668037	2518.896538
364.056289	2529.398942
364.444478	2527.214442
364.832603	2498.227808
365.220665	2514.191462
365.608665	2525.029942
365.996601	2527.634538
366.384474	2520.240846
366.772284	2517.804288
367.160031	2514.695577
367.547715	2518.476442
367.935336	2528.306692
368.322893	2527.046404
368.710388	2522.929462
369.097820	2519.904769
369.485189	2543.682212
369.872495	2526.962385
370.259738	2529.651000
370.646918	2524.525827
371.034035	2529.903058
371.421090	2514.779596
371.808081	2522.677404
372.195010	2518.644481
372.581875	2539.145173
372.968678	2526.794346
373.355418	2538.052923
373.742096	2532.087558
374.128710	2533.011769
374.515262	2532.171577
374.901751	2541.245654
375.288177	2503.605038
375.674540	2523.433577
376.060841	2523.013481
376.447079	2541.833788
376.833254	2512.090981
377.219367	2522.341327
377.605417	2516.207923
377.991404	2528.978846
378.377329	2522.257308
378.763191	2529.482962
379.148991	2530.827269
379.534727	2520.828981
379.920402	2544.018288
380.306013	2527.802577
380.691563	2532.675692
381.077049	2534.188038
381.462474	2531.415404
381.847835	2537.968904
382.233134	2523.265538
382.618371	2536.372538
383.003545	2530.323154
383.388657	2537.632827
383.773706	2528.642769
384.158693	2532.171577
384.543618	2526.878365
384.928480	2543.178096
385.313280	2539.145173
385.698017	2536.036462
386.082692	2525.534058
386.467305	2530.911288
386.851856	2536.960673
387.236344	2516.375962
387.620770	2527.298462
388.005133	2533.095788
388.389435	2537.464788
388.773674	2534.860192
389.157851	2520.156827
389.541965	2554.100596
389.926018	2533.767942
390.310008	2552.420212
390.693936	2531.835500
391.077802	2537.632827
391.461606	2533.263827
391.845348	2546.706904
392.229027	2551.664038
392.612645	2537.380769
392.996200	2527.802577
393.379694	2534.776173
393.763125	2534.944212
394.146494	2545.194558
394.529801	2534.692154
394.913047	2531.163346
395.296230	2536.624596
395.679351	2530.743250
396.062410	2540.825558
396.445408	2522.761423
396.828343	2542.337904
397.211217	2538.725077
397.594028	2556.201077
397.976778	2533.179808
398.359466	2541.497712
398.742092	2544.102308
399.124656	2531.415404
399.507158	2543.430154
399.889598	2529.819038
400.271977	2552.756288
400.654294	2545.026519
401.036549	2544.186327
401.418742	2525.366019
401.800874	2549.731596
402.182944	2541.161635
402.564952	2550.571788
402.946898	2544.522404
403.328783	2540.825558
403.710606	2554.856769
404.092367	2542.673981
404.474067	2529.566981
404.855705	2531.919519
405.237282	2552.000115
405.618797	2538.473019
406.000250	2537.044692
406.381642	2543.682212
406.762972	2547.883173
407.144240	2559.897923
407.525447	2541.161635
407.906593	2543.514173
408.287677	2532.507654
408.668700	2539.397231
409.049661	2547.547096
409.430560	2540.153404
409.811399	2543.598192
410.192176	2542.253885
410.572891	2547.799154
410.953545	2548.639346
411.334138	2548.807385
411.714669	2549.647577
412.095139	2558.301558
412.475547	2540.573500
412.855894	2539.901346
413.236180	2548.051212
413.616405	2545.866712
413.996568	2534.356077
414.376670	2547.547096
414.756711	2566.535442
415.136691	2551.327962
415.516609	2535.364308
415.896466	2550.487769
416.276262	2554.856769
416.655997	2545.950731
417.035670	2555.444904
417.415283	2535.532346
417.794834	2548.051212
418.174324	2541.245654
418.553753	2551.075904
418.933121	2545.698673
419.312428	2547.631115
419.691674	2552.504231
420.070859	2537.548808
420.449983	2559.141750
420.829045	2547.967192
421.208047	2543.934269
421.586988	2541.749769
421.965867	2536.624596
422.344686	2563.258692
422.723444	2547.127000
423.102141	2541.077615
423.480777	2547.127000
423.859352	2559.981942
424.237866	2544.522404
424.616319	2543.598192
424.994712	2552.672269
425.373044	2542.673981
425.751314	2563.426731
426.129524	2559.477827
426.507673	2555.780981
426.885762	2540.153404
427.263789	2549.311500
427.641756	2547.463077
428.019662	2555.276865
428.397508	2554.268635
428.775292	2553.764519
429.153016	2542.589962
429.530679	2539.397231
429.908282	2552.924327
430.285824	2555.780981
430.663305	2541.749769
431.040726	2526.794346
431.418086	2547.379058
431.795385	2559.057731
432.172624	2537.968904
432.549802	2547.211019
432.926920	2554.688731
433.303977	2544.858481
433.680974	2553.176385
434.057910	2565.107115
434.434786	2550.067673
434.811601	2551.496000
435.188355	2547.379058
435.565050	2549.227481
435.941683	2537.968904
436.318257	2558.721654
436.694770	2553.764519
437.071222	2550.571788
437.447614	2561.494288
437.823946	2556.117058
438.200218	2549.479538
438.576429	2560.486058
438.952580	2553.176385
439.328670	2541.665750
439.704700	2556.033038
440.080670	2569.140038
440.456580	2559.477827
440.832429	2556.369115
441.208218	2552.336192
441.583947	2549.815615
441.959616	2559.141750
442.335224	2550.991885
442.710773	2555.865000
443.086261	2553.848538
443.461689	2556.285096
443.837057	2550.823846
444.212365	2553.932558
444.587612	2546.706904
444.962800	2574.013154
445.337927	2562.250462
445.712995	2547.547096
446.088002	2540.909577
446.462949	2561.662327
446.837837	2559.057731
447.212664	2550.403750
447.587431	2553.932558
447.962139	2565.527212
448.336786	2558.889692
448.711374	2562.586538
449.085901	2550.655808
449.460369	2549.647577
449.834776	2566.031327
450.209124	2571.072481
450.583412	2547.295038
450.957640	2541.077615
451.331808	2566.199365
451.705917	2561.662327
452.079965	2554.016577
452.453954	2550.571788
452.827883	2557.041269
453.201752	2557.545385
453.575562	2563.846827
453.949311	2557.209308
454.323001	2569.980231
454.696632	2550.571788
455.070202	2555.949019
455.443713	2555.444904
455.817164	2550.151692
456.190556	2567.375635
456.563888	2550.403750
456.937160	2561.998404
457.310373	2548.387288
457.683526	2541.749769
458.056619	2574.937365
458.429653	2554.436673
458.802628	2560.906154
459.175542	2567.207596
459.548398	2551.327962
459.921194	2567.879750
460.293930	2566.283385
460.666607	2553.848538
461.039224	2567.711712
461.411782	2560.402038
461.784280	2577.037846
462.156719	2573.172962
462.529099	2554.688731
462.901419	2558.049500
463.273680	2560.822135
463.645882	2549.563558
464.018024	2565.527212
464.390106	2552.840308
464.762130	2565.275154
465.134094	2567.543673
465.505999	2559.561846
465.877845	2569.056019
466.249631	2565.947308
466.621358	2568.972000
466.993026	2552.168154
467.364634	2568.467885
467.736184	2573.929135
468.107674	2563.006635
468.479105	2562.838596
468.850477	2568.803962
469.221790	2571.156500
469.593043	2548.807385
469.964238	2564.434962
470.335373	2552.756288
470.706449	2563.426731
471.077467	2549.647577
471.448425	2566.703481
471.819324	2557.797442
472.190164	2555.108827
472.560945	2559.645865
472.931667	2560.486058
473.302330	2557.041269
473.672934	2557.041269
474.043479	2564.014865
474.413965	2558.637635
474.784393	2553.344423
475.154761	2557.797442
475.525070	2558.049500
475.895321	2554.100596
476.265513	2565.863288
476.635645	2566.535442
477.005719	2550.403750
477.375734	2566.703481
477.745691	2560.149981
478.115588	2566.283385
478.485427	2560.822135
478.855207	2562.082423
479.224928	2564.603000
479.594591	2567.459654
479.964194	2562.502519
480.333739	2567.207596
480.703226	2553.008346
481.072653	2562.250462
481.442022	2564.182904
481.811333	2564.350942
482.180584	2539.565269
482.549777	2563.006635
482.918912	2567.963769
483.287988	2569.140038
483.657005	2548.555327
484.025964	2574.265212
484.394864	2566.283385
484.763706	2565.695250
485.132489	2582.247038
485.501213	2572.332769
485.869879	2561.410269
486.238487	2563.510750
486.607036	2571.828654
486.975527	2567.207596
487.343959	2565.275154
487.712333	2559.477827
488.080648	2548.051212
488.448905	2561.494288
488.817104	2558.889692
489.185244	2564.014865
489.553326	2560.065962
489.921350	2570.904442
490.289315	2573.509038
490.657222	2554.856769
491.025070	2573.593058
491.392861	2567.795731
491.760593	2570.148269
492.128267	2566.703481
492.495883	2582.583115
492.863440	2563.762808
493.230939	2559.813904
493.598380	2565.611231
493.965763	2563.174673
494.333088	2576.281673
494.700354	2575.525500
495.067563	2560.822135
495.434713	2577.625981
495.801805	2559.309788
496.168839	2560.570077
496.535815	2547.547096
496.902733	2564.350942
497.269593	2565.611231
497.636395	2550.739827
498.003139	2554.604712
498.369825	2561.830365
498.736453	2560.234000
499.103023	2563.762808
499.469535	2563.762808
499.835989	2566.283385
500.202385	2579.054308
500.568723	2572.668846
500.935003	2570.484346
501.301226	2564.603000
501.667390	2578.046077
502.033497	2580.146558
502.399546	2575.021385
502.765537	2554.856769
503.131470	2558.049500
503.497345	2574.685308
503.863163	2561.830365
504.228923	2556.621173
504.594625	2558.049500
504.960269	2565.107115
505.325856	2556.537154
505.691385	2574.013154
506.056856	2571.156500
506.422270	2558.469596
506.787625	2563.174673
507.152924	2579.138327
507.518164	2563.846827
507.883347	2561.410269
508.248472	2574.181192
508.613540	2579.222346
508.978550	2559.225769
509.343503	2567.795731
509.708398	2560.234000
510.073236	2555.108827
510.438016	2579.390385
510.802738	2586.448000
511.167403	2552.588250
511.532010	2553.344423
511.896561	2573.929135
512.261053	2566.031327
512.625488	2560.738115
512.989866	2562.166442
513.354186	2576.449712
513.718449	2570.652385
514.082655	2585.607808
514.446803	2572.584827
514.810894	2551.916096
515.174927	2572.584827
515.538904	2560.402038
515.902822	2570.232288
516.266684	2563.846827
516.630488	2566.703481
516.994235	2570.484346
517.357925	2562.754577
517.721558	2549.983654
518.085133	2567.543673
518.448651	2567.795731
518.812112	2555.360885
519.175516	2564.098885
519.538863	2564.266923
519.902152	2561.494288
520.265385	2575.693538
520.628560	2565.443192
520.991678	2554.016577
521.354739	2573.845115
521.717743	2567.627692
522.080690	2565.359173
522.443580	2569.812192
522.806413	2570.232288
523.169189	2566.535442
523.531908	2542.673981
523.894569	2563.426731
524.257174	2574.517269
524.619722	2556.117058
524.982213	2571.576596
525.344647	2563.846827
525.707025	2557.965481
526.069345	2559.477827
526.431608	2568.467885
526.793815	2575.357462
527.155964	2565.863288
527.518057	2559.729885
527.880093	2548.555327
528.242072	2578.886269
528.603995	2574.013154
528.965860	2568.719942
529.327669	2566.955538
529.689421	2552.672269
530.051117	2557.461365
530.412755	2563.594769
530.774337	2577.794019
531.135862	2564.603000
531.497331	2560.149981
531.858743	2573.593058
532.220098	2573.761096
532.581396	2576.869808
532.942638	2577.794019
533.303824	2571.744635
533.664953	2567.795731
534.026025	2564.266923
534.387040	2563.678788
534.747999	2562.502519
535.108902	2571.996692
535.469748	2577.037846
535.830537	2571.912673
536.191270	2567.543673
536.551947	2567.795731
536.912567	2578.718231
537.273131	2574.013154
537.633638	2568.803962
537.994089	2567.123577
538.354483	2555.865000
538.714821	2577.289904
539.075103	2558.805673
539.435328	2560.149981
539.795497	2553.680500
540.155609	2567.039558
540.515665	2562.670558
540.875665	2553.176385
541.235609	2561.746346
541.595496	2562.922615
541.955328	2569.392096
542.315102	2575.525500
542.674821	2583.339288
543.034483	2570.820423
543.394090	2555.612942
543.753640	2558.217538
544.113134	2570.736404
544.472571	2566.451423
544.831953	2569.896212
545.191278	2571.408558
545.550548	2563.426731
545.909761	2565.947308
546.268918	2571.996692
546.628019	2568.887981
546.987064	2574.601288
547.346053	2574.097173
547.704986	2557.965481
548.063863	2564.434962
548.422684	2573.004923
548.781449	2563.426731
549.140158	2564.350942
549.498811	2556.957250
549.857408	2571.072481
550.215949	2575.693538
550.574434	2554.940788
550.932864	2558.805673
551.291237	2561.830365
551.649555	2557.797442
552.007817	2565.863288
552.366022	2564.518981
552.724173	2566.367404
553.082267	2580.230577
553.440305	2578.550192
553.798288	2565.359173
554.156215	2572.752865
554.514086	2567.543673
554.871902	2566.703481
555.229661	2570.400327
555.587365	2568.299846
555.945014	2568.383865
556.302606	2580.986750
556.660143	2575.441481
557.017625	2563.174673
557.375050	2564.518981
557.732421	2565.023096
558.089735	2562.838596
558.446994	2564.603000
558.804197	2558.217538
559.161345	2563.342712
559.518437	2551.664038
559.875474	2563.762808
560.232455	2557.713423
560.589381	2556.033038
560.946251	2568.887981
561.303065	2577.794019
561.659825	2585.271731
562.016528	2552.756288
562.373177	2569.056019
562.729770	2570.316308
563.086307	2569.308077
563.442789	2556.285096
563.799216	2567.963769
564.155587	2565.947308
564.511904	2575.273442
564.868164	2569.812192
565.224370	2549.647577
565.580520	2580.398615
565.936615	2569.476115
566.292654	2564.855058
566.648638	2565.191135
567.004567	2566.955538
567.360441	2557.545385
567.716260	2574.181192
568.072023	2566.871519
568.427732	2564.266923
568.783385	2555.780981
569.138982	2578.466173
569.494525	2567.795731
569.850013	2577.878038
570.205445	2569.644154
570.560823	2562.754577
570.916145	2560.654096
571.271412	2554.688731
571.626625	2578.886269
571.981782	2573.004923
572.336884	2575.861577
572.691931	2561.914385
573.046923	2570.820423
573.401860	2567.879750
573.756743	2567.291615
574.111570	2569.896212
574.466342	2576.281673
574.821059	2574.517269
575.175722	2559.141750
575.530330	2561.998404
575.884882	2567.543673
576.239380	2568.972000
576.593823	2561.830365
576.948211	2565.275154
577.302544	2584.767615
577.656823	2567.879750
578.011047	2566.199365
578.365216	2560.402038
578.719330	2572.416788
579.073389	2570.148269
579.427394	2565.275154
579.781344	2567.039558
580.135239	2570.652385
580.489080	2569.812192
580.842866	2564.266923
581.196597	2569.896212
581.550273	2567.963769
581.903895	2574.769327
582.257463	2563.426731
582.610975	2556.201077
582.964434	2569.140038
583.317837	2554.016577
583.671186	2563.510750
584.024481	2581.490865
584.377721	2564.434962
584.730906	2569.728173
585.084037	2569.308077
585.437113	2561.914385
585.790135	2562.838596
586.143103	2570.148269
586.496016	2573.845115
586.848874	2561.998404
587.201679	2564.771038
587.554428	2550.823846
587.907124	2568.635923
588.259765	2573.004923
588.612352	2584.011442
588.964884	2564.855058
589.317362	2570.988462
589.669786	2567.543673
590.022155	2565.359173
590.374470	2568.131808
590.726731	2558.973712
591.078937	2570.484346
591.431090	2564.518981
591.783188	2552.756288
592.135232	2571.156500
592.487222	2554.016577
592.839157	2571.240519
593.191038	2571.660615
593.542866	2566.115346
593.894639	2572.500808
594.246358	2553.176385
594.598022	2569.812192
594.949633	2574.013154
595.301190	2560.738115
595.652692	2556.117058
596.004141	2578.718231
596.355535	2561.830365
596.706876	2560.318019
597.058162	2569.644154
597.409395	2562.754577
597.760573	2562.922615
598.111698	2586.279962
598.462768	2560.402038
598.813785	2555.780981
599.164748	2556.285096
599.515657	2574.517269
599.866511	2570.484346
600.217312	2561.326250
600.568060	2573.004923
600.918753	2571.492577
601.269392	2563.258692
601.619978	2557.629404
601.970510	2571.156500
602.320988	2561.578308
602.671412	2565.947308
603.021783	2563.762808
603.372100	2565.023096
603.722363	2583.255269
604.072572	2559.141750
604.422728	2553.008346
604.772830	2567.459654
605.122878	2564.518981
605.472872	2579.138327
605.822813	2563.762808
606.172701	2576.869808
606.522534	2571.744635
606.872314	2560.654096
607.222041	2561.410269
607.571714	2572.248750
607.921333	2572.500808
608.270899	2575.357462
608.620411	2573.509038
608.969870	2560.318019
609.319276	2565.191135
609.668627	2577.205885
610.017926	2569.140038
610.367171	2562.838596
610.716362	2562.082423
611.065500	2554.772750
611.414585	2560.738115
611.763616	2572.080712
612.112594	2566.199365
612.461518	2564.266923
612.810389	2555.528923
613.159207	2593.253558
613.507971	2569.644154
613.856682	2567.207596
614.205340	2582.079000
614.553945	2573.593058
614.902496	2570.988462
615.250994	2562.082423
615.599439	2570.736404
615.947830	2572.332769
616.296169	2580.314596
616.644454	2562.166442
616.992686	2567.879750
617.340864	2568.131808
617.688990	2573.256981
618.037063	2574.349231
618.385082	2583.255269
618.733048	2569.392096
619.080961	2571.408558
619.428821	2562.334481
619.776628	2571.996692
620.124382	2561.410269
620.472083	2578.298135
620.819731	2568.972000
621.167326	2556.873231
621.514868	2566.031327
621.862357	2571.240519
622.209793	2579.474404
622.557176	2557.629404
622.904506	2581.910962
623.251783	2562.754577
623.599007	2572.500808
623.946179	2587.204173
624.293297	2566.787500
624.640363	2569.560135
624.987376	2555.276865
625.334336	2557.041269
625.681243	2568.719942
626.028097	2583.927423
626.374899	2551.327962
626.721647	2562.838596
627.068343	2561.998404
627.414987	2558.637635
627.761577	2571.576596
628.108115	2562.922615
628.454600	2573.004923
628.801032	2547.631115
629.147412	2573.509038
629.493739	2557.125288
629.840014	2576.785788
630.186236	2559.897923
630.532405	2563.846827
630.878521	2563.846827
631.224585	2577.625981
631.570597	2566.703481
631.916556	2566.787500
632.262462	2568.215827
632.608316	2572.164731
632.954117	2566.787500
633.299866	2579.054308
633.645562	2575.273442
633.991206	2562.418500
634.336797	2582.415077
634.682336	2555.949019
635.027823	2556.789212
635.373257	2581.238808
635.718639	2575.777558
636.063968	2563.174673
636.409245	2567.039558
636.754470	2568.299846
637.099642	2572.920904
637.444762	2570.064250
637.789829	2550.991885
638.134845	2555.528923
638.479808	2559.393808
638.824719	2580.146558
639.169577	2572.668846
639.514383	2560.822135
639.859137	2571.324538
640.203839	2576.617750
640.548489	2567.627692
640.893086	2556.621173
641.237632	2572.920904
641.582125	2570.820423
641.926566	2575.861577
642.270955	2572.668846
642.615292	2560.149981
642.959576	2554.856769
643.303809	2571.324538
643.647990	2558.889692
643.992118	2571.912673
644.336195	2549.059442
644.680219	2560.738115
645.024192	2580.902731
645.368112	2564.434962
645.711981	2570.568365
646.055797	2577.457942
646.399562	2569.224058
646.743274	2555.696962
647.086935	2562.670558
647.430544	2565.863288
647.774101	2578.130096
648.117606	2560.486058
648.461059	2560.654096
648.804460	2573.341000
649.147810	2575.189423
649.491108	2583.339288
649.834354	2568.551904
650.177548	2579.138327
650.520690	2563.426731
650.863781	2579.726462
651.206820	2562.502519
651.549807	2567.711712
651.892742	2569.392096
652.235626	2569.980231
652.578458	2569.896212
652.921238	2561.998404
653.263967	2560.990173
653.606644	2558.133519
653.949269	2568.047788
654.291843	2572.752865
654.634365	2572.668846
654.976836	2549.647577
655.319255	2558.301558
655.661622	2574.181192
656.003938	2565.611231
656.346203	2561.998404
656.688416	2577.962058
657.030577	2556.201077
657.372687	2562.838596
657.714746	2558.973712
658.056753	2555.949019
658.398708	2572.248750
658.740612	2558.385577
659.082465	2571.912673
659.424266	2569.056019
659.766016	2571.912673
660.107715	2577.037846
660.449362	2567.459654
660.790958	2563.510750
661.132503	2556.705192
661.473996	2566.451423
661.815438	2560.065962
662.156829	2567.543673
662.498168	2576.113635
662.839456	2558.049500
663.180693	2555.360885
663.521879	2571.156500
663.863013	2555.696962
664.204097	2575.273442
664.545129	2559.561846
664.886110	2571.660615
665.227040	2559.897923
665.567918	2558.805673
665.908746	2559.729885
666.249522	2556.117058
666.590248	2575.357462
666.930922	2572.164731
667.271545	2568.047788
667.612118	2580.146558
667.952639	2568.047788
668.293109	2582.583115
668.633528	2559.561846
668.973896	2572.500808
669.314213	2567.879750
669.654480	2570.064250
669.994695	2565.359173
670.334859	2572.500808
670.674973	2588.380442
671.015035	2567.879750
671.355047	2569.308077
671.695008	2570.568365
672.034918	2560.738115
672.374777	2574.013154
672.714585	2566.535442
673.054342	2557.293327
673.394049	2566.283385
673.733705	2576.953827
674.073310	2565.359173
674.412864	2571.156500
674.752368	2556.873231
675.091820	2567.039558
675.431223	2564.350942
675.770574	2573.425019
676.109875	2554.436673
676.449125	2560.822135
676.788324	2555.780981
677.127473	2574.601288
677.466571	2563.174673
677.805619	2573.593058
678.144616	2572.332769
678.483562	2576.869808
678.822458	2562.082423
679.161303	2558.049500
679.500098	2558.301558
679.838842	2575.189423
680.177535	2547.967192
680.516179	2545.362596
680.854771	2565.443192
681.193314	2562.082423
681.531805	2564.603000
681.870247	2556.033038
682.208638	2569.224058
682.546978	2566.787500
682.885268	2564.350942
683.223508	2553.092365
683.561697	2564.266923
683.899836	2586.279962
684.237925	2551.664038
684.575963	2570.316308
684.913951	2555.696962
685.251889	2567.627692
685.589776	2568.215827
685.927614	2559.477827
686.265401	2575.777558
686.603137	2565.611231
686.940824	2570.400327
687.278460	2563.090654
687.616046	2560.738115
687.953582	2560.570077
688.291068	2570.484346
688.628504	2564.939077
688.965889	2568.215827
689.303224	2569.140038
689.640510	2573.088942
689.977745	2571.996692
690.314930	2545.698673
690.652065	2562.418500
690.989150	2564.266923
691.326185	2569.392096
691.663170	2566.367404
692.000105	2577.205885
692.336990	2572.668846
692.673825	2567.459654
693.010610	2570.232288
693.347345	2565.023096
693.684030	2572.920904
694.020665	2545.194558
694.357251	2564.939077
694.693786	2565.191135
695.030272	2555.192846
695.366707	2578.466173
695.703093	2568.972000
696.039429	2573.845115
696.375716	2572.080712
696.711952	2572.500808
697.048139	2580.314596
697.384276	2552.420212
697.720363	2568.383865
698.056400	2558.133519
698.392388	2574.517269
698.728326	2553.848538
699.064214	2559.981942
699.400053	2584.599577
699.735842	2562.502519
700.071581	2560.318019
700.407270	2565.359173
700.742910	2564.350942
701.078501	2561.830365
701.414042	2562.082423
701.749533	2569.896212
702.084974	2565.107115
702.420366	2558.973712
702.755709	2573.929135
703.091002	2563.174673
703.426246	2560.065962
703.761440	2572.668846
704.096584	2550.823846
704.431679	2561.662327
704.766725	2569.812192
705.101721	2538.473019
705.436668	2568.467885
705.771565	2565.695250
706.106413	2560.318019
706.441212	2575.525500
706.775961	2562.754577
707.110661	2558.469596
707.445311	2560.234000
707.779913	2558.805673
708.114465	2561.746346
708.448967	2561.074192
708.783421	2565.359173
709.117825	2569.812192
709.452180	2565.527212
709.786485	2568.047788
710.120742	2575.021385
710.454949	2567.543673
710.789107	2567.879750
711.123216	2554.436673
711.457275	2566.031327
711.791286	2569.728173
712.125247	2558.385577
712.459159	2551.748058
712.793023	2569.392096
713.126837	2560.318019
713.460602	2574.013154
713.794318	2571.996692
714.127985	2563.846827
714.461602	2565.107115
714.795171	2564.771038
715.128691	2571.576596
715.462162	2554.604712
715.795584	2562.586538
716.128957	2570.484346
716.462281	2558.553615
716.795556	2554.268635
717.128782	2565.107115
717.461960	2557.713423
717.795088	2569.644154
718.128167	2561.242231
718.461198	2550.571788
718.794180	2571.324538
719.127113	2568.635923
719.459997	2556.453135
719.792833	2577.710000
720.125619	2560.906154
720.458357	2576.449712
720.791046	2562.334481
721.123686	2569.896212
721.456278	2567.123577
721.788821	2559.897923
722.121315	2573.004923
722.453761	2564.098885
722.786158	2560.822135
723.118506	2563.594769
723.450805	2567.543673
723.783056	2575.609519
724.115259	2567.039558
724.447412	2574.685308
724.779518	2564.434962
725.111574	2556.117058
725.443582	2559.393808
725.775542	2568.215827
726.107453	2565.107115
726.439315	2564.098885
726.771129	2577.373923
727.102895	2557.713423
727.434612	2562.418500
727.766281	2556.537154
728.097901	2564.350942
728.429473	2568.215827
728.760996	2568.215827
729.092471	2568.383865
729.423897	2567.711712
729.755276	2568.635923
730.086606	2559.141750
730.417887	2570.316308
730.749120	2570.064250
731.080305	2566.787500
731.411442	2571.744635
731.742530	2558.805673
732.073570	2576.281673
732.404562	2558.889692
732.735506	2564.939077
733.066401	2554.772750
733.397249	2564.014865
733.728048	2563.426731
734.058798	2567.039558
734.389501	2561.074192
734.720156	2571.156500
735.050762	2562.418500
735.381320	2580.482635
735.711831	2557.797442
736.042293	2556.789212
736.372707	2558.217538
736.703073	2558.721654
737.033391	2563.174673
737.363661	2549.647577
737.693883	2565.191135
738.024056	2565.359173
738.354182	2576.617750
738.684260	2574.769327
739.014290	2576.029615
739.344272	2566.871519
739.674207	2578.970288
740.004093	2546.706904
740.333931	2540.909577
740.663722	2566.031327
740.993464	2562.250462
741.323159	2571.996692
741.652806	2569.392096
741.982405	2564.434962
742.311956	2567.711712
742.641460	2555.276865
742.970915	2564.855058
743.300323	2558.469596
743.629683	2569.056019
743.958996	2552.084135
744.288260	2558.721654
744.617477	2563.594769
744.946647	2572.416788
745.275768	2562.586538
745.604842	2544.354365
745.933869	2556.873231
746.262847	2556.453135
746.591778	2552.504231
746.920662	2577.205885
747.249498	2561.830365
747.578286	2573.929135
747.907027	2574.349231
748.235720	2560.318019
748.564365	2556.033038
748.892963	2557.377346
749.221514	2550.655808
749.550017	2565.863288
749.878473	2557.209308
750.206881	2556.789212
750.535242	2558.217538
750.863555	2567.459654
751.191821	2574.853346
751.520039	2563.846827
751.848210	2571.072481
752.176334	2565.275154
752.504411	2559.729885
752.832440	2571.240519
753.160421	2564.350942
753.488356	2578.298135
753.816243	2551.243942
754.144082	2563.930846
754.471875	2563.090654
754.799620	2564.518981
755.127318	2564.603000
755.454969	2572.668846
755.782572	2569.560135
756.110129	2555.696962
756.437638	2572.248750
756.765100	2564.687019
757.092515	2562.586538
757.419882	2565.359173
757.747203	2556.621173
758.074477	2545.446615
758.401703	2576.449712
758.728882	2580.146558
759.056014	2555.612942
759.383099	2562.082423
759.710138	2563.510750
760.037129	2564.603000
760.364073	2575.441481
760.690970	2566.871519
761.017820	2567.459654
761.344623	2555.780981
761.671379	2563.678788
761.998088	2566.619462
762.324751	2559.729885
762.651366	2568.467885
762.977935	2565.443192
763.304456	2564.434962
763.630931	2562.838596
763.957359	2561.578308
764.283740	2555.696962
764.610074	2559.225769
764.936362	2562.922615
765.262602	2570.148269
765.588796	2566.115346
765.914943	2563.930846
766.241044	2560.318019
766.567097	2563.846827
766.893104	2556.033038
767.219064	2563.510750
767.544978	2555.949019
767.870845	2561.746346
768.196665	2564.771038
768.522438	2572.164731
768.848165	2557.209308
769.173846	2569.308077
769.499479	2559.477827
769.825066	2571.912673
770.150607	2565.275154
770.476101	2573.172962
770.801548	2565.359173
771.126949	2568.467885
771.452303	2554.016577
771.777611	2559.981942
772.102872	2560.906154
772.428087	2555.528923
772.753256	2556.537154
773.078378	2556.705192
773.403453	2561.998404
773.728482	2562.334481
774.053465	2555.192846
774.378401	2563.762808
774.703291	2573.172962
775.028135	2574.181192
775.352932	2564.518981
775.677683	2563.174673
776.002388	2561.746346
776.327046	2561.074192
776.651658	2559.309788
776.976224	2565.191135
777.300743	2575.861577
777.625216	2556.285096
777.949643	2555.360885
778.274024	2573.845115
778.598359	2568.635923
778.922647	2557.041269
779.246889	2561.242231
779.571086	2569.644154
779.895236	2561.158212
780.219339	2565.107115
780.543397	2558.637635
780.867409	2550.067673
781.191374	2561.578308
781.515294	2571.912673
781.839167	2549.059442
782.162995	2570.652385
782.486776	2552.756288
782.810511	2580.818712
783.134201	2553.680500
783.457844	2561.494288
783.781441	2563.594769
784.104993	2563.510750
784.428498	2569.812192
784.751958	2548.639346
785.075372	2553.596481
785.398739	2562.586538
785.722061	2577.625981
786.045337	2572.332769
786.368568	2562.586538
786.691752	2575.861577
787.014891	2556.453135
787.337983	2579.894500
787.661030	2564.518981
787.984031	2563.594769
788.306987	2561.746346
788.629897	2545.614654
788.952760	2564.266923
789.275579	2573.004923
789.598351	2571.492577
789.921078	2559.057731
790.243759	2558.049500
790.566395	2563.090654
790.888984	2546.370827
791.211529	2564.182904
791.534027	2557.629404
791.856480	2568.467885
792.178888	2568.635923
792.501249	2556.033038
792.823566	2565.863288
793.145836	2556.789212
793.468062	2552.000115
793.790241	2557.965481
794.112375	2563.342712
794.434464	2562.922615
794.756507	2556.957250
795.078505	2563.006635
795.400457	2547.967192
795.722364	2573.593058
796.044226	2576.365692
796.366042	2557.881462
796.687812	2559.057731
797.009538	2552.504231
797.331218	2568.635923
797.652852	2561.074192
797.974442	2560.654096
798.295986	2565.359173
798.617484	2565.695250
798.938938	2549.059442
799.260346	2558.637635
799.581709	2566.367404
799.903026	2556.285096
800.224299	2556.789212
800.545526	2563.594769
800.866708	2558.553615
801.187845	2565.779269
801.508936	2562.922615
801.829983	2565.275154
802.150984	2563.426731
802.471940	2550.823846
802.792851	2541.245654
803.113717	2563.510750
803.434538	2534.524115
803.755314	2550.403750
804.076045	2549.143462
804.396731	2564.434962
804.717372	2558.217538
805.037967	2556.621173
805.358518	2552.084135
805.679024	2551.916096
805.999485	2564.266923
806.319901	2565.443192
806.640272	2551.664038
806.960598	2564.939077
807.280879	2562.082423
807.601115	2550.571788
807.921306	2569.896212
808.241453	2561.998404
808.561554	2552.000115
808.881611	2554.016577
809.201623	2557.209308
809.521590	2555.696962
809.841513	2560.570077
810.161390	2562.166442
810.481223	2565.275154
810.801011	2557.125288
811.120755	2578.298135
811.440453	2574.181192
811.760107	2558.301558
812.079716	2575.105404
812.399281	2564.350942
812.718801	2559.981942
813.038276	2565.863288
813.357707	2557.797442
813.677093	2551.916096
813.996434	2561.410269
814.315731	2566.283385
814.634983	2557.125288
814.954191	2571.240519
815.273354	2565.359173
815.592473	2553.764519
815.911547	2553.932558
816.230577	2568.215827
816.549562	2556.873231
816.868502	2550.151692
817.187399	2555.444904
817.506250	2551.159923
817.825058	2558.973712
818.143821	2577.205885
818.462539	2559.897923
818.781213	2561.242231
819.099843	2545.950731
819.418429	2551.411981
819.736970	2570.820423
820.055466	2558.721654
820.373919	2544.102308
820.692327	2559.225769
821.010691	2561.998404
821.329011	2564.014865
821.647286	2544.270346
821.965517	2554.100596
822.283704	2554.604712
822.601847	2572.668846
822.919945	2564.939077
823.237999	2550.991885
823.556010	2571.408558
823.873976	2553.428442
824.191897	2556.537154
824.509775	2554.016577
824.827609	2559.813904
825.145398	2568.887981
825.463144	2550.655808
825.780845	2560.990173
826.098502	2556.873231
826.416116	2575.945596
826.733685	2547.295038
827.051210	2545.446615
827.368692	2550.739827
827.686129	2566.115346
828.003522	2559.309788
828.320872	2548.219250
828.638177	2545.446615
828.955439	2573.004923
829.272656	2562.418500
829.589830	2561.074192
829.906960	2540.825558
830.224046	2584.347519
830.541088	2567.543673
830.858086	2557.965481
831.175041	2561.914385
831.491952	2556.621173
831.808819	2571.156500
832.125642	2556.789212
832.442421	2561.746346
832.759157	2560.065962
833.075849	2549.899635
833.392497	2556.117058
833.709101	2566.535442
834.025662	2561.410269
834.342179	2548.639346
834.658653	2546.454846
834.975083	2568.383865
835.291469	2565.947308
835.607811	2561.578308
835.924110	2560.990173
836.240366	2568.383865
836.556578	2560.234000
836.872746	2559.981942
837.188871	2552.420212
837.504952	2566.199365
837.820990	2564.939077
838.136984	2560.654096
838.452935	2553.512462
838.768842	2563.174673
839.084706	2564.182904
839.400526	2556.621173
839.716303	2557.209308
840.032037	2570.148269
840.347727	2561.158212
840.663373	2567.207596
840.978977	2561.326250
841.294537	2556.285096
841.610054	2572.752865
841.925527	2555.612942
842.240957	2558.217538
842.556344	2574.685308
842.871687	2563.762808
843.186987	2565.863288
843.502244	2560.065962
843.817458	2562.250462
844.132629	2562.586538
844.447756	2568.887981
844.762840	2570.904442
845.077881	2571.324538
845.392879	2553.596481
845.707833	2558.805673
846.022745	2567.123577
846.337613	2566.535442
846.652438	2561.662327
846.967221	2573.929135
847.281960	2566.619462
847.596656	2577.625981
847.911309	2560.822135
848.225919	2560.234000
848.540485	2554.520692
848.855009	2555.696962
849.169490	2557.629404
849.483928	2549.731596
849.798323	2554.940788
850.112675	2553.092365
850.426984	2554.352654
850.741251	2564.266923
851.055474	2560.990173
851.369654	2549.731596
851.683792	2575.777558
851.997887	2558.385577
852.311938	2554.184615
852.625947	2559.729885
852.939914	2555.865000
853.253837	2557.041269
853.567718	2563.594769
853.881555	2551.748058
854.195350	2558.805673
854.509103	2568.635923
854.822812	2565.779269
855.136479	2563.762808
855.450103	2556.285096
855.763685	2567.039558
856.077224	2567.375635
856.390720	2547.547096
856.704173	2557.797442
857.017584	2567.123577
857.330953	2547.547096
857.644278	2552.588250
857.957561	2567.459654
858.270802	2564.518981
858.584000	2543.682212
858.897155	2566.535442
859.210268	2562.502519
859.523339	2553.932558
859.836367	2573.172962
860.149352	2549.815615
860.462295	2563.258692
860.775195	2572.752865
861.088054	2568.551904
861.400869	2568.467885
861.713642	2544.186327
862.026373	2554.436673
862.339062	2560.654096
862.651708	2571.072481
862.964312	2564.014865
863.276873	2560.906154
863.589392	2557.881462
863.901869	2549.059442
864.214303	2571.828654
864.526696	2558.721654
864.839045	2559.057731
865.151353	2550.655808
865.463619	2559.393808
865.775842	2562.670558
866.088023	2565.107115
866.400162	2563.090654
866.712258	2558.805673
867.024313	2565.695250
867.336325	2557.629404
867.648296	2563.846827
867.960224	2556.957250
868.272110	2558.217538
868.583954	2560.402038
868.895755	2564.098885
869.207515	2562.838596
869.519233	2557.881462
869.830909	2569.812192
870.142542	2560.318019
870.454134	2555.108827
870.765684	2555.865000
871.077191	2539.901346
871.388657	2549.983654
871.700081	2563.678788
872.011463	2555.192846
872.322803	2542.589962
872.634101	2560.486058
872.945357	2563.090654
873.256571	2560.402038
873.567744	2548.471308
873.878874	2550.067673
874.189963	2550.403750
874.501010	2564.098885
874.812015	2563.594769
875.122979	2565.023096
875.433900	2546.874942
875.744780	2557.293327
876.055618	2558.805673
876.366415	2555.696962
876.677169	2557.041269
876.987882	2557.881462
877.298554	2557.629404
877.609183	2558.217538
877.919771	2552.084135
878.230317	2566.031327
878.540822	2560.822135
878.851285	2539.901346
879.161707	2553.176385
879.472087	2560.570077
879.782425	2539.229192
880.092722	2566.787500
880.402977	2558.133519
880.713191	2564.855058
881.023363	2553.764519
881.333494	2559.729885
881.643583	2563.006635
881.953631	2559.897923
882.263637	2547.883173
882.573602	2562.838596
882.883526	2573.341000
883.193408	2550.739827
883.503248	2558.301558
883.813048	2566.199365
884.122806	2574.433250
884.432522	2564.266923
884.742197	2558.469596
885.051831	2560.065962
885.361424	2565.359173
885.670975	2561.158212
885.980485	2551.243942
886.289954	2564.518981
886.599382	2558.217538
886.908768	2577.373923
887.218113	2569.392096
887.527417	2554.100596
887.836680	2561.830365
888.145901	2551.748058
888.455082	2558.721654
888.764221	2558.973712
889.073319	2564.014865
889.382376	2559.225769
889.691392	2550.655808
890.000366	2559.393808
890.309300	2537.212731
890.618193	2556.285096
890.927044	2560.906154
891.235855	2564.855058
891.544625	2572.500808
891.853353	2559.477827
892.162041	2556.789212
892.470687	2565.107115
892.779293	2561.158212
893.087858	2573.341000
893.396381	2580.314596
893.704864	2547.547096
894.013306	2552.336192
894.321707	2565.359173
894.630068	2563.006635
894.938387	2564.603000
895.246665	2568.383865
895.554903	2568.467885
895.863100	2566.451423
896.171256	2546.958962
896.479371	2561.830365
896.787446	2563.006635
897.095480	2564.603000
897.403473	2558.133519
897.711425	2567.795731
898.019336	2558.469596
898.327207	2564.350942
898.635038	2558.637635
898.942827	2549.311500
899.250576	2556.033038
899.558284	2560.402038
899.865952	2557.293327
900.173579	2545.866712
900.481165	2557.545385
900.788711	2546.286808
901.096216	2556.705192
901.403681	2550.991885
901.711105	2559.561846
902.018489	2567.627692
902.325832	2558.637635
902.633135	2559.897923
902.940397	2547.379058
903.247619	2551.075904
903.554800	2575.441481
903.861941	2575.189423
904.169041	2556.537154
904.476101	2560.822135
904.783121	2554.436673
905.090100	2551.159923
905.397039	2557.461365
905.703938	2563.678788
906.010796	2543.682212
906.317614	2553.260404
906.624391	2545.194558
906.931129	2552.252173
907.237826	2553.344423
907.544483	2545.530635
907.851099	2555.108827
908.157675	2559.393808
908.464211	2560.570077
908.770707	2569.308077
909.077163	2568.215827
909.383578	2560.570077
909.689954	2563.678788
909.996289	2560.234000
910.302584	2555.949019
910.608839	2573.929135
910.915054	2567.375635
911.221229	2563.594769
911.527363	2556.453135
911.833458	2558.721654
912.139513	2545.782692
912.445527	2543.262115
912.751502	2568.383865
913.057436	2564.771038
913.363331	2560.065962
913.669186	2555.024808
913.975000	2567.207596
914.280775	2564.603000
914.586510	2551.664038
914.892205	2558.889692
915.197859	2564.855058
915.503475	2548.387288
915.809050	2559.477827
916.114585	2561.578308
916.420081	2562.166442
916.725536	2555.276865
917.030952	2563.174673
917.336328	2553.512462
917.641665	2556.789212
917.946961	2558.133519
918.252218	2551.664038
918.557435	2554.268635
918.862612	2553.176385
919.167750	2560.486058
919.472848	2552.252173
919.777906	2555.360885
920.082925	2553.512462
920.387904	2552.084135
920.692843	2548.219250
920.997743	2545.110538
921.302603	2568.299846
921.607423	2568.215827
921.912204	2557.797442
922.216946	2579.642442
922.521647	2575.609519
922.826310	2563.006635
923.130932	2550.151692
923.435516	2553.512462
923.740059	2563.174673
924.044564	2551.580019
924.349028	2551.327962
924.653454	2560.402038
924.957840	2565.443192
925.262186	2560.738115
925.566493	2568.215827
925.870761	2550.907865
926.174989	2558.553615
926.479178	2560.234000
926.783328	2550.571788
927.087438	2554.856769
927.391509	2569.896212
927.695541	2558.049500
927.999533	2557.125288
928.303486	2543.430154
928.607400	2560.822135
928.911275	2566.703481
929.215110	2553.344423
929.518906	2550.991885
929.822663	2560.149981
930.126381	2560.990173
930.430060	2557.713423
930.733699	2534.608135
931.037299	2566.283385
931.340861	2553.596481
931.644383	2556.453135
931.947866	2566.619462
932.251309	2557.293327
932.554714	2552.252173
932.858080	2553.344423
933.161407	2548.387288
933.464694	2545.446615
933.767943	2566.283385
934.071153	2562.334481
934.374323	2563.342712
934.677455	2577.794019
934.980548	2540.321442
935.283602	2561.158212
935.586617	2556.705192
935.889593	2552.168154
936.192530	2572.248750
936.495428	2557.881462
936.798287	2549.227481
937.101108	2559.729885
937.403890	2565.107115
937.706632	2557.125288
938.009336	2564.518981
938.312002	2562.922615
938.614628	2559.057731
938.917216	2558.385577
939.219765	2555.024808
939.522275	2570.148269
939.824747	2552.672269
940.127179	2551.916096
940.429573	2542.421923
940.731929	2549.815615
941.034246	2561.662327
941.336524	2564.687019
941.638763	2555.192846
941.940964	2546.118769
942.243126	2573.088942
942.545250	2552.252173
942.847335	2557.713423
943.149381	2540.405462
943.451389	2553.764519
943.753359	2557.125288
944.055290	2542.926038
944.357182	2554.856769
944.659036	2556.117058
944.960851	2569.140038
945.262628	2554.100596
945.564367	2558.133519
945.866067	2551.832077
946.167729	2569.140038
946.469352	2539.061154
946.770937	2558.973712
947.072484	2560.065962
947.373992	2565.107115
947.675462	2552.672269
947.976893	2542.337904
948.278286	2582.079000
948.579641	2562.166442
948.880958	2558.553615
949.182236	2561.494288
949.483476	2552.336192
949.784678	2573.761096
950.085841	2550.991885
950.386967	2549.731596
950.688054	2571.156500
950.989103	2553.764519
951.290114	2521.081038
951.591087	2559.393808
951.892021	2554.940788
952.192917	2559.897923
952.493776	2545.950731
952.794596	2557.293327
953.095378	2541.161635
953.396122	2558.805673
953.696828	2556.537154
953.997496	2557.377346
954.298126	2578.802250
954.598718	2549.563558
954.899272	2549.311500
955.199788	2545.026519
955.500266	2545.194558
955.800706	2571.408558
956.101108	2562.502519
956.401472	2559.981942
956.701798	2562.502519
957.002087	2547.042981
957.302337	2545.698673
957.602550	2567.879750
957.902724	2550.739827
958.202861	2558.217538
958.502960	2558.385577
958.803022	2547.799154
959.103045	2556.537154
959.403031	2552.840308
959.702979	2563.006635
960.002889	2567.543673
960.302762	2559.309788
960.602596	2546.370827
960.902393	2552.168154
961.202153	2561.662327
961.501875	2562.922615
961.801559	2562.586538
962.101205	2552.840308
962.400814	2556.285096
962.700385	2551.327962
962.999918	2565.443192
963.299414	2559.393808
963.598873	2556.201077
963.898293	2554.688731
964.197677	2552.168154
964.497022	2562.418500
964.796331	2558.973712
965.095601	2564.182904
965.394835	2566.535442
965.694030	2548.471308
965.993189	2561.914385
966.292309	2546.370827
966.591393	2550.235712
966.890439	2561.662327
967.189447	2552.840308
967.488419	2560.486058
967.787353	2562.922615
968.086249	2556.285096
968.385108	2552.000115
968.683930	2553.764519
968.982714	2555.949019
969.281462	2542.926038
969.580172	2559.729885
969.878844	2549.563558
970.177480	2547.799154
970.476078	2557.209308
970.774639	2564.603000
971.073162	2557.881462
971.371649	2563.006635
971.670098	2558.301558
971.968510	2576.449712
972.266885	2565.191135
972.565223	2551.075904
972.863524	2570.316308
973.161788	2554.268635
973.460014	2553.596481
973.758204	2562.166442
974.056356	2552.672269
974.354471	2553.260404
974.652550	2553.260404
974.950591	2565.191135
975.248595	2555.276865
975.546563	2561.914385
975.844493	2559.393808
976.142386	2557.629404
976.440243	2548.975423
976.738062	2551.664038
977.035845	2551.496000
977.333590	2565.359173
977.631299	2555.192846
977.928971	2557.965481
978.226606	2561.494288
978.524204	2539.313212
978.821765	2547.463077
979.119290	2552.504231
979.416777	2531.079327
979.714228	2566.619462
980.011642	2564.098885
980.309020	2543.178096
980.606360	2559.141750
980.903664	2562.418500
981.200931	2560.906154
981.498162	2548.051212
981.795356	2567.459654
982.092513	2548.219250
982.389633	2552.588250
982.686717	2560.234000
982.983764	2553.680500
983.280775	2560.402038
983.577749	2563.510750
983.874686	2563.846827
984.171587	2552.168154
984.468451	2569.224058
984.765279	2555.865000
985.062070	2565.695250
985.358824	2561.158212
985.655543	2558.805673
985.952224	2556.369115
986.248869	2561.578308
986.545478	2552.168154
986.842050	2558.553615
987.138586	2546.034750
987.435086	2567.963769
987.731549	2556.453135
988.027975	2564.603000
988.324366	2542.589962
988.620719	2562.166442
988.917037	2568.467885
989.213318	2560.065962
989.509563	2553.428442
989.805772	2576.953827
990.101944	2558.637635
990.398080	2546.202788
990.694180	2549.647577
990.990244	2559.729885
991.286271	2549.059442
991.582262	2551.243942
991.878217	2553.344423
992.174136	2554.772750
992.470019	2553.764519
992.765865	2554.268635
993.061676	2548.723365
993.357450	2560.065962
993.653188	2546.370827
993.948890	2541.749769
994.244556	2546.370827
994.540186	2543.346135
994.835780	2563.594769
995.131337	2564.939077
995.426859	2567.123577
995.722345	2549.815615
996.017795	2563.762808
996.313208	2561.830365
996.608586	2541.497712
996.903928	2554.016577
997.199234	2554.100596
997.494504	2550.067673
997.789738	2554.688731
998.084936	2554.940788
998.380099	2558.217538
998.675225	2551.664038
998.970316	2537.380769
999.265371	2550.907865
999.560390	2548.135231
999.855373	2560.318019
1000.150320	2559.897923
1000.445232	2543.346135
1000.740108	2545.026519
1001.034948	2541.581731
1001.329752	2550.823846
1001.624521	2558.469596
1001.919254	2558.637635
1002.213951	2572.836885
1002.508613	2546.790923
1002.803239	2565.359173
1003.097829	2559.981942
1003.392384	2566.451423
1003.686903	2557.881462
1003.981386	2569.140038
1004.275834	2561.578308
1004.570246	2544.774462
1004.864623	2551.243942
1005.158964	2546.622885
1005.453270	2564.014865
1005.747540	2542.505942
1006.041775	2557.209308
1006.335974	2546.874942
1006.630138	2547.883173
1006.924266	2549.899635
1007.218359	2555.360885
1007.512416	2544.774462
1007.806438	2558.133519
1008.100425	2560.738115
1008.394376	2556.117058
1008.688292	2558.889692
1008.982172	2559.141750
1009.276017	2549.479538
1009.569827	2550.739827
1009.863602	2550.487769
1010.157341	2555.108827
1010.451045	2537.800865
1010.744714	2550.991885
1011.038347	2546.118769
1011.331945	2560.654096
1011.625508	2553.848538
1011.919036	2550.403750
1012.212528	2552.336192
1012.505986	2552.672269
1012.799408	2558.889692
1013.092795	2555.192846
1013.386147	2554.604712
1013.679464	2556.453135
1013.972745	2558.133519
1014.265992	2571.996692
1014.559204	2554.352654
1014.852380	2550.403750
1015.145521	2555.612942
1015.438628	2552.252173
1015.731699	2552.756288
1016.024736	2555.444904
1016.317737	2560.318019
1016.610703	2570.736404
1016.903635	2554.184615
1017.196531	2566.787500
1017.489393	2551.243942
1017.782219	2561.242231
1018.075011	2549.647577
1018.367768	2553.764519
1018.660490	2561.494288
1018.953177	2561.494288
1019.245829	2561.494288
