Dividing Wavelength (nm)	Counts (n)	Blue Motor Position (mm): 29.500000	Red Motor Position (mm): 0.000000	
326.493990	1.000498
326.888308	1.000498
327.282561	1.000498
327.676750	1.000466
328.070874	1.003058
328.464933	1.001584
328.858929	1.001458
329.252859	1.001808
329.646726	1.000443
330.040528	1.000371
330.434265	1.001847
330.827938	0.999839
331.221547	1.000843
331.615091	1.000701
332.008571	1.001624
332.401986	0.999569
332.795338	1.000718
333.188625	1.001407
333.581847	1.001530
333.975006	1.001096
334.368100	1.001907
334.761129	0.999931
335.154095	1.000641
335.546996	1.001129
335.939833	0.999990
336.332606	1.000759
336.725315	0.999660
337.117960	1.000310
337.510540	0.999438
337.903056	1.000677
338.295508	1.001227
338.687896	1.000347
339.080220	1.000542
339.472480	0.999325
339.864676	0.999864
340.256807	0.999784
340.648875	0.999942
341.040879	1.000148
341.432818	1.000309
341.824694	0.998876
342.216506	1.001179
342.608253	0.999903
342.999937	0.999306
343.391557	1.000681
343.783113	1.002008
344.174605	0.999049
344.566033	0.999052
344.957397	0.999860
345.348697	1.000398
345.739934	1.000149
346.131106	0.999708
346.522215	0.999879
346.913260	1.000312
347.304241	1.000364
347.695159	0.999594
348.086012	0.999234
348.476802	0.999311
348.867528	0.999087
349.258191	0.999739
349.648789	0.999038
350.039324	0.999889
350.429796	0.999243
350.820203	0.998251
351.210548	0.999612
351.600828	0.998277
351.991045	0.998984
352.381198	1.000263
352.771288	0.998671
353.161314	0.999650
353.551276	0.998889
353.941175	0.997811
354.331010	1.000107
354.720782	0.999865
355.110490	0.998847
355.500135	1.000042
355.889717	0.998148
356.279235	0.999028
356.668689	0.999584
357.058080	0.998450
357.447408	0.998367
357.836672	0.998980
358.225873	0.998392
358.615010	0.998378
359.004084	0.998011
359.393095	0.999798
359.782043	0.998761
360.170927	0.999894
360.559748	0.998535
360.948505	0.999354
361.337199	0.999575
361.725830	0.998373
362.114398	0.998582
362.502903	0.996817
362.891344	0.996811
363.279722	0.997271
363.668037	0.998732
364.056289	0.997571
364.444478	0.999416
364.832603	0.998470
365.220665	0.998037
365.608665	0.997499
365.996601	0.998743
366.384474	0.996667
366.772284	0.997620
367.160031	0.996768
367.547715	0.996360
367.935336	0.995425
368.322893	0.994291
368.710388	0.993647
369.097820	0.993036
369.485189	0.989606
369.872495	0.988100
370.259738	0.986553
370.646918	0.982850
371.034035	0.980651
371.421090	0.976899
371.808081	0.971818
372.195010	0.970787
372.581875	0.965289
372.968678	0.961018
373.355418	0.956338
373.742096	0.949499
374.128710	0.944062
374.515262	0.940334
374.901751	0.934978
375.288177	0.930206
375.674540	0.922584
376.060841	0.916927
376.447079	0.909774
376.833254	0.902858
377.219367	0.898237
377.605417	0.886576
377.991404	0.883781
378.377329	0.877696
378.763191	0.870553
379.148991	0.862532
379.534727	0.854706
379.920402	0.847141
380.306013	0.843247
380.691563	0.830027
381.077049	0.823352
381.462474	0.819899
381.847835	0.808344
382.233134	0.803089
382.618371	0.803537
383.003545	0.786263
383.388657	0.783559
383.773706	0.776386
384.158693	0.772361
384.543618	0.767481
384.928480	0.759272
385.313280	0.748556
385.698017	0.748373
386.082692	0.736990
386.467305	0.734935
386.851856	0.729791
387.236344	0.724193
387.620770	0.719016
388.005133	0.712508
388.389435	0.706880
388.773674	0.704039
389.157851	0.696975
389.541965	0.694497
389.926018	0.701427
390.310008	0.687450
390.693936	0.684814
391.077802	0.677084
391.461606	0.678326
391.845348	0.667441
392.229027	0.667551
392.612645	0.665096
392.996200	0.652736
393.379694	0.644755
393.763125	0.635582
394.146494	0.639476
394.529801	0.630458
394.913047	0.622368
395.296230	0.628577
395.679351	0.619795
396.062410	0.617056
396.445408	0.619169
396.828343	0.614896
397.211217	0.609637
397.594028	0.622142
397.976778	0.612492
398.359466	0.609199
398.742092	0.603026
399.124656	0.616089
399.507158	0.603884
399.889598	0.601656
400.271977	0.592317
400.654294	0.597297
401.036549	0.595616
401.418742	0.599178
401.800874	0.585582
402.182944	0.582513
402.564952	0.574643
402.946898	0.576784
403.328783	0.576320
403.710606	0.588394
404.092367	0.562937
404.474067	0.568511
404.855705	0.567247
405.237282	0.576132
405.618797	0.561592
406.000250	0.557896
406.381642	0.548104
406.762972	0.552768
407.144240	0.551387
407.525447	0.551668
407.906593	0.544705
408.287677	0.540371
408.668700	0.548677
409.049661	0.542407
409.430560	0.537247
409.811399	0.546157
410.192176	0.527563
410.572891	0.534986
410.953545	0.523171
411.334138	0.536833
411.714669	0.529910
412.095139	0.541056
412.475547	0.525389
412.855894	0.527840
413.236180	0.526422
413.616405	0.531581
413.996568	0.522265
414.376670	0.528882
414.756711	0.533510
415.136691	0.530599
415.516609	0.521565
415.896466	0.518266
416.276262	0.513771
416.655997	0.515741
417.035670	0.497717
417.415283	0.488960
417.794834	0.493970
418.174324	0.499105
418.553753	0.508525
418.933121	0.490706
419.312428	0.484601
419.691674	0.490366
420.070859	0.478365
420.449983	0.486593
420.829045	0.475725
421.208047	0.485470
421.586988	0.478379
421.965867	0.476501
422.344686	0.466078
422.723444	0.478842
423.102141	0.496005
423.480777	0.469011
423.859352	0.489692
424.237866	0.466794
424.616319	0.467841
424.994712	0.458638
425.373044	0.469632
425.751314	0.457903
426.129524	0.475075
426.507673	0.458604
426.885762	0.452380
427.263789	0.458968
427.641756	0.468795
428.019662	0.460634
428.397508	0.460710
428.775292	0.465333
429.153016	0.458195
429.530679	0.465845
429.908282	0.460559
430.285824	0.471910
430.663305	0.452318
431.040726	0.474864
431.418086	0.476315
431.795385	0.470010
432.172624	0.471038
432.549802	0.473466
432.926920	0.474600
433.303977	0.476305
433.680974	0.476123
434.057910	0.476888
434.434786	0.478780
434.811601	0.484703
435.188355	0.470583
435.565050	0.482758
435.941683	0.487044
436.318257	0.475625
436.694770	0.480470
437.071222	0.483138
437.447614	0.490001
437.823946	0.500015
438.200218	0.494677
438.576429	0.507847
438.952580	0.506228
439.328670	0.508126
439.704700	0.518963
440.080670	0.524754
440.456580	0.514791
440.832429	0.526969
441.208218	0.541857
441.583947	0.538317
441.959616	0.543587
442.335224	0.554823
442.710773	0.553082
443.086261	0.558902
443.461689	0.575660
443.837057	0.574633
444.212365	0.574559
444.587612	0.586739
444.962800	0.586255
445.337927	0.594968
445.712995	0.621041
446.088002	0.601533
446.462949	0.616628
446.837837	0.628913
447.212664	0.627408
447.587431	0.631384
447.962139	0.621718
448.336786	0.604482
448.711374	0.619380
449.085901	0.655055
449.460369	0.666097
449.834776	0.675852
450.209124	0.673956
450.583412	0.680534
450.957640	0.682611
451.331808	0.699026
451.705917	0.718673
452.079965	0.729054
452.453954	0.732574
452.827883	0.743005
453.201752	0.749421
453.575562	0.761598
453.949311	0.766204
454.323001	0.774926
454.696632	0.781790
455.070202	0.786548
455.443713	0.791048
455.817164	0.797331
456.190556	0.803687
456.563888	0.810326
456.937160	0.816613
457.310373	0.828964
457.683526	0.836649
458.056619	0.845487
458.429653	0.851780
458.802628	0.858839
459.175542	0.863525
459.548398	0.866521
459.921194	0.869798
460.293930	0.875128
460.666607	0.874339
461.039224	0.876880
461.411782	0.881724
461.784280	0.888030
462.156719	0.896238
462.529099	0.902526
462.901419	0.910101
463.273680	0.915886
463.645882	0.920717
464.018024	0.927339
464.390106	0.929783
464.762130	0.932034
465.134094	0.934460
465.505999	0.930471
465.877845	0.929594
466.249631	0.932402
466.621358	0.939048
466.993026	0.946204
467.364634	0.950847
467.736184	0.954966
468.107674	0.958980
468.479105	0.961389
468.850477	0.964488
469.221790	0.967203
469.593043	0.970273
469.964238	0.972429
470.335373	0.973524
470.706449	0.976614
471.077467	0.977799
471.448425	0.978369
471.819324	0.978340
472.190164	0.979286
472.560945	0.981947
472.931667	0.983920
473.302330	0.985190
473.672934	0.986775
474.043479	0.987045
474.413965	0.987788
474.784393	0.988617
475.154761	0.989081
475.525070	0.989890
475.895321	0.990921
476.265513	0.991354
476.635645	0.991911
477.005719	0.992349
477.375734	0.992012
477.745691	0.991938
478.115588	0.992525
478.485427	0.992420
478.855207	0.992950
479.224928	0.993122
479.594591	0.993227
479.964194	0.993520
480.333739	0.993857
480.703226	0.993298
481.072653	0.993620
481.442022	0.994200
481.811333	0.994183
482.180584	0.994264
482.549777	0.995212
482.918912	0.994526
483.287988	0.995221
483.657005	0.994078
484.025964	0.995129
484.394864	0.994810
484.763706	0.995182
485.132489	0.995382
485.501213	0.995080
485.869879	0.995216
486.238487	0.994846
486.607036	0.996037
486.975527	0.996135
487.343959	0.995184
487.712333	0.995738
488.080648	0.995692
488.448905	0.996116
488.817104	0.996496
489.185244	0.996173
489.553326	0.996310
489.921350	0.996027
490.289315	0.996446
490.657222	0.995519
491.025070	0.996353
491.392861	0.995581
491.760593	0.995689
492.128267	0.995360
492.495883	0.995341
492.863440	0.996561
493.230939	0.996976
493.598380	0.996793
493.965763	0.996071
494.333088	0.995612
494.700354	0.996137
495.067563	0.996559
495.434713	0.996659
495.801805	0.997023
496.168839	0.996746
496.535815	0.996360
496.902733	0.996654
497.269593	0.996902
497.636395	0.995812
498.003139	0.996584
498.369825	0.997306
498.736453	0.996371
499.103023	0.996901
499.469535	0.997331
499.835989	0.996638
500.202385	0.996036
500.568723	0.996255
500.935003	0.996711
501.301226	0.997052
501.667390	0.996531
502.033497	0.997065
502.399546	0.996723
502.765537	0.996221
503.131470	0.996439
503.497345	0.997582
503.863163	0.996727
504.228923	0.996773
504.594625	0.996282
504.960269	0.997120
505.325856	0.997526
505.691385	0.996982
506.056856	0.997226
506.422270	0.997122
506.787625	0.997578
507.152924	0.997331
507.518164	0.997582
507.883347	0.997184
508.248472	0.997165
508.613540	0.996572
508.978550	0.997833
509.343503	0.997493
509.708398	0.997715
510.073236	0.997583
510.438016	0.996931
510.802738	0.996959
511.167403	0.996935
511.532010	0.998253
511.896561	0.997003
512.261053	0.996852
512.625488	0.997259
512.989866	0.996965
513.354186	0.997140
513.718449	0.997594
514.082655	0.997126
514.446803	0.997318
514.810894	0.997861
515.174927	0.997675
515.538904	0.997586
515.902822	0.996814
516.266684	0.997380
516.630488	0.997300
516.994235	0.997376
517.357925	0.997842
517.721558	0.997444
518.085133	0.996435
518.448651	0.997160
518.812112	0.997772
519.175516	0.997142
519.538863	0.997011
519.902152	0.997761
520.265385	0.997101
520.628560	0.996896
520.991678	0.996789
521.354739	0.997744
521.717743	0.996826
522.080690	0.996583
522.443580	0.997041
522.806413	0.996620
523.169189	0.997402
523.531908	0.996327
523.894569	0.996885
524.257174	0.996891
524.619722	0.996794
524.982213	0.997182
525.344647	0.997210
525.707025	0.996659
526.069345	0.996510
526.431608	0.997160
526.793815	0.997926
527.155964	0.997209
527.518057	0.997427
527.880093	0.996493
528.242072	0.996667
528.603995	0.996937
528.965860	0.997474
529.327669	0.997308
529.689421	0.996578
530.051117	0.997759
530.412755	0.997388
530.774337	0.997338
531.135862	0.998063
531.497331	0.996912
531.858743	0.997436
532.220098	0.997254
532.581396	0.997457
532.942638	0.997161
533.303824	0.997436
533.664953	0.996594
534.026025	0.997375
534.387040	0.997092
534.747999	0.997199
535.108902	0.996557
535.469748	0.998019
535.830537	0.997637
536.191270	0.996696
536.551947	0.996839
536.912567	0.996931
537.273131	0.997785
537.633638	0.997261
537.994089	0.997154
538.354483	0.996816
538.714821	0.996980
539.075103	0.997017
539.435328	0.997398
539.795497	0.997362
540.155609	0.997204
540.515665	0.997585
540.875665	0.997375
541.235609	0.997033
541.595496	0.997160
541.955328	0.997086
542.315102	0.997367
542.674821	0.997432
543.034483	0.997572
543.394090	0.996190
543.753640	0.996908
544.113134	0.996282
544.472571	0.997304
544.831953	0.997317
545.191278	0.997505
545.550548	0.996469
545.909761	0.997088
546.268918	0.997659
546.628019	0.997553
546.987064	0.996792
547.346053	0.996621
547.704986	0.996907
548.063863	0.997013
548.422684	0.997630
548.781449	0.997036
549.140158	0.997531
549.498811	0.996446
549.857408	0.996774
550.215949	0.996017
550.574434	0.996713
550.932864	0.997553
551.291237	0.996763
551.649555	0.997381
552.007817	0.997332
552.366022	0.997089
552.724173	0.997386
553.082267	0.996895
553.440305	0.996629
553.798288	0.996062
554.156215	0.996691
554.514086	0.997475
554.871902	0.997399
555.229661	0.996511
555.587365	0.996719
555.945014	0.997448
556.302606	0.996264
556.660143	0.997616
557.017625	0.997179
557.375050	0.997046
557.732421	0.996853
558.089735	0.996396
558.446994	0.996353
558.804197	0.997011
559.161345	0.996801
559.518437	0.996880
559.875474	0.997095
560.232455	0.997158
560.589381	0.996651
560.946251	0.997023
561.303065	0.996727
561.659825	0.996885
562.016528	0.997179
562.373177	0.996896
562.729770	0.997536
563.086307	0.995855
563.442789	0.996689
563.799216	0.996370
564.155587	0.997143
564.511904	0.997663
564.868164	0.995789
565.224370	0.996591
565.580520	0.996831
565.936615	0.996498
566.292654	0.996161
566.648638	0.997413
567.004567	0.996309
567.360441	0.996837
567.716260	0.996480
568.072023	0.996791
568.427732	0.996862
568.783385	0.996438
569.138982	0.996962
569.494525	0.996287
569.850013	0.997162
570.205445	0.996596
570.560823	0.997428
570.916145	0.996930
571.271412	0.996722
571.626625	0.996774
571.981782	0.996607
572.336884	0.997317
572.691931	0.996585
573.046923	0.997325
573.401860	0.996107
573.756743	0.997192
574.111570	0.997248
574.466342	0.997043
574.821059	0.996794
575.175722	0.997028
575.530330	0.997031
575.884882	0.996335
576.239380	0.996227
576.593823	0.996181
576.948211	0.996860
577.302544	0.996044
577.656823	0.996793
578.011047	0.996344
578.365216	0.997001
578.719330	0.996706
579.073389	0.995915
579.427394	0.996438
579.781344	0.997134
580.135239	0.995805
580.489080	0.996189
580.842866	0.996642
581.196597	0.996890
581.550273	0.996157
581.903895	0.997329
582.257463	0.996511
582.610975	0.996786
582.964434	0.996849
583.317837	0.996677
583.671186	0.996955
584.024481	0.996036
584.377721	0.995765
584.730906	0.996985
585.084037	0.997634
585.437113	0.997202
585.790135	0.995994
586.143103	0.996161
586.496016	0.996410
586.848874	0.996920
587.201679	0.996176
587.554428	0.996312
587.907124	0.997237
588.259765	0.996483
588.612352	0.997142
588.964884	0.996277
589.317362	0.996225
589.669786	0.996262
590.022155	0.996438
590.374470	0.996256
590.726731	0.996026
591.078937	0.997072
591.431090	0.997333
591.783188	0.995910
592.135232	0.997649
592.487222	0.996890
592.839157	0.996402
593.191038	0.996350
593.542866	0.997096
593.894639	0.995229
594.246358	0.996656
594.598022	0.996209
594.949633	0.997063
595.301190	0.996367
595.652692	0.996453
596.004141	0.996336
596.355535	0.996061
596.706876	0.997067
597.058162	0.996368
597.409395	0.996783
597.760573	0.995968
598.111698	0.996223
598.462768	0.996165
598.813785	0.995964
599.164748	0.996179
599.515657	0.996301
599.866511	0.996750
600.217312	0.996811
600.568060	0.995857
600.918753	0.997010
601.269392	0.996630
601.619978	0.996035
601.970510	0.996282
602.320988	0.996587
602.671412	0.996546
603.021783	0.996972
603.372100	0.996775
603.722363	0.997289
604.072572	0.996845
604.422728	0.996313
604.772830	0.996228
605.122878	0.997206
605.472872	0.996751
605.822813	0.996339
606.172701	0.996513
606.522534	0.997378
606.872314	0.997876
607.222041	0.996705
607.571714	0.997166
607.921333	0.996164
608.270899	0.996824
608.620411	0.996564
608.969870	0.997098
609.319276	0.997040
609.668627	0.997043
610.017926	0.996709
610.367171	0.996776
610.716362	0.996761
611.065500	0.995992
611.414585	0.996550
611.763616	0.996053
612.112594	0.996931
612.461518	0.995325
612.810389	0.996542
613.159207	0.996505
613.507971	0.995093
613.856682	0.997521
614.205340	0.995223
614.553945	0.996412
614.902496	0.995887
615.250994	0.996285
615.599439	0.996509
615.947830	0.996191
616.296169	0.996956
616.644454	0.996583
616.992686	0.995787
617.340864	0.996452
617.688990	0.995942
618.037063	0.996451
618.385082	0.995403
618.733048	0.995689
619.080961	0.996218
619.428821	0.997288
619.776628	0.995331
620.124382	0.996697
620.472083	0.996503
620.819731	0.997335
621.167326	0.996055
621.514868	0.996264
621.862357	0.995767
622.209793	0.996253
622.557176	0.996670
622.904506	0.995997
623.251783	0.996299
623.599007	0.996985
623.946179	0.995667
624.293297	0.996489
624.640363	0.996758
624.987376	0.995778
625.334336	0.996056
625.681243	0.996450
626.028097	0.996231
626.374899	0.996335
626.721647	0.997454
627.068343	0.996571
627.414987	0.996659
627.761577	0.995970
628.108115	0.995353
628.454600	0.996375
628.801032	0.997190
629.147412	0.996653
629.493739	0.997666
629.840014	0.997227
630.186236	0.996064
630.532405	0.996183
630.878521	0.995934
631.224585	0.996486
631.570597	0.995562
631.916556	0.996950
632.262462	0.995859
632.608316	0.996810
632.954117	0.995772
633.299866	0.996131
633.645562	0.996413
633.991206	0.996744
634.336797	0.996243
634.682336	0.996621
635.027823	0.996302
635.373257	0.996815
635.718639	0.997308
636.063968	0.996546
636.409245	0.996375
636.754470	0.996580
637.099642	0.997173
637.444762	0.997062
637.789829	0.996418
638.134845	0.996497
638.479808	0.996605
638.824719	0.996104
639.169577	0.996753
639.514383	0.996606
639.859137	0.997695
640.203839	0.996224
640.548489	0.996720
640.893086	0.996463
641.237632	0.997014
641.582125	0.996291
641.926566	0.997125
642.270955	0.997540
642.615292	0.996574
642.959576	0.997494
643.303809	0.997311
643.647990	0.996872
643.992118	0.996671
644.336195	0.996318
644.680219	0.996301
645.024192	0.996425
645.368112	0.996812
645.711981	0.996565
646.055797	0.996919
646.399562	0.995722
646.743274	0.996984
647.086935	0.996392
647.430544	0.996024
647.774101	0.995307
648.117606	0.996985
648.461059	0.997068
648.804460	0.996591
649.147810	0.996038
649.491108	0.995837
649.834354	0.997123
650.177548	0.996796
650.520690	0.995533
650.863781	0.995767
651.206820	0.996414
651.549807	0.997184
651.892742	0.997513
652.235626	0.997214
652.578458	0.996674
652.921238	0.997185
653.263967	0.997624
653.606644	0.995893
653.949269	0.997336
654.291843	0.996213
654.634365	0.996585
654.976836	0.995940
655.319255	0.997247
655.661622	0.997049
656.003938	0.996878
656.346203	0.997003
656.688416	0.997637
657.030577	0.996521
657.372687	0.997835
657.714746	0.995926
658.056753	0.997560
658.398708	0.996053
658.740612	0.998295
659.082465	0.997326
659.424266	0.997111
659.766016	0.996203
660.107715	0.997368
660.449362	0.996945
660.790958	0.996419
661.132503	0.997294
661.473996	0.995437
661.815438	0.996735
662.156829	0.996975
662.498168	0.998111
662.839456	0.996017
663.180693	0.997502
663.521879	0.996976
663.863013	0.997397
664.204097	0.996358
664.545129	0.996472
664.886110	0.997146
665.227040	0.997344
665.567918	0.996394
665.908746	0.995903
666.249522	0.995402
666.590248	0.996464
666.930922	0.995800
667.271545	0.997765
667.612118	0.997413
667.952639	0.995876
668.293109	0.996804
668.633528	0.996029
668.973896	0.997186
669.314213	0.997119
669.654480	0.996256
669.994695	0.995571
670.334859	0.996374
670.674973	0.995771
671.015035	0.996868
671.355047	0.996606
671.695008	0.996116
672.034918	0.997194
672.374777	0.995904
672.714585	0.996389
673.054342	0.996637
673.394049	0.996319
673.733705	0.997183
674.073310	0.996935
674.412864	0.996290
674.752368	0.996095
675.091820	0.997316
675.431223	0.997077
675.770574	0.995600
676.109875	0.996848
676.449125	0.996930
676.788324	0.996405
677.127473	0.997881
677.466571	0.996818
677.805619	0.997232
678.144616	0.997570
678.483562	0.996917
678.822458	0.997632
679.161303	0.996352
679.500098	0.996833
679.838842	0.997637
680.177535	0.996915
680.516179	0.995615
680.854771	0.996131
681.193314	0.996311
681.531805	0.995703
681.870247	0.996675
682.208638	0.996621
682.546978	0.996159
682.885268	0.996427
683.223508	0.996464
683.561697	0.995908
683.899836	0.996178
684.237925	0.996074
684.575963	0.996493
684.913951	0.997004
685.251889	0.995871
685.589776	0.995871
685.927614	0.996107
686.265401	0.996205
686.603137	0.996642
686.940824	0.997341
687.278460	0.997060
687.616046	0.996661
687.953582	0.996477
688.291068	0.998044
688.628504	0.996109
688.965889	0.996104
689.303224	0.995407
689.640510	0.996672
689.977745	0.995999
690.314930	0.995941
690.652065	0.996373
690.989150	0.996363
691.326185	0.996595
691.663170	0.996091
692.000105	0.996472
692.336990	0.996905
692.673825	0.997062
693.010610	0.997156
693.347345	0.997216
693.684030	0.996314
694.020665	0.996550
694.357251	0.996784
694.693786	0.996134
695.030272	0.995579
695.366707	0.996844
695.703093	0.995996
696.039429	0.996712
696.375716	0.997287
696.711952	0.996424
697.048139	0.997358
697.384276	0.996159
697.720363	0.996880
698.056400	0.995469
698.392388	0.996662
698.728326	0.996183
699.064214	0.997741
699.400053	0.997001
699.735842	0.997130
700.071581	0.997157
700.407270	0.996414
700.742910	0.997653
701.078501	0.996497
701.414042	0.997496
701.749533	0.995573
702.084974	0.997509
702.420366	0.997282
702.755709	0.997317
703.091002	0.998084
703.426246	0.998591
703.761440	0.996169
704.096584	0.996766
704.431679	0.997614
704.766725	0.997248
705.101721	0.997996
705.436668	0.997249
705.771565	0.997194
706.106413	0.996091
706.441212	0.996475
706.775961	0.997928
707.110661	0.996682
707.445311	0.997717
707.779913	0.997848
708.114465	0.997725
708.448967	0.997980
708.783421	0.997511
709.117825	0.997108
709.452180	0.997629
709.786485	0.997713
710.120742	0.996019
710.454949	0.996407
710.789107	0.996849
711.123216	0.995946
711.457275	0.996071
711.791286	0.997445
712.125247	0.998352
712.459159	0.996381
712.793023	0.996895
713.126837	0.997307
713.460602	0.996349
713.794318	0.996077
714.127985	0.995304
714.461602	0.997339
714.795171	0.997024
715.128691	0.997341
715.462162	0.997060
715.795584	0.997238
716.128957	0.997840
716.462281	0.996711
716.795556	0.996548
717.128782	0.997937
717.461960	0.997359
717.795088	0.996943
718.128167	0.998090
718.461198	0.997205
718.794180	0.997635
719.127113	0.997504
719.459997	0.996843
719.792833	0.997550
720.125619	0.996312
720.458357	0.996842
720.791046	0.997857
721.123686	0.997865
721.456278	0.997551
721.788821	0.997189
722.121315	0.997140
722.453761	0.997688
722.786158	0.996673
723.118506	0.997260
723.450805	0.996654
723.783056	0.998458
724.115259	0.996328
724.447412	0.997931
724.779518	0.997708
725.111574	0.995993
725.443582	0.998099
725.775542	0.997450
726.107453	0.997822
726.439315	0.997880
726.771129	0.997564
727.102895	0.997874
727.434612	0.997835
727.766281	0.997056
728.097901	0.997034
728.429473	0.998063
728.760996	0.996449
729.092471	0.996315
729.423897	0.997514
729.755276	0.997744
730.086606	0.996847
730.417887	0.997546
730.749120	0.997874
731.080305	0.997473
731.411442	0.995999
731.742530	0.996665
732.073570	0.996749
732.404562	0.996806
732.735506	0.996114
733.066401	0.997341
733.397249	0.997392
733.728048	0.997630
734.058798	0.996839
734.389501	0.998187
734.720156	0.997669
735.050762	0.997763
735.381320	0.997294
735.711831	0.997086
736.042293	0.997301
736.372707	0.997744
736.703073	0.996028
737.033391	0.996714
737.363661	0.998349
737.693883	0.997169
738.024056	0.997442
738.354182	0.998118
738.684260	0.997082
739.014290	0.997063
739.344272	0.997170
739.674207	0.997899
740.004093	0.997622
740.333931	0.997724
740.663722	0.997042
740.993464	0.997853
741.323159	0.997066
741.652806	0.998326
741.982405	0.997278
742.311956	0.997570
742.641460	0.997705
742.970915	0.997557
743.300323	0.997183
743.629683	0.996876
743.958996	0.997733
744.288260	0.996637
744.617477	0.997474
744.946647	0.997662
745.275768	0.998701
745.604842	0.997407
745.933869	0.997623
746.262847	0.997859
746.591778	0.996885
746.920662	0.998131
747.249498	0.998678
747.578286	0.999127
747.907027	0.998558
748.235720	0.997683
748.564365	0.997766
748.892963	0.997450
749.221514	0.997523
749.550017	0.997124
749.878473	0.997886
750.206881	0.998631
750.535242	0.998492
750.863555	0.996854
751.191821	0.997944
751.520039	0.997197
751.848210	0.996877
752.176334	0.997307
752.504411	0.998000
752.832440	0.997946
753.160421	0.998740
753.488356	0.998060
753.816243	0.997690
754.144082	0.996893
754.471875	0.997730
754.799620	0.998742
755.127318	0.996936
755.454969	0.997580
755.782572	0.999559
756.110129	0.997694
756.437638	0.998872
756.765100	0.998083
757.092515	0.998004
757.419882	0.998024
757.747203	0.997842
758.074477	0.998591
758.401703	0.997597
758.728882	0.997302
759.056014	0.997452
759.383099	0.997954
759.710138	0.996863
760.037129	0.997096
760.364073	0.998040
760.690970	0.997495
761.017820	0.996593
761.344623	0.997749
761.671379	0.998795
761.998088	0.998180
762.324751	0.996961
762.651366	0.996867
762.977935	0.996785
763.304456	0.996455
763.630931	0.995192
763.957359	0.994799
764.283740	0.995415
764.610074	0.996272
764.936362	0.996173
765.262602	0.996670
765.588796	0.996824
765.914943	0.997202
766.241044	0.996938
766.567097	0.997107
766.893104	0.998151
767.219064	0.997176
767.544978	0.997824
767.870845	0.997885
768.196665	0.996850
768.522438	0.998929
768.848165	0.997621
769.173846	0.998355
769.499479	0.999010
769.825066	0.999505
770.150607	0.999718
770.476101	0.998366
770.801548	0.998482
771.126949	0.998562
771.452303	0.998227
771.777611	0.998543
772.102872	0.998172
772.428087	0.997837
772.753256	0.998763
773.078378	0.998820
773.403453	0.998367
773.728482	0.999457
774.053465	0.999052
774.378401	0.997689
774.703291	0.999232
775.028135	1.000098
775.352932	0.997211
775.677683	0.999513
776.002388	0.998861
776.327046	0.998225
776.651658	0.999467
776.976224	0.998349
777.300743	0.998391
777.625216	0.998962
777.949643	0.998820
778.274024	0.997989
778.598359	0.999526
778.922647	0.998249
779.246889	0.999108
779.571086	0.997393
779.895236	0.998478
780.219339	0.999691
780.543397	0.997857
780.867409	1.000112
781.191374	0.998500
781.515294	0.999344
781.839167	0.999599
782.162995	0.999458
782.486776	0.999080
782.810511	0.998540
783.134201	0.999898
783.457844	0.999912
783.781441	0.998916
784.104993	0.998412
784.428498	0.999200
784.751958	1.000800
785.075372	1.000389
785.398739	0.997853
785.722061	0.997649
786.045337	0.998385
786.368568	0.998011
786.691752	0.998798
787.014891	0.999114
787.337983	0.998389
787.661030	0.998432
787.984031	0.998732
788.306987	0.999477
788.629897	0.996071
788.952760	0.998508
789.275579	0.998442
789.598351	0.998194
789.921078	0.998824
790.243759	0.998783
790.566395	0.998323
790.888984	0.999757
791.211529	0.999748
791.534027	0.999095
791.856480	0.999101
792.178888	0.998743
792.501249	0.998718
792.823566	1.000203
793.145836	0.998146
793.468062	1.000288
793.790241	0.999415
794.112375	0.998279
794.434464	0.997964
794.756507	0.999198
795.078505	0.999618
795.400457	0.998073
795.722364	0.999127
796.044226	0.998845
796.366042	0.998835
796.687812	0.997014
797.009538	0.998797
797.331218	0.999596
797.652852	0.999224
797.974442	0.997778
798.295986	0.998971
798.617484	0.998606
798.938938	0.999805
799.260346	0.998138
799.581709	0.999461
799.903026	0.999026
800.224299	0.998494
800.545526	0.997773
800.866708	0.997466
801.187845	0.998977
801.508936	0.999827
801.829983	0.998915
802.150984	0.998700
802.471940	0.999337
802.792851	0.998528
803.113717	1.000071
803.434538	1.000387
803.755314	0.999618
804.076045	0.999600
804.396731	0.997829
804.717372	0.998186
805.037967	0.999981
805.358518	0.999303
805.679024	0.998017
805.999485	0.999447
806.319901	0.998847
806.640272	1.000034
806.960598	0.999415
807.280879	0.997995
807.601115	0.999487
807.921306	0.999123
808.241453	0.998684
808.561554	0.998703
808.881611	0.999123
809.201623	0.999622
809.521590	0.999192
809.841513	0.999873
810.161390	0.998786
810.481223	0.998803
810.801011	0.999077
811.120755	1.000396
811.440453	0.998231
811.760107	0.999136
812.079716	0.998792
812.399281	0.999272
812.718801	0.998403
813.038276	0.998807
813.357707	0.999195
813.677093	1.000475
813.996434	0.998385
814.315731	1.001284
814.634983	0.999531
814.954191	1.000440
815.273354	0.999750
815.592473	0.999088
815.911547	0.999631
816.230577	0.998471
816.549562	0.998462
816.868502	0.998086
817.187399	0.999902
817.506250	0.999643
817.825058	0.997434
818.143821	0.999200
818.462539	0.999004
818.781213	0.998872
819.099843	0.999001
819.418429	0.997816
819.736970	0.998845
820.055466	0.996845
820.373919	0.996294
820.692327	0.996686
821.010691	0.996028
821.329011	0.995004
821.647286	0.992675
821.965517	0.991899
822.283704	0.989058
822.601847	0.987921
822.919945	0.988073
823.237999	0.990535
823.556010	0.990584
823.873976	0.991607
824.191897	0.993017
824.509775	0.994180
824.827609	0.994328
825.145398	0.995519
825.463144	0.994586
825.780845	0.994177
826.098502	0.994550
826.416116	0.995853
826.733685	0.994458
827.051210	0.992623
827.368692	0.993039
827.686129	0.992743
828.003522	0.994603
828.320872	0.994813
828.638177	0.996648
828.955439	0.997021
829.272656	0.997296
829.589830	0.996493
829.906960	0.998803
830.224046	0.998316
830.541088	0.997111
830.858086	0.998263
831.175041	0.999344
831.491952	0.997053
831.808819	0.999359
832.125642	0.997362
832.442421	0.998789
832.759157	0.998822
833.075849	0.996677
833.392497	0.996915
833.709101	0.995430
834.025662	0.995270
834.342179	0.995270
834.658653	0.997255
834.975083	0.997322
835.291469	0.997114
835.607811	0.997677
835.924110	0.998245
836.240366	0.999404
836.556578	0.998544
836.872746	0.999391
837.188871	0.997998
837.504952	0.998515
837.820990	0.999950
838.136984	0.998778
838.452935	0.999446
838.768842	0.998960
839.084706	0.998618
839.400526	1.000519
839.716303	0.997856
840.032037	0.998311
840.347727	0.997128
840.663373	0.997842
840.978977	0.998095
841.294537	0.999229
841.610054	0.998935
841.925527	0.999792
842.240957	0.998990
842.556344	0.999410
842.871687	0.999471
843.186987	0.999416
843.502244	0.999609
843.817458	0.998270
844.132629	0.999527
844.447756	1.000416
844.762840	1.000548
845.077881	1.001429
845.392879	0.999049
845.707833	1.000276
846.022745	0.999455
846.337613	0.999584
846.652438	1.000607
846.967221	1.000073
847.281960	1.000151
847.596656	1.000022
847.911309	1.000828
848.225919	0.999283
848.540485	0.999705
848.855009	1.000242
849.169490	1.001073
849.483928	1.000403
849.798323	0.998207
850.112675	1.000744
850.426984	1.000226
850.741251	1.000803
851.055474	0.999368
851.369654	0.999258
851.683792	0.999509
851.997887	1.000874
852.311938	1.001129
852.625947	0.999105
852.939914	0.998341
853.253837	1.001054
853.567718	0.999661
853.881555	1.000190
854.195350	1.000373
854.509103	1.000029
854.822812	1.001065
855.136479	0.999625
855.450103	0.999986
855.763685	1.000586
856.077224	1.000426
856.390720	0.999025
856.704173	1.000372
857.017584	0.999989
857.330953	1.000031
857.644278	1.000905
857.957561	1.000666
858.270802	1.000794
858.584000	0.999374
858.897155	1.000015
859.210268	0.999979
859.523339	1.000263
859.836367	1.001171
860.149352	0.998999
860.462295	1.000272
860.775195	1.000260
861.088054	0.998890
861.400869	0.999512
861.713642	1.000437
862.026373	1.000565
862.339062	1.000577
862.651708	1.000731
862.964312	1.001003
863.276873	1.000128
863.589392	0.999948
863.901869	0.999855
864.214303	1.000244
864.526696	1.000390
864.839045	1.000139
865.151353	1.000270
865.463619	0.999228
865.775842	0.999460
866.088023	1.000270
866.400162	1.000761
866.712258	1.000200
867.024313	1.000312
867.336325	0.999913
867.648296	1.000232
867.960224	0.999672
868.272110	0.999959
868.583954	1.000375
868.895755	1.000824
869.207515	0.999384
869.519233	1.001389
869.830909	0.999245
870.142542	0.998198
870.454134	0.999479
870.765684	0.999555
871.077191	1.000110
871.388657	1.000302
871.700081	1.000212
872.011463	1.001368
872.322803	1.000646
872.634101	0.999176
872.945357	0.999249
873.256571	0.997487
873.567744	1.000456
873.878874	0.999911
874.189963	0.998549
874.501010	1.001037
874.812015	1.000913
875.122979	1.000412
875.433900	0.999914
875.744780	0.999365
876.055618	0.999154
876.366415	0.998624
876.677169	0.999519
876.987882	0.999724
877.298554	0.999701
877.609183	1.000778
877.919771	0.999030
878.230317	1.000630
878.540822	0.997700
878.851285	0.998543
879.161707	0.997781
879.472087	0.999623
879.782425	0.997901
880.092722	0.996452
880.402977	0.994873
880.713191	0.992670
881.023363	0.990854
881.333494	0.989836
881.643583	0.991634
881.953631	0.990392
882.263637	0.989658
882.573602	0.990080
882.883526	0.990939
883.193408	0.992998
883.503248	0.994308
883.813048	0.993640
884.122806	0.994913
884.432522	0.994505
884.742197	0.997454
885.051831	0.996025
885.361424	0.997562
885.670975	0.998226
885.980485	0.996871
886.289954	0.997465
886.599382	0.997454
886.908768	0.999483
887.218113	0.997710
887.527417	0.998802
887.836680	0.999208
888.145901	0.998908
888.455082	0.999745
888.764221	1.000098
889.073319	0.999212
889.382376	1.001005
889.691392	0.997925
890.000366	0.999618
890.309300	0.999116
890.618193	0.998797
890.927044	0.998698
891.235855	0.999498
891.544625	0.998836
891.853353	0.998350
892.162041	0.998259
892.470687	0.999722
892.779293	0.997873
893.087858	0.998456
893.396381	0.998390
893.704864	0.997001
894.013306	0.996692
894.321707	0.995830
894.630068	0.995630
894.938387	0.994805
895.246665	0.995327
895.554903	0.995168
895.863100	0.997449
896.171256	0.997411
896.479371	0.997363
896.787446	0.996837
897.095480	0.997645
897.403473	0.998652
897.711425	0.998518
898.019336	0.999272
898.327207	0.998956
898.635038	0.997810
898.942827	0.999163
899.250576	0.999418
899.558284	0.998667
899.865952	0.999363
900.173579	0.999187
900.481165	0.999659
900.788711	0.998708
901.096216	0.999589
901.403681	0.999429
901.711105	0.999278
902.018489	0.998453
902.325832	0.998951
902.633135	0.998814
902.940397	0.998305
903.247619	0.998546
903.554800	0.998181
903.861941	0.996752
904.169041	0.995296
904.476101	0.994478
904.783121	0.993198
905.090100	0.994437
905.397039	0.994973
905.703938	0.995990
906.010796	0.996240
906.317614	0.998049
906.624391	0.998434
906.931129	0.998937
907.237826	0.998934
907.544483	0.999384
907.851099	0.998983
908.157675	0.998887
908.464211	0.999864
908.770707	0.998407
909.077163	0.998908
909.383578	0.999730
909.689954	0.999874
909.996289	0.999543
910.302584	0.999282
910.608839	1.001720
910.915054	0.999144
911.221229	1.001440
911.527363	0.999414
911.833458	1.000558
912.139513	0.999629
912.445527	1.000570
912.751502	1.001115
913.057436	0.998301
913.363331	0.999614
913.669186	0.999548
913.975000	0.999782
914.280775	0.999646
914.586510	0.998848
914.892205	0.996659
915.197859	0.997051
915.503475	0.995428
915.809050	0.995227
916.114585	0.993170
916.420081	0.993448
916.725536	0.994647
917.030952	0.994163
917.336328	0.994441
917.641665	0.994460
917.946961	0.995953
918.252218	0.995537
918.557435	0.996459
918.862612	0.996979
919.167750	0.998368
919.472848	0.998965
919.777906	0.999863
920.082925	0.999604
920.387904	0.999379
920.692843	0.998755
920.997743	0.998289
921.302603	0.999851
921.607423	0.999239
921.912204	0.998981
922.216946	1.000259
922.521647	0.999700
922.826310	0.999228
923.130932	0.999257
923.435516	0.999322
923.740059	0.998949
924.044564	0.999556
924.349028	1.000089
924.653454	1.001066
924.957840	0.999962
925.262186	0.999873
925.566493	0.999877
925.870761	1.001082
926.174989	0.998953
926.479178	1.000363
926.783328	1.000552
927.087438	0.999702
927.391509	0.999605
927.695541	0.999948
927.999533	1.000407
928.303486	1.000452
928.607400	0.999989
928.911275	1.000560
929.215110	1.000458
929.518906	1.000039
929.822663	1.001535
930.126381	1.000503
930.430060	1.000362
930.733699	1.001997
931.037299	1.001530
931.340861	1.000232
931.644383	0.999115
931.947866	1.000718
932.251309	1.001424
932.554714	0.998950
932.858080	1.000495
933.161407	1.000082
933.464694	0.999745
933.767943	0.999347
934.071153	1.000670
934.374323	1.001003
934.677455	1.000037
934.980548	1.000123
935.283602	1.000192
935.586617	0.999182
935.889593	1.001321
936.192530	1.000689
936.495428	1.000210
936.798287	0.999091
937.101108	1.000184
937.403890	1.000076
937.706632	1.001526
938.009336	0.999809
938.312002	1.000540
938.614628	0.999997
938.917216	0.999037
939.219765	0.999208
939.522275	1.001495
939.824747	1.000230
940.127179	0.999892
940.429573	1.000232
940.731929	0.999082
941.034246	1.000099
941.336524	0.999859
941.638763	1.001289
941.940964	0.999778
942.243126	0.999838
942.545250	1.001076
942.847335	1.000807
943.149381	1.000740
943.451389	1.000099
943.753359	0.999959
944.055290	1.000866
944.357182	1.001079
944.659036	0.999204
944.960851	0.999651
945.262628	1.000870
945.564367	0.999908
945.866067	0.999780
946.167729	1.000794
946.469352	1.000172
946.770937	0.999034
947.072484	1.000489
947.373992	1.000703
947.675462	0.998869
947.976893	0.999726
948.278286	1.002146
948.579641	1.001026
948.880958	0.999798
949.182236	1.000748
949.483476	1.001086
949.784678	1.000927
950.085841	0.999217
950.386967	0.999873
950.688054	1.002131
950.989103	0.998293
951.290114	1.000844
951.591087	1.000830
951.892021	0.999902
952.192917	1.000349
952.493776	1.000527
952.794596	1.000186
953.095378	0.999401
953.396122	1.000660
953.696828	1.001372
953.997496	1.000886
954.298126	1.000950
954.598718	0.998691
954.899272	1.000554
955.199788	1.000395
955.500266	1.001240
955.800706	1.000669
956.101108	0.999743
956.401472	1.001953
956.701798	1.000179
957.002087	0.999986
957.302337	1.000581
957.602550	1.000554
957.902724	0.999964
958.202861	0.999568
958.502960	0.999248
958.803022	1.002561
959.103045	1.000310
959.403031	1.001187
959.702979	1.001653
960.002889	1.000044
960.302762	0.999831
960.602596	1.000917
960.902393	1.001398
961.202153	1.000291
961.501875	1.001518
961.801559	1.000793
962.101205	1.000876
962.400814	1.000655
962.700385	1.000781
962.999918	1.000944
963.299414	0.999312
963.598873	1.000691
963.898293	1.000527
964.197677	1.000135
964.497022	1.001438
964.796331	1.001034
965.095601	1.001553
965.394835	1.000922
965.694030	1.001737
965.993189	1.001008
966.292309	1.001024
966.591393	0.999261
966.890439	1.001006
967.189447	1.000210
967.488419	1.001290
967.787353	1.001332
968.086249	1.001864
968.385108	1.000267
968.683930	1.001147
968.982714	1.000686
969.281462	1.000718
969.580172	1.000381
969.878844	1.002167
970.177480	1.000612
970.476078	1.001726
970.774639	1.001449
971.073162	1.000485
971.371649	1.000052
971.670098	1.000241
971.968510	1.000888
972.266885	0.999541
972.565223	1.000893
972.863524	0.999485
973.161788	0.999903
973.460014	1.001802
973.758204	0.998485
974.056356	1.000174
974.354471	1.000100
974.652550	1.001265
974.950591	1.000259
975.248595	0.999390
975.546563	1.000728
975.844493	1.001065
976.142386	1.000252
976.440243	1.001232
976.738062	1.000848
977.035845	0.999486
977.333590	1.001781
977.631299	1.000143
977.928971	1.000680
978.226606	1.000526
978.524204	1.000970
978.821765	1.001229
979.119290	1.002116
979.416777	1.000926
979.714228	1.000721
980.011642	1.000390
980.309020	1.000191
980.606360	1.000396
980.903664	1.000600
981.200931	0.999929
981.498162	1.000681
981.795356	0.999256
982.092513	1.000709
982.389633	1.000496
982.686717	0.999971
982.983764	1.000733
983.280775	1.000329
983.577749	1.001949
983.874686	0.999787
984.171587	1.000169
984.468451	0.999867
984.765279	1.000694
985.062070	1.000533
985.358824	0.999683
985.655543	1.001106
985.952224	1.001034
986.248869	1.000667
986.545478	1.002259
986.842050	0.999368
987.138586	1.000234
987.435086	0.999664
987.731549	1.001646
988.027975	1.002067
988.324366	0.999574
988.620719	1.002767
988.917037	1.000286
989.213318	1.002674
989.509563	1.000324
989.805772	1.001031
990.101944	1.001110
990.398080	1.000691
990.694180	1.001392
990.990244	1.000392
991.286271	1.001092
991.582262	1.001971
991.878217	1.000458
992.174136	1.001738
992.470019	1.001033
992.765865	1.002698
993.061676	1.001144
993.357450	1.001024
993.653188	1.001748
993.948890	1.000202
994.244556	0.999899
994.540186	1.000803
994.835780	1.000473
995.131337	1.001039
995.426859	1.000533
995.722345	1.000570
996.017795	1.000866
996.313208	1.000690
996.608586	0.999988
996.903928	1.001103
997.199234	1.001880
997.494504	1.001962
997.789738	0.998499
998.084936	0.999926
998.380099	1.000306
998.675225	1.001403
998.970316	1.001588
999.265371	1.001683
999.560390	1.000648
999.855373	1.000731
1000.150320	1.000206
1000.445232	1.001582
1000.740108	1.000224
1001.034948	1.001201
1001.329752	1.000997
1001.624521	1.000615
1001.919254	1.000153
1002.213951	1.000978
1002.508613	1.001168
1002.803239	1.000308
1003.097829	1.001871
1003.392384	1.000864
1003.686903	1.001112
1003.981386	1.001589
1004.275834	1.002239
1004.570246	1.000171
1004.864623	1.001757
1005.158964	1.000970
1005.453270	1.000846
1005.747540	1.000183
1006.041775	1.001814
1006.335974	1.001200
1006.630138	1.001169
1006.924266	1.000270
1007.218359	0.998858
1007.512416	1.002693
1007.806438	1.000298
1008.100425	1.001358
1008.394376	1.002361
1008.688292	1.001021
1008.982172	1.000201
1009.276017	1.002486
1009.569827	1.001982
1009.863602	0.999216
1010.157341	1.001642
1010.451045	1.001330
1010.744714	1.001887
1011.038347	1.001669
1011.331945	1.001324
1011.625508	1.000615
1011.919036	1.000759
1012.212528	1.000898
1012.505986	1.000312
1012.799408	1.001179
1013.092795	1.000782
1013.386147	0.999994
1013.679464	1.002037
1013.972745	1.000804
1014.265992	1.000299
1014.559204	0.999561
1014.852380	1.000796
1015.145521	1.000310
1015.438628	1.001601
1015.731699	1.000311
1016.024736	1.002329
1016.317737	1.001821
1016.610703	1.000314
1016.903635	1.000032
1017.196531	1.000387
1017.489393	1.001034
1017.782219	1.000289
1018.075011	0.999960
1018.367768	1.000716
1018.660490	1.000896
1018.953177	1.000896
1019.245829	1.000896
