Dividing Wavelength (nm)	Counts (n)	Blue Motor Position (mm): 8.500000	Red Motor Position (mm): 0.000000	
326.493990	1.002997
326.888308	1.002997
327.282561	1.002997
327.676750	1.005295
328.070874	1.006075
328.464933	1.006189
328.858929	1.004741
329.252859	1.005115
329.646726	1.003642
330.040528	1.004908
330.434265	1.003994
330.827938	1.004050
331.221547	1.004830
331.615091	1.005664
332.008571	1.005657
332.401986	1.004067
332.795338	1.003915
333.188625	1.005540
333.581847	1.004168
333.975006	1.004001
334.368100	1.004626
334.761129	1.003988
335.154095	1.004638
335.546996	1.004187
335.939833	0.996834
336.332606	0.999343
336.725315	0.998629
337.117960	0.999246
337.510540	0.997176
337.903056	0.999242
338.295508	0.998604
338.687896	0.999676
339.080220	0.998681
339.472480	0.998524
339.864676	0.999388
340.256807	0.997757
340.648875	0.999186
341.040879	0.998537
341.432818	0.998989
341.824694	0.998477
342.216506	0.998870
342.608253	0.997559
342.999937	0.998276
343.391557	0.998585
343.783113	1.000244
344.174605	0.998467
344.566033	0.998120
344.957397	0.998434
345.348697	0.997754
345.739934	0.998340
346.131106	0.997671
346.522215	0.998071
346.913260	0.996757
347.304241	0.998071
347.695159	0.999389
348.086012	0.998468
348.476802	0.997294
348.867528	0.996911
349.258191	0.999144
349.648789	0.998443
350.039324	0.997459
350.429796	0.997637
350.820203	0.997283
351.210548	0.998895
351.600828	0.997592
351.991045	0.997531
352.381198	0.998499
352.771288	0.997761
353.161314	0.998689
353.551276	0.996933
353.941175	0.995934
354.331010	0.997930
354.720782	0.997690
355.110490	0.998138
355.500135	0.998578
355.889717	0.995707
356.279235	0.997546
356.668689	0.998624
357.058080	0.998760
357.447408	0.997368
357.836672	0.997424
358.225873	0.997777
358.615010	0.996706
359.004084	0.996044
359.393095	0.997429
359.782043	0.996987
360.170927	0.997079
360.559748	0.998024
360.948505	0.996608
361.337199	0.996835
361.725830	0.997371
362.114398	0.996845
362.502903	0.996200
362.891344	0.994584
363.279722	0.996689
363.668037	0.996749
364.056289	0.996731
364.444478	0.997506
364.832603	0.996649
365.220665	0.997319
365.608665	0.995939
365.996601	0.996323
366.384474	0.995259
366.772284	0.995769
367.160031	0.993085
367.547715	0.994816
367.935336	0.993765
368.322893	0.992336
368.710388	0.992197
369.097820	0.990767
369.485189	0.987603
369.872495	0.986879
370.259738	0.983964
370.646918	0.981225
371.034035	0.978734
371.421090	0.975974
371.808081	0.970176
372.195010	0.968536
372.581875	0.962307
372.968678	0.958751
373.355418	0.956502
373.742096	0.948350
374.128710	0.943578
374.515262	0.938774
374.901751	0.932644
375.288177	0.927118
375.674540	0.921737
376.060841	0.915391
376.447079	0.908984
376.833254	0.902369
377.219367	0.897350
377.605417	0.885219
377.991404	0.882021
378.377329	0.876060
378.763191	0.869192
379.148991	0.861961
379.534727	0.853497
379.920402	0.844077
380.306013	0.841981
380.691563	0.827990
381.077049	0.821948
381.462474	0.817987
381.847835	0.806802
382.233134	0.802365
382.618371	0.802361
383.003545	0.785552
383.388657	0.782785
383.773706	0.775347
384.158693	0.772051
384.543618	0.766258
384.928480	0.756891
385.313280	0.746885
385.698017	0.745783
386.082692	0.735044
386.467305	0.733167
386.851856	0.728628
387.236344	0.723065
387.620770	0.716765
388.005133	0.711291
388.389435	0.705470
388.773674	0.703616
389.157851	0.695218
389.541965	0.693086
389.926018	0.699608
390.310008	0.686182
390.693936	0.682365
391.077802	0.675385
391.461606	0.676461
391.845348	0.665756
392.229027	0.665497
392.612645	0.664052
392.996200	0.650974
393.379694	0.643651
393.763125	0.634168
394.146494	0.637901
394.529801	0.629000
394.913047	0.621407
395.296230	0.626346
395.679351	0.618543
396.062410	0.615190
396.445408	0.617852
396.828343	0.613650
397.211217	0.608312
397.594028	0.620361
397.976778	0.610740
398.359466	0.607579
398.742092	0.602159
399.124656	0.614204
399.507158	0.603049
399.889598	0.600109
400.271977	0.591476
400.654294	0.595047
401.036549	0.594306
401.418742	0.598598
401.800874	0.583643
402.182944	0.580983
402.564952	0.572988
402.946898	0.574947
403.328783	0.575627
403.710606	0.587045
404.092367	0.561278
404.474067	0.567017
404.855705	0.565670
405.237282	0.574332
405.618797	0.560954
406.000250	0.556034
406.381642	0.545810
406.762972	0.551443
407.144240	0.549733
407.525447	0.549700
407.906593	0.542644
408.287677	0.537865
408.668700	0.546804
409.049661	0.540677
409.430560	0.535579
409.811399	0.544451
410.192176	0.526054
410.572891	0.532919
410.953545	0.521155
411.334138	0.535015
411.714669	0.526656
412.095139	0.539603
412.475547	0.523158
412.855894	0.525349
413.236180	0.524269
413.616405	0.530328
413.996568	0.519596
414.376670	0.527152
414.756711	0.531563
415.136691	0.528216
415.516609	0.518876
415.896466	0.516515
416.276262	0.512380
416.655997	0.513568
417.035670	0.495425
417.415283	0.487125
417.794834	0.491722
418.174324	0.497083
418.553753	0.505779
418.933121	0.487942
419.312428	0.481873
419.691674	0.488301
420.070859	0.476251
420.449983	0.484449
420.829045	0.473310
421.208047	0.482726
421.586988	0.475300
421.965867	0.474783
422.344686	0.463106
422.723444	0.475720
423.102141	0.493201
423.480777	0.465388
423.859352	0.486111
424.237866	0.463361
424.616319	0.464168
424.994712	0.455018
425.373044	0.465105
425.751314	0.454001
426.129524	0.470541
426.507673	0.453158
426.885762	0.447874
427.263789	0.452554
427.641756	0.462746
428.019662	0.452450
428.397508	0.452042
428.775292	0.456484
429.153016	0.447910
429.530679	0.454242
429.908282	0.447225
430.285824	0.457583
430.663305	0.436521
431.040726	0.457248
431.418086	0.457613
431.795385	0.448908
432.172624	0.447744
432.549802	0.447955
432.926920	0.447075
433.303977	0.446567
433.680974	0.443535
434.057910	0.442480
434.434786	0.441501
434.811601	0.444589
435.188355	0.426871
435.565050	0.436153
435.941683	0.437698
436.318257	0.420862
436.694770	0.422564
437.071222	0.420137
437.447614	0.424606
437.823946	0.431518
438.200218	0.420601
438.576429	0.429565
438.952580	0.423565
439.328670	0.419839
439.704700	0.426384
440.080670	0.427712
440.456580	0.409203
440.832429	0.416594
441.208218	0.427905
441.583947	0.417018
441.959616	0.416178
442.335224	0.421872
442.710773	0.412509
443.086261	0.410686
443.461689	0.424645
443.837057	0.414339
444.212365	0.404355
444.587612	0.411447
444.962800	0.400971
445.337927	0.402413
445.712995	0.428889
446.088002	0.390870
446.462949	0.401391
446.837837	0.406071
447.212664	0.394781
447.587431	0.386821
447.962139	0.356919
448.336786	0.315577
448.711374	0.326146
449.085901	0.370423
449.460369	0.374899
449.834776	0.378926
450.209124	0.357600
450.583412	0.350326
450.957640	0.343201
451.331808	0.354803
451.705917	0.378352
452.079965	0.382469
452.453954	0.371470
452.827883	0.377771
453.201752	0.372482
453.575562	0.383824
453.949311	0.373010
454.323001	0.378298
454.696632	0.374064
455.070202	0.366901
455.443713	0.358702
455.817164	0.353600
456.190556	0.349446
456.563888	0.345931
456.937160	0.343556
457.310373	0.360988
457.683526	0.359972
458.056619	0.365481
458.429653	0.366191
458.802628	0.369559
459.175542	0.363516
459.548398	0.346195
459.921194	0.338925
460.293930	0.338914
460.666607	0.316657
461.039224	0.304584
461.411782	0.300325
461.784280	0.299840
462.156719	0.303691
462.529099	0.308114
462.901419	0.323756
463.273680	0.328702
463.645882	0.327893
464.018024	0.333696
464.390106	0.326893
464.762130	0.311219
465.134094	0.294186
465.505999	0.263220
465.877845	0.233600
466.249631	0.220596
466.621358	0.227969
466.993026	0.241745
467.364634	0.248000
467.736184	0.256995
468.107674	0.265602
468.479105	0.264725
468.850477	0.271699
469.221790	0.278436
469.593043	0.288850
469.964238	0.293261
470.335373	0.293102
470.706449	0.290920
471.077467	0.291659
471.448425	0.253793
471.819324	0.229179
472.190164	0.228646
472.560945	0.257480
472.931667	0.279649
473.302330	0.284044
473.672934	0.295953
474.043479	0.283577
474.413965	0.285903
474.784393	0.289056
475.154761	0.284369
475.525070	0.281361
475.895321	0.287116
476.265513	0.281456
476.635645	0.276789
477.005719	0.276627
477.375734	0.273346
477.745691	0.266540
478.115588	0.262825
478.485427	0.256327
478.855207	0.243228
479.224928	0.225734
479.594591	0.213589
479.964194	0.217091
480.333739	0.218610
480.703226	0.219604
481.072653	0.218092
481.442022	0.214000
481.811333	0.210645
482.180584	0.214134
482.549777	0.219348
482.918912	0.222823
483.287988	0.222250
483.657005	0.222012
484.025964	0.228653
484.394864	0.225716
484.763706	0.226344
485.132489	0.231460
485.501213	0.232038
485.869879	0.230418
486.238487	0.233714
486.607036	0.231722
486.975527	0.236449
487.343959	0.232010
487.712333	0.231236
488.080648	0.232637
488.448905	0.231726
488.817104	0.232941
489.185244	0.227231
489.553326	0.224362
489.921350	0.214407
490.289315	0.196712
490.657222	0.191367
491.025070	0.193113
491.392861	0.194991
491.760593	0.200651
492.128267	0.206378
492.495883	0.212045
492.863440	0.218009
493.230939	0.224650
493.598380	0.225980
493.965763	0.228318
494.333088	0.230278
494.700354	0.231859
495.067563	0.230830
495.434713	0.233959
495.801805	0.231830
496.168839	0.233690
496.535815	0.235130
496.902733	0.235134
497.269593	0.236400
497.636395	0.233865
498.003139	0.234248
498.369825	0.237246
498.736453	0.234081
499.103023	0.235507
499.469535	0.235000
499.835989	0.234816
500.202385	0.236088
500.568723	0.239147
500.935003	0.234458
501.301226	0.238572
501.667390	0.232900
502.033497	0.230976
502.399546	0.233772
502.765537	0.235859
503.131470	0.234371
503.497345	0.230720
503.863163	0.239160
504.228923	0.232402
504.594625	0.230849
504.960269	0.236408
505.325856	0.231803
505.691385	0.236154
506.056856	0.232806
506.422270	0.232240
506.787625	0.234833
507.152924	0.232171
507.518164	0.232572
507.883347	0.234262
508.248472	0.235977
508.613540	0.230963
508.978550	0.233765
509.343503	0.233977
509.708398	0.231555
510.073236	0.229192
510.438016	0.228971
510.802738	0.230167
511.167403	0.228871
511.532010	0.231054
511.896561	0.226365
512.261053	0.224882
512.625488	0.227483
512.989866	0.227604
513.354186	0.227702
513.718449	0.229853
514.082655	0.226283
514.446803	0.228206
514.810894	0.226437
515.174927	0.228909
515.538904	0.228244
515.902822	0.224835
516.266684	0.227332
516.630488	0.228553
516.994235	0.227438
517.357925	0.226359
517.721558	0.224256
518.085133	0.224197
518.448651	0.223897
518.812112	0.226675
519.175516	0.225948
519.538863	0.223582
519.902152	0.225240
520.265385	0.222063
520.628560	0.223790
520.991678	0.224261
521.354739	0.223346
521.717743	0.224349
522.080690	0.224784
522.443580	0.221986
522.806413	0.222887
523.169189	0.222396
523.531908	0.221190
523.894569	0.224583
524.257174	0.224617
524.619722	0.222279
524.982213	0.223464
525.344647	0.222476
525.707025	0.223184
526.069345	0.221541
526.431608	0.223047
526.793815	0.221061
527.155964	0.225447
527.518057	0.224016
527.880093	0.225258
528.242072	0.223838
528.603995	0.225598
528.965860	0.227472
529.327669	0.226152
529.689421	0.227283
530.051117	0.227969
530.412755	0.225819
530.774337	0.228018
531.135862	0.228543
531.497331	0.227919
531.858743	0.230863
532.220098	0.227321
532.581396	0.229723
532.942638	0.230285
533.303824	0.231360
533.664953	0.231323
534.026025	0.233203
534.387040	0.230802
534.747999	0.230779
535.108902	0.229530
535.469748	0.234833
535.830537	0.232740
536.191270	0.233030
536.551947	0.232264
536.912567	0.232599
537.273131	0.234265
537.633638	0.234751
537.994089	0.235029
538.354483	0.235866
538.714821	0.232872
539.075103	0.232909
539.435328	0.233547
539.795497	0.237264
540.155609	0.233904
540.515665	0.231929
540.875665	0.237796
541.235609	0.236429
541.595496	0.236332
541.955328	0.233112
542.315102	0.235868
542.674821	0.236627
543.034483	0.236826
543.394090	0.236178
543.753640	0.238439
544.113134	0.233312
544.472571	0.236723
544.831953	0.233612
545.191278	0.237604
545.550548	0.236892
545.909761	0.234018
546.268918	0.234922
546.628019	0.233088
546.987064	0.235818
547.346053	0.237395
547.704986	0.235335
548.063863	0.235393
548.422684	0.235937
548.781449	0.237582
549.140158	0.235216
549.498811	0.238357
549.857408	0.241059
550.215949	0.236056
550.574434	0.239064
550.932864	0.237142
551.291237	0.235552
551.649555	0.237282
552.007817	0.236920
552.366022	0.237878
552.724173	0.238043
553.082267	0.238123
553.440305	0.235109
553.798288	0.239550
554.156215	0.236161
554.514086	0.236834
554.871902	0.240143
555.229661	0.239283
555.587365	0.239917
555.945014	0.242409
556.302606	0.239418
556.660143	0.242007
557.017625	0.238485
557.375050	0.240648
557.732421	0.237521
558.089735	0.239888
558.446994	0.239470
558.804197	0.238735
559.161345	0.238759
559.518437	0.241858
559.875474	0.240184
560.232455	0.239567
560.589381	0.240707
560.946251	0.241085
561.303065	0.238134
561.659825	0.239682
562.016528	0.241287
562.373177	0.244211
562.729770	0.241137
563.086307	0.243175
563.442789	0.240956
563.799216	0.243850
564.155587	0.242747
564.511904	0.244236
564.868164	0.243873
565.224370	0.243829
565.580520	0.245561
565.936615	0.245177
566.292654	0.248554
566.648638	0.245776
567.004567	0.246305
567.360441	0.246728
567.716260	0.248738
568.072023	0.246401
568.427732	0.247424
568.783385	0.249573
569.138982	0.248142
569.494525	0.247752
569.850013	0.250650
570.205445	0.249132
570.560823	0.251500
570.916145	0.253789
571.271412	0.251802
571.626625	0.253363
571.981782	0.253861
572.336884	0.254299
572.691931	0.254429
573.046923	0.255674
573.401860	0.256498
573.756743	0.258762
574.111570	0.257157
574.466342	0.257821
574.821059	0.256924
575.175722	0.260128
575.530330	0.259544
575.884882	0.259953
576.239380	0.261759
576.593823	0.262307
576.948211	0.261957
577.302544	0.265028
577.656823	0.264716
578.011047	0.264493
578.365216	0.265350
578.719330	0.267447
579.073389	0.266948
579.427394	0.268280
579.781344	0.269056
580.135239	0.270436
580.489080	0.270617
580.842866	0.273271
581.196597	0.273452
581.550273	0.272089
581.903895	0.272883
582.257463	0.270909
582.610975	0.274408
582.964434	0.273581
583.317837	0.275991
583.671186	0.276492
584.024481	0.276651
584.377721	0.279156
584.730906	0.279889
585.084037	0.279077
585.437113	0.280868
585.790135	0.280138
586.143103	0.283177
586.496016	0.284169
586.848874	0.281742
587.201679	0.282123
587.554428	0.285907
587.907124	0.284491
588.259765	0.285170
588.612352	0.285783
588.964884	0.289603
589.317362	0.289197
589.669786	0.288893
590.022155	0.287411
590.374470	0.287225
590.726731	0.288935
591.078937	0.293803
591.431090	0.290449
591.783188	0.294296
592.135232	0.294994
592.487222	0.295079
592.839157	0.292904
593.191038	0.295173
593.542866	0.297178
593.894639	0.300307
594.246358	0.299161
594.598022	0.298530
594.949633	0.302040
595.301190	0.302302
595.652692	0.301370
596.004141	0.297876
596.355535	0.305524
596.706876	0.306373
597.058162	0.309009
597.409395	0.306283
597.760573	0.303844
598.111698	0.306983
598.462768	0.307555
598.813785	0.308578
599.164748	0.309949
599.515657	0.309990
599.866511	0.314435
600.217312	0.309253
600.568060	0.314157
600.918753	0.310787
601.269392	0.311766
601.619978	0.314927
601.970510	0.312744
602.320988	0.312714
602.671412	0.310276
603.021783	0.313010
603.372100	0.314362
603.722363	0.314034
604.072572	0.314966
604.422728	0.314345
604.772830	0.316641
605.122878	0.316476
605.472872	0.317202
605.822813	0.315259
606.172701	0.318229
606.522534	0.315240
606.872314	0.315453
607.222041	0.316664
607.571714	0.314544
607.921333	0.315792
608.270899	0.315462
608.620411	0.312510
608.969870	0.316332
609.319276	0.316339
609.668627	0.316093
610.017926	0.314855
610.367171	0.313304
610.716362	0.314130
611.065500	0.314227
611.414585	0.313229
611.763616	0.313634
612.112594	0.314292
612.461518	0.313454
612.810389	0.311168
613.159207	0.313368
613.507971	0.315237
613.856682	0.311014
614.205340	0.312416
614.553945	0.309772
614.902496	0.313690
615.250994	0.311351
615.599439	0.312097
615.947830	0.311218
616.296169	0.312462
616.644454	0.312249
616.992686	0.311965
617.340864	0.310364
617.688990	0.313136
618.037063	0.309926
618.385082	0.312109
618.733048	0.308594
619.080961	0.311043
619.428821	0.310457
619.776628	0.310256
620.124382	0.312363
620.472083	0.313028
620.819731	0.312167
621.167326	0.315812
621.514868	0.315674
621.862357	0.320431
622.209793	0.319678
622.557176	0.321997
622.904506	0.323094
623.251783	0.325360
623.599007	0.327527
623.946179	0.327053
624.293297	0.329399
624.640363	0.332847
624.987376	0.333483
625.334336	0.336025
625.681243	0.338936
626.028097	0.338838
626.374899	0.340113
626.721647	0.340105
627.068343	0.343356
627.414987	0.344762
627.761577	0.346664
628.108115	0.345102
628.454600	0.350015
628.801032	0.347499
629.147412	0.349619
629.493739	0.350671
629.840014	0.353158
630.186236	0.350274
630.532405	0.356539
630.878521	0.353777
631.224585	0.355944
631.570597	0.359769
631.916556	0.358249
632.262462	0.357982
632.608316	0.360502
632.954117	0.361211
633.299866	0.362104
633.645562	0.362269
633.991206	0.366751
634.336797	0.369294
634.682336	0.371974
635.027823	0.373442
635.373257	0.374125
635.718639	0.377955
636.063968	0.377276
636.409245	0.382664
636.754470	0.383462
637.099642	0.385867
637.444762	0.389454
637.789829	0.388514
638.134845	0.391937
638.479808	0.392746
638.824719	0.392674
639.169577	0.397001
639.514383	0.395966
639.859137	0.400498
640.203839	0.400002
640.548489	0.400332
640.893086	0.401307
641.237632	0.403552
641.582125	0.401985
641.926566	0.404115
642.270955	0.403808
642.615292	0.403846
642.959576	0.403278
643.303809	0.404385
643.647990	0.403819
643.992118	0.403920
644.336195	0.407440
644.680219	0.406006
645.024192	0.406852
645.368112	0.400712
645.711981	0.399577
646.055797	0.394739
646.399562	0.397095
646.743274	0.390217
647.086935	0.386544
647.430544	0.387304
647.774101	0.386178
648.117606	0.385600
648.461059	0.386291
648.804460	0.388442
649.147810	0.393874
649.491108	0.396076
649.834354	0.397440
650.177548	0.402331
650.520690	0.407821
650.863781	0.409112
651.206820	0.408332
651.549807	0.413457
651.892742	0.417807
652.235626	0.417410
652.578458	0.418416
652.921238	0.425216
653.263967	0.421688
653.606644	0.426099
653.949269	0.426429
654.291843	0.429580
654.634365	0.426997
654.976836	0.429680
655.319255	0.430687
655.661622	0.432132
656.003938	0.432219
656.346203	0.435161
656.688416	0.433573
657.030577	0.436910
657.372687	0.439291
657.714746	0.439441
658.056753	0.436599
658.398708	0.440278
658.740612	0.442126
659.082465	0.438486
659.424266	0.439261
659.766016	0.438494
660.107715	0.442238
660.449362	0.440116
660.790958	0.441006
661.132503	0.442669
661.473996	0.439532
661.815438	0.440873
662.156829	0.441229
662.498168	0.442221
662.839456	0.442707
663.180693	0.441756
663.521879	0.441517
663.863013	0.442259
664.204097	0.440695
664.545129	0.437994
664.886110	0.438461
665.227040	0.436787
665.567918	0.438906
665.908746	0.437114
666.249522	0.437335
666.590248	0.438184
666.930922	0.436867
667.271545	0.435887
667.612118	0.436534
667.952639	0.438516
668.293109	0.436911
668.633528	0.440223
668.973896	0.439953
669.314213	0.440812
669.654480	0.442785
669.994695	0.442928
670.334859	0.443711
670.674973	0.444739
671.015035	0.444733
671.355047	0.444641
671.695008	0.446334
672.034918	0.448111
672.374777	0.447620
672.714585	0.449743
673.054342	0.449330
673.394049	0.450168
673.733705	0.448903
674.073310	0.449927
674.412864	0.452512
674.752368	0.453524
675.091820	0.454114
675.431223	0.458596
675.770574	0.458955
676.109875	0.461789
676.449125	0.461564
676.788324	0.464467
677.127473	0.470013
677.466571	0.469934
677.805619	0.471733
678.144616	0.473651
678.483562	0.475681
678.822458	0.478044
679.161303	0.478711
679.500098	0.479833
679.838842	0.482107
680.177535	0.481119
680.516179	0.480107
680.854771	0.479819
681.193314	0.473785
681.531805	0.465952
681.870247	0.456204
682.208638	0.449429
682.546978	0.447860
682.885268	0.450304
683.223508	0.456703
683.561697	0.460967
683.899836	0.463479
684.237925	0.467114
684.575963	0.470424
684.913951	0.473793
685.251889	0.470118
685.589776	0.472665
685.927614	0.474865
686.265401	0.470734
686.603137	0.471864
686.940824	0.467590
687.278460	0.466496
687.616046	0.466368
687.953582	0.461847
688.291068	0.464038
688.628504	0.460569
688.965889	0.462994
689.303224	0.466979
689.640510	0.470810
689.977745	0.476765
690.314930	0.484300
690.652065	0.488614
690.989150	0.495509
691.326185	0.502894
691.663170	0.507574
692.000105	0.514345
692.336990	0.520787
692.673825	0.524287
693.010610	0.530096
693.347345	0.535422
693.684030	0.538775
694.020665	0.543164
694.357251	0.551334
694.693786	0.551308
695.030272	0.555243
695.366707	0.559637
695.703093	0.562132
696.039429	0.560384
696.375716	0.565008
696.711952	0.566053
697.048139	0.567907
697.384276	0.570639
697.720363	0.570178
698.056400	0.569740
698.392388	0.575589
698.728326	0.577555
699.064214	0.580033
699.400053	0.580907
699.735842	0.586052
700.071581	0.588512
700.407270	0.591293
700.742910	0.594506
701.078501	0.600264
701.414042	0.601803
701.749533	0.605051
702.084974	0.612391
702.420366	0.606807
702.755709	0.613674
703.091002	0.621430
703.426246	0.616980
703.761440	0.620031
704.096584	0.625208
704.431679	0.624052
704.766725	0.626785
705.101721	0.628870
705.436668	0.625750
705.771565	0.630367
706.106413	0.627243
706.441212	0.625653
706.775961	0.625802
707.110661	0.626757
707.445311	0.623632
707.779913	0.624058
708.114465	0.622669
708.448967	0.618745
708.783421	0.613193
709.117825	0.609095
709.452180	0.608846
709.786485	0.603724
710.120742	0.595803
710.454949	0.596409
710.789107	0.590252
711.123216	0.583642
711.457275	0.584633
711.791286	0.579134
712.125247	0.580064
712.459159	0.585789
712.793023	0.578674
713.126837	0.587705
713.460602	0.588013
713.794318	0.593373
714.127985	0.594149
714.461602	0.605002
714.795171	0.605862
715.128691	0.614163
715.462162	0.621575
715.795584	0.628116
716.128957	0.631067
716.462281	0.634480
716.795556	0.638019
717.128782	0.645886
717.461960	0.653678
717.795088	0.652658
718.128167	0.658425
718.461198	0.664621
718.794180	0.665783
719.127113	0.669709
719.459997	0.673388
719.792833	0.677829
720.125619	0.679005
720.458357	0.684927
720.791046	0.686175
721.123686	0.690578
721.456278	0.695575
721.788821	0.693471
722.121315	0.698879
722.453761	0.700653
722.786158	0.701737
723.118506	0.699226
723.450805	0.702820
723.783056	0.700862
724.115259	0.701834
724.447412	0.701981
724.779518	0.701196
725.111574	0.700365
725.443582	0.697347
725.775542	0.701273
726.107453	0.695346
726.439315	0.695730
726.771129	0.692277
727.102895	0.687498
727.434612	0.683842
727.766281	0.682051
728.097901	0.679914
728.429473	0.680928
728.760996	0.680358
729.092471	0.679241
729.423897	0.684139
729.755276	0.685002
730.086606	0.683543
730.417887	0.677886
730.749120	0.671298
731.080305	0.667636
731.411442	0.662633
731.742530	0.664739
732.073570	0.665250
732.404562	0.662092
732.735506	0.663026
733.066401	0.666817
733.397249	0.673495
733.728048	0.683179
734.058798	0.696960
734.389501	0.706845
734.720156	0.712437
735.050762	0.719227
735.381320	0.722617
735.711831	0.727861
736.042293	0.733061
736.372707	0.732404
736.703073	0.734372
737.033391	0.735659
737.363661	0.734080
737.693883	0.732051
738.024056	0.730000
738.354182	0.729696
738.684260	0.721192
739.014290	0.718652
739.344272	0.718608
739.674207	0.715372
740.004093	0.714241
740.333931	0.715598
740.663722	0.716629
740.993464	0.717830
741.323159	0.720054
741.652806	0.724886
741.982405	0.729503
742.311956	0.735335
742.641460	0.736070
742.970915	0.739807
743.300323	0.745234
743.629683	0.749253
743.958996	0.753420
744.288260	0.756876
744.617477	0.762490
744.946647	0.763549
745.275768	0.768594
745.604842	0.769405
745.933869	0.776186
746.262847	0.777632
746.591778	0.775389
746.920662	0.779025
747.249498	0.782754
747.578286	0.779067
747.907027	0.775484
748.235720	0.772496
748.564365	0.771932
748.892963	0.773546
749.221514	0.776218
749.550017	0.778149
749.878473	0.779207
750.206881	0.785014
750.535242	0.785719
750.863555	0.785789
751.191821	0.787629
751.520039	0.787886
751.848210	0.789517
752.176334	0.788532
752.504411	0.788701
752.832440	0.792779
753.160421	0.795413
753.488356	0.795736
753.816243	0.796059
754.144082	0.801408
754.471875	0.802790
754.799620	0.802058
755.127318	0.802196
755.454969	0.802756
755.782572	0.803967
756.110129	0.805417
756.437638	0.807744
756.765100	0.806645
757.092515	0.806402
757.419882	0.805885
757.747203	0.808624
758.074477	0.808229
758.401703	0.806108
758.728882	0.803307
759.056014	0.803260
759.383099	0.801551
759.710138	0.801329
760.037129	0.797671
760.364073	0.796359
760.690970	0.799669
761.017820	0.800316
761.344623	0.798340
761.671379	0.793455
761.998088	0.786409
762.324751	0.769242
762.651366	0.736070
762.977935	0.682596
763.304456	0.646635
763.630931	0.644661
763.957359	0.672468
764.283740	0.705139
764.610074	0.729429
764.936362	0.754347
765.262602	0.773042
765.588796	0.789137
765.914943	0.800697
766.241044	0.812740
766.567097	0.818829
766.893104	0.826352
767.219064	0.830737
767.544978	0.836901
767.870845	0.844156
768.196665	0.847524
768.522438	0.848616
768.848165	0.851504
769.173846	0.856010
769.499479	0.859167
769.825066	0.861465
770.150607	0.864744
770.476101	0.864087
770.801548	0.865428
771.126949	0.871631
771.452303	0.874342
771.777611	0.874882
772.102872	0.875442
772.428087	0.878223
772.753256	0.881746
773.078378	0.882385
773.403453	0.887643
773.728482	0.891528
774.053465	0.888153
774.378401	0.890745
774.703291	0.895149
775.028135	0.896747
775.352932	0.895441
775.677683	0.899620
776.002388	0.900150
776.327046	0.900206
776.651658	0.903457
776.976224	0.905146
777.300743	0.904446
777.625216	0.906179
777.949643	0.907894
778.274024	0.906465
778.598359	0.910127
778.922647	0.908736
779.246889	0.910701
779.571086	0.911897
779.895236	0.912446
780.219339	0.912058
780.543397	0.910028
780.867409	0.909906
781.191374	0.909904
781.515294	0.911839
781.839167	0.911847
782.162995	0.911785
782.486776	0.911208
782.810511	0.912183
783.134201	0.916486
783.457844	0.914846
783.781441	0.916470
784.104993	0.918681
784.428498	0.919266
784.751958	0.919760
785.075372	0.920411
785.398739	0.920845
785.722061	0.918383
786.045337	0.918112
786.368568	0.918818
786.691752	0.921154
787.014891	0.913060
787.337983	0.906000
787.661030	0.899626
787.984031	0.887220
788.306987	0.882411
788.629897	0.880642
788.952760	0.885721
789.275579	0.891638
789.598351	0.899523
789.921078	0.909717
790.243759	0.911575
790.566395	0.913428
790.888984	0.919729
791.211529	0.922088
791.534027	0.924235
791.856480	0.926993
792.178888	0.927562
792.501249	0.930823
792.823566	0.931658
793.145836	0.931137
793.468062	0.933506
793.790241	0.933671
794.112375	0.931537
794.434464	0.930449
794.756507	0.929131
795.078505	0.928231
795.400457	0.923746
795.722364	0.916217
796.044226	0.912609
796.366042	0.911000
796.687812	0.912592
797.009538	0.911378
797.331218	0.915102
797.652852	0.917568
797.974442	0.919697
798.295986	0.921588
798.617484	0.923049
798.938938	0.925243
799.260346	0.928409
799.581709	0.929837
799.903026	0.930794
800.224299	0.932799
800.545526	0.935611
800.866708	0.936257
801.187845	0.939197
801.508936	0.938785
801.829983	0.938577
802.150984	0.940580
802.471940	0.942596
802.792851	0.942849
803.113717	0.943792
803.434538	0.943057
803.755314	0.944601
804.076045	0.944532
804.396731	0.944545
804.717372	0.943013
805.037967	0.946683
805.358518	0.945123
805.679024	0.941982
805.999485	0.943160
806.319901	0.942290
806.640272	0.944185
806.960598	0.942542
807.280879	0.941541
807.601115	0.941292
807.921306	0.943155
808.241453	0.942281
808.561554	0.942682
808.881611	0.942815
809.201623	0.942760
809.521590	0.944011
809.841513	0.944721
810.161390	0.944069
810.481223	0.944828
810.801011	0.946942
811.120755	0.948184
811.440453	0.947548
811.760107	0.948533
812.079716	0.948421
812.399281	0.950853
812.718801	0.952356
813.038276	0.951206
813.357707	0.952311
813.677093	0.954040
813.996434	0.952519
814.315731	0.954843
814.634983	0.955034
814.954191	0.954017
815.273354	0.951831
815.592473	0.950360
815.911547	0.951214
816.230577	0.949491
816.549562	0.947958
816.868502	0.946601
817.187399	0.946969
817.506250	0.944652
817.825058	0.946047
818.143821	0.943685
818.462539	0.941599
818.781213	0.936585
819.099843	0.930980
819.418429	0.920409
819.736970	0.910595
820.055466	0.898372
820.373919	0.887629
820.692327	0.872346
821.010691	0.850738
821.329011	0.795952
821.647286	0.708272
821.965517	0.625861
822.283704	0.596286
822.601847	0.600277
822.919945	0.634802
823.237999	0.674591
823.556010	0.713043
823.873976	0.750201
824.191897	0.782806
824.509775	0.809460
824.827609	0.833720
825.145398	0.846733
825.463144	0.846801
825.780845	0.839017
826.098502	0.826189
826.416116	0.797376
826.733685	0.766672
827.051210	0.759953
827.368692	0.775028
827.686129	0.803792
828.003522	0.835345
828.320872	0.861962
828.638177	0.884862
828.955439	0.901991
829.272656	0.914531
829.589830	0.923609
829.906960	0.931812
830.224046	0.937874
830.541088	0.942698
830.858086	0.944884
831.175041	0.949785
831.491952	0.949216
831.808819	0.947679
832.125642	0.944406
832.442421	0.937369
832.759157	0.923310
833.075849	0.897685
833.392497	0.862893
833.709101	0.843868
834.025662	0.848613
834.342179	0.867379
834.658653	0.890570
834.975083	0.908273
835.291469	0.924584
835.607811	0.934885
835.924110	0.943426
836.240366	0.951937
836.556578	0.957161
836.872746	0.960789
837.188871	0.963506
837.504952	0.966461
837.820990	0.969726
838.136984	0.969236
838.452935	0.971309
838.768842	0.971318
839.084706	0.968396
839.400526	0.956446
839.716303	0.932639
840.032037	0.921427
840.347727	0.923697
840.663373	0.936070
840.978977	0.947905
841.294537	0.959950
841.610054	0.966820
841.925527	0.970398
842.240957	0.972454
842.556344	0.976535
842.871687	0.978664
843.186987	0.980006
843.502244	0.981098
843.817458	0.981136
844.132629	0.983163
844.447756	0.984929
844.762840	0.985312
845.077881	0.986457
845.392879	0.984938
845.707833	0.986781
846.022745	0.987140
846.337613	0.987269
846.652438	0.987848
846.967221	0.987486
847.281960	0.988388
847.596656	0.988801
847.911309	0.988260
848.225919	0.988057
848.540485	0.988907
848.855009	0.991626
849.169490	0.988927
849.483928	0.989161
849.798323	0.987417
850.112675	0.990932
850.426984	0.989611
850.741251	0.989752
851.055474	0.989635
851.369654	0.990472
851.683792	0.988781
851.997887	0.989401
852.311938	0.990481
852.625947	0.989402
852.939914	0.989194
853.253837	0.991247
853.567718	0.991459
853.881555	0.990827
854.195350	0.990319
854.509103	0.990384
854.822812	0.990739
855.136479	0.990756
855.450103	0.990471
855.763685	0.989270
856.077224	0.990679
856.390720	0.990470
856.704173	0.990430
857.017584	0.989548
857.330953	0.989783
857.644278	0.988482
857.957561	0.989366
858.270802	0.990017
858.584000	0.989151
858.897155	0.988663
859.210268	0.989722
859.523339	0.991039
859.836367	0.990743
860.149352	0.989619
860.462295	0.989915
860.775195	0.990404
861.088054	0.989700
861.400869	0.990155
861.713642	0.989508
862.026373	0.991187
862.339062	0.990594
862.651708	0.990557
862.964312	0.990092
863.276873	0.989519
863.589392	0.989502
863.901869	0.988512
864.214303	0.988785
864.526696	0.987431
864.839045	0.987411
865.151353	0.987079
865.463619	0.986661
865.775842	0.987519
866.088023	0.988981
866.400162	0.987480
866.712258	0.989032
867.024313	0.987907
867.336325	0.989601
867.648296	0.989747
867.960224	0.988025
868.272110	0.989223
868.583954	0.988966
868.895755	0.990069
869.207515	0.987429
869.519233	0.988990
869.830909	0.987066
870.142542	0.987030
870.454134	0.988187
870.765684	0.987532
871.077191	0.988392
871.388657	0.986726
871.700081	0.987344
872.011463	0.986701
872.322803	0.986238
872.634101	0.984605
872.945357	0.984189
873.256571	0.983683
873.567744	0.984126
873.878874	0.984503
874.189963	0.984268
874.501010	0.985246
874.812015	0.983503
875.122979	0.984429
875.433900	0.984685
875.744780	0.984545
876.055618	0.982814
876.366415	0.983824
876.677169	0.984494
876.987882	0.984352
877.298554	0.984993
877.609183	0.983749
877.919771	0.982868
878.230317	0.982813
878.540822	0.980307
878.851285	0.979606
879.161707	0.976323
879.472087	0.973517
879.782425	0.965315
880.092722	0.953424
880.402977	0.927455
880.713191	0.890938
881.023363	0.848376
881.333494	0.823508
881.643583	0.816021
881.953631	0.823661
882.263637	0.841140
882.573602	0.863459
882.883526	0.880319
883.193408	0.895299
883.503248	0.907291
883.813048	0.920215
884.122806	0.933020
884.432522	0.942975
884.742197	0.952478
885.051831	0.956739
885.361424	0.962067
885.670975	0.968157
885.980485	0.969177
886.289954	0.972594
886.599382	0.973465
886.908768	0.976367
887.218113	0.977590
887.527417	0.980111
887.836680	0.982331
888.145901	0.982728
888.455082	0.984610
888.764221	0.985187
889.073319	0.985291
889.382376	0.986041
889.691392	0.985068
890.000366	0.986697
890.309300	0.986700
890.618193	0.985533
890.927044	0.985486
891.235855	0.985896
891.544625	0.984987
891.853353	0.985469
892.162041	0.984787
892.470687	0.982470
892.779293	0.979475
893.087858	0.977527
893.396381	0.974378
893.704864	0.969049
894.013306	0.960920
894.321707	0.948455
894.630068	0.941358
894.938387	0.938816
895.246665	0.942300
895.554903	0.948033
895.863100	0.955393
896.171256	0.961581
896.479371	0.966726
896.787446	0.971928
897.095480	0.975481
897.403473	0.977662
897.711425	0.979225
898.019336	0.981922
898.327207	0.983416
898.635038	0.982291
898.942827	0.984145
899.250576	0.984500
899.558284	0.986641
899.865952	0.985103
900.173579	0.987599
900.481165	0.987430
900.788711	0.987874
901.096216	0.989032
901.403681	0.989729
901.711105	0.988680
902.018489	0.989197
902.325832	0.988651
902.633135	0.989086
902.940397	0.986991
903.247619	0.983096
903.554800	0.972191
903.861941	0.954911
904.169041	0.938176
904.476101	0.929863
904.783121	0.931970
905.090100	0.939801
905.397039	0.950212
905.703938	0.959231
906.010796	0.966948
906.317614	0.973642
906.624391	0.979410
906.931129	0.982076
907.237826	0.984667
907.544483	0.986804
907.851099	0.988873
908.157675	0.989595
908.464211	0.991127
908.770707	0.992225
909.077163	0.992635
909.383578	0.992515
909.689954	0.993076
909.996289	0.993586
910.302584	0.995449
910.608839	0.995980
910.915054	0.994944
911.221229	0.994181
911.527363	0.994377
911.833458	0.993868
912.139513	0.994055
912.445527	0.992655
912.751502	0.993085
913.057436	0.991910
913.363331	0.992768
913.669186	0.991106
913.975000	0.988766
914.280775	0.986742
914.586510	0.982222
914.892205	0.977217
915.197859	0.970284
915.503475	0.959689
915.809050	0.949797
916.114585	0.945229
916.420081	0.945055
916.725536	0.944911
917.030952	0.949670
917.336328	0.955515
917.641665	0.960181
917.946961	0.966211
918.252218	0.970657
918.557435	0.974716
918.862612	0.978868
919.167750	0.980856
919.472848	0.983181
919.777906	0.985438
920.082925	0.987447
920.387904	0.987330
920.692843	0.988764
920.997743	0.988947
921.302603	0.991121
921.607423	0.990926
921.912204	0.991860
922.216946	0.992665
922.521647	0.993025
922.826310	0.992694
923.130932	0.994375
923.435516	0.994764
923.740059	0.995198
924.044564	0.994686
924.349028	0.993588
924.653454	0.997056
924.957840	0.995521
925.262186	0.996372
925.566493	0.995923
925.870761	0.996811
926.174989	0.997278
926.479178	0.997655
926.783328	0.998066
927.087438	0.998926
927.391509	0.996943
927.695541	0.998141
927.999533	0.998956
928.303486	0.998590
928.607400	0.998889
928.911275	0.999360
929.215110	0.998984
929.518906	0.998636
929.822663	1.000133
930.126381	0.998793
930.430060	0.999337
930.733699	0.999051
931.037299	0.999102
931.340861	0.998959
931.644383	0.998013
931.947866	0.998454
932.251309	0.998995
932.554714	0.998581
932.858080	0.998360
933.161407	0.998406
933.464694	0.998958
933.767943	0.999543
934.071153	0.999766
934.374323	0.999537
934.677455	0.999367
934.980548	0.999432
935.283602	1.000270
935.586617	0.998167
935.889593	1.000793
936.192530	1.000537
936.495428	0.998399
936.798287	0.998573
937.101108	0.998764
937.403890	0.997254
937.706632	0.999837
938.009336	0.997382
938.312002	0.997358
938.614628	0.996445
938.917216	0.995299
939.219765	0.995899
939.522275	0.996980
939.824747	0.996823
940.127179	0.996553
940.429573	0.996565
940.731929	0.996294
941.034246	0.996437
941.336524	0.996055
941.638763	0.997331
941.940964	0.998224
942.243126	0.997078
942.545250	0.998904
942.847335	0.997420
943.149381	0.998688
943.451389	0.996079
943.753359	0.998764
944.055290	0.999904
944.357182	0.999167
944.659036	0.998185
944.960851	0.999275
945.262628	0.999512
945.564367	0.998519
945.866067	0.999006
946.167729	0.998568
946.469352	0.998593
946.770937	0.997188
947.072484	1.000333
947.373992	0.998312
947.675462	0.997729
947.976893	0.998778
948.278286	0.999601
948.579641	0.999132
948.880958	0.998701
949.182236	0.999114
949.483476	0.999908
949.784678	1.000391
950.085841	0.998141
950.386967	0.999454
950.688054	0.999364
950.989103	0.998267
951.290114	0.999184
951.591087	0.999647
951.892021	0.998361
952.192917	0.999545
952.493776	0.998775
952.794596	0.997916
953.095378	0.998253
953.396122	0.997295
953.696828	1.000000
953.997496	0.998513
954.298126	0.999878
954.598718	0.996792
954.899272	0.998575
955.199788	0.997342
955.500266	1.000403
955.800706	0.999140
956.101108	0.999735
956.401472	1.001596
956.701798	1.000325
957.002087	1.000382
957.302337	0.999568
957.602550	0.999985
957.902724	1.000640
958.202861	1.000067
958.502960	0.999724
958.803022	1.002621
959.103045	1.001897
959.403031	1.001461
959.702979	1.002409
960.002889	1.000935
960.302762	0.999835
960.602596	1.001550
960.902393	1.001407
961.202153	1.002155
961.501875	1.001576
961.801559	1.002259
962.101205	1.000940
962.400814	1.002746
962.700385	1.002304
962.999918	1.001698
963.299414	1.000669
963.598873	1.001591
963.898293	1.000952
964.197677	1.002497
964.497022	1.003025
964.796331	1.001851
965.095601	1.001670
965.394835	1.001847
965.694030	1.003045
965.993189	1.001335
966.292309	1.001042
966.591393	1.000416
966.890439	1.002744
967.189447	1.001844
967.488419	1.001332
967.787353	1.000845
968.086249	1.001803
968.385108	1.001255
968.683930	1.002593
968.982714	1.001988
969.281462	1.001155
969.580172	1.001731
969.878844	1.003983
970.177480	1.001876
970.476078	1.001557
970.774639	1.002375
971.073162	1.001509
971.371649	1.001616
971.670098	1.002494
971.968510	1.001172
972.266885	1.001118
972.565223	1.001296
972.863524	1.001510
973.161788	1.000930
973.460014	1.003098
973.758204	1.000680
974.056356	1.001536
974.354471	1.001091
974.652550	1.002066
974.950591	1.000728
975.248595	1.000702
975.546563	1.002519
975.844493	1.002763
976.142386	1.001111
976.440243	1.002293
976.738062	1.002152
977.035845	1.001612
977.333590	1.002262
977.631299	1.001436
977.928971	1.001308
978.226606	1.002252
978.524204	1.001463
978.821765	1.003325
979.119290	1.003285
979.416777	1.001830
979.714228	1.001952
980.011642	1.002108
980.309020	1.001621
980.606360	1.001675
980.903664	1.002195
981.200931	1.001309
981.498162	1.002013
981.795356	1.001576
982.092513	1.000951
982.389633	1.001342
982.686717	1.000126
982.983764	0.999358
983.280775	0.999968
983.577749	1.001071
983.874686	0.999601
984.171587	1.000162
984.468451	0.999898
984.765279	1.002206
985.062070	1.000709
985.358824	1.000799
985.655543	1.001017
985.952224	1.003090
986.248869	1.001827
986.545478	1.003396
986.842050	1.001780
987.138586	1.001997
987.435086	1.002087
987.731549	1.003753
988.027975	1.002869
988.324366	1.002572
988.620719	1.004010
988.917037	1.002430
989.213318	1.003466
989.509563	1.003302
989.805772	1.002355
990.101944	1.003170
990.398080	1.003031
990.694180	1.003928
990.990244	1.002228
991.286271	1.003153
991.582262	1.003143
991.878217	1.001296
992.174136	1.003205
992.470019	1.002188
992.765865	1.003285
993.061676	1.003365
993.357450	1.002663
993.653188	1.002870
993.948890	1.002427
994.244556	1.001622
994.540186	1.002480
994.835780	1.002301
995.131337	1.003050
995.426859	1.003319
995.722345	1.003542
996.017795	1.001291
996.313208	1.002369
996.608586	1.001361
996.903928	1.002150
997.199234	1.001554
997.494504	1.001550
997.789738	1.000376
998.084936	1.002109
998.380099	1.002033
998.675225	1.003940
998.970316	1.003753
999.265371	1.002874
999.560390	1.003350
999.855373	1.001851
1000.150320	1.002383
1000.445232	1.002567
1000.740108	1.003478
1001.034948	1.002377
1001.329752	1.004314
1001.624521	1.002424
1001.919254	1.001935
1002.213951	1.003837
1002.508613	1.001362
1002.803239	1.002899
1003.097829	1.003155
1003.392384	1.001844
1003.686903	1.003057
1003.981386	1.002322
1004.275834	1.003209
1004.570246	1.002057
1004.864623	1.002918
1005.158964	1.003172
1005.453270	1.003673
1005.747540	1.003508
1006.041775	1.003687
1006.335974	1.002734
1006.630138	1.002225
1006.924266	1.001026
1007.218359	1.001931
1007.512416	1.004892
1007.806438	1.001956
1008.100425	1.003700
1008.394376	1.004714
1008.688292	1.002007
1008.982172	1.002743
1009.276017	1.003080
1009.569827	1.004400
1009.863602	1.002716
1010.157341	1.003895
1010.451045	1.003193
1010.744714	1.005046
1011.038347	1.003571
1011.331945	1.002397
1011.625508	1.003664
1011.919036	1.002902
1012.212528	1.002747
1012.505986	1.002609
1012.799408	1.004223
1013.092795	1.003004
1013.386147	1.002428
1013.679464	1.005058
1013.972745	1.003522
1014.265992	1.002664
1014.559204	1.002079
1014.852380	1.003791
1015.145521	1.003073
1015.438628	1.003130
1015.731699	1.003566
1016.024736	1.003046
1016.317737	1.002823
1016.610703	1.003354
1016.903635	1.003443
1017.196531	1.003754
1017.489393	1.002352
1017.782219	1.002501
1018.075011	1.002982
1018.367768	1.002456
1018.660490	1.002930
1018.953177	1.002930
1019.245829	1.002930
