Dividing Wavelength (nm)	Counts (n)	Blue Motor Position (mm): 27.800000	Red Motor Position (mm): 0.000000	
326.493990	1.001339
326.888308	1.001339
327.282561	1.001339
327.676750	1.001980
328.070874	1.001856
328.464933	1.002220
328.858929	1.001132
329.252859	1.001820
329.646726	1.000962
330.040528	0.999748
330.434265	1.000731
330.827938	1.000542
331.221547	1.001563
331.615091	1.001721
332.008571	1.002254
332.401986	1.000742
332.795338	1.000170
333.188625	1.001051
333.581847	1.001834
333.975006	1.002596
334.368100	1.001906
334.761129	0.999664
335.154095	1.001780
335.546996	1.001319
335.939833	0.999254
336.332606	0.999885
336.725315	0.999346
337.117960	1.001502
337.510540	0.999853
337.903056	1.000407
338.295508	1.000960
338.687896	1.000062
339.080220	1.000008
339.472480	1.000371
339.864676	0.999704
340.256807	0.999478
340.648875	1.000685
341.040879	0.999018
341.432818	1.000402
341.824694	0.999815
342.216506	1.000339
342.608253	0.999336
342.999937	0.999551
343.391557	0.999894
343.783113	1.001197
344.174605	1.000364
344.566033	0.999187
344.957397	0.999996
345.348697	1.001118
345.739934	0.999968
346.131106	0.999935
346.522215	0.999524
346.913260	1.000740
347.304241	0.999670
347.695159	0.999736
348.086012	0.999955
348.476802	0.998696
348.867528	0.998844
349.258191	1.000010
349.648789	0.999341
350.039324	0.999901
350.429796	0.998525
350.820203	0.999302
351.210548	0.999494
351.600828	0.999487
351.991045	0.999837
352.381198	1.000153
352.771288	0.998727
353.161314	1.000027
353.551276	0.998499
353.941175	0.997598
354.331010	0.999807
354.720782	1.000100
355.110490	0.998274
355.500135	1.000776
355.889717	0.997867
356.279235	0.998568
356.668689	0.999768
357.058080	0.998940
357.447408	0.998056
357.836672	0.999155
358.225873	0.999934
358.615010	0.998558
359.004084	0.997702
359.393095	0.998685
359.782043	0.998690
360.170927	0.998525
360.559748	0.999316
360.948505	0.999119
361.337199	0.997956
361.725830	0.999621
362.114398	0.998037
362.502903	0.998176
362.891344	0.999018
363.279722	0.997315
363.668037	0.998325
364.056289	0.997880
364.444478	0.998558
364.832603	0.998324
365.220665	0.997910
365.608665	0.998164
365.996601	0.997879
366.384474	0.996359
366.772284	0.996773
367.160031	0.997016
367.547715	0.997186
367.935336	0.996470
368.322893	0.994444
368.710388	0.993335
369.097820	0.991565
369.485189	0.988859
369.872495	0.986740
370.259738	0.985450
370.646918	0.982236
371.034035	0.980229
371.421090	0.977246
371.808081	0.971816
372.195010	0.969341
372.581875	0.965447
372.968678	0.960109
373.355418	0.956423
373.742096	0.948858
374.128710	0.945186
374.515262	0.940030
374.901751	0.934849
375.288177	0.930096
375.674540	0.922048
376.060841	0.917526
376.447079	0.909710
376.833254	0.903822
377.219367	0.898840
377.605417	0.887098
377.991404	0.883396
378.377329	0.878040
378.763191	0.870622
379.148991	0.862215
379.534727	0.854538
379.920402	0.846455
380.306013	0.842381
380.691563	0.830862
381.077049	0.823571
381.462474	0.819748
381.847835	0.808212
382.233134	0.802869
382.618371	0.803506
383.003545	0.786680
383.388657	0.784051
383.773706	0.776970
384.158693	0.771859
384.543618	0.767376
384.928480	0.758238
385.313280	0.748690
385.698017	0.748007
386.082692	0.736636
386.467305	0.734768
386.851856	0.729537
387.236344	0.724074
387.620770	0.718789
388.005133	0.712301
388.389435	0.707503
388.773674	0.705157
389.157851	0.696207
389.541965	0.693972
389.926018	0.700392
390.310008	0.686561
390.693936	0.683823
391.077802	0.676773
391.461606	0.678208
391.845348	0.667704
392.229027	0.666223
392.612645	0.664955
392.996200	0.652237
393.379694	0.644608
393.763125	0.635473
394.146494	0.639729
394.529801	0.630026
394.913047	0.622773
395.296230	0.628728
395.679351	0.619919
396.062410	0.616687
396.445408	0.618969
396.828343	0.614440
397.211217	0.609313
397.594028	0.621740
397.976778	0.612159
398.359466	0.607987
398.742092	0.604012
399.124656	0.616009
399.507158	0.604526
399.889598	0.601025
400.271977	0.592506
400.654294	0.596047
401.036549	0.595340
401.418742	0.599802
401.800874	0.585779
402.182944	0.582426
402.564952	0.574514
402.946898	0.575919
403.328783	0.577291
403.710606	0.587875
404.092367	0.563342
404.474067	0.568583
404.855705	0.567033
405.237282	0.575600
405.618797	0.562303
406.000250	0.557748
406.381642	0.547162
406.762972	0.553097
407.144240	0.551915
407.525447	0.551064
407.906593	0.544567
408.287677	0.539328
408.668700	0.548439
409.049661	0.542253
409.430560	0.536758
409.811399	0.546067
410.192176	0.527565
410.572891	0.534872
410.953545	0.522925
411.334138	0.536780
411.714669	0.529190
412.095139	0.541052
412.475547	0.525159
412.855894	0.527278
413.236180	0.526277
413.616405	0.530947
413.996568	0.521686
414.376670	0.528377
414.756711	0.532923
415.136691	0.529878
415.516609	0.520560
415.896466	0.517309
416.276262	0.513800
416.655997	0.515546
417.035670	0.497092
417.415283	0.488926
417.794834	0.493206
418.174324	0.499011
418.553753	0.508184
418.933121	0.490148
419.312428	0.483749
419.691674	0.489852
420.070859	0.477855
420.449983	0.486169
420.829045	0.475442
421.208047	0.483763
421.586988	0.477322
421.965867	0.476487
422.344686	0.465096
422.723444	0.477687
423.102141	0.495005
423.480777	0.467249
423.859352	0.488461
424.237866	0.465415
424.616319	0.466462
424.994712	0.456950
425.373044	0.467770
425.751314	0.455293
426.129524	0.472467
426.507673	0.455440
426.885762	0.448988
427.263789	0.455205
427.641756	0.464705
428.019662	0.454754
428.397508	0.454316
428.775292	0.458455
429.153016	0.450460
429.530679	0.456408
429.908282	0.450230
430.285824	0.460090
430.663305	0.438987
431.040726	0.460347
431.418086	0.460525
431.795385	0.451377
432.172624	0.450704
432.549802	0.451243
432.926920	0.450720
433.303977	0.450207
433.680974	0.447808
434.057910	0.446681
434.434786	0.446057
434.811601	0.448905
435.188355	0.431969
435.565050	0.441767
435.941683	0.443589
436.318257	0.428399
436.694770	0.430068
437.071222	0.428734
437.447614	0.434117
437.823946	0.441384
438.200218	0.431216
438.576429	0.442282
438.952580	0.436178
439.328670	0.433695
439.704700	0.442099
440.080670	0.444333
440.456580	0.428086
440.832429	0.437201
441.208218	0.449876
441.583947	0.440598
441.959616	0.441907
442.335224	0.449251
442.710773	0.442291
443.086261	0.443233
443.461689	0.458559
443.837057	0.451570
444.212365	0.444284
444.587612	0.453808
444.962800	0.446716
445.337927	0.451488
445.712995	0.479050
446.088002	0.446428
446.462949	0.459980
446.837837	0.468160
447.212664	0.460031
447.587431	0.457696
447.962139	0.436177
448.336786	0.403599
448.711374	0.417135
449.085901	0.460590
449.460369	0.468670
449.834776	0.476324
450.209124	0.464497
450.583412	0.465331
450.957640	0.462549
451.331808	0.478175
451.705917	0.503371
452.079965	0.512756
452.453954	0.509936
452.827883	0.520187
453.201752	0.522372
453.575562	0.537823
453.949311	0.536312
454.323001	0.546607
454.696632	0.550120
455.070202	0.552409
455.443713	0.553361
455.817164	0.556844
456.190556	0.561837
456.563888	0.567432
456.937160	0.572255
457.310373	0.591586
457.683526	0.598753
458.056619	0.610775
458.429653	0.618285
458.802628	0.627978
459.175542	0.632395
459.548398	0.630052
459.921194	0.633615
460.293930	0.641583
460.666607	0.638263
461.039224	0.639335
461.411782	0.644442
461.784280	0.652936
462.156719	0.664316
462.529099	0.674973
462.901419	0.692138
463.273680	0.702027
463.645882	0.710004
464.018024	0.722855
464.390106	0.726182
464.762130	0.726966
465.134094	0.727107
465.505999	0.720460
465.877845	0.715203
466.249631	0.718280
466.621358	0.731297
466.993026	0.747656
467.364634	0.759401
467.736184	0.770777
468.107674	0.781169
468.479105	0.790164
468.850477	0.797879
469.221790	0.808153
469.593043	0.819116
469.964238	0.827947
470.335373	0.834460
470.706449	0.840717
471.077467	0.846746
471.448425	0.844197
471.819324	0.844105
472.190164	0.849562
472.560945	0.862938
472.931667	0.875042
473.302330	0.880814
473.672934	0.888698
474.043479	0.891001
474.413965	0.896540
474.784393	0.902226
475.154761	0.905587
475.525070	0.910311
475.895321	0.916067
476.265513	0.919973
476.635645	0.922181
477.005719	0.927180
477.375734	0.929999
477.745691	0.932492
478.115588	0.935760
478.485427	0.939104
478.855207	0.940216
479.224928	0.940779
479.594591	0.942915
479.964194	0.946971
480.333739	0.950739
480.703226	0.954406
481.072653	0.956513
481.442022	0.959035
481.811333	0.960108
482.180584	0.963490
482.549777	0.965971
482.918912	0.968111
483.287988	0.970221
483.657005	0.971754
484.025964	0.973649
484.394864	0.975128
484.763706	0.977058
485.132489	0.979186
485.501213	0.979352
485.869879	0.981026
486.238487	0.981908
486.607036	0.983340
486.975527	0.985105
487.343959	0.984719
487.712333	0.985684
488.080648	0.986191
488.448905	0.988261
488.817104	0.987641
489.185244	0.988866
489.553326	0.989021
489.921350	0.989973
490.289315	0.989109
490.657222	0.989065
491.025070	0.990226
491.392861	0.990422
491.760593	0.990804
492.128267	0.991334
492.495883	0.990907
492.863440	0.992406
493.230939	0.992767
493.598380	0.993071
493.965763	0.993432
494.333088	0.992593
494.700354	0.992718
495.067563	0.993672
495.434713	0.993978
495.801805	0.993885
496.168839	0.994246
496.535815	0.994287
496.902733	0.993998
497.269593	0.994589
497.636395	0.993590
498.003139	0.994340
498.369825	0.995655
498.736453	0.994471
499.103023	0.995072
499.469535	0.994873
499.835989	0.995522
500.202385	0.994656
500.568723	0.995193
500.935003	0.994816
501.301226	0.995004
501.667390	0.995045
502.033497	0.995308
502.399546	0.995227
502.765537	0.995841
503.131470	0.996303
503.497345	0.995865
503.863163	0.995687
504.228923	0.995845
504.594625	0.995319
504.960269	0.995912
505.325856	0.996861
505.691385	0.996105
506.056856	0.996642
506.422270	0.996161
506.787625	0.996243
507.152924	0.996155
507.518164	0.996173
507.883347	0.995867
508.248472	0.996058
508.613540	0.995832
508.978550	0.996586
509.343503	0.996436
509.708398	0.996947
510.073236	0.996303
510.438016	0.995975
510.802738	0.995982
511.167403	0.996517
511.532010	0.996504
511.896561	0.997155
512.261053	0.996119
512.625488	0.995985
512.989866	0.995738
513.354186	0.995116
513.718449	0.996854
514.082655	0.995868
514.446803	0.996768
514.810894	0.996809
515.174927	0.997064
515.538904	0.996612
515.902822	0.996144
516.266684	0.996808
516.630488	0.996788
516.994235	0.996344
517.357925	0.997101
517.721558	0.996636
518.085133	0.996195
518.448651	0.996948
518.812112	0.997308
519.175516	0.996837
519.538863	0.996462
519.902152	0.997115
520.265385	0.997182
520.628560	0.995858
520.991678	0.996643
521.354739	0.997593
521.717743	0.996912
522.080690	0.996339
522.443580	0.996351
522.806413	0.995778
523.169189	0.996920
523.531908	0.995753
523.894569	0.996709
524.257174	0.996006
524.619722	0.996864
524.982213	0.996978
525.344647	0.996074
525.707025	0.996233
526.069345	0.996201
526.431608	0.997283
526.793815	0.997096
527.155964	0.996523
527.518057	0.996460
527.880093	0.996515
528.242072	0.996515
528.603995	0.997127
528.965860	0.997262
529.327669	0.996505
529.689421	0.996140
530.051117	0.996745
530.412755	0.997019
530.774337	0.996479
531.135862	0.997000
531.497331	0.996367
531.858743	0.997207
532.220098	0.995653
532.581396	0.996858
532.942638	0.997241
533.303824	0.997366
533.664953	0.996814
534.026025	0.997121
534.387040	0.996218
534.747999	0.996209
535.108902	0.996544
535.469748	0.997085
535.830537	0.996700
536.191270	0.996630
536.551947	0.996718
536.912567	0.997105
537.273131	0.997591
537.633638	0.996227
537.994089	0.997148
538.354483	0.997137
538.714821	0.997285
539.075103	0.996539
539.435328	0.997169
539.795497	0.996959
540.155609	0.997316
540.515665	0.997170
540.875665	0.996424
541.235609	0.996884
541.595496	0.996195
541.955328	0.997210
542.315102	0.996549
542.674821	0.996618
543.034483	0.997089
543.394090	0.996012
543.753640	0.996790
544.113134	0.996052
544.472571	0.997033
544.831953	0.997055
545.191278	0.996626
545.550548	0.996434
545.909761	0.996338
546.268918	0.997424
546.628019	0.997379
546.987064	0.996473
547.346053	0.996354
547.704986	0.996870
548.063863	0.996001
548.422684	0.996637
548.781449	0.996352
549.140158	0.997009
549.498811	0.996855
549.857408	0.996231
550.215949	0.995980
550.574434	0.995940
550.932864	0.996408
551.291237	0.996317
551.649555	0.997030
552.007817	0.996420
552.366022	0.997140
552.724173	0.996803
553.082267	0.996273
553.440305	0.996600
553.798288	0.995945
554.156215	0.995709
554.514086	0.996534
554.871902	0.997059
555.229661	0.995700
555.587365	0.996958
555.945014	0.996718
556.302606	0.996496
556.660143	0.997524
557.017625	0.996805
557.375050	0.996002
557.732421	0.996724
558.089735	0.996214
558.446994	0.996119
558.804197	0.996445
559.161345	0.995783
559.518437	0.996273
559.875474	0.997192
560.232455	0.996639
560.589381	0.996506
560.946251	0.996572
561.303065	0.997048
561.659825	0.995434
562.016528	0.997290
562.373177	0.996641
562.729770	0.996467
563.086307	0.995720
563.442789	0.996501
563.799216	0.996243
564.155587	0.996303
564.511904	0.996834
564.868164	0.996256
565.224370	0.996440
565.580520	0.996172
565.936615	0.996615
566.292654	0.996264
566.648638	0.997229
567.004567	0.996357
567.360441	0.995910
567.716260	0.996105
568.072023	0.996188
568.427732	0.995843
568.783385	0.995722
569.138982	0.997077
569.494525	0.996907
569.850013	0.996063
570.205445	0.996377
570.560823	0.996364
570.916145	0.996102
571.271412	0.995759
571.626625	0.996716
571.981782	0.995949
572.336884	0.996986
572.691931	0.996741
573.046923	0.997194
573.401860	0.996818
573.756743	0.995727
574.111570	0.996657
574.466342	0.996951
574.821059	0.996344
575.175722	0.996964
575.530330	0.996775
575.884882	0.996068
576.239380	0.996379
576.593823	0.996098
576.948211	0.996556
577.302544	0.996092
577.656823	0.996583
578.011047	0.995666
578.365216	0.997162
578.719330	0.996384
579.073389	0.995759
579.427394	0.996520
579.781344	0.996721
580.135239	0.996204
580.489080	0.996400
580.842866	0.995866
581.196597	0.995683
581.550273	0.996257
581.903895	0.996584
582.257463	0.996560
582.610975	0.995429
582.964434	0.996686
583.317837	0.997101
583.671186	0.996129
584.024481	0.996697
584.377721	0.995705
584.730906	0.996684
585.084037	0.997260
585.437113	0.996843
585.790135	0.996354
586.143103	0.996048
586.496016	0.996373
586.848874	0.996465
587.201679	0.996170
587.554428	0.996287
587.907124	0.996710
588.259765	0.996555
588.612352	0.997069
588.964884	0.996765
589.317362	0.996335
589.669786	0.996307
590.022155	0.996420
590.374470	0.996404
590.726731	0.995943
591.078937	0.996487
591.431090	0.996931
591.783188	0.996290
592.135232	0.996661
592.487222	0.996823
592.839157	0.996091
593.191038	0.996611
593.542866	0.996236
593.894639	0.995444
594.246358	0.997411
594.598022	0.996468
594.949633	0.996341
595.301190	0.996116
595.652692	0.995978
596.004141	0.995648
596.355535	0.996272
596.706876	0.996516
597.058162	0.997086
597.409395	0.996591
597.760573	0.996225
598.111698	0.996107
598.462768	0.995692
598.813785	0.995090
599.164748	0.995852
599.515657	0.995874
599.866511	0.996877
600.217312	0.996768
600.568060	0.995678
600.918753	0.996433
601.269392	0.996131
601.619978	0.996477
601.970510	0.995381
602.320988	0.996627
602.671412	0.996534
603.021783	0.997094
603.372100	0.996996
603.722363	0.996831
604.072572	0.996529
604.422728	0.996087
604.772830	0.996231
605.122878	0.996132
605.472872	0.996829
605.822813	0.996435
606.172701	0.997041
606.522534	0.996331
606.872314	0.996491
607.222041	0.996700
607.571714	0.996533
607.921333	0.996065
608.270899	0.996425
608.620411	0.996600
608.969870	0.996826
609.319276	0.996305
609.668627	0.997076
610.017926	0.996950
610.367171	0.996573
610.716362	0.996557
611.065500	0.996607
611.414585	0.996183
611.763616	0.995463
612.112594	0.995243
612.461518	0.995301
612.810389	0.995879
613.159207	0.995969
613.507971	0.995522
613.856682	0.997308
614.205340	0.995650
614.553945	0.996380
614.902496	0.996075
615.250994	0.996274
615.599439	0.996349
615.947830	0.996091
616.296169	0.996014
616.644454	0.996413
616.992686	0.995882
617.340864	0.996329
617.688990	0.995693
618.037063	0.995289
618.385082	0.996012
618.733048	0.995945
619.080961	0.995840
619.428821	0.996513
619.776628	0.996034
620.124382	0.995974
620.472083	0.996558
620.819731	0.997516
621.167326	0.996528
621.514868	0.996763
621.862357	0.996813
622.209793	0.996148
622.557176	0.996085
622.904506	0.995314
623.251783	0.996707
623.599007	0.996224
623.946179	0.995948
624.293297	0.997050
624.640363	0.997096
624.987376	0.996615
625.334336	0.996296
625.681243	0.996267
626.028097	0.996353
626.374899	0.996366
626.721647	0.996985
627.068343	0.996044
627.414987	0.996053
627.761577	0.995460
628.108115	0.996077
628.454600	0.997124
628.801032	0.995823
629.147412	0.996604
629.493739	0.997370
629.840014	0.996312
630.186236	0.995451
630.532405	0.996159
630.878521	0.995487
631.224585	0.995840
631.570597	0.995510
631.916556	0.996522
632.262462	0.995495
632.608316	0.996796
632.954117	0.995786
633.299866	0.995601
633.645562	0.995944
633.991206	0.997080
634.336797	0.996144
634.682336	0.996740
635.027823	0.996441
635.373257	0.996595
635.718639	0.997264
636.063968	0.996163
636.409245	0.995609
636.754470	0.996529
637.099642	0.996806
637.444762	0.996952
637.789829	0.996139
638.134845	0.995855
638.479808	0.995980
638.824719	0.996424
639.169577	0.996970
639.514383	0.996989
639.859137	0.996233
640.203839	0.996721
640.548489	0.996680
640.893086	0.995867
641.237632	0.996681
641.582125	0.996161
641.926566	0.996477
642.270955	0.996774
642.615292	0.996080
642.959576	0.996291
643.303809	0.996078
643.647990	0.996503
643.992118	0.996960
644.336195	0.996490
644.680219	0.997041
645.024192	0.996924
645.368112	0.995908
645.711981	0.995882
646.055797	0.996881
646.399562	0.996359
646.743274	0.997203
647.086935	0.995200
647.430544	0.995479
647.774101	0.995188
648.117606	0.996245
648.461059	0.996621
648.804460	0.995850
649.147810	0.996151
649.491108	0.996685
649.834354	0.996321
650.177548	0.996184
650.520690	0.996083
650.863781	0.996467
651.206820	0.995990
651.549807	0.995773
651.892742	0.996619
652.235626	0.996959
652.578458	0.996359
652.921238	0.996553
653.263967	0.997042
653.606644	0.995907
653.949269	0.997194
654.291843	0.995698
654.634365	0.996443
654.976836	0.995833
655.319255	0.996987
655.661622	0.995876
656.003938	0.995651
656.346203	0.995224
656.688416	0.996986
657.030577	0.996982
657.372687	0.996426
657.714746	0.995726
658.056753	0.996393
658.398708	0.996070
658.740612	0.997173
659.082465	0.995806
659.424266	0.996556
659.766016	0.996189
660.107715	0.996835
660.449362	0.996406
660.790958	0.996529
661.132503	0.996433
661.473996	0.995729
661.815438	0.996757
662.156829	0.996401
662.498168	0.996852
662.839456	0.996611
663.180693	0.997156
663.521879	0.996571
663.863013	0.996993
664.204097	0.995425
664.545129	0.995862
664.886110	0.996521
665.227040	0.996401
665.567918	0.996062
665.908746	0.996200
666.249522	0.996038
666.590248	0.997001
666.930922	0.996324
667.271545	0.996706
667.612118	0.996844
667.952639	0.996322
668.293109	0.996113
668.633528	0.996449
668.973896	0.996569
669.314213	0.995711
669.654480	0.996658
669.994695	0.995162
670.334859	0.996374
670.674973	0.995799
671.015035	0.995580
671.355047	0.996293
671.695008	0.996090
672.034918	0.996310
672.374777	0.996118
672.714585	0.996197
673.054342	0.996679
673.394049	0.995726
673.733705	0.995725
674.073310	0.996231
674.412864	0.996267
674.752368	0.996045
675.091820	0.997398
675.431223	0.996297
675.770574	0.996152
676.109875	0.996472
676.449125	0.995504
676.788324	0.995789
677.127473	0.996881
677.466571	0.996075
677.805619	0.996404
678.144616	0.996673
678.483562	0.995944
678.822458	0.997222
679.161303	0.995726
679.500098	0.996521
679.838842	0.997180
680.177535	0.995852
680.516179	0.995414
680.854771	0.996615
681.193314	0.996060
681.531805	0.996145
681.870247	0.996266
682.208638	0.996288
682.546978	0.995133
682.885268	0.996669
683.223508	0.995912
683.561697	0.996327
683.899836	0.996012
684.237925	0.995863
684.575963	0.995395
684.913951	0.995884
685.251889	0.996395
685.589776	0.995998
685.927614	0.995473
686.265401	0.995684
686.603137	0.995426
686.940824	0.995945
687.278460	0.996183
687.616046	0.995854
687.953582	0.995994
688.291068	0.996661
688.628504	0.995672
688.965889	0.995294
689.303224	0.994593
689.640510	0.996041
689.977745	0.995104
690.314930	0.995556
690.652065	0.996538
690.989150	0.995512
691.326185	0.996161
691.663170	0.995521
692.000105	0.996240
692.336990	0.996304
692.673825	0.995961
693.010610	0.995663
693.347345	0.996469
693.684030	0.996094
694.020665	0.995993
694.357251	0.995790
694.693786	0.996253
695.030272	0.995663
695.366707	0.995929
695.703093	0.995801
696.039429	0.995721
696.375716	0.996706
696.711952	0.995142
697.048139	0.996986
697.384276	0.996354
697.720363	0.996062
698.056400	0.995669
698.392388	0.995273
698.728326	0.995791
699.064214	0.996745
699.400053	0.996472
699.735842	0.996997
700.071581	0.996098
700.407270	0.996388
700.742910	0.996882
701.078501	0.996862
701.414042	0.997247
701.749533	0.995219
702.084974	0.997094
702.420366	0.996896
702.755709	0.996550
703.091002	0.997316
703.426246	0.997097
703.761440	0.996360
704.096584	0.995247
704.431679	0.996804
704.766725	0.997062
705.101721	0.997310
705.436668	0.997066
705.771565	0.997332
706.106413	0.995965
706.441212	0.996911
706.775961	0.996979
707.110661	0.996272
707.445311	0.996937
707.779913	0.997025
708.114465	0.997509
708.448967	0.997771
708.783421	0.996498
709.117825	0.996693
709.452180	0.996415
709.786485	0.996852
710.120742	0.995931
710.454949	0.995705
710.789107	0.995146
711.123216	0.994974
711.457275	0.995416
711.791286	0.996039
712.125247	0.996846
712.459159	0.995415
712.793023	0.995869
713.126837	0.996596
713.460602	0.995837
713.794318	0.996008
714.127985	0.994578
714.461602	0.996500
714.795171	0.996417
715.128691	0.996366
715.462162	0.997025
715.795584	0.995643
716.128957	0.996957
716.462281	0.997014
716.795556	0.995692
717.128782	0.996993
717.461960	0.996691
717.795088	0.996520
718.128167	0.997008
718.461198	0.997134
718.794180	0.997505
719.127113	0.996483
719.459997	0.996168
719.792833	0.996197
720.125619	0.995999
720.458357	0.997168
720.791046	0.997463
721.123686	0.996983
721.456278	0.996867
721.788821	0.996709
722.121315	0.997614
722.453761	0.997096
722.786158	0.996794
723.118506	0.997416
723.450805	0.995941
723.783056	0.996934
724.115259	0.996861
724.447412	0.997806
724.779518	0.997531
725.111574	0.996644
725.443582	0.996984
725.775542	0.996641
726.107453	0.997275
726.439315	0.997101
726.771129	0.996660
727.102895	0.996446
727.434612	0.997258
727.766281	0.996217
728.097901	0.995846
728.429473	0.996900
728.760996	0.995353
729.092471	0.996594
729.423897	0.997586
729.755276	0.996922
730.086606	0.996410
730.417887	0.997809
730.749120	0.997447
731.080305	0.996497
731.411442	0.995614
731.742530	0.995385
732.073570	0.995715
732.404562	0.995919
732.735506	0.996576
733.066401	0.996642
733.397249	0.996273
733.728048	0.996760
734.058798	0.996586
734.389501	0.997359
734.720156	0.997381
735.050762	0.996322
735.381320	0.996011
735.711831	0.996635
736.042293	0.997004
736.372707	0.997637
736.703073	0.996798
737.033391	0.996552
737.363661	0.996723
737.693883	0.997009
738.024056	0.996417
738.354182	0.996808
738.684260	0.996148
739.014290	0.996471
739.344272	0.997250
739.674207	0.996400
740.004093	0.997125
740.333931	0.996496
740.663722	0.996535
740.993464	0.997285
741.323159	0.996228
741.652806	0.996742
741.982405	0.996788
742.311956	0.997974
742.641460	0.996868
742.970915	0.996907
743.300323	0.996072
743.629683	0.996408
743.958996	0.998309
744.288260	0.996446
744.617477	0.996460
744.946647	0.997125
745.275768	0.997916
745.604842	0.996773
745.933869	0.996950
746.262847	0.997189
746.591778	0.996704
746.920662	0.997830
747.249498	0.997756
747.578286	0.998623
747.907027	0.997094
748.235720	0.997268
748.564365	0.997857
748.892963	0.997505
749.221514	0.997162
749.550017	0.996287
749.878473	0.996888
750.206881	0.998096
750.535242	0.997559
750.863555	0.996017
751.191821	0.997019
751.520039	0.997187
751.848210	0.995997
752.176334	0.997357
752.504411	0.997134
752.832440	0.997194
753.160421	0.997858
753.488356	0.997894
753.816243	0.997480
754.144082	0.997715
754.471875	0.997821
754.799620	0.997846
755.127318	0.997685
755.454969	0.996713
755.782572	0.998471
756.110129	0.997386
756.437638	0.998568
756.765100	0.997438
757.092515	0.996242
757.419882	0.998254
757.747203	0.997339
758.074477	0.998279
758.401703	0.997144
758.728882	0.997328
759.056014	0.996953
759.383099	0.997449
759.710138	0.996951
760.037129	0.996549
760.364073	0.997843
760.690970	0.997214
761.017820	0.996429
761.344623	0.997781
761.671379	0.998017
761.998088	0.997217
762.324751	0.996934
762.651366	0.995936
762.977935	0.996875
763.304456	0.995591
763.630931	0.994086
763.957359	0.993471
764.283740	0.994756
764.610074	0.995540
764.936362	0.996451
765.262602	0.996234
765.588796	0.997270
765.914943	0.997202
766.241044	0.996892
766.567097	0.997313
766.893104	0.997838
767.219064	0.996089
767.544978	0.997209
767.870845	0.996720
768.196665	0.997823
768.522438	0.998701
768.848165	0.998345
769.173846	0.997279
769.499479	0.998810
769.825066	0.999290
770.150607	0.998363
770.476101	0.998337
770.801548	0.997810
771.126949	0.998389
771.452303	0.998364
771.777611	0.998583
772.102872	0.998107
772.428087	0.997862
772.753256	0.998191
773.078378	0.998187
773.403453	0.998057
773.728482	0.999078
774.053465	0.997806
774.378401	0.998338
774.703291	0.998527
775.028135	0.998696
775.352932	0.997338
775.677683	0.999381
776.002388	0.998322
776.327046	0.998168
776.651658	0.999875
776.976224	0.998893
777.300743	0.997613
777.625216	0.998129
777.949643	0.998791
778.274024	0.997513
778.598359	0.999575
778.922647	0.998900
779.246889	0.999148
779.571086	0.998464
779.895236	0.998818
780.219339	0.999487
780.543397	0.998127
780.867409	0.998377
781.191374	0.998636
781.515294	0.999232
781.839167	0.999587
782.162995	0.998658
782.486776	0.998209
782.810511	0.999045
783.134201	0.999952
783.457844	0.998560
783.781441	0.997810
784.104993	0.998269
784.428498	0.998039
784.751958	0.999632
785.075372	0.998619
785.398739	0.998341
785.722061	0.997981
786.045337	0.997559
786.368568	0.998394
786.691752	0.998113
787.014891	0.998891
787.337983	0.996871
787.661030	0.998902
787.984031	0.999253
788.306987	0.997878
788.629897	0.996508
788.952760	0.998266
789.275579	0.998741
789.598351	0.998135
789.921078	0.999284
790.243759	0.998051
790.566395	0.998701
790.888984	0.999580
791.211529	0.998973
791.534027	0.998949
791.856480	0.999326
792.178888	0.998597
792.501249	0.998458
792.823566	1.001211
793.145836	0.999416
793.468062	0.998919
793.790241	0.999414
794.112375	0.998319
794.434464	0.999662
794.756507	0.999403
795.078505	0.998635
795.400457	0.999109
795.722364	0.999519
796.044226	0.998335
796.366042	0.998510
796.687812	0.997140
797.009538	0.997402
797.331218	1.000067
797.652852	0.999951
797.974442	0.997748
798.295986	0.998783
798.617484	0.998168
798.938938	0.998172
799.260346	0.999187
799.581709	0.998259
799.903026	0.999832
800.224299	0.998400
800.545526	0.998352
800.866708	0.997439
801.187845	0.999407
801.508936	0.999398
801.829983	0.998405
802.150984	0.999086
802.471940	0.999353
802.792851	0.998640
803.113717	1.000284
803.434538	0.999584
803.755314	1.000066
804.076045	0.999341
804.396731	0.999552
804.717372	0.996653
805.037967	0.999439
805.358518	0.998588
805.679024	0.999389
805.999485	0.998744
806.319901	0.999061
806.640272	0.999624
806.960598	0.999318
807.280879	0.998773
807.601115	0.999600
807.921306	0.999555
808.241453	0.999018
808.561554	0.998280
808.881611	0.999280
809.201623	0.998731
809.521590	0.998381
809.841513	0.999089
810.161390	0.997975
810.481223	0.998683
810.801011	0.999143
811.120755	0.999762
811.440453	0.999132
811.760107	0.999406
812.079716	0.999204
812.399281	0.999223
812.718801	0.998236
813.038276	0.998899
813.357707	0.999871
813.677093	1.000174
813.996434	0.999357
814.315731	0.999869
814.634983	0.998989
814.954191	0.999278
815.273354	0.998654
815.592473	0.999500
815.911547	0.999138
816.230577	0.999097
816.549562	0.999220
816.868502	0.997823
817.187399	0.999829
817.506250	0.999404
817.825058	0.998225
818.143821	0.998708
818.462539	0.998101
818.781213	0.997290
819.099843	0.998338
819.418429	0.997664
819.736970	0.997321
820.055466	0.995683
820.373919	0.996061
820.692327	0.996995
821.010691	0.995108
821.329011	0.993363
821.647286	0.991819
821.965517	0.990039
822.283704	0.987640
822.601847	0.985902
822.919945	0.987479
823.237999	0.988573
823.556010	0.989133
823.873976	0.990267
824.191897	0.990753
824.509775	0.993938
824.827609	0.993389
825.145398	0.993886
825.463144	0.993929
825.780845	0.993587
826.098502	0.993836
826.416116	0.994083
826.733685	0.993236
827.051210	0.990110
827.368692	0.992118
827.686129	0.991531
828.003522	0.993814
828.320872	0.994260
828.638177	0.994824
828.955439	0.997951
829.272656	0.997451
829.589830	0.997026
829.906960	0.998272
830.224046	0.997967
830.541088	0.997505
830.858086	0.998290
831.175041	1.000234
831.491952	0.997643
831.808819	0.997955
832.125642	0.997897
832.442421	0.998645
832.759157	0.997739
833.075849	0.996259
833.392497	0.995349
833.709101	0.993690
834.025662	0.993533
834.342179	0.994478
834.658653	0.997058
834.975083	0.996773
835.291469	0.996842
835.607811	0.997406
835.924110	0.996943
836.240366	0.999055
836.556578	0.998007
836.872746	0.999351
837.188871	0.999566
837.504952	0.997802
837.820990	0.999573
838.136984	0.998371
838.452935	0.997733
838.768842	0.998801
839.084706	0.999730
839.400526	0.999307
839.716303	0.997715
840.032037	0.996140
840.347727	0.997198
840.663373	0.997930
840.978977	0.997554
841.294537	0.999961
841.610054	0.997792
841.925527	0.999049
842.240957	0.998307
842.556344	0.998944
842.871687	0.999131
843.186987	0.999532
843.502244	1.000067
843.817458	0.998916
844.132629	0.999919
844.447756	0.999514
844.762840	0.999880
845.077881	1.000688
845.392879	0.999017
845.707833	1.000486
846.022745	1.000119
846.337613	0.999510
846.652438	0.999624
846.967221	0.999841
847.281960	1.000709
847.596656	0.999681
847.911309	0.999425
848.225919	0.999251
848.540485	1.000655
848.855009	1.001001
849.169490	1.000198
849.483928	0.999776
849.798323	0.999664
850.112675	1.001211
850.426984	1.000434
850.741251	1.000914
851.055474	1.000041
851.369654	1.000945
851.683792	0.999548
851.997887	1.000468
852.311938	1.000459
852.625947	0.998200
852.939914	0.999642
853.253837	1.001329
853.567718	1.001077
853.881555	1.000918
854.195350	0.999793
854.509103	0.999915
854.822812	1.000430
855.136479	1.000350
855.450103	1.000388
855.763685	0.999453
856.077224	1.000043
856.390720	0.999140
856.704173	1.000225
857.017584	1.000429
857.330953	1.001526
857.644278	0.999952
857.957561	0.999969
858.270802	1.000710
858.584000	1.000226
858.897155	0.999469
859.210268	1.000445
859.523339	1.000037
859.836367	0.999159
860.149352	0.999276
860.462295	1.000021
860.775195	1.000834
861.088054	0.999045
861.400869	0.999660
861.713642	0.998730
862.026373	0.999437
862.339062	0.999411
862.651708	1.000721
862.964312	1.000214
863.276873	1.000161
863.589392	0.999495
863.901869	0.999802
864.214303	0.999334
864.526696	1.000369
864.839045	1.000127
865.151353	0.999279
865.463619	0.999075
865.775842	1.000255
866.088023	1.000082
866.400162	1.000028
866.712258	1.001196
867.024313	0.999816
867.336325	1.001167
867.648296	1.000771
867.960224	1.000892
868.272110	1.000331
868.583954	0.999672
868.895755	1.000754
869.207515	0.999179
869.519233	1.001262
869.830909	0.999597
870.142542	0.998322
870.454134	1.000177
870.765684	1.000273
871.077191	0.999308
871.388657	0.998377
871.700081	0.999877
872.011463	1.000319
872.322803	1.000356
872.634101	0.999181
872.945357	0.999772
873.256571	0.999249
873.567744	0.999974
873.878874	0.998872
874.189963	0.999459
874.501010	1.001298
874.812015	0.998337
875.122979	0.999526
875.433900	0.999317
875.744780	0.999952
876.055618	0.998792
876.366415	0.999121
876.677169	1.000166
876.987882	0.998677
877.298554	1.000708
877.609183	0.999144
877.919771	0.999727
878.230317	0.998794
878.540822	0.998418
878.851285	0.998184
879.161707	0.998748
879.472087	0.999235
879.782425	0.996017
880.092722	0.996738
880.402977	0.994360
880.713191	0.992049
881.023363	0.990800
881.333494	0.988410
881.643583	0.989854
881.953631	0.989238
882.263637	0.987846
882.573602	0.988977
882.883526	0.990500
883.193408	0.992065
883.503248	0.992768
883.813048	0.992164
884.122806	0.994134
884.432522	0.994553
884.742197	0.996238
885.051831	0.995421
885.361424	0.997659
885.670975	0.997556
885.980485	0.997695
886.289954	0.997175
886.599382	0.997396
886.908768	0.998538
887.218113	0.997349
887.527417	0.998267
887.836680	0.998715
888.145901	0.999044
888.455082	1.000099
888.764221	0.999673
889.073319	0.998862
889.382376	0.999900
889.691392	0.998248
890.000366	0.999346
890.309300	0.999531
890.618193	0.999827
890.927044	1.000422
891.235855	0.999292
891.544625	1.000049
891.853353	0.998502
892.162041	0.999222
892.470687	1.000148
892.779293	0.998255
893.087858	0.998111
893.396381	0.998362
893.704864	0.996725
894.013306	0.997111
894.321707	0.995382
894.630068	0.994061
894.938387	0.994016
895.246665	0.994142
895.554903	0.994472
895.863100	0.997005
896.171256	0.995187
896.479371	0.996506
896.787446	0.996708
897.095480	0.997435
897.403473	0.996305
897.711425	0.998355
898.019336	0.998887
898.327207	0.998773
898.635038	0.998774
898.942827	0.999081
899.250576	0.998880
899.558284	0.999536
899.865952	0.998410
900.173579	0.998971
900.481165	0.998491
900.788711	0.997931
901.096216	0.998927
901.403681	0.998643
901.711105	0.998533
902.018489	0.998005
902.325832	0.999172
902.633135	0.998634
902.940397	0.999705
903.247619	0.998401
903.554800	0.997729
903.861941	0.995676
904.169041	0.995182
904.476101	0.993465
904.783121	0.992426
905.090100	0.992860
905.397039	0.994958
905.703938	0.995794
906.010796	0.995389
906.317614	0.996422
906.624391	0.998057
906.931129	0.998195
907.237826	0.998155
907.544483	0.999306
907.851099	0.998986
908.157675	0.998310
908.464211	1.000215
908.770707	0.998791
909.077163	0.999274
909.383578	1.000375
909.689954	0.999106
909.996289	0.999940
910.302584	1.000536
910.608839	1.000728
910.915054	0.999592
911.221229	1.000550
911.527363	0.998533
911.833458	1.000599
912.139513	0.999552
912.445527	0.999928
912.751502	0.999765
913.057436	0.999327
913.363331	0.999700
913.669186	0.999303
913.975000	0.998255
914.280775	0.999085
914.586510	0.998119
914.892205	0.997355
915.197859	0.996370
915.503475	0.996362
915.809050	0.994504
916.114585	0.992728
916.420081	0.993913
916.725536	0.993519
917.030952	0.993857
917.336328	0.995656
917.641665	0.994601
917.946961	0.995303
918.252218	0.995336
918.557435	0.996215
918.862612	0.996570
919.167750	0.998077
919.472848	0.998323
919.777906	0.999808
920.082925	0.999576
920.387904	0.999018
920.692843	0.998393
920.997743	0.998455
921.302603	0.999280
921.607423	0.998503
921.912204	0.999354
922.216946	1.000034
922.521647	0.999853
922.826310	0.997878
923.130932	0.999557
923.435516	0.999774
923.740059	0.998876
924.044564	0.999540
924.349028	0.998913
924.653454	1.000740
924.957840	0.999946
925.262186	0.999547
925.566493	0.999479
925.870761	0.999752
926.174989	0.999069
926.479178	1.001407
926.783328	0.999470
927.087438	1.001142
927.391509	1.000047
927.695541	1.000608
927.999533	1.000352
928.303486	1.000162
928.607400	1.000154
928.911275	1.000543
929.215110	1.001507
929.518906	1.002056
929.822663	1.001738
930.126381	1.000936
930.430060	1.000739
930.733699	0.999941
931.037299	1.001062
931.340861	1.000977
931.644383	0.999643
931.947866	1.000074
932.251309	1.000829
932.554714	1.000384
932.858080	0.999952
933.161407	1.000486
933.464694	0.999949
933.767943	1.000784
934.071153	1.000895
934.374323	1.001310
934.677455	1.000114
934.980548	0.999874
935.283602	1.000157
935.586617	0.999303
935.889593	1.002364
936.192530	1.000271
936.495428	1.000266
936.798287	0.999593
937.101108	1.000118
937.403890	0.999895
937.706632	1.000931
938.009336	1.001214
938.312002	1.000146
938.614628	1.001811
938.917216	0.999716
939.219765	0.998667
939.522275	1.000166
939.824747	0.999564
940.127179	0.999598
940.429573	1.000608
940.731929	0.999384
941.034246	1.000259
941.336524	0.998804
941.638763	1.001163
941.940964	1.000594
942.243126	1.000216
942.545250	1.000929
942.847335	0.999987
943.149381	1.000673
943.451389	0.999945
943.753359	1.001694
944.055290	1.000900
944.357182	1.000968
944.659036	1.001015
944.960851	1.001286
945.262628	1.001279
945.564367	1.000626
945.866067	1.000396
946.167729	1.001563
946.469352	1.000450
946.770937	0.998539
947.072484	1.001061
947.373992	1.000619
947.675462	1.000554
947.976893	1.000622
948.278286	1.001896
948.579641	1.000854
948.880958	0.999787
949.182236	1.000383
949.483476	1.001173
949.784678	1.000695
950.085841	1.000084
950.386967	0.999952
950.688054	1.001711
950.989103	0.999986
951.290114	1.000230
951.591087	1.000462
951.892021	0.998632
952.192917	1.000370
952.493776	1.000274
952.794596	0.999861
953.095378	1.000436
953.396122	1.001435
953.696828	1.001384
953.997496	1.000871
954.298126	1.000984
954.598718	0.999458
954.899272	1.000792
955.199788	1.000715
955.500266	1.001543
955.800706	1.000855
956.101108	1.000094
956.401472	1.001894
956.701798	1.000334
957.002087	1.001376
957.302337	1.000607
957.602550	1.000005
957.902724	1.000811
958.202861	1.000353
958.502960	1.000695
958.803022	1.001809
959.103045	1.000092
959.403031	1.001801
959.702979	1.001337
960.002889	1.000576
960.302762	0.999982
960.602596	1.001109
960.902393	1.001197
961.202153	1.002223
961.501875	1.002311
961.801559	1.000711
962.101205	1.000537
962.400814	1.003408
962.700385	1.001630
962.999918	1.001332
963.299414	1.000335
963.598873	1.000465
963.898293	1.000714
964.197677	0.999855
964.497022	1.000700
964.796331	1.002089
965.095601	1.002488
965.394835	1.000706
965.694030	1.002177
965.993189	0.999880
966.292309	1.000463
966.591393	1.000135
966.890439	1.000614
967.189447	1.001345
967.488419	1.001164
967.787353	1.001006
968.086249	1.000179
968.385108	1.001313
968.683930	1.000980
968.982714	1.000696
969.281462	1.001963
969.580172	1.000399
969.878844	1.001211
970.177480	1.001142
970.476078	1.001973
970.774639	1.001112
971.073162	0.999580
971.371649	1.000014
971.670098	1.000589
971.968510	1.001533
972.266885	1.000161
972.565223	1.001997
972.863524	1.000475
973.161788	1.000610
973.460014	1.002124
973.758204	1.000935
974.056356	1.001626
974.354471	1.000906
974.652550	1.001353
974.950591	1.000198
975.248595	1.000195
975.546563	1.001484
975.844493	1.001505
976.142386	1.000246
976.440243	1.001307
976.738062	1.001755
977.035845	0.999847
977.333590	1.001326
977.631299	0.999582
977.928971	1.000678
978.226606	1.000278
978.524204	1.000372
978.821765	1.002464
979.119290	1.002007
979.416777	1.000675
979.714228	1.000782
980.011642	1.000497
980.309020	0.999983
980.606360	1.000024
980.903664	1.001071
981.200931	0.999998
981.498162	1.001094
981.795356	1.000645
982.092513	1.001261
982.389633	1.001598
982.686717	1.000151
982.983764	1.001448
983.280775	1.000993
983.577749	1.001154
983.874686	1.000562
984.171587	1.000545
984.468451	0.999984
984.765279	1.001701
985.062070	1.002005
985.358824	1.000026
985.655543	1.000807
985.952224	1.002128
986.248869	1.000899
986.545478	1.001637
986.842050	1.001161
987.138586	1.000650
987.435086	0.999827
987.731549	1.002075
988.027975	1.001059
988.324366	1.000237
988.620719	1.001974
988.917037	1.000636
989.213318	1.001253
989.509563	1.001157
989.805772	1.002015
990.101944	1.002114
990.398080	1.001798
990.694180	1.001656
990.990244	1.001289
991.286271	1.000477
991.582262	1.001267
991.878217	1.000760
992.174136	1.001706
992.470019	1.001706
992.765865	1.003530
993.061676	1.002158
993.357450	1.000778
993.653188	1.003002
993.948890	1.000319
994.244556	1.000174
994.540186	1.000343
994.835780	1.001390
995.131337	1.001574
995.426859	1.001673
995.722345	1.001047
996.017795	1.000064
996.313208	1.001013
996.608586	1.000516
996.903928	1.000970
997.199234	1.001492
997.494504	1.002703
997.789738	0.999720
998.084936	1.001855
998.380099	1.000588
998.675225	1.001558
998.970316	1.002275
999.265371	1.001811
999.560390	0.999649
999.855373	1.001629
1000.150320	1.001215
1000.445232	1.001709
1000.740108	1.000170
1001.034948	1.000343
1001.329752	1.002055
1001.624521	1.000952
1001.919254	1.000369
1002.213951	1.001053
1002.508613	1.000552
1002.803239	0.999971
1003.097829	1.001145
1003.392384	0.999894
1003.686903	1.001474
1003.981386	1.000475
1004.275834	1.001713
1004.570246	1.000575
1004.864623	1.001035
1005.158964	1.001275
1005.453270	1.000330
1005.747540	1.000672
1006.041775	1.001210
1006.335974	1.000348
1006.630138	1.001218
1006.924266	0.999765
1007.218359	0.999832
1007.512416	1.002685
1007.806438	1.000842
1008.100425	1.000996
1008.394376	1.002812
1008.688292	1.001372
1008.982172	0.999599
1009.276017	1.001707
1009.569827	1.002149
1009.863602	1.000414
1010.157341	1.001020
1010.451045	1.001573
1010.744714	1.001588
1011.038347	1.002808
1011.331945	1.000247
1011.625508	1.000510
1011.919036	1.000200
1012.212528	1.002854
1012.505986	1.001087
1012.799408	1.001889
1013.092795	1.002006
1013.386147	1.000441
1013.679464	1.001483
1013.972745	1.001279
1014.265992	1.001149
1014.559204	1.000337
1014.852380	1.002060
1015.145521	1.001341
1015.438628	1.000924
1015.731699	1.000647
1016.024736	1.001320
1016.317737	1.000423
1016.610703	1.002106
1016.903635	1.001167
1017.196531	1.000963
1017.489393	1.000047
1017.782219	0.999392
1018.075011	0.999789
1018.367768	1.000790
1018.660490	1.001626
1018.953177	1.001626
1019.245829	1.001626
