Dividing Wavelength (nm)	Counts (n)	Blue Motor Position (mm): 1.900000	Red Motor Position (mm): 0.000000	
326.493990	1.005600
326.888308	1.005600
327.282561	1.005600
327.676750	1.006674
328.070874	1.007330
328.464933	1.007739
328.858929	1.008258
329.252859	1.007008
329.646726	1.006482
330.040528	1.006247
330.434265	1.005456
330.827938	1.006392
331.221547	1.005085
331.615091	1.006010
332.008571	1.006674
332.401986	1.005581
332.795338	1.005120
333.188625	1.007221
333.581847	1.006255
333.975006	1.005650
334.368100	1.007046
334.761129	1.005225
335.154095	1.006114
335.546996	1.005354
335.939833	0.998274
336.332606	0.999915
336.725315	0.998726
337.117960	1.000368
337.510540	0.997458
337.903056	0.999251
338.295508	0.999516
338.687896	0.997808
339.080220	0.999299
339.472480	0.999521
339.864676	1.000652
340.256807	0.998437
340.648875	0.998958
341.040879	1.000128
341.432818	0.999071
341.824694	0.999566
342.216506	1.000794
342.608253	0.999764
342.999937	0.999610
343.391557	0.999383
343.783113	1.000561
344.174605	0.999331
344.566033	0.998713
344.957397	1.000202
345.348697	0.999842
345.739934	0.999545
346.131106	0.998335
346.522215	0.999044
346.913260	0.999579
347.304241	0.997388
347.695159	0.999400
348.086012	0.998271
348.476802	0.998957
348.867528	0.998070
349.258191	0.999896
349.648789	0.999114
350.039324	0.999267
350.429796	0.998667
350.820203	0.998734
351.210548	0.998212
351.600828	0.998994
351.991045	0.998860
352.381198	1.000021
352.771288	0.999343
353.161314	0.998730
353.551276	0.997171
353.941175	0.997736
354.331010	0.999564
354.720782	0.998899
355.110490	0.998537
355.500135	0.998905
355.889717	0.997967
356.279235	0.997298
356.668689	0.997441
357.058080	0.997237
357.447408	0.998298
357.836672	0.997975
358.225873	0.997746
358.615010	0.998234
359.004084	0.997174
359.393095	0.998069
359.782043	0.997780
360.170927	0.999149
360.559748	0.998751
360.948505	0.997364
361.337199	0.997044
361.725830	0.998198
362.114398	0.996942
362.502903	0.996593
362.891344	0.995899
363.279722	0.996767
363.668037	0.997931
364.056289	0.996993
364.444478	0.997944
364.832603	0.996426
365.220665	0.998041
365.608665	0.996270
365.996601	0.996372
366.384474	0.996457
366.772284	0.996141
367.160031	0.995380
367.547715	0.995602
367.935336	0.995678
368.322893	0.993874
368.710388	0.991902
369.097820	0.990835
369.485189	0.988398
369.872495	0.987014
370.259738	0.985287
370.646918	0.982778
371.034035	0.979993
371.421090	0.977436
371.808081	0.970867
372.195010	0.969518
372.581875	0.964008
372.968678	0.960752
373.355418	0.955724
373.742096	0.947931
374.128710	0.943590
374.515262	0.939656
374.901751	0.933409
375.288177	0.928962
375.674540	0.922618
376.060841	0.915902
376.447079	0.908514
376.833254	0.902975
377.219367	0.896999
377.605417	0.886047
377.991404	0.883353
378.377329	0.876583
378.763191	0.869734
379.148991	0.861376
379.534727	0.853589
379.920402	0.846481
380.306013	0.842121
380.691563	0.829386
381.077049	0.822527
381.462474	0.818862
381.847835	0.807751
382.233134	0.801575
382.618371	0.803040
383.003545	0.785728
383.388657	0.783013
383.773706	0.775682
384.158693	0.771984
384.543618	0.766079
384.928480	0.757828
385.313280	0.748031
385.698017	0.746821
386.082692	0.735876
386.467305	0.733622
386.851856	0.728664
387.236344	0.723539
387.620770	0.718316
388.005133	0.712238
388.389435	0.706940
388.773674	0.703778
389.157851	0.695731
389.541965	0.693848
389.926018	0.699419
390.310008	0.687406
390.693936	0.683848
391.077802	0.676412
391.461606	0.677176
391.845348	0.666545
392.229027	0.665636
392.612645	0.664119
392.996200	0.651209
393.379694	0.643649
393.763125	0.634182
394.146494	0.639233
394.529801	0.629122
394.913047	0.621163
395.296230	0.627635
395.679351	0.618630
396.062410	0.615493
396.445408	0.618120
396.828343	0.613796
397.211217	0.608486
397.594028	0.621338
397.976778	0.611162
398.359466	0.607506
398.742092	0.603773
399.124656	0.614535
399.507158	0.603070
399.889598	0.600505
400.271977	0.591596
400.654294	0.595668
401.036549	0.594821
401.418742	0.599535
401.800874	0.584640
402.182944	0.580806
402.564952	0.573609
402.946898	0.575675
403.328783	0.575941
403.710606	0.586581
404.092367	0.561859
404.474067	0.567474
404.855705	0.566261
405.237282	0.574735
405.618797	0.560756
406.000250	0.556518
406.381642	0.546784
406.762972	0.551056
407.144240	0.550430
407.525447	0.550261
407.906593	0.542971
408.287677	0.538418
408.668700	0.546900
409.049661	0.541014
409.430560	0.535819
409.811399	0.544350
410.192176	0.526171
410.572891	0.533791
410.953545	0.521222
411.334138	0.534959
411.714669	0.527738
412.095139	0.540133
412.475547	0.524185
412.855894	0.526126
413.236180	0.524285
413.616405	0.530402
413.996568	0.520541
414.376670	0.526497
414.756711	0.531274
415.136691	0.528198
415.516609	0.520016
415.896466	0.516835
416.276262	0.512334
416.655997	0.513857
417.035670	0.495710
417.415283	0.486865
417.794834	0.492729
418.174324	0.497134
418.553753	0.506171
418.933121	0.489061
419.312428	0.482759
419.691674	0.488238
420.070859	0.476480
420.449983	0.484870
420.829045	0.474138
421.208047	0.482692
421.586988	0.475723
421.965867	0.474861
422.344686	0.463639
422.723444	0.476056
423.102141	0.492788
423.480777	0.465494
423.859352	0.486548
424.237866	0.463708
424.616319	0.465085
424.994712	0.455583
425.373044	0.465635
425.751314	0.453623
426.129524	0.470584
426.507673	0.453810
426.885762	0.446977
427.263789	0.453113
427.641756	0.463182
428.019662	0.453142
428.397508	0.452149
428.775292	0.456288
429.153016	0.448030
429.530679	0.454635
429.908282	0.447887
430.285824	0.457998
430.663305	0.436257
431.040726	0.457236
431.418086	0.457428
431.795385	0.448871
432.172624	0.448385
432.549802	0.448740
432.926920	0.447278
433.303977	0.446801
433.680974	0.443902
434.057910	0.442777
434.434786	0.441810
434.811601	0.444774
435.188355	0.427078
435.565050	0.436649
435.941683	0.437560
436.318257	0.421394
436.694770	0.422553
437.071222	0.420933
437.447614	0.425224
437.823946	0.431837
438.200218	0.421042
438.576429	0.430613
438.952580	0.423664
439.328670	0.420155
439.704700	0.426520
440.080670	0.428150
440.456580	0.409343
440.832429	0.417237
441.208218	0.428253
441.583947	0.417278
441.959616	0.416281
442.335224	0.422382
442.710773	0.412398
443.086261	0.411107
443.461689	0.424991
443.837057	0.414795
444.212365	0.404988
444.587612	0.411731
444.962800	0.401472
445.337927	0.403102
445.712995	0.428841
446.088002	0.391189
446.462949	0.401330
446.837837	0.406780
447.212664	0.394938
447.587431	0.386965
447.962139	0.357121
448.336786	0.315906
448.711374	0.326393
449.085901	0.370921
449.460369	0.375099
449.834776	0.378401
450.209124	0.357950
450.583412	0.350580
450.957640	0.343896
451.331808	0.355103
451.705917	0.378537
452.079965	0.382872
452.453954	0.370897
452.827883	0.378387
453.201752	0.372723
453.575562	0.384118
453.949311	0.372617
454.323001	0.378819
454.696632	0.374711
455.070202	0.367388
455.443713	0.359000
455.817164	0.353644
456.190556	0.349703
456.563888	0.346491
456.937160	0.344054
457.310373	0.361122
457.683526	0.360301
458.056619	0.365569
458.429653	0.366534
458.802628	0.369703
459.175542	0.364452
459.548398	0.346214
459.921194	0.339444
460.293930	0.339089
460.666607	0.316891
461.039224	0.304930
461.411782	0.300557
461.784280	0.299924
462.156719	0.303973
462.529099	0.308380
462.901419	0.324388
463.273680	0.328701
463.645882	0.328215
464.018024	0.334163
464.390106	0.327283
464.762130	0.311480
465.134094	0.294427
465.505999	0.263657
465.877845	0.233504
466.249631	0.220692
466.621358	0.228079
466.993026	0.241958
467.364634	0.248224
467.736184	0.257107
468.107674	0.266052
468.479105	0.265235
468.850477	0.271951
469.221790	0.278690
469.593043	0.288726
469.964238	0.293336
470.335373	0.293347
470.706449	0.291279
471.077467	0.291723
471.448425	0.253804
471.819324	0.229557
472.190164	0.228970
472.560945	0.257931
472.931667	0.280280
473.302330	0.284083
473.672934	0.296230
474.043479	0.284010
474.413965	0.286099
474.784393	0.289265
475.154761	0.284423
475.525070	0.281625
475.895321	0.287297
476.265513	0.282016
476.635645	0.276892
477.005719	0.276596
477.375734	0.273602
477.745691	0.266687
478.115588	0.262868
478.485427	0.256351
478.855207	0.243393
479.224928	0.225820
479.594591	0.213664
479.964194	0.217195
480.333739	0.218388
480.703226	0.219892
481.072653	0.218165
481.442022	0.214190
481.811333	0.210713
482.180584	0.214197
482.549777	0.219426
482.918912	0.222978
483.287988	0.222530
483.657005	0.222047
484.025964	0.228651
484.394864	0.225848
484.763706	0.226356
485.132489	0.231654
485.501213	0.232337
485.869879	0.230843
486.238487	0.233622
486.607036	0.231705
486.975527	0.236494
487.343959	0.232377
487.712333	0.231102
488.080648	0.232575
488.448905	0.232120
488.817104	0.233005
489.185244	0.227826
489.553326	0.224439
489.921350	0.214269
490.289315	0.196772
490.657222	0.191701
491.025070	0.193122
491.392861	0.195133
491.760593	0.201029
492.128267	0.206722
492.495883	0.211997
492.863440	0.218272
493.230939	0.225004
493.598380	0.226199
493.965763	0.228371
494.333088	0.230455
494.700354	0.231946
495.067563	0.231044
495.434713	0.234582
495.801805	0.232161
496.168839	0.233929
496.535815	0.235244
496.902733	0.235278
497.269593	0.236389
497.636395	0.234131
498.003139	0.234551
498.369825	0.237597
498.736453	0.234110
499.103023	0.235625
499.469535	0.235331
499.835989	0.235500
500.202385	0.235976
500.568723	0.239362
500.935003	0.234342
501.301226	0.238845
501.667390	0.232997
502.033497	0.231202
502.399546	0.234118
502.765537	0.235892
503.131470	0.234412
503.497345	0.231006
503.863163	0.239481
504.228923	0.232513
504.594625	0.230998
504.960269	0.236338
505.325856	0.232096
505.691385	0.236415
506.056856	0.233113
506.422270	0.232447
506.787625	0.234865
507.152924	0.232320
507.518164	0.232706
507.883347	0.234361
508.248472	0.236215
508.613540	0.230963
508.978550	0.233449
509.343503	0.234279
509.708398	0.231994
510.073236	0.229307
510.438016	0.229147
510.802738	0.229925
511.167403	0.228856
511.532010	0.230986
511.896561	0.226653
512.261053	0.225093
512.625488	0.227541
512.989866	0.227735
513.354186	0.228144
513.718449	0.230106
514.082655	0.226071
514.446803	0.228698
514.810894	0.225968
515.174927	0.228947
515.538904	0.228234
515.902822	0.225040
516.266684	0.227595
516.630488	0.228813
516.994235	0.227617
517.357925	0.226559
517.721558	0.224588
518.085133	0.224162
518.448651	0.224067
518.812112	0.226452
519.175516	0.226185
519.538863	0.223453
519.902152	0.225430
520.265385	0.222173
520.628560	0.223975
520.991678	0.224521
521.354739	0.223218
521.717743	0.224544
522.080690	0.224857
522.443580	0.222269
522.806413	0.223078
523.169189	0.222722
523.531908	0.221377
523.894569	0.224921
524.257174	0.224964
524.619722	0.222682
524.982213	0.223699
525.344647	0.222572
525.707025	0.223377
526.069345	0.221445
526.431608	0.223457
526.793815	0.221203
527.155964	0.225398
527.518057	0.224280
527.880093	0.225519
528.242072	0.223910
528.603995	0.225955
528.965860	0.227457
529.327669	0.226377
529.689421	0.227176
530.051117	0.228088
530.412755	0.225713
530.774337	0.228042
531.135862	0.228622
531.497331	0.227575
531.858743	0.230774
532.220098	0.227230
532.581396	0.229884
532.942638	0.230284
533.303824	0.231516
533.664953	0.231170
534.026025	0.233149
534.387040	0.231012
534.747999	0.230817
535.108902	0.229651
535.469748	0.235032
535.830537	0.232300
536.191270	0.232882
536.551947	0.232435
536.912567	0.232558
537.273131	0.234215
537.633638	0.234628
537.994089	0.235014
538.354483	0.235852
538.714821	0.232733
539.075103	0.232634
539.435328	0.233306
539.795497	0.236995
540.155609	0.233771
540.515665	0.231845
540.875665	0.237427
541.235609	0.236249
541.595496	0.236130
541.955328	0.232864
542.315102	0.235300
542.674821	0.236349
543.034483	0.236768
543.394090	0.236249
543.753640	0.238230
544.113134	0.232972
544.472571	0.236494
544.831953	0.233284
545.191278	0.237398
545.550548	0.236465
545.909761	0.233925
546.268918	0.234355
546.628019	0.232385
546.987064	0.235413
547.346053	0.237303
547.704986	0.235047
548.063863	0.235048
548.422684	0.235723
548.781449	0.237295
549.140158	0.234958
549.498811	0.237828
549.857408	0.240966
550.215949	0.235583
550.574434	0.238741
550.932864	0.236740
551.291237	0.235177
551.649555	0.237048
552.007817	0.236510
552.366022	0.237509
552.724173	0.237411
553.082267	0.237626
553.440305	0.234747
553.798288	0.239090
554.156215	0.235905
554.514086	0.236325
554.871902	0.239608
555.229661	0.238992
555.587365	0.239371
555.945014	0.241979
556.302606	0.238997
556.660143	0.241360
557.017625	0.237602
557.375050	0.240159
557.732421	0.236974
558.089735	0.239242
558.446994	0.238819
558.804197	0.238323
559.161345	0.238051
559.518437	0.241454
559.875474	0.239717
560.232455	0.239075
560.589381	0.240193
560.946251	0.240289
561.303065	0.237874
561.659825	0.239046
562.016528	0.241031
562.373177	0.243374
562.729770	0.241078
563.086307	0.242531
563.442789	0.241001
563.799216	0.243539
564.155587	0.242374
564.511904	0.243694
564.868164	0.243463
565.224370	0.243158
565.580520	0.245127
565.936615	0.244980
566.292654	0.248128
566.648638	0.244949
567.004567	0.245952
567.360441	0.246451
567.716260	0.248406
568.072023	0.246356
568.427732	0.247004
568.783385	0.249371
569.138982	0.247431
569.494525	0.247135
569.850013	0.250279
570.205445	0.248725
570.560823	0.251218
570.916145	0.253210
571.271412	0.251261
571.626625	0.252869
571.981782	0.253588
572.336884	0.254206
572.691931	0.254080
573.046923	0.255657
573.401860	0.256446
573.756743	0.258268
574.111570	0.256989
574.466342	0.257608
574.821059	0.256603
575.175722	0.259409
575.530330	0.259297
575.884882	0.259245
576.239380	0.261349
576.593823	0.261939
576.948211	0.261498
577.302544	0.264692
577.656823	0.264495
578.011047	0.264388
578.365216	0.264961
578.719330	0.267229
579.073389	0.266420
579.427394	0.268064
579.781344	0.268896
580.135239	0.270165
580.489080	0.270050
580.842866	0.272789
581.196597	0.273280
581.550273	0.271748
581.903895	0.272666
582.257463	0.270313
582.610975	0.274429
582.964434	0.273592
583.317837	0.275746
583.671186	0.276350
584.024481	0.276576
584.377721	0.278614
584.730906	0.279558
585.084037	0.278974
585.437113	0.280963
585.790135	0.280104
586.143103	0.283280
586.496016	0.284210
586.848874	0.281852
587.201679	0.282410
587.554428	0.285668
587.907124	0.284437
588.259765	0.285237
588.612352	0.285815
588.964884	0.289491
589.317362	0.289022
589.669786	0.288999
590.022155	0.287460
590.374470	0.287116
590.726731	0.288743
591.078937	0.293951
591.431090	0.289988
591.783188	0.294465
592.135232	0.294890
592.487222	0.294622
592.839157	0.292873
593.191038	0.295077
593.542866	0.297017
593.894639	0.300558
594.246358	0.298675
594.598022	0.298111
594.949633	0.302017
595.301190	0.302689
595.652692	0.301166
596.004141	0.297441
596.355535	0.305717
596.706876	0.306189
597.058162	0.308838
597.409395	0.306013
597.760573	0.303530
598.111698	0.306922
598.462768	0.307487
598.813785	0.308619
599.164748	0.310186
599.515657	0.310659
599.866511	0.313973
600.217312	0.309207
600.568060	0.314404
600.918753	0.310663
601.269392	0.311380
601.619978	0.314922
601.970510	0.312747
602.320988	0.312436
602.671412	0.310287
603.021783	0.313108
603.372100	0.314008
603.722363	0.313970
604.072572	0.314999
604.422728	0.314167
604.772830	0.316785
605.122878	0.316572
605.472872	0.317249
605.822813	0.315267
606.172701	0.318108
606.522534	0.315464
606.872314	0.315460
607.222041	0.316621
607.571714	0.314521
607.921333	0.315727
608.270899	0.315329
608.620411	0.312242
608.969870	0.316411
609.319276	0.316143
609.668627	0.316469
610.017926	0.314772
610.367171	0.313169
610.716362	0.313779
611.065500	0.314192
611.414585	0.312840
611.763616	0.313058
612.112594	0.314133
612.461518	0.313098
612.810389	0.310982
613.159207	0.312980
613.507971	0.314843
613.856682	0.310712
614.205340	0.312276
614.553945	0.309452
614.902496	0.313113
615.250994	0.311138
615.599439	0.311760
615.947830	0.311093
616.296169	0.312135
616.644454	0.311713
616.992686	0.311964
617.340864	0.309898
617.688990	0.313141
618.037063	0.309874
618.385082	0.311617
618.733048	0.308311
619.080961	0.311076
619.428821	0.310589
619.776628	0.310032
620.124382	0.312096
620.472083	0.312764
620.819731	0.311605
621.167326	0.315599
621.514868	0.315364
621.862357	0.319579
622.209793	0.318953
622.557176	0.321728
622.904506	0.322590
623.251783	0.324881
623.599007	0.327189
623.946179	0.326458
624.293297	0.328810
624.640363	0.332535
624.987376	0.333051
625.334336	0.335228
625.681243	0.337856
626.028097	0.338265
626.374899	0.339426
626.721647	0.339880
627.068343	0.343340
627.414987	0.344313
627.761577	0.346653
628.108115	0.344634
628.454600	0.349879
628.801032	0.347176
629.147412	0.349031
629.493739	0.350042
629.840014	0.352475
630.186236	0.349765
630.532405	0.355531
630.878521	0.352952
631.224585	0.355263
631.570597	0.358899
631.916556	0.357452
632.262462	0.357511
632.608316	0.359136
632.954117	0.360494
633.299866	0.361399
633.645562	0.361804
633.991206	0.366082
634.336797	0.368587
634.682336	0.371219
635.027823	0.373005
635.373257	0.373563
635.718639	0.377372
636.063968	0.376042
636.409245	0.381827
636.754470	0.382671
637.099642	0.384868
637.444762	0.388456
637.789829	0.387560
638.134845	0.390931
638.479808	0.392019
638.824719	0.391960
639.169577	0.395744
639.514383	0.394975
639.859137	0.399390
640.203839	0.398737
640.548489	0.399843
640.893086	0.400645
641.237632	0.402314
641.582125	0.401190
641.926566	0.402950
642.270955	0.402523
642.615292	0.402739
642.959576	0.401984
643.303809	0.402926
643.647990	0.402432
643.992118	0.402564
644.336195	0.406231
644.680219	0.404463
645.024192	0.405024
645.368112	0.399189
645.711981	0.398003
646.055797	0.393074
646.399562	0.395463
646.743274	0.388054
647.086935	0.384618
647.430544	0.384965
647.774101	0.383844
648.117606	0.383628
648.461059	0.383937
648.804460	0.386829
649.147810	0.392095
649.491108	0.393148
649.834354	0.395104
650.177548	0.400140
650.520690	0.405609
650.863781	0.406744
651.206820	0.406238
651.549807	0.410646
651.892742	0.415166
652.235626	0.414784
652.578458	0.415191
652.921238	0.421772
653.263967	0.419233
653.606644	0.423106
653.949269	0.423394
654.291843	0.426830
654.634365	0.423946
654.976836	0.427097
655.319255	0.427737
655.661622	0.428775
656.003938	0.428694
656.346203	0.431327
656.688416	0.429372
657.030577	0.432942
657.372687	0.434950
657.714746	0.436246
658.056753	0.432947
658.398708	0.436467
658.740612	0.437608
659.082465	0.433821
659.424266	0.434785
659.766016	0.433865
660.107715	0.436932
660.449362	0.435602
660.790958	0.436125
661.132503	0.437785
661.473996	0.433415
661.815438	0.435714
662.156829	0.436068
662.498168	0.436375
662.839456	0.437757
663.180693	0.435914
663.521879	0.434954
663.863013	0.436186
664.204097	0.434667
664.545129	0.431777
664.886110	0.431861
665.227040	0.429640
665.567918	0.432052
665.908746	0.430007
666.249522	0.429657
666.590248	0.430579
666.930922	0.428274
667.271545	0.427332
667.612118	0.427521
667.952639	0.429419
668.293109	0.427740
668.633528	0.430793
668.973896	0.430779
669.314213	0.431302
669.654480	0.432827
669.994695	0.432689
670.334859	0.434060
670.674973	0.434508
671.015035	0.434241
671.355047	0.434132
671.695008	0.434829
672.034918	0.437383
672.374777	0.436475
672.714585	0.437816
673.054342	0.438109
673.394049	0.437139
673.733705	0.435252
674.073310	0.436705
674.412864	0.439376
674.752368	0.439499
675.091820	0.440071
675.431223	0.444655
675.770574	0.444238
676.109875	0.447389
676.449125	0.447321
676.788324	0.449416
677.127473	0.455314
677.466571	0.454471
677.805619	0.456631
678.144616	0.457438
678.483562	0.459644
678.822458	0.462093
679.161303	0.462399
679.500098	0.463480
679.838842	0.464677
680.177535	0.464190
680.516179	0.462425
680.854771	0.462040
681.193314	0.456030
681.531805	0.446136
681.870247	0.435721
682.208638	0.427992
682.546978	0.426924
682.885268	0.428466
683.223508	0.434665
683.561697	0.437973
683.899836	0.441498
684.237925	0.444390
684.575963	0.446985
684.913951	0.450588
685.251889	0.445577
685.589776	0.447777
685.927614	0.450298
686.265401	0.444296
686.603137	0.445894
686.940824	0.439634
687.278460	0.439096
687.616046	0.437464
687.953582	0.432103
688.291068	0.434177
688.628504	0.429091
688.965889	0.431586
689.303224	0.435367
689.640510	0.439281
689.977745	0.444684
690.314930	0.452792
690.652065	0.457528
690.989150	0.465541
691.326185	0.472391
691.663170	0.477218
692.000105	0.484165
692.336990	0.491020
692.673825	0.493822
693.010610	0.500497
693.347345	0.506369
693.684030	0.506991
694.020665	0.512014
694.357251	0.520823
694.693786	0.520914
695.030272	0.523588
695.366707	0.528429
695.703093	0.532357
696.039429	0.529107
696.375716	0.531583
696.711952	0.534023
697.048139	0.535645
697.384276	0.538209
697.720363	0.536830
698.056400	0.534856
698.392388	0.540380
698.728326	0.543536
699.064214	0.546651
699.400053	0.547691
699.735842	0.551010
700.071581	0.554052
700.407270	0.557024
700.742910	0.559353
701.078501	0.565480
701.414042	0.566622
701.749533	0.569601
702.084974	0.578932
702.420366	0.571139
702.755709	0.578527
703.091002	0.586112
703.426246	0.580018
703.761440	0.585029
704.096584	0.590010
704.431679	0.586857
704.766725	0.589829
705.101721	0.591211
705.436668	0.587411
705.771565	0.594156
706.106413	0.590898
706.441212	0.586393
706.775961	0.585447
707.110661	0.587328
707.445311	0.584014
707.779913	0.581088
708.114465	0.580309
708.448967	0.576310
708.783421	0.568377
709.117825	0.563440
709.452180	0.563110
709.786485	0.557434
710.120742	0.546765
710.454949	0.548421
710.789107	0.540708
711.123216	0.531393
711.457275	0.532789
711.791286	0.524405
712.125247	0.523622
712.459159	0.534009
712.793023	0.525710
713.126837	0.530272
713.460602	0.530733
713.794318	0.539944
714.127985	0.538844
714.461602	0.548973
714.795171	0.552482
715.128691	0.560061
715.462162	0.567888
715.795584	0.573818
716.128957	0.576069
716.462281	0.583548
716.795556	0.586715
717.128782	0.591895
717.461960	0.601656
717.795088	0.599700
718.128167	0.605816
718.461198	0.614653
718.794180	0.615797
719.127113	0.618749
719.459997	0.621154
719.792833	0.627108
720.125619	0.629335
720.458357	0.634902
720.791046	0.634565
721.123686	0.638104
721.456278	0.644946
721.788821	0.641358
722.121315	0.647329
722.453761	0.650736
722.786158	0.647998
723.118506	0.645010
723.450805	0.651608
723.783056	0.649403
724.115259	0.646058
724.447412	0.645943
724.779518	0.647195
725.111574	0.645850
725.443582	0.641438
725.775542	0.643368
726.107453	0.636158
726.439315	0.635615
726.771129	0.634501
727.102895	0.627679
727.434612	0.620790
727.766281	0.618473
728.097901	0.618174
728.429473	0.616679
728.760996	0.615907
729.092471	0.615854
729.423897	0.619656
729.755276	0.618530
730.086606	0.619021
730.417887	0.613483
730.749120	0.603649
731.080305	0.595226
731.411442	0.590188
731.742530	0.594657
732.073570	0.595138
732.404562	0.587972
732.735506	0.588184
733.066401	0.593537
733.397249	0.602590
733.728048	0.613482
734.058798	0.626767
734.389501	0.637687
734.720156	0.647852
735.050762	0.655224
735.381320	0.655982
735.711831	0.664208
736.042293	0.669800
736.372707	0.666814
736.703073	0.671090
737.033391	0.672179
737.363661	0.669700
737.693883	0.664878
738.024056	0.663730
738.354182	0.664842
738.684260	0.653900
739.014290	0.649753
739.344272	0.650483
739.674207	0.643018
740.004093	0.643789
740.333931	0.643294
740.663722	0.642761
740.993464	0.644209
741.323159	0.648701
741.652806	0.652453
741.982405	0.657450
742.311956	0.662816
742.641460	0.665372
742.970915	0.668590
743.300323	0.675276
743.629683	0.682043
743.958996	0.685025
744.288260	0.688853
744.617477	0.694714
744.946647	0.696098
745.275768	0.701908
745.604842	0.700797
745.933869	0.712251
746.262847	0.713062
746.591778	0.706092
746.920662	0.712201
747.249498	0.719409
747.578286	0.710140
747.907027	0.705783
748.235720	0.705926
748.564365	0.702134
748.892963	0.700604
749.221514	0.705083
749.550017	0.709351
749.878473	0.709983
750.206881	0.716762
750.535242	0.716378
750.863555	0.716247
751.191821	0.716406
751.520039	0.720895
751.848210	0.723957
752.176334	0.718288
752.504411	0.716996
752.832440	0.725215
753.160421	0.728996
753.488356	0.727225
753.816243	0.724527
754.144082	0.732985
754.471875	0.736346
754.799620	0.733140
755.127318	0.734788
755.454969	0.735212
755.782572	0.734326
756.110129	0.737677
756.437638	0.741543
756.765100	0.737537
757.092515	0.736012
757.419882	0.734499
757.747203	0.739282
758.074477	0.740875
758.401703	0.736130
758.728882	0.730958
759.056014	0.730181
759.383099	0.729411
759.710138	0.729793
760.037129	0.726535
760.364073	0.719736
760.690970	0.722241
761.017820	0.727616
761.344623	0.724798
761.671379	0.714934
761.998088	0.703109
762.324751	0.680494
762.651366	0.636989
762.977935	0.570243
763.304456	0.517720
763.630931	0.507907
763.957359	0.547570
764.283740	0.592127
764.610074	0.618968
764.936362	0.650914
765.262602	0.678743
765.588796	0.700154
765.914943	0.717868
766.241044	0.735175
766.567097	0.742219
766.893104	0.752739
767.219064	0.758501
767.544978	0.765718
767.870845	0.779520
768.196665	0.783111
768.522438	0.781229
768.848165	0.783248
769.173846	0.792075
769.499479	0.795840
769.825066	0.799994
770.150607	0.805261
770.476101	0.800205
770.801548	0.802122
771.126949	0.813307
771.452303	0.816859
771.777611	0.815737
772.102872	0.813433
772.428087	0.820841
772.753256	0.824009
773.078378	0.824465
773.403453	0.833853
773.728482	0.838764
774.053465	0.831752
774.378401	0.835744
774.703291	0.844962
775.028135	0.843611
775.352932	0.844107
775.677683	0.849907
776.002388	0.849220
776.327046	0.848318
776.651658	0.853369
776.976224	0.855354
777.300743	0.856012
777.625216	0.857606
777.949643	0.860525
778.274024	0.858913
778.598359	0.861690
778.922647	0.859232
779.246889	0.860687
779.571086	0.864949
779.895236	0.866492
780.219339	0.864114
780.543397	0.859970
780.867409	0.859268
781.191374	0.861494
781.515294	0.863261
781.839167	0.861818
782.162995	0.865164
782.486776	0.861991
782.810511	0.863513
783.134201	0.868140
783.457844	0.865693
783.781441	0.867934
784.104993	0.872941
784.428498	0.873566
784.751958	0.870585
785.075372	0.873213
785.398739	0.876164
785.722061	0.870962
786.045337	0.867315
786.368568	0.871499
786.691752	0.874366
787.014891	0.860389
787.337983	0.849891
787.661030	0.843141
787.984031	0.825114
788.306987	0.813313
788.629897	0.813947
788.952760	0.819357
789.275579	0.823063
789.598351	0.839791
789.921078	0.852748
790.243759	0.854782
790.566395	0.858553
790.888984	0.866525
791.211529	0.871709
791.534027	0.874040
791.856480	0.877171
792.178888	0.881964
792.501249	0.883750
792.823566	0.885767
793.145836	0.886372
793.468062	0.887510
793.790241	0.888342
794.112375	0.884868
794.434464	0.881732
794.756507	0.881510
795.078505	0.879418
795.400457	0.874362
795.722364	0.862450
796.044226	0.856410
796.366042	0.853524
796.687812	0.857208
797.009538	0.852843
797.331218	0.858133
797.652852	0.861662
797.974442	0.865865
798.295986	0.867642
798.617484	0.868598
798.938938	0.873767
799.260346	0.878721
799.581709	0.879421
799.903026	0.883778
800.224299	0.883467
800.545526	0.886317
800.866708	0.890734
801.187845	0.895284
801.508936	0.893668
801.829983	0.891425
802.150984	0.895313
802.471940	0.901393
802.792851	0.899639
803.113717	0.902298
803.434538	0.898627
803.755314	0.902341
804.076045	0.903184
804.396731	0.902815
804.717372	0.901536
805.037967	0.905249
805.358518	0.902752
805.679024	0.898036
805.999485	0.900139
806.319901	0.898354
806.640272	0.901623
806.960598	0.899548
807.280879	0.897754
807.601115	0.895451
807.921306	0.899102
808.241453	0.899855
808.561554	0.898385
808.881611	0.897506
809.201623	0.898779
809.521590	0.899709
809.841513	0.901007
810.161390	0.898266
810.481223	0.900494
810.801011	0.904658
811.120755	0.906557
811.440453	0.904627
811.760107	0.904576
812.079716	0.904213
812.399281	0.907429
812.718801	0.909250
813.038276	0.909619
813.357707	0.910725
813.677093	0.908506
813.996434	0.910795
814.315731	0.912429
814.634983	0.912994
814.954191	0.913011
815.273354	0.908191
815.592473	0.904832
815.911547	0.904937
816.230577	0.901189
816.549562	0.899467
816.868502	0.899074
817.187399	0.896897
817.506250	0.890928
817.825058	0.892525
818.143821	0.888905
818.462539	0.883658
818.781213	0.875731
819.099843	0.865362
819.418429	0.847648
819.736970	0.831394
820.055466	0.810576
820.373919	0.784440
820.692327	0.750738
821.010691	0.714970
821.329011	0.634171
821.647286	0.517199
821.965517	0.402329
822.283704	0.359084
822.601847	0.360091
822.919945	0.395949
823.237999	0.430042
823.556010	0.478725
823.873976	0.535458
824.191897	0.587178
824.509775	0.630511
824.827609	0.676830
825.145398	0.700455
825.463144	0.701586
825.780845	0.683589
826.098502	0.665856
826.416116	0.620044
826.733685	0.574643
827.051210	0.565088
827.368692	0.581331
827.686129	0.618598
828.003522	0.673872
828.320872	0.722544
828.638177	0.766683
828.955439	0.800684
829.272656	0.821729
829.589830	0.839390
829.906960	0.856278
830.224046	0.868395
830.541088	0.879362
830.858086	0.884026
831.175041	0.890644
831.491952	0.888600
831.808819	0.885291
832.125642	0.877369
832.442421	0.865035
832.759157	0.841907
833.075849	0.793714
833.392497	0.729515
833.709101	0.687182
834.025662	0.697095
834.342179	0.729018
834.658653	0.769358
834.975083	0.806392
835.291469	0.833798
835.607811	0.855922
835.924110	0.872596
836.240366	0.890317
836.556578	0.903090
836.872746	0.912348
837.188871	0.918676
837.504952	0.923096
837.820990	0.926509
838.136984	0.929992
838.452935	0.933358
838.768842	0.935207
839.084706	0.928277
839.400526	0.902097
839.716303	0.859711
840.032037	0.838296
840.347727	0.841156
840.663373	0.859913
840.978977	0.881796
841.294537	0.905295
841.610054	0.921791
841.925527	0.929000
842.240957	0.936739
842.556344	0.944699
842.871687	0.949288
843.186987	0.952641
843.502244	0.953690
843.817458	0.955481
844.132629	0.961205
844.447756	0.962582
844.762840	0.965031
845.077881	0.965286
845.392879	0.963048
845.707833	0.966254
846.022745	0.968242
846.337613	0.969441
846.652438	0.968516
846.967221	0.969450
847.281960	0.970143
847.596656	0.971906
847.911309	0.971202
848.225919	0.971963
848.540485	0.974151
848.855009	0.974925
849.169490	0.973951
849.483928	0.972831
849.798323	0.972829
850.112675	0.974417
850.426984	0.974962
850.741251	0.975250
851.055474	0.975209
851.369654	0.973586
851.683792	0.972614
851.997887	0.974107
852.311938	0.974993
852.625947	0.972953
852.939914	0.972827
853.253837	0.973771
853.567718	0.975250
853.881555	0.975507
854.195350	0.973226
854.509103	0.973633
854.822812	0.974572
855.136479	0.976374
855.450103	0.973836
855.763685	0.973691
856.077224	0.974815
856.390720	0.975118
856.704173	0.975713
857.017584	0.974181
857.330953	0.971389
857.644278	0.971704
857.957561	0.972467
858.270802	0.973866
858.584000	0.972487
858.897155	0.971510
859.210268	0.970955
859.523339	0.974946
859.836367	0.974254
860.149352	0.975042
860.462295	0.974623
860.775195	0.974693
861.088054	0.973835
861.400869	0.974908
861.713642	0.973969
862.026373	0.976550
862.339062	0.976027
862.651708	0.974077
862.964312	0.972675
863.276873	0.973952
863.589392	0.972193
863.901869	0.971642
864.214303	0.968920
864.526696	0.967638
864.839045	0.967298
865.151353	0.967345
865.463619	0.967024
865.775842	0.967829
866.088023	0.968188
866.400162	0.966368
866.712258	0.967829
867.024313	0.966411
867.336325	0.969085
867.648296	0.968759
867.960224	0.964286
868.272110	0.967478
868.583954	0.969377
868.895755	0.970495
869.207515	0.966627
869.519233	0.965578
869.830909	0.963815
870.142542	0.966546
870.454134	0.966263
870.765684	0.963110
871.077191	0.964463
871.388657	0.962041
871.700081	0.963284
872.011463	0.963792
872.322803	0.962321
872.634101	0.959413
872.945357	0.958574
873.256571	0.956397
873.567744	0.957382
873.878874	0.958542
874.189963	0.957478
874.501010	0.957614
874.812015	0.953315
875.122979	0.953909
875.433900	0.956482
875.744780	0.958113
876.055618	0.955245
876.366415	0.953955
876.677169	0.953988
876.987882	0.954580
877.298554	0.956740
877.609183	0.951040
877.919771	0.947886
878.230317	0.946345
878.540822	0.942912
878.851285	0.939468
879.161707	0.929921
879.472087	0.917476
879.782425	0.899485
880.092722	0.864131
880.402977	0.810347
880.713191	0.747269
881.023363	0.685369
881.333494	0.651116
881.643583	0.624364
881.953631	0.623501
882.263637	0.651950
882.573602	0.692669
882.883526	0.718280
883.193408	0.744052
883.503248	0.767641
883.813048	0.796368
884.122806	0.825761
884.432522	0.850524
884.742197	0.870469
885.051831	0.880979
885.361424	0.893007
885.670975	0.905927
885.980485	0.915365
886.289954	0.921955
886.599382	0.925430
886.908768	0.930421
887.218113	0.935764
887.527417	0.940938
887.836680	0.945081
888.145901	0.947067
888.455082	0.951286
888.764221	0.954847
889.073319	0.956501
889.382376	0.957452
889.691392	0.956125
890.000366	0.957320
890.309300	0.957464
890.618193	0.956180
890.927044	0.955310
891.235855	0.954632
891.544625	0.956007
891.853353	0.956055
892.162041	0.952267
892.470687	0.946777
892.779293	0.941555
893.087858	0.935927
893.396381	0.928354
893.704864	0.913626
894.013306	0.890164
894.321707	0.863231
894.630068	0.847983
894.938387	0.841365
895.246665	0.843908
895.554903	0.856187
895.863100	0.870123
896.171256	0.887351
896.479371	0.907776
896.787446	0.921109
897.095480	0.928272
897.403473	0.930567
897.711425	0.936341
898.019336	0.941720
898.327207	0.947564
898.635038	0.947438
898.942827	0.948609
899.250576	0.952354
899.558284	0.956374
899.865952	0.957331
900.173579	0.958833
900.481165	0.959609
900.788711	0.962399
901.096216	0.964743
901.403681	0.965667
901.711105	0.966114
902.018489	0.966376
902.325832	0.965669
902.633135	0.964798
902.940397	0.960119
903.247619	0.946850
903.554800	0.921099
903.861941	0.879136
904.169041	0.841308
904.476101	0.823214
904.783121	0.824016
905.090100	0.840928
905.397039	0.862305
905.703938	0.885509
906.010796	0.906874
906.317614	0.924106
906.624391	0.938415
906.931129	0.946899
907.237826	0.955440
907.544483	0.961959
907.851099	0.967477
908.157675	0.970839
908.464211	0.973561
908.770707	0.975839
909.077163	0.978390
909.383578	0.980167
909.689954	0.980014
909.996289	0.980643
910.302584	0.982549
910.608839	0.985004
910.915054	0.983064
911.221229	0.984385
911.527363	0.982287
911.833458	0.981757
912.139513	0.982272
912.445527	0.981226
912.751502	0.979537
913.057436	0.976325
913.363331	0.975454
913.669186	0.970189
913.975000	0.965531
914.280775	0.959049
914.586510	0.951026
914.892205	0.936851
915.197859	0.913669
915.503475	0.887183
915.809050	0.865584
916.114585	0.859805
916.420081	0.857259
916.725536	0.853883
917.030952	0.862249
917.336328	0.875816
917.641665	0.891221
917.946961	0.908550
918.252218	0.919172
918.557435	0.928862
918.862612	0.937825
919.167750	0.943886
919.472848	0.949673
919.777906	0.957483
920.082925	0.960902
920.387904	0.964742
920.692843	0.966690
920.997743	0.967903
921.302603	0.970760
921.607423	0.972152
921.912204	0.975489
922.216946	0.977772
922.521647	0.976972
922.826310	0.979557
923.130932	0.983042
923.435516	0.984114
923.740059	0.984217
924.044564	0.984918
924.349028	0.984694
924.653454	0.987062
924.957840	0.988690
925.262186	0.988504
925.566493	0.987960
925.870761	0.989855
926.174989	0.990172
926.479178	0.991687
926.783328	0.992555
927.087438	0.991534
927.391509	0.992809
927.695541	0.994227
927.999533	0.994983
928.303486	0.994399
928.607400	0.996382
928.911275	0.996260
929.215110	0.996074
929.518906	0.995409
929.822663	0.996749
930.126381	0.996247
930.430060	0.996244
930.733699	0.995432
931.037299	0.995206
931.340861	0.995722
931.644383	0.993744
931.947866	0.994416
932.251309	0.996413
932.554714	0.995660
932.858080	0.995891
933.161407	0.993844
933.464694	0.995138
933.767943	0.996118
934.071153	0.996660
934.374323	0.997105
934.677455	0.997107
934.980548	0.996316
935.283602	0.997976
935.586617	0.994805
935.889593	0.997258
936.192530	0.996237
936.495428	0.996735
936.798287	0.995036
937.101108	0.995458
937.403890	0.993716
937.706632	0.994651
938.009336	0.991848
938.312002	0.990915
938.614628	0.988467
938.917216	0.986910
939.219765	0.987363
939.522275	0.987648
939.824747	0.987604
940.127179	0.988865
940.429573	0.990848
940.731929	0.988634
941.034246	0.988710
941.336524	0.990045
941.638763	0.990332
941.940964	0.990434
942.243126	0.991256
942.545250	0.992515
942.847335	0.992757
943.149381	0.992892
943.451389	0.992760
943.753359	0.994090
944.055290	0.995639
944.357182	0.995340
944.659036	0.994657
944.960851	0.995945
945.262628	0.995294
945.564367	0.994573
945.866067	0.995393
946.167729	0.995959
946.469352	0.995046
946.770937	0.992865
947.072484	0.996829
947.373992	0.994996
947.675462	0.994053
947.976893	0.995882
948.278286	0.997047
948.579641	0.997306
948.880958	0.995446
949.182236	0.996268
949.483476	0.996537
949.784678	0.996063
950.085841	0.996417
950.386967	0.995420
950.688054	0.996209
950.989103	0.994637
951.290114	0.994615
951.591087	0.993422
951.892021	0.993643
952.192917	0.994056
952.493776	0.993941
952.794596	0.993552
953.095378	0.993069
953.396122	0.993203
953.696828	0.994345
953.997496	0.994274
954.298126	0.995458
954.598718	0.994235
954.899272	0.994928
955.199788	0.995047
955.500266	0.996278
955.800706	0.996869
956.101108	0.996339
956.401472	0.999443
956.701798	0.998613
957.002087	0.997742
957.302337	0.998972
957.602550	0.999500
957.902724	0.999710
958.202861	0.999670
958.502960	1.000054
958.803022	1.001092
959.103045	1.000990
959.403031	1.002002
959.702979	1.003140
960.002889	1.001493
960.302762	1.000488
960.602596	1.001774
960.902393	1.001905
961.202153	1.001764
961.501875	1.001919
961.801559	1.002197
962.101205	1.000810
962.400814	1.003052
962.700385	1.001569
962.999918	1.002006
963.299414	1.002233
963.598873	1.002834
963.898293	1.002322
964.197677	1.002501
964.497022	1.002070
964.796331	1.002407
965.095601	1.002101
965.394835	1.001942
965.694030	1.003056
965.993189	1.002598
966.292309	1.003427
966.591393	1.003018
966.890439	1.002548
967.189447	1.001662
967.488419	1.002190
967.787353	1.002888
968.086249	1.002171
968.385108	1.002599
968.683930	1.003907
968.982714	1.002680
969.281462	1.002825
969.580172	1.001822
969.878844	1.003088
970.177480	1.002263
970.476078	1.003039
970.774639	1.002307
971.073162	1.002053
971.371649	1.001854
971.670098	1.001660
971.968510	1.003189
972.266885	1.001674
972.565223	1.001563
972.863524	1.000745
973.161788	1.002130
973.460014	1.002978
973.758204	1.000480
974.056356	1.002070
974.354471	1.002249
974.652550	1.002107
974.950591	1.001533
975.248595	1.000613
975.546563	1.002607
975.844493	1.003099
976.142386	1.001619
976.440243	1.002596
976.738062	1.001775
977.035845	1.001309
977.333590	1.003141
977.631299	1.002206
977.928971	1.002586
978.226606	1.002523
978.524204	1.002635
978.821765	1.002449
979.119290	1.003345
979.416777	1.002762
979.714228	1.002257
980.011642	1.003584
980.309020	1.001279
980.606360	1.001066
980.903664	1.002287
981.200931	1.001555
981.498162	1.002202
981.795356	1.000784
982.092513	0.999706
982.389633	0.999442
982.686717	0.997229
982.983764	0.995670
983.280775	0.995999
983.577749	0.996305
983.874686	0.995914
984.171587	0.997464
984.468451	0.998221
984.765279	0.999665
985.062070	1.000631
985.358824	1.001089
985.655543	1.001647
985.952224	1.001941
986.248869	1.002097
986.545478	1.003729
986.842050	1.003248
987.138586	1.001800
987.435086	1.003355
987.731549	1.004363
988.027975	1.005363
988.324366	1.002816
988.620719	1.004855
988.917037	1.004181
989.213318	1.004563
989.509563	1.003559
989.805772	1.004009
990.101944	1.004843
990.398080	1.003935
990.694180	1.004507
990.990244	1.002912
991.286271	1.003684
991.582262	1.005105
991.878217	1.003996
992.174136	1.005159
992.470019	1.003987
992.765865	1.006108
993.061676	1.003408
993.357450	1.004014
993.653188	1.004298
993.948890	1.003631
994.244556	1.001976
994.540186	1.003585
994.835780	1.003711
995.131337	1.003990
995.426859	1.002734
995.722345	1.002212
996.017795	1.002079
996.313208	1.001379
996.608586	1.000706
996.903928	1.001437
997.199234	1.001932
997.494504	1.003458
997.789738	1.001206
998.084936	1.002864
998.380099	1.003200
998.675225	1.003216
998.970316	1.003439
999.265371	1.003242
999.560390	1.003834
999.855373	1.004050
1000.150320	1.003052
1000.445232	1.003958
1000.740108	1.003321
1001.034948	1.004755
1001.329752	1.004587
1001.624521	1.004318
1001.919254	1.002753
1002.213951	1.004878
1002.508613	1.002101
1002.803239	1.002764
1003.097829	1.005891
1003.392384	1.003804
1003.686903	1.004794
1003.981386	1.004139
1004.275834	1.005227
1004.570246	1.003659
1004.864623	1.004042
1005.158964	1.004871
1005.453270	1.004941
1005.747540	1.003308
1006.041775	1.004236
1006.335974	1.005432
1006.630138	1.005290
1006.924266	1.003986
1007.218359	1.002772
1007.512416	1.006090
1007.806438	1.004141
1008.100425	1.003801
1008.394376	1.004816
1008.688292	1.005738
1008.982172	1.003289
1009.276017	1.004187
1009.569827	1.004363
1009.863602	1.003884
1010.157341	1.004910
1010.451045	1.004386
1010.744714	1.005127
1011.038347	1.005397
1011.331945	1.003966
1011.625508	1.003881
1011.919036	1.004556
1012.212528	1.005428
1012.505986	1.003891
1012.799408	1.004483
1013.092795	1.004510
1013.386147	1.004832
1013.679464	1.005002
1013.972745	1.004329
1014.265992	1.004245
1014.559204	1.004855
1014.852380	1.005475
1015.145521	1.004159
1015.438628	1.004240
1015.731699	1.004866
1016.024736	1.005714
1016.317737	1.004697
1016.610703	1.004597
1016.903635	1.004874
1017.196531	1.003628
1017.489393	1.003547
1017.782219	1.003724
1018.075011	1.004338
1018.367768	1.004566
1018.660490	1.004975
1018.953177	1.004975
1019.245829	1.004975
