Dividing Wavelength (nm)	Counts (n)	Blue Motor Position (mm): 38.200000	Red Motor Position (mm): 0.000000	
326.493990	0.999185
326.888308	0.999185
327.282561	0.999185
327.676750	1.000715
328.070874	1.000206
328.464933	1.000391
328.858929	1.001100
329.252859	1.000094
329.646726	0.999890
330.040528	0.999819
330.434265	0.999742
330.827938	0.999934
331.221547	1.000541
331.615091	0.999944
332.008571	1.002156
332.401986	0.998021
332.795338	1.000200
333.188625	1.000162
333.581847	1.000553
333.975006	0.999064
334.368100	1.001310
334.761129	0.999295
335.154095	1.000112
335.546996	0.999727
335.939833	0.998632
336.332606	1.000951
336.725315	0.998445
337.117960	1.000681
337.510540	0.999701
337.903056	1.000707
338.295508	1.000172
338.687896	1.000509
339.080220	1.000443
339.472480	0.999202
339.864676	1.001413
340.256807	0.998831
340.648875	0.999328
341.040879	0.999885
341.432818	1.000548
341.824694	0.999857
342.216506	1.000374
342.608253	0.999559
342.999937	0.999124
343.391557	0.999296
343.783113	1.000217
344.174605	0.999113
344.566033	0.999458
344.957397	1.000479
345.348697	1.000490
345.739934	0.999482
346.131106	0.999429
346.522215	0.999336
346.913260	0.999751
347.304241	0.998851
347.695159	0.999641
348.086012	0.999456
348.476802	0.999096
348.867528	0.999819
349.258191	1.000185
349.648789	0.999436
350.039324	0.998831
350.429796	0.998738
350.820203	0.997768
351.210548	0.999754
351.600828	0.999222
351.991045	0.998570
352.381198	1.000498
352.771288	0.998704
353.161314	0.999850
353.551276	0.998077
353.941175	0.997623
354.331010	0.998328
354.720782	0.998455
355.110490	0.999746
355.500135	0.999733
355.889717	0.997714
356.279235	0.998758
356.668689	0.999598
357.058080	0.998987
357.447408	0.998689
357.836672	0.997876
358.225873	0.998809
358.615010	0.998075
359.004084	0.997404
359.393095	0.999266
359.782043	0.999089
360.170927	0.998584
360.559748	0.998388
360.948505	0.998401
361.337199	0.998256
361.725830	0.998223
362.114398	0.998401
362.502903	0.997459
362.891344	0.997107
363.279722	0.997965
363.668037	0.999661
364.056289	0.997005
364.444478	1.000166
364.832603	0.997993
365.220665	0.997351
365.608665	0.998669
365.996601	0.998029
366.384474	0.997090
366.772284	0.998160
367.160031	0.996902
367.547715	0.996889
367.935336	0.994575
368.322893	0.994763
368.710388	0.992677
369.097820	0.991728
369.485189	0.989137
369.872495	0.987183
370.259738	0.985773
370.646918	0.983160
371.034035	0.979934
371.421090	0.977388
371.808081	0.972878
372.195010	0.970163
372.581875	0.964609
372.968678	0.960565
373.355418	0.957741
373.742096	0.949787
374.128710	0.945571
374.515262	0.941123
374.901751	0.935191
375.288177	0.929998
375.674540	0.923589
376.060841	0.918168
376.447079	0.911027
376.833254	0.904019
377.219367	0.899775
377.605417	0.888416
377.991404	0.884966
378.377329	0.878799
378.763191	0.872096
379.148991	0.862888
379.534727	0.855908
379.920402	0.847051
380.306013	0.844827
380.691563	0.832080
381.077049	0.824906
381.462474	0.820889
381.847835	0.808469
382.233134	0.805314
382.618371	0.804280
383.003545	0.788129
383.388657	0.785720
383.773706	0.778322
384.158693	0.774388
384.543618	0.768407
384.928480	0.760046
385.313280	0.750055
385.698017	0.750007
386.082692	0.738409
386.467305	0.737219
386.851856	0.731029
387.236344	0.726333
387.620770	0.719809
388.005133	0.714170
388.389435	0.710020
388.773674	0.706886
389.157851	0.699230
389.541965	0.696364
389.926018	0.702547
390.310008	0.689157
390.693936	0.687157
391.077802	0.678701
391.461606	0.681577
391.845348	0.670688
392.229027	0.669873
392.612645	0.668862
392.996200	0.656146
393.379694	0.649745
393.763125	0.642586
394.146494	0.647628
394.529801	0.640135
394.913047	0.633025
395.296230	0.641723
395.679351	0.634790
396.062410	0.634418
396.445408	0.640205
396.828343	0.639169
397.211217	0.637364
397.594028	0.652511
397.976778	0.648177
398.359466	0.647735
398.742092	0.648352
399.124656	0.664373
399.507158	0.657763
399.889598	0.661019
400.271977	0.658326
400.654294	0.667815
401.036549	0.672985
401.418742	0.682961
401.800874	0.677467
402.182944	0.681417
402.564952	0.681821
402.946898	0.690854
403.328783	0.699406
403.710606	0.714270
404.092367	0.705291
404.474067	0.717710
404.855705	0.724128
405.237282	0.737564
405.618797	0.737639
406.000250	0.743529
406.381642	0.746166
406.762972	0.758498
407.144240	0.766479
407.525447	0.774306
407.906593	0.779643
408.287677	0.786172
408.668700	0.799063
409.049661	0.805598
409.430560	0.811283
409.811399	0.824307
410.192176	0.825642
410.572891	0.836698
410.953545	0.841062
411.334138	0.853247
411.714669	0.858426
412.095139	0.870580
412.475547	0.873065
412.855894	0.882239
413.236180	0.889284
413.616405	0.897682
413.996568	0.901784
414.376670	0.910470
414.756711	0.916083
415.136691	0.921502
415.516609	0.925715
415.896466	0.930395
416.276262	0.934538
416.655997	0.940360
417.035670	0.943924
417.415283	0.946935
417.794834	0.951806
418.174324	0.955961
418.553753	0.960000
418.933121	0.963314
419.312428	0.966954
419.691674	0.971034
420.070859	0.973055
420.449983	0.975304
420.829045	0.976849
421.208047	0.979956
421.586988	0.981891
421.965867	0.983026
422.344686	0.985986
422.723444	0.986667
423.102141	0.988851
423.480777	0.988577
423.859352	0.991794
424.237866	0.991898
424.616319	0.993905
424.994712	0.993702
425.373044	0.995197
425.751314	0.994893
426.129524	0.995961
426.507673	0.996431
426.885762	0.996505
427.263789	0.996774
427.641756	0.997276
428.019662	0.997687
428.397508	0.998047
428.775292	0.997906
429.153016	0.997173
429.530679	0.997449
429.908282	0.998698
430.285824	0.997904
430.663305	0.998587
431.040726	0.999307
431.418086	0.999310
431.795385	0.999073
432.172624	0.999838
432.549802	0.998429
432.926920	0.998787
433.303977	0.999101
433.680974	0.999755
434.057910	0.998982
434.434786	0.999046
434.811601	0.999647
435.188355	0.999759
435.565050	0.999408
435.941683	0.998905
436.318257	0.998920
436.694770	0.999760
437.071222	1.001005
437.447614	0.999617
437.823946	0.999350
438.200218	0.999125
438.576429	0.999799
438.952580	0.999624
439.328670	0.999238
439.704700	0.999426
440.080670	0.999514
440.456580	1.000013
440.832429	0.999697
441.208218	1.000659
441.583947	0.999518
441.959616	0.998989
442.335224	1.000394
442.710773	1.000464
443.086261	0.999736
443.461689	0.999247
443.837057	0.999648
444.212365	1.001194
444.587612	1.000768
444.962800	0.999952
445.337927	0.999857
445.712995	1.000322
446.088002	0.999622
446.462949	0.999916
446.837837	1.001367
447.212664	0.999027
447.587431	1.000193
447.962139	0.999781
448.336786	0.999210
448.711374	0.999829
449.085901	0.999857
449.460369	1.000469
449.834776	0.998952
450.209124	1.000421
450.583412	1.000457
450.957640	0.999305
451.331808	1.000343
451.705917	0.999598
452.079965	1.000402
452.453954	1.000070
452.827883	1.000228
453.201752	1.000584
453.575562	0.998950
453.949311	0.999887
454.323001	0.999988
454.696632	0.999922
455.070202	0.998815
455.443713	0.999605
455.817164	0.999706
456.190556	0.999968
456.563888	1.000795
456.937160	0.999800
457.310373	0.999060
457.683526	0.999740
458.056619	1.000254
458.429653	0.999437
458.802628	1.000099
459.175542	0.999771
459.548398	0.999672
459.921194	0.999789
460.293930	1.000879
460.666607	1.000259
461.039224	0.999615
461.411782	0.999599
461.784280	0.999912
462.156719	1.000195
462.529099	0.999496
462.901419	0.999743
463.273680	0.999540
463.645882	0.999115
464.018024	0.999673
464.390106	0.999891
464.762130	0.999326
465.134094	1.000053
465.505999	0.999760
465.877845	0.999218
466.249631	0.999520
466.621358	0.998366
466.993026	0.999301
467.364634	0.999637
467.736184	0.999372
468.107674	1.000525
468.479105	0.999500
468.850477	0.999867
469.221790	0.999520
469.593043	0.999710
469.964238	0.999508
470.335373	0.999171
470.706449	0.998909
471.077467	0.999157
471.448425	0.999924
471.819324	0.999487
472.190164	0.999113
472.560945	0.999664
472.931667	0.999636
473.302330	0.999706
473.672934	1.000592
474.043479	0.999714
474.413965	0.999482
474.784393	0.999566
475.154761	0.999289
475.525070	0.999627
475.895321	0.999921
476.265513	0.999460
476.635645	1.000081
477.005719	0.999949
477.375734	1.000072
477.745691	0.999030
478.115588	0.999440
478.485427	0.999352
478.855207	0.999600
479.224928	0.999006
479.594591	0.999776
479.964194	0.999034
480.333739	0.999495
480.703226	0.999184
481.072653	0.999342
481.442022	0.999549
481.811333	0.999439
482.180584	0.999634
482.549777	0.999612
482.918912	0.999389
483.287988	0.999500
483.657005	0.999531
484.025964	0.999075
484.394864	0.999972
484.763706	0.999510
485.132489	1.000201
485.501213	0.999670
485.869879	0.999126
486.238487	0.999471
486.607036	0.999892
486.975527	0.999602
487.343959	0.999393
487.712333	0.999764
488.080648	0.998972
488.448905	0.999899
488.817104	0.999409
489.185244	0.999407
489.553326	0.999819
489.921350	1.000140
490.289315	0.998860
490.657222	0.999398
491.025070	0.999394
491.392861	0.999662
491.760593	0.999945
492.128267	0.999959
492.495883	0.999014
492.863440	0.999850
493.230939	0.999665
493.598380	1.000049
493.965763	0.999981
494.333088	0.999008
494.700354	0.999425
495.067563	0.999553
495.434713	0.999824
495.801805	0.999383
496.168839	0.999347
496.535815	0.999800
496.902733	0.999486
497.269593	0.999321
497.636395	0.999350
498.003139	0.998806
498.369825	1.000052
498.736453	0.999763
499.103023	1.000024
499.469535	0.999893
499.835989	0.999168
500.202385	0.999608
500.568723	0.999490
500.935003	0.999605
501.301226	0.999763
501.667390	0.999253
502.033497	0.999729
502.399546	0.999590
502.765537	0.999895
503.131470	0.999451
503.497345	0.999929
503.863163	0.999275
504.228923	0.999291
504.594625	0.999219
504.960269	0.999695
505.325856	1.000536
505.691385	1.000155
506.056856	0.999622
506.422270	0.999613
506.787625	0.999293
507.152924	0.999976
507.518164	0.999315
507.883347	0.999633
508.248472	0.999429
508.613540	0.999185
508.978550	0.999431
509.343503	0.999442
509.708398	1.000613
510.073236	0.999896
510.438016	0.999653
510.802738	0.999550
511.167403	0.999030
511.532010	0.999662
511.896561	0.999647
512.261053	0.999377
512.625488	0.999187
512.989866	0.999344
513.354186	0.999188
513.718449	1.000177
514.082655	0.999459
514.446803	0.999537
514.810894	1.000097
515.174927	0.999696
515.538904	1.000086
515.902822	0.999624
516.266684	1.000524
516.630488	0.999516
516.994235	1.000373
517.357925	1.000301
517.721558	1.000413
518.085133	0.999056
518.448651	0.999636
518.812112	1.000115
519.175516	0.999532
519.538863	0.999290
519.902152	0.999902
520.265385	0.999610
520.628560	0.999123
520.991678	0.999619
521.354739	1.000830
521.717743	0.999624
522.080690	0.998896
522.443580	1.000186
522.806413	0.999836
523.169189	1.000179
523.531908	0.999528
523.894569	0.999797
524.257174	0.999838
524.619722	0.999699
524.982213	0.999736
525.344647	0.999158
525.707025	0.999485
526.069345	0.999563
526.431608	0.999900
526.793815	1.000282
527.155964	1.000107
527.518057	0.999790
527.880093	0.999937
528.242072	0.999337
528.603995	0.999644
528.965860	0.999859
529.327669	1.000248
529.689421	0.999134
530.051117	0.999721
530.412755	0.999994
530.774337	0.999798
531.135862	1.000658
531.497331	0.999471
531.858743	1.000285
532.220098	0.999092
532.581396	0.999921
532.942638	0.999974
533.303824	0.999623
533.664953	0.999954
534.026025	1.000404
534.387040	0.999971
534.747999	0.999971
535.108902	0.999961
535.469748	1.000460
535.830537	1.000195
536.191270	1.000058
536.551947	0.999877
536.912567	0.999367
537.273131	1.000358
537.633638	0.999928
537.994089	1.000133
538.354483	1.000385
538.714821	0.999830
539.075103	0.999831
539.435328	1.000492
539.795497	0.999851
540.155609	0.999831
540.515665	0.999542
540.875665	0.999875
541.235609	1.000602
541.595496	0.999618
541.955328	0.999881
542.315102	1.000143
542.674821	1.000509
543.034483	0.999175
543.394090	0.999402
543.753640	0.999737
544.113134	0.999823
544.472571	1.000371
544.831953	1.000063
545.191278	1.000138
545.550548	0.999844
545.909761	1.000069
546.268918	1.000523
546.628019	1.000618
546.987064	0.999925
547.346053	0.999096
547.704986	0.999666
548.063863	0.999650
548.422684	1.000104
548.781449	0.999702
549.140158	1.000319
549.498811	0.999218
549.857408	0.999337
550.215949	0.999447
550.574434	0.999327
550.932864	1.000131
551.291237	0.999475
551.649555	1.000110
552.007817	0.999895
552.366022	1.000134
552.724173	0.999964
553.082267	0.999778
553.440305	0.999240
553.798288	0.999286
554.156215	0.999781
554.514086	1.000443
554.871902	1.000148
555.229661	0.998817
555.587365	1.000343
555.945014	1.000085
556.302606	0.998655
556.660143	1.000440
557.017625	1.000006
557.375050	0.999626
557.732421	0.999951
558.089735	0.999178
558.446994	0.999468
558.804197	0.999908
559.161345	0.999639
559.518437	0.999963
559.875474	1.000129
560.232455	1.000290
560.589381	1.000322
560.946251	0.999593
561.303065	0.999423
561.659825	0.999379
562.016528	1.000634
562.373177	0.999921
562.729770	0.999618
563.086307	0.999607
563.442789	1.000054
563.799216	1.000076
564.155587	1.000087
564.511904	1.000437
564.868164	0.999556
565.224370	0.999947
565.580520	1.000015
565.936615	0.999536
566.292654	0.999890
566.648638	1.000485
567.004567	1.000076
567.360441	0.999882
567.716260	0.999981
568.072023	0.998822
568.427732	0.999821
568.783385	0.999917
569.138982	1.000057
569.494525	0.999507
569.850013	0.999862
570.205445	1.000194
570.560823	0.999722
570.916145	0.999454
571.271412	0.999484
571.626625	0.999993
571.981782	0.999594
572.336884	1.000470
572.691931	0.999883
573.046923	1.000260
573.401860	0.999562
573.756743	0.999523
574.111570	0.999314
574.466342	1.000841
574.821059	0.999180
575.175722	1.000060
575.530330	0.999980
575.884882	0.999383
576.239380	1.000351
576.593823	1.000135
576.948211	1.000164
577.302544	0.999927
577.656823	1.000327
578.011047	0.998698
578.365216	1.000175
578.719330	0.999526
579.073389	0.999213
579.427394	0.999566
579.781344	1.000912
580.135239	0.998888
580.489080	1.000195
580.842866	1.000102
581.196597	0.999713
581.550273	0.999314
581.903895	0.999973
582.257463	0.999566
582.610975	0.998982
582.964434	0.999869
583.317837	1.000472
583.671186	1.000274
584.024481	0.999787
584.377721	0.998945
584.730906	1.000086
585.084037	1.000974
585.437113	1.000376
585.790135	0.999409
586.143103	1.000346
586.496016	0.999190
586.848874	0.999949
587.201679	0.999596
587.554428	0.999223
587.907124	0.999930
588.259765	0.999421
588.612352	0.999602
588.964884	1.000132
589.317362	0.999734
589.669786	0.999642
590.022155	0.999514
590.374470	0.999366
590.726731	0.999285
591.078937	0.999332
591.431090	0.999973
591.783188	0.999596
592.135232	1.000117
592.487222	0.999738
592.839157	0.999587
593.191038	0.999818
593.542866	0.999144
593.894639	0.999285
594.246358	1.000412
594.598022	1.000101
594.949633	0.999526
595.301190	0.999248
595.652692	0.999141
596.004141	1.000235
596.355535	0.999966
596.706876	0.999497
597.058162	1.000258
597.409395	1.000479
597.760573	0.999859
598.111698	0.999698
598.462768	0.999427
598.813785	0.999273
599.164748	0.999483
599.515657	1.000162
599.866511	1.000291
600.217312	1.000174
600.568060	0.999607
600.918753	1.000288
601.269392	1.001110
601.619978	0.999687
601.970510	0.999827
602.320988	0.999279
602.671412	0.999429
603.021783	1.000012
603.372100	1.000391
603.722363	0.999482
604.072572	0.999399
604.422728	0.999924
604.772830	0.999918
605.122878	0.999844
605.472872	0.999841
605.822813	0.999359
606.172701	0.999959
606.522534	0.999765
606.872314	1.000238
607.222041	0.999458
607.571714	1.000538
607.921333	0.999048
608.270899	0.999194
608.620411	0.999851
608.969870	1.000882
609.319276	0.999923
609.668627	1.000404
610.017926	0.999606
610.367171	1.000243
610.716362	0.999741
611.065500	0.999451
611.414585	0.999516
611.763616	0.998747
612.112594	1.000123
612.461518	0.999050
612.810389	1.000009
613.159207	0.999937
613.507971	0.999044
613.856682	1.000332
614.205340	0.998697
614.553945	0.999679
614.902496	0.999097
615.250994	0.999745
615.599439	0.999816
615.947830	0.998929
616.296169	1.000068
616.644454	0.999801
616.992686	0.999419
617.340864	1.000239
617.688990	0.998976
618.037063	0.999908
618.385082	0.999254
618.733048	0.999241
619.080961	0.999274
619.428821	0.999748
619.776628	0.998999
620.124382	0.999551
620.472083	1.000040
620.819731	0.999999
621.167326	0.999946
621.514868	0.999726
621.862357	0.999460
622.209793	0.999778
622.557176	0.999121
622.904506	0.999578
623.251783	0.999498
623.599007	0.999948
623.946179	0.999656
624.293297	0.999790
624.640363	1.000577
624.987376	0.999328
625.334336	0.998956
625.681243	1.000041
626.028097	0.999746
626.374899	0.999591
626.721647	0.999880
627.068343	0.999898
627.414987	0.999211
627.761577	0.998782
628.108115	0.999315
628.454600	1.000040
628.801032	0.999535
629.147412	0.999383
629.493739	0.999297
629.840014	0.999643
630.186236	0.999500
630.532405	0.999541
630.878521	0.999301
631.224585	0.999335
631.570597	0.998902
631.916556	0.999517
632.262462	0.998211
632.608316	0.999928
632.954117	0.999296
633.299866	0.999246
633.645562	0.999144
633.991206	0.999622
634.336797	0.999546
634.682336	0.999744
635.027823	0.999566
635.373257	1.000077
635.718639	1.000103
636.063968	0.999389
636.409245	0.999280
636.754470	0.999469
637.099642	0.999958
637.444762	0.999351
637.789829	0.999785
638.134845	0.999137
638.479808	0.999323
638.824719	0.999445
639.169577	0.999699
639.514383	0.999767
639.859137	0.999725
640.203839	0.998989
640.548489	0.999431
640.893086	0.999859
641.237632	0.999458
641.582125	0.999587
641.926566	0.999893
642.270955	0.999732
642.615292	0.999361
642.959576	0.999331
643.303809	1.000612
643.647990	1.000456
643.992118	0.999313
644.336195	0.998660
644.680219	0.999553
645.024192	0.999599
645.368112	0.999324
645.711981	0.999319
646.055797	0.999249
646.399562	0.998147
646.743274	1.000202
647.086935	0.999658
647.430544	0.999008
647.774101	0.998771
648.117606	1.000026
648.461059	1.000189
648.804460	0.999760
649.147810	0.999126
649.491108	0.999109
649.834354	0.999402
650.177548	0.999061
650.520690	0.999830
650.863781	0.998612
651.206820	0.999622
651.549807	0.999052
651.892742	0.999665
652.235626	0.999436
652.578458	0.999365
652.921238	0.999762
653.263967	0.999748
653.606644	0.999636
653.949269	0.999715
654.291843	0.999150
654.634365	1.000032
654.976836	0.999302
655.319255	1.000006
655.661622	0.999602
656.003938	0.998914
656.346203	0.998525
656.688416	0.999404
657.030577	0.998978
657.372687	0.999888
657.714746	0.999062
658.056753	0.999558
658.398708	0.999123
658.740612	1.000198
659.082465	0.998734
659.424266	1.000247
659.766016	0.999185
660.107715	0.999474
660.449362	0.998969
660.790958	0.999833
661.132503	0.999533
661.473996	0.998064
661.815438	0.999315
662.156829	0.999399
662.498168	0.999490
662.839456	0.999111
663.180693	0.999522
663.521879	0.998983
663.863013	0.999598
664.204097	0.999462
664.545129	0.999126
664.886110	0.998744
665.227040	0.999254
665.567918	0.999500
665.908746	0.999069
666.249522	0.999272
666.590248	0.999139
666.930922	0.998424
667.271545	0.999277
667.612118	0.999076
667.952639	0.999127
668.293109	0.999013
668.633528	0.999116
668.973896	0.999207
669.314213	0.999213
669.654480	0.999627
669.994695	0.998708
670.334859	0.999460
670.674973	0.998986
671.015035	0.999669
671.355047	0.998950
671.695008	0.998611
672.034918	0.998828
672.374777	0.998809
672.714585	0.998903
673.054342	1.000138
673.394049	0.999039
673.733705	0.998310
674.073310	0.999567
674.412864	0.998677
674.752368	0.998483
675.091820	0.999621
675.431223	0.999433
675.770574	0.999947
676.109875	0.999338
676.449125	0.998424
676.788324	0.999835
677.127473	0.999532
677.466571	0.999026
677.805619	0.999057
678.144616	1.000006
678.483562	0.999095
678.822458	0.998806
679.161303	0.998593
679.500098	0.999548
679.838842	0.999804
680.177535	0.998420
680.516179	0.998603
680.854771	0.998974
681.193314	0.998741
681.531805	0.998716
681.870247	0.998875
682.208638	0.998681
682.546978	0.997750
682.885268	0.998620
683.223508	0.998670
683.561697	0.998652
683.899836	0.998819
684.237925	0.998686
684.575963	0.998788
684.913951	0.998577
685.251889	0.999084
685.589776	0.998976
685.927614	0.998797
686.265401	0.998484
686.603137	0.999449
686.940824	0.998562
687.278460	0.999207
687.616046	0.998377
687.953582	0.998780
688.291068	0.998805
688.628504	0.999152
688.965889	0.998456
689.303224	0.997369
689.640510	0.998488
689.977745	0.998131
690.314930	0.998296
690.652065	0.998828
690.989150	0.998221
691.326185	0.999281
691.663170	0.997847
692.000105	0.999135
692.336990	0.999049
692.673825	0.998679
693.010610	0.998665
693.347345	0.998771
693.684030	0.998969
694.020665	0.999392
694.357251	0.997990
694.693786	0.999569
695.030272	0.997785
695.366707	0.998246
695.703093	0.998773
696.039429	0.998198
696.375716	0.999396
696.711952	0.998544
697.048139	0.998770
697.384276	0.998712
697.720363	0.999429
698.056400	0.997635
698.392388	0.997927
698.728326	0.998718
699.064214	0.999428
699.400053	0.998419
699.735842	1.000206
700.071581	0.998217
700.407270	0.998229
700.742910	0.999671
701.078501	0.998443
701.414042	0.999629
701.749533	0.997350
702.084974	0.999225
702.420366	0.998902
702.755709	0.999054
703.091002	0.999573
703.426246	0.999330
703.761440	0.998046
704.096584	0.997646
704.431679	0.998215
704.766725	0.997877
705.101721	0.999114
705.436668	0.998255
705.771565	0.998694
706.106413	0.997928
706.441212	0.998924
706.775961	0.998230
707.110661	0.998734
707.445311	0.998371
707.779913	0.999611
708.114465	0.999717
708.448967	0.998678
708.783421	0.999607
709.117825	0.998446
709.452180	0.997976
709.786485	0.998046
710.120742	0.998154
710.454949	0.997178
710.789107	0.998813
711.123216	0.998052
711.457275	0.997629
711.791286	0.998116
712.125247	0.999160
712.459159	0.998372
712.793023	0.998267
713.126837	0.999238
713.460602	0.998030
713.794318	0.997200
714.127985	0.997442
714.461602	0.998191
714.795171	0.998789
715.128691	0.998648
715.462162	0.999667
715.795584	0.997895
716.128957	0.998965
716.462281	0.999521
716.795556	0.998840
717.128782	0.998629
717.461960	0.997748
717.795088	0.998532
718.128167	0.999620
718.461198	0.998491
718.794180	0.999171
719.127113	0.998637
719.459997	0.998805
719.792833	0.997885
720.125619	0.998111
720.458357	0.998133
720.791046	0.998598
721.123686	0.999362
721.456278	0.998031
721.788821	0.997638
722.121315	0.998816
722.453761	0.998965
722.786158	0.998391
723.118506	0.999716
723.450805	0.997551
723.783056	0.999435
724.115259	0.998491
724.447412	0.999324
724.779518	0.998999
725.111574	0.997775
725.443582	0.998973
725.775542	0.998986
726.107453	0.999139
726.439315	0.999412
726.771129	0.998907
727.102895	0.999028
727.434612	0.997853
727.766281	0.998981
728.097901	0.998189
728.429473	0.999399
728.760996	0.998323
729.092471	0.998422
729.423897	0.998898
729.755276	0.998804
730.086606	0.998162
730.417887	0.998174
730.749120	0.998163
731.080305	0.998505
731.411442	0.997419
731.742530	0.997335
732.073570	0.998498
732.404562	0.998353
732.735506	0.998053
733.066401	0.998183
733.397249	0.998770
733.728048	0.998894
734.058798	0.998043
734.389501	0.998994
734.720156	0.998000
735.050762	0.999416
735.381320	0.997835
735.711831	0.997354
736.042293	0.998056
736.372707	0.999846
736.703073	0.997406
737.033391	0.998201
737.363661	0.998793
737.693883	0.999472
738.024056	0.997941
738.354182	0.999086
738.684260	0.998559
739.014290	0.998786
739.344272	0.998774
739.674207	0.998387
740.004093	0.998353
740.333931	0.998424
740.663722	0.998100
740.993464	0.997752
741.323159	0.997650
741.652806	0.998490
741.982405	0.999321
742.311956	0.999303
742.641460	0.998753
742.970915	0.998639
743.300323	0.998199
743.629683	0.998547
743.958996	0.999655
744.288260	0.998002
744.617477	0.999543
744.946647	0.998222
745.275768	0.998754
745.604842	0.997340
745.933869	0.998428
746.262847	0.999842
746.591778	0.997820
746.920662	0.999030
747.249498	0.999575
747.578286	0.999620
747.907027	0.998437
748.235720	0.998540
748.564365	0.999294
748.892963	0.998236
749.221514	0.998308
749.550017	0.998586
749.878473	0.999049
750.206881	0.998934
750.535242	0.998365
750.863555	0.997877
751.191821	0.998695
751.520039	0.998200
751.848210	0.997174
752.176334	0.998289
752.504411	0.997641
752.832440	0.998761
753.160421	0.998078
753.488356	0.998868
753.816243	0.998042
754.144082	0.999260
754.471875	0.999515
754.799620	0.999793
755.127318	0.998469
755.454969	0.997839
755.782572	1.000209
756.110129	0.998000
756.437638	1.000823
756.765100	0.998882
757.092515	0.998328
757.419882	0.998141
757.747203	0.997998
758.074477	0.999158
758.401703	0.998503
758.728882	0.998187
759.056014	0.998325
759.383099	0.998903
759.710138	0.998298
760.037129	0.998572
760.364073	0.998571
760.690970	0.997843
761.017820	0.997260
761.344623	0.999390
761.671379	0.998406
761.998088	0.999028
762.324751	0.998071
762.651366	0.997331
762.977935	0.997492
763.304456	0.998243
763.630931	0.996142
763.957359	0.996213
764.283740	0.997521
764.610074	0.998389
764.936362	0.996405
765.262602	0.998574
765.588796	0.997927
765.914943	0.998693
766.241044	0.997740
766.567097	0.999321
766.893104	0.999005
767.219064	0.997106
767.544978	0.996791
767.870845	0.998641
768.196665	0.998222
768.522438	0.998505
768.848165	0.998637
769.173846	0.998809
769.499479	0.998677
769.825066	0.999277
770.150607	1.000192
770.476101	0.998566
770.801548	0.998703
771.126949	0.999594
771.452303	0.999483
771.777611	0.998959
772.102872	0.998808
772.428087	0.998451
772.753256	0.998828
773.078378	0.999865
773.403453	0.998851
773.728482	0.999133
774.053465	0.997962
774.378401	0.999268
774.703291	0.999369
775.028135	1.000990
775.352932	0.998135
775.677683	0.999946
776.002388	0.998367
776.327046	0.998513
776.651658	1.000044
776.976224	0.999391
777.300743	0.998753
777.625216	0.999206
777.949643	0.999382
778.274024	0.998380
778.598359	0.999199
778.922647	0.999042
779.246889	1.000053
779.571086	0.999043
779.895236	0.999140
780.219339	0.999668
780.543397	0.998183
780.867409	0.999223
781.191374	0.998650
781.515294	1.000105
781.839167	0.999705
782.162995	0.998633
782.486776	0.997548
782.810511	0.998883
783.134201	1.000210
783.457844	0.998721
783.781441	0.998367
784.104993	0.998385
784.428498	0.998320
784.751958	0.999814
785.075372	1.000504
785.398739	0.999047
785.722061	0.998119
786.045337	0.999303
786.368568	0.998526
786.691752	0.998733
787.014891	0.997901
787.337983	0.997358
787.661030	0.998454
787.984031	0.998744
788.306987	0.999531
788.629897	0.997049
788.952760	0.999080
789.275579	0.998018
789.598351	0.998742
789.921078	0.999744
790.243759	0.998844
790.566395	0.998632
790.888984	0.998859
791.211529	0.998530
791.534027	0.998397
791.856480	0.999516
792.178888	0.998437
792.501249	0.999320
792.823566	0.999247
793.145836	0.999543
793.468062	0.999990
793.790241	0.999589
794.112375	0.998079
794.434464	0.999579
794.756507	0.999603
795.078505	0.998493
795.400457	0.999035
795.722364	0.998830
796.044226	0.999111
796.366042	0.998968
796.687812	0.997419
797.009538	0.998595
797.331218	0.999871
797.652852	0.998782
797.974442	0.998427
798.295986	0.999726
798.617484	0.997832
798.938938	0.999588
799.260346	0.998121
799.581709	0.998056
799.903026	0.999830
800.224299	0.999385
800.545526	0.998636
800.866708	0.998476
801.187845	0.999301
801.508936	0.998980
801.829983	0.999229
802.150984	0.999258
802.471940	0.999160
802.792851	0.997748
803.113717	0.999966
803.434538	0.999511
803.755314	0.999947
804.076045	0.999586
804.396731	1.000094
804.717372	0.997320
805.037967	0.999827
805.358518	0.998879
805.679024	0.998587
805.999485	0.999036
806.319901	0.998993
806.640272	0.999309
806.960598	0.999067
807.280879	0.998772
807.601115	0.999440
807.921306	1.000125
808.241453	0.998694
808.561554	0.998524
808.881611	0.998854
809.201623	0.998181
809.521590	0.999564
809.841513	0.998867
810.161390	0.997896
810.481223	0.998454
810.801011	0.999402
811.120755	1.000705
811.440453	0.998488
811.760107	0.999781
812.079716	0.999648
812.399281	0.998384
812.718801	0.998648
813.038276	0.998703
813.357707	1.000625
813.677093	0.999412
813.996434	0.998658
814.315731	1.000255
814.634983	0.999481
814.954191	0.999236
815.273354	0.999181
815.592473	0.998322
815.911547	0.999741
816.230577	0.998447
816.549562	1.000306
816.868502	0.997495
817.187399	1.000102
817.506250	0.998636
817.825058	0.998204
818.143821	0.998817
818.462539	0.998711
818.781213	0.998389
819.099843	0.997625
819.418429	0.997750
819.736970	0.998970
820.055466	0.996769
820.373919	0.996975
820.692327	0.996431
821.010691	0.997044
821.329011	0.995136
821.647286	0.994807
821.965517	0.993364
822.283704	0.992264
822.601847	0.990887
822.919945	0.991889
823.237999	0.993697
823.556010	0.994341
823.873976	0.993805
824.191897	0.995579
824.509775	0.996085
824.827609	0.996859
825.145398	0.997200
825.463144	0.996198
825.780845	0.995855
826.098502	0.995703
826.416116	0.996378
826.733685	0.995884
827.051210	0.993662
827.368692	0.994382
827.686129	0.995467
828.003522	0.996878
828.320872	0.995876
828.638177	0.997294
828.955439	0.998075
829.272656	0.998495
829.589830	0.997990
829.906960	0.998564
830.224046	0.998007
830.541088	0.998098
830.858086	0.997806
831.175041	0.999855
831.491952	0.998038
831.808819	0.998634
832.125642	0.998594
832.442421	0.999430
832.759157	0.999768
833.075849	0.997083
833.392497	0.996815
833.709101	0.995733
834.025662	0.997219
834.342179	0.996322
834.658653	0.998199
834.975083	0.997605
835.291469	0.998193
835.607811	0.998450
835.924110	0.998318
836.240366	0.998960
836.556578	0.998741
836.872746	0.999356
837.188871	0.998745
837.504952	0.998682
837.820990	0.998734
838.136984	0.998895
838.452935	0.998345
838.768842	0.999745
839.084706	0.999022
839.400526	0.999254
839.716303	0.997725
840.032037	0.998461
840.347727	0.998351
840.663373	0.998215
840.978977	0.998220
841.294537	0.999339
841.610054	0.999113
841.925527	0.999130
842.240957	0.999038
842.556344	0.998456
842.871687	0.998758
843.186987	0.999051
843.502244	0.999669
843.817458	0.998808
844.132629	0.998009
844.447756	0.999636
844.762840	0.998367
845.077881	1.000682
845.392879	0.998114
845.707833	0.999546
846.022745	0.999574
846.337613	1.000281
846.652438	0.998784
846.967221	1.000232
847.281960	0.999627
847.596656	1.001011
847.911309	0.999669
848.225919	0.998239
848.540485	1.000096
848.855009	0.998947
849.169490	1.000430
849.483928	0.998723
849.798323	0.998036
850.112675	1.000890
850.426984	0.999575
850.741251	0.999981
851.055474	0.999324
851.369654	0.999530
851.683792	0.999006
851.997887	1.000139
852.311938	0.999987
852.625947	0.999491
852.939914	0.999893
853.253837	1.000372
853.567718	1.000514
853.881555	0.999083
854.195350	0.999294
854.509103	1.000477
854.822812	1.000390
855.136479	0.999834
855.450103	0.999250
855.763685	0.998643
856.077224	0.999267
856.390720	0.998654
856.704173	1.000434
857.017584	1.000921
857.330953	0.998548
857.644278	0.998621
857.957561	0.999220
858.270802	0.999442
858.584000	0.999461
858.897155	0.999930
859.210268	0.999889
859.523339	0.999888
859.836367	0.999343
860.149352	0.998738
860.462295	0.999500
860.775195	0.999893
861.088054	0.998187
861.400869	0.999712
861.713642	0.998537
862.026373	0.999111
862.339062	1.000150
862.651708	1.000158
862.964312	0.999241
863.276873	0.998880
863.589392	1.000069
863.901869	0.998046
864.214303	0.998865
864.526696	0.999529
864.839045	0.998907
865.151353	0.999883
865.463619	0.999250
865.775842	0.999807
866.088023	1.000655
866.400162	1.000285
866.712258	1.000040
867.024313	0.999425
867.336325	1.000465
867.648296	0.999678
867.960224	1.000052
868.272110	0.999677
868.583954	0.999961
868.895755	0.999436
869.207515	0.999069
869.519233	0.999981
869.830909	0.997887
870.142542	0.998452
870.454134	0.998663
870.765684	1.000475
871.077191	0.999322
871.388657	0.999684
871.700081	0.999129
872.011463	0.999938
872.322803	0.999343
872.634101	0.999246
872.945357	0.999761
873.256571	0.998980
873.567744	1.000171
873.878874	1.000330
874.189963	0.999055
874.501010	1.001234
874.812015	0.999197
875.122979	1.000187
875.433900	0.998555
875.744780	0.999865
876.055618	0.998806
876.366415	0.999191
876.677169	0.999204
876.987882	0.999941
877.298554	1.000271
877.609183	0.998597
877.919771	0.999547
878.230317	0.999199
878.540822	0.998804
878.851285	0.998594
879.161707	0.999085
879.472087	1.000602
879.782425	0.997137
880.092722	0.997800
880.402977	0.996289
880.713191	0.994132
881.023363	0.993193
881.333494	0.992568
881.643583	0.993381
881.953631	0.992069
882.263637	0.992617
882.573602	0.993631
882.883526	0.993187
883.193408	0.994502
883.503248	0.995137
883.813048	0.995788
884.122806	0.996458
884.432522	0.996572
884.742197	0.998508
885.051831	0.996963
885.361424	0.997750
885.670975	0.998793
885.980485	0.999112
886.289954	0.997655
886.599382	0.997156
886.908768	0.998822
887.218113	0.998610
887.527417	0.999152
887.836680	0.999685
888.145901	0.999800
888.455082	1.000277
888.764221	0.999518
889.073319	0.998600
889.382376	0.999061
889.691392	0.998716
890.000366	0.999300
890.309300	0.999984
890.618193	0.999765
890.927044	0.998272
891.235855	0.998679
891.544625	0.998855
891.853353	0.999528
892.162041	0.998900
892.470687	1.000099
892.779293	0.998699
893.087858	0.997544
893.396381	0.998802
893.704864	0.998157
894.013306	0.997654
894.321707	0.996664
894.630068	0.995838
894.938387	0.995409
895.246665	0.996086
895.554903	0.995893
895.863100	0.996825
896.171256	0.997280
896.479371	0.997833
896.787446	0.997460
897.095480	0.997840
897.403473	0.997987
897.711425	0.998590
898.019336	0.999531
898.327207	0.998455
898.635038	0.998136
898.942827	0.999189
899.250576	0.998937
899.558284	0.998534
899.865952	0.997684
900.173579	1.000020
900.481165	0.998668
900.788711	0.998560
901.096216	0.998174
901.403681	1.000101
901.711105	0.998835
902.018489	0.999599
902.325832	0.999891
902.633135	0.999295
902.940397	0.999239
903.247619	0.998468
903.554800	0.997817
903.861941	0.997326
904.169041	0.996661
904.476101	0.995756
904.783121	0.994745
905.090100	0.996351
905.397039	0.996261
905.703938	0.997257
906.010796	0.996483
906.317614	0.998414
906.624391	0.999129
906.931129	0.998286
907.237826	0.999104
907.544483	0.998916
907.851099	0.999370
908.157675	0.999145
908.464211	0.999524
908.770707	0.998374
909.077163	0.999444
909.383578	0.998251
909.689954	0.998870
909.996289	0.998356
910.302584	0.999401
910.608839	1.000954
910.915054	0.998715
911.221229	1.000493
911.527363	1.000111
911.833458	0.998615
912.139513	0.998997
912.445527	1.000809
912.751502	0.999291
913.057436	0.999005
913.363331	1.000704
913.669186	1.000586
913.975000	0.999073
914.280775	0.999031
914.586510	0.998724
914.892205	0.997528
915.197859	0.997199
915.503475	0.997666
915.809050	0.996424
916.114585	0.995154
916.420081	0.995624
916.725536	0.995592
917.030952	0.997041
917.336328	0.995911
917.641665	0.996377
917.946961	0.995956
918.252218	0.996760
918.557435	0.997717
918.862612	0.997544
919.167750	0.998558
919.472848	0.998454
919.777906	0.998983
920.082925	0.998690
920.387904	0.999107
920.692843	0.998190
920.997743	0.999065
921.302603	0.999344
921.607423	0.997891
921.912204	0.999425
922.216946	0.999953
922.521647	0.999985
922.826310	0.999180
923.130932	0.999170
923.435516	1.000494
923.740059	0.998853
924.044564	0.999185
924.349028	0.998696
924.653454	0.999694
924.957840	0.998570
925.262186	0.999246
925.566493	0.999773
925.870761	0.999635
926.174989	0.997998
926.479178	1.000164
926.783328	1.000188
927.087438	0.998747
927.391509	0.998874
927.695541	0.999462
927.999533	1.000581
928.303486	0.999045
928.607400	0.999618
928.911275	1.000230
929.215110	1.000977
929.518906	1.000348
929.822663	1.001475
930.126381	1.000078
930.430060	1.000078
930.733699	1.000835
931.037299	0.999984
931.340861	1.000050
931.644383	0.999496
931.947866	1.000402
932.251309	1.000296
932.554714	1.000272
932.858080	1.000976
933.161407	0.999031
933.464694	0.999386
933.767943	1.000597
934.071153	0.999950
934.374323	1.000550
934.677455	0.999430
934.980548	0.999057
935.283602	1.000087
935.586617	0.999290
935.889593	1.001007
936.192530	1.000614
936.495428	0.999966
936.798287	0.999309
937.101108	0.999568
937.403890	0.998559
937.706632	1.001226
938.009336	0.999306
938.312002	0.999741
938.614628	0.999533
938.917216	0.999054
939.219765	0.999237
939.522275	1.000186
939.824747	0.999436
940.127179	0.999625
940.429573	1.001535
940.731929	0.999767
941.034246	1.000077
941.336524	0.998860
941.638763	0.998936
941.940964	0.999100
942.243126	0.999372
942.545250	0.999434
942.847335	1.000015
943.149381	1.000501
943.451389	1.000216
943.753359	0.999351
944.055290	1.000849
944.357182	1.000323
944.659036	0.999562
944.960851	1.000218
945.262628	0.999731
945.564367	0.999437
945.866067	0.999365
946.167729	1.000367
946.469352	0.999552
946.770937	0.998812
947.072484	0.999758
947.373992	1.000435
947.675462	0.998934
947.976893	0.998746
948.278286	0.999951
948.579641	1.000370
948.880958	0.997925
949.182236	1.000195
949.483476	0.999664
949.784678	0.999625
950.085841	0.998283
950.386967	0.998232
950.688054	0.999086
950.989103	0.998821
951.290114	0.999491
951.591087	1.000779
951.892021	0.999834
952.192917	0.999865
952.493776	1.000216
952.794596	0.999554
953.095378	0.999503
953.396122	1.000198
953.696828	0.999528
953.997496	0.999410
954.298126	1.001490
954.598718	1.000015
954.899272	1.000721
955.199788	0.999519
955.500266	1.000215
955.800706	0.999470
956.101108	0.999963
956.401472	1.000831
956.701798	1.000583
957.002087	1.000048
957.302337	0.998964
957.602550	0.999877
957.902724	0.999081
958.202861	0.999855
958.502960	0.999474
958.803022	1.000034
959.103045	0.999747
959.403031	1.000955
959.702979	1.001094
960.002889	1.000403
960.302762	0.998790
960.602596	1.001454
960.902393	0.999334
961.202153	0.999929
961.501875	1.000651
961.801559	0.999617
962.101205	0.999265
962.400814	1.001148
962.700385	1.000275
962.999918	1.001909
963.299414	0.998231
963.598873	1.000524
963.898293	0.999197
964.197677	0.999488
964.497022	1.000512
964.796331	1.000348
965.095601	1.001182
965.394835	0.998764
965.694030	1.001085
965.993189	1.000211
966.292309	1.001107
966.591393	0.999122
966.890439	1.001014
967.189447	0.999241
967.488419	1.000174
967.787353	0.999134
968.086249	0.999481
968.385108	0.999518
968.683930	1.001986
968.982714	0.999341
969.281462	1.000259
969.580172	1.000315
969.878844	1.000631
970.177480	1.000060
970.476078	1.001830
970.774639	1.000413
971.073162	0.999851
971.371649	0.999555
971.670098	0.999041
971.968510	1.000105
972.266885	0.998730
972.565223	0.999581
972.863524	0.999017
973.161788	1.000842
973.460014	0.999931
973.758204	0.998922
974.056356	0.999940
974.354471	0.999391
974.652550	1.000147
974.950591	1.000018
975.248595	0.998443
975.546563	1.000820
975.844493	1.001318
976.142386	1.000447
976.440243	0.999443
976.738062	0.999918
977.035845	0.999501
977.333590	1.001369
977.631299	1.000230
977.928971	1.000318
978.226606	1.000603
978.524204	0.999879
978.821765	1.000206
979.119290	1.001243
979.416777	0.999701
979.714228	1.000007
980.011642	1.000834
980.309020	1.000065
980.606360	0.999819
980.903664	1.000299
981.200931	0.998656
981.498162	0.999595
981.795356	0.999890
982.092513	1.000350
982.389633	1.000567
982.686717	1.000155
982.983764	1.000444
983.280775	1.000301
983.577749	1.000406
983.874686	0.999213
984.171587	0.999548
984.468451	0.999379
984.765279	0.999885
985.062070	1.000579
985.358824	0.999281
985.655543	1.001533
985.952224	1.000979
986.248869	1.000008
986.545478	1.001487
986.842050	0.999684
987.138586	1.000674
987.435086	0.998959
987.731549	1.001623
988.027975	1.000798
988.324366	0.999918
988.620719	0.999463
988.917037	0.999590
989.213318	1.000657
989.509563	1.000346
989.805772	1.000280
990.101944	1.000715
990.398080	1.001113
990.694180	1.000193
990.990244	0.999302
991.286271	1.001089
991.582262	1.000825
991.878217	0.999831
992.174136	1.001629
992.470019	0.999760
992.765865	1.001651
993.061676	1.000675
993.357450	1.001185
993.653188	1.001057
993.948890	0.999381
994.244556	0.999866
994.540186	1.000136
994.835780	0.999238
995.131337	1.000864
995.426859	0.999386
995.722345	1.000276
996.017795	0.999387
996.313208	0.999171
996.608586	1.000024
996.903928	0.999736
997.199234	1.000130
997.494504	1.000877
997.789738	0.998645
998.084936	1.000663
998.380099	1.001312
998.675225	1.000873
998.970316	0.999893
999.265371	0.999633
999.560390	1.000460
999.855373	0.999992
1000.150320	1.000661
1000.445232	1.000157
1000.740108	0.999664
1001.034948	0.998448
1001.329752	1.001040
1001.624521	0.999213
1001.919254	0.998305
1002.213951	1.000779
1002.508613	0.999648
1002.803239	0.999228
1003.097829	1.000954
1003.392384	1.000423
1003.686903	1.000637
1003.981386	0.999337
1004.275834	1.001133
1004.570246	0.998558
1004.864623	1.001634
1005.158964	0.999558
1005.453270	0.999631
1005.747540	1.000538
1006.041775	0.999692
1006.335974	0.999717
1006.630138	0.999640
1006.924266	0.998951
1007.218359	0.998437
1007.512416	1.001254
1007.806438	0.999269
1008.100425	1.001045
1008.394376	1.001452
1008.688292	0.998861
1008.982172	0.998774
1009.276017	1.000638
1009.569827	1.001615
1009.863602	0.999079
1010.157341	1.001036
1010.451045	1.000131
1010.744714	1.000854
1011.038347	0.999312
1011.331945	0.999233
1011.625508	0.999949
1011.919036	1.000087
1012.212528	1.000160
1012.505986	1.001344
1012.799408	1.000720
1013.092795	1.000654
1013.386147	0.999925
1013.679464	1.001075
1013.972745	0.999850
1014.265992	1.000404
1014.559204	0.999607
1014.852380	1.001616
1015.145521	1.000082
1015.438628	1.001019
1015.731699	0.999119
1016.024736	1.001130
1016.317737	0.999986
1016.610703	1.000776
1016.903635	1.000688
1017.196531	0.999659
1017.489393	0.999379
1017.782219	0.999725
1018.075011	0.999911
1018.367768	0.999224
1018.660490	0.999800
1018.953177	0.999800
1019.245829	0.999800
