Dividing Wavelength (nm)	Counts (n)	Blue Motor Position (mm): 35.600000	Red Motor Position (mm): 0.000000	
326.493990	1.000552
326.888308	1.000552
327.282561	1.000552
327.676750	1.000923
328.070874	1.001466
328.464933	1.002411
328.858929	1.001038
329.252859	1.000498
329.646726	0.999981
330.040528	1.000323
330.434265	1.001447
330.827938	1.000035
331.221547	1.001057
331.615091	1.001765
332.008571	1.002022
332.401986	1.000236
332.795338	1.000679
333.188625	1.000587
333.581847	0.999992
333.975006	1.000365
334.368100	1.001216
334.761129	0.999506
335.154095	0.999677
335.546996	1.001106
335.939833	0.998685
336.332606	1.000590
336.725315	0.998975
337.117960	1.001668
337.510540	0.999011
337.903056	1.001061
338.295508	1.001115
338.687896	1.000164
339.080220	1.000787
339.472480	0.999504
339.864676	1.001021
340.256807	0.999294
340.648875	1.000870
341.040879	0.999280
341.432818	1.001622
341.824694	0.999737
342.216506	1.000766
342.608253	1.000420
342.999937	0.999967
343.391557	1.000106
343.783113	1.001244
344.174605	1.000015
344.566033	0.998884
344.957397	1.000841
345.348697	0.999697
345.739934	1.000350
346.131106	1.000297
346.522215	0.998830
346.913260	1.000868
347.304241	0.998542
347.695159	1.000801
348.086012	1.000423
348.476802	1.000101
348.867528	0.998563
349.258191	1.000476
349.648789	1.000073
350.039324	1.000327
350.429796	0.999146
350.820203	0.998062
351.210548	0.999361
351.600828	0.998993
351.991045	0.999653
352.381198	1.000087
352.771288	0.998967
353.161314	0.999125
353.551276	0.998302
353.941175	0.997824
354.331010	0.999498
354.720782	0.999272
355.110490	0.999198
355.500135	0.999828
355.889717	0.997477
356.279235	0.999417
356.668689	0.999833
357.058080	0.998801
357.447408	0.998130
357.836672	0.998911
358.225873	1.000633
358.615010	0.999019
359.004084	0.998414
359.393095	0.998887
359.782043	0.997950
360.170927	0.998409
360.559748	0.999108
360.948505	0.997522
361.337199	0.997717
361.725830	1.000150
362.114398	0.998969
362.502903	0.997760
362.891344	0.998019
363.279722	0.997942
363.668037	0.998096
364.056289	0.997957
364.444478	0.999618
364.832603	0.998125
365.220665	0.997483
365.608665	0.998171
365.996601	0.997966
366.384474	0.997435
366.772284	0.997806
367.160031	0.996940
367.547715	0.997312
367.935336	0.995122
368.322893	0.994624
368.710388	0.993421
369.097820	0.991519
369.485189	0.989598
369.872495	0.987986
370.259738	0.985112
370.646918	0.982585
371.034035	0.980841
371.421090	0.977944
371.808081	0.972952
372.195010	0.970390
372.581875	0.965576
372.968678	0.959961
373.355418	0.957038
373.742096	0.948938
374.128710	0.945353
374.515262	0.941140
374.901751	0.933894
375.288177	0.929530
375.674540	0.923159
376.060841	0.917654
376.447079	0.910153
376.833254	0.902978
377.219367	0.898401
377.605417	0.888252
377.991404	0.884358
378.377329	0.878318
378.763191	0.871934
379.148991	0.862784
379.534727	0.855069
379.920402	0.847340
380.306013	0.843846
380.691563	0.830423
381.077049	0.824360
381.462474	0.819368
381.847835	0.809602
382.233134	0.803863
382.618371	0.803985
383.003545	0.786860
383.388657	0.784896
383.773706	0.777133
384.158693	0.773380
384.543618	0.768446
384.928480	0.759713
385.313280	0.749405
385.698017	0.748230
386.082692	0.737835
386.467305	0.736029
386.851856	0.730407
387.236344	0.724394
387.620770	0.719889
388.005133	0.714097
388.389435	0.708542
388.773674	0.706374
389.157851	0.697280
389.541965	0.695405
389.926018	0.702043
390.310008	0.687948
390.693936	0.685382
391.077802	0.677994
391.461606	0.679233
391.845348	0.668148
392.229027	0.668012
392.612645	0.666724
392.996200	0.654056
393.379694	0.646197
393.763125	0.636175
394.146494	0.641750
394.529801	0.632087
394.913047	0.624051
395.296230	0.629604
395.679351	0.621140
396.062410	0.618301
396.445408	0.621199
396.828343	0.615958
397.211217	0.611358
397.594028	0.624058
397.976778	0.614030
398.359466	0.611361
398.742092	0.606717
399.124656	0.618537
399.507158	0.606714
399.889598	0.604130
400.271977	0.596027
400.654294	0.599320
401.036549	0.600006
401.418742	0.604639
401.800874	0.590199
402.182944	0.588213
402.564952	0.581240
402.946898	0.584556
403.328783	0.586664
403.710606	0.599136
404.092367	0.576460
404.474067	0.583779
404.855705	0.584520
405.237282	0.595396
405.618797	0.584939
406.000250	0.583532
406.381642	0.577146
406.762972	0.586285
407.144240	0.588149
407.525447	0.590920
407.906593	0.589069
408.287677	0.589320
408.668700	0.601248
409.049661	0.600824
409.430560	0.601269
409.811399	0.613915
410.192176	0.603990
410.572891	0.615310
410.953545	0.611731
411.334138	0.628557
411.714669	0.628891
412.095139	0.644280
412.475547	0.639429
412.855894	0.647554
413.236180	0.653476
413.616405	0.665168
413.996568	0.665481
414.376670	0.677489
414.756711	0.688282
415.136691	0.693215
415.516609	0.696436
415.896466	0.701921
416.276262	0.707983
416.655997	0.717944
417.035670	0.715495
417.415283	0.719901
417.794834	0.731099
418.174324	0.742068
418.553753	0.755987
418.933121	0.755309
419.312428	0.762497
419.691674	0.774430
420.070859	0.777514
420.449983	0.789988
420.829045	0.794071
421.208047	0.806804
421.586988	0.812573
421.965867	0.820196
422.344686	0.825982
422.723444	0.837735
423.102141	0.851396
423.480777	0.850502
423.859352	0.864897
424.237866	0.866606
424.616319	0.873768
424.994712	0.879029
425.373044	0.887678
425.751314	0.893135
426.129524	0.903359
426.507673	0.904794
426.885762	0.910011
427.263789	0.917703
427.641756	0.923759
428.019662	0.928409
428.397508	0.933263
428.775292	0.938508
429.153016	0.942189
429.530679	0.946617
429.908282	0.950895
430.285824	0.955298
430.663305	0.957907
431.040726	0.963525
431.418086	0.965376
431.795385	0.969166
432.172624	0.971695
432.549802	0.973911
432.926920	0.975837
433.303977	0.977491
433.680974	0.980813
434.057910	0.982378
434.434786	0.984197
434.811601	0.985362
435.188355	0.987318
435.565050	0.988987
435.941683	0.988488
436.318257	0.989703
436.694770	0.990757
437.071222	0.992465
437.447614	0.992781
437.823946	0.994648
438.200218	0.994168
438.576429	0.995627
438.952580	0.995697
439.328670	0.995660
439.704700	0.995575
440.080670	0.996623
440.456580	0.997469
440.832429	0.996425
441.208218	0.997636
441.583947	0.997680
441.959616	0.997225
442.335224	0.998485
442.710773	0.998421
443.086261	0.999112
443.461689	0.997908
443.837057	0.998416
444.212365	0.998900
444.587612	0.999679
444.962800	0.998522
445.337927	1.000078
445.712995	0.998492
446.088002	0.998639
446.462949	0.998722
446.837837	1.000513
447.212664	0.999518
447.587431	0.999729
447.962139	0.999137
448.336786	0.998349
448.711374	0.999340
449.085901	0.999022
449.460369	0.999745
449.834776	0.999604
450.209124	0.999371
450.583412	0.999963
450.957640	0.999476
451.331808	0.999672
451.705917	0.998767
452.079965	1.000227
452.453954	1.000123
452.827883	0.999549
453.201752	1.000043
453.575562	0.998967
453.949311	0.999552
454.323001	0.999190
454.696632	0.999238
455.070202	0.998879
455.443713	0.999732
455.817164	0.999396
456.190556	0.999423
456.563888	0.999977
456.937160	0.999466
457.310373	0.999808
457.683526	0.999827
458.056619	0.999982
458.429653	0.999308
458.802628	0.999871
459.175542	0.999519
459.548398	0.999516
459.921194	0.999441
460.293930	1.000072
460.666607	1.000293
461.039224	0.999784
461.411782	0.999367
461.784280	0.999530
462.156719	1.000205
462.529099	1.000005
462.901419	0.999540
463.273680	0.999121
463.645882	0.998904
464.018024	0.999582
464.390106	0.999644
464.762130	0.999569
465.134094	0.999104
465.505999	0.999070
465.877845	0.999038
466.249631	0.998973
466.621358	0.998586
466.993026	0.998763
467.364634	0.999325
467.736184	0.999259
468.107674	0.999469
468.479105	0.999568
468.850477	0.999320
469.221790	0.998817
469.593043	0.999475
469.964238	0.998971
470.335373	0.999099
470.706449	0.999466
471.077467	0.998924
471.448425	0.999248
471.819324	0.998773
472.190164	0.999113
472.560945	0.999300
472.931667	0.998749
473.302330	0.998983
473.672934	0.999641
474.043479	0.999480
474.413965	0.998711
474.784393	0.999674
475.154761	0.999089
475.525070	0.999243
475.895321	0.999111
476.265513	0.999575
476.635645	0.999462
477.005719	0.998936
477.375734	0.999035
477.745691	0.998558
478.115588	0.998645
478.485427	0.998356
478.855207	0.998998
479.224928	0.998707
479.594591	0.998999
479.964194	0.998608
480.333739	0.998738
480.703226	0.998228
481.072653	0.998133
481.442022	0.998866
481.811333	0.998227
482.180584	0.998794
482.549777	0.999032
482.918912	0.998580
483.287988	0.998541
483.657005	0.998764
484.025964	0.998856
484.394864	0.998752
484.763706	0.998697
485.132489	0.998691
485.501213	0.998455
485.869879	0.998576
486.238487	0.997867
486.607036	0.998794
486.975527	0.998631
487.343959	0.998641
487.712333	0.999345
488.080648	0.998225
488.448905	0.999495
488.817104	0.998765
489.185244	0.999440
489.553326	0.999049
489.921350	0.998973
490.289315	0.999093
490.657222	0.998805
491.025070	0.999247
491.392861	0.999124
491.760593	0.999184
492.128267	0.999171
492.495883	0.998621
492.863440	0.999645
493.230939	0.999316
493.598380	0.999757
493.965763	0.998637
494.333088	0.998852
494.700354	0.998694
495.067563	0.999460
495.434713	0.999744
495.801805	0.998409
496.168839	0.999108
496.535815	0.999536
496.902733	0.998688
497.269593	0.998967
497.636395	0.998261
498.003139	0.999029
498.369825	0.999810
498.736453	0.998477
499.103023	0.998870
499.469535	0.998670
499.835989	0.999848
500.202385	0.998801
500.568723	0.998594
500.935003	0.999550
501.301226	0.999663
501.667390	0.998773
502.033497	0.998947
502.399546	0.999047
502.765537	0.998712
503.131470	0.999212
503.497345	0.998742
503.863163	0.998900
504.228923	0.998911
504.594625	0.998765
504.960269	0.999070
505.325856	0.999496
505.691385	0.999240
506.056856	0.999456
506.422270	0.998771
506.787625	0.999723
507.152924	0.999080
507.518164	0.998996
507.883347	0.998237
508.248472	0.999130
508.613540	0.998169
508.978550	0.999526
509.343503	0.998781
509.708398	0.999826
510.073236	0.998802
510.438016	0.998468
510.802738	0.999010
511.167403	0.999101
511.532010	0.999487
511.896561	0.999243
512.261053	0.998293
512.625488	0.998496
512.989866	0.998169
513.354186	0.998203
513.718449	0.999376
514.082655	0.998358
514.446803	0.998779
514.810894	0.999295
515.174927	0.999132
515.538904	0.999736
515.902822	0.998654
516.266684	0.998934
516.630488	0.999403
516.994235	0.998882
517.357925	0.999432
517.721558	0.999276
518.085133	0.998660
518.448651	0.998871
518.812112	0.999417
519.175516	0.998605
519.538863	0.998111
519.902152	0.999617
520.265385	0.998810
520.628560	0.998722
520.991678	0.999356
521.354739	0.999842
521.717743	0.999200
522.080690	0.998060
522.443580	0.998583
522.806413	0.998754
523.169189	0.999780
523.531908	0.998554
523.894569	0.999411
524.257174	0.999695
524.619722	0.999174
524.982213	0.998916
525.344647	0.999116
525.707025	0.998788
526.069345	0.998978
526.431608	0.999066
526.793815	0.999187
527.155964	0.998930
527.518057	0.998799
527.880093	0.998498
528.242072	0.998918
528.603995	0.999160
528.965860	0.999244
529.327669	0.999179
529.689421	0.998600
530.051117	0.998999
530.412755	0.998903
530.774337	0.998499
531.135862	0.999725
531.497331	0.998523
531.858743	0.999329
532.220098	0.998660
532.581396	0.999525
532.942638	0.999801
533.303824	1.000019
533.664953	0.999043
534.026025	0.999685
534.387040	0.998984
534.747999	0.998711
535.108902	0.998900
535.469748	0.999730
535.830537	0.999508
536.191270	0.999656
536.551947	0.999062
536.912567	0.999783
537.273131	0.999462
537.633638	0.999061
537.994089	0.999413
538.354483	0.999338
538.714821	0.998566
539.075103	0.999553
539.435328	0.999709
539.795497	0.999942
540.155609	0.999690
540.515665	0.999720
540.875665	0.999174
541.235609	0.999061
541.595496	0.998498
541.955328	0.999333
542.315102	1.000024
542.674821	1.000029
543.034483	0.999661
543.394090	0.998750
543.753640	0.999098
544.113134	0.999079
544.472571	0.999906
544.831953	0.999208
545.191278	0.999543
545.550548	0.998484
545.909761	0.998771
546.268918	1.000079
546.628019	0.999825
546.987064	0.999250
547.346053	0.998464
547.704986	0.998985
548.063863	0.999671
548.422684	0.999221
548.781449	0.999031
549.140158	0.999691
549.498811	0.999203
549.857408	0.998676
550.215949	0.997761
550.574434	0.999089
550.932864	0.999987
551.291237	0.998928
551.649555	0.999685
552.007817	0.999509
552.366022	0.999511
552.724173	0.999518
553.082267	0.998580
553.440305	0.999193
553.798288	0.998515
554.156215	0.998784
554.514086	0.999342
554.871902	0.999262
555.229661	0.998883
555.587365	0.999525
555.945014	0.999752
556.302606	0.999096
556.660143	1.000302
557.017625	0.999507
557.375050	0.998672
557.732421	0.999042
558.089735	0.999005
558.446994	0.998959
558.804197	0.999269
559.161345	0.998912
559.518437	0.998689
559.875474	0.999383
560.232455	0.999682
560.589381	0.999513
560.946251	0.999030
561.303065	0.999428
561.659825	0.998926
562.016528	0.999487
562.373177	0.999272
562.729770	0.999063
563.086307	0.998529
563.442789	0.999470
563.799216	0.998365
564.155587	0.999794
564.511904	1.000108
564.868164	0.998544
565.224370	0.998864
565.580520	0.999984
565.936615	0.999610
566.292654	0.999562
566.648638	0.999354
567.004567	0.999090
567.360441	0.999884
567.716260	0.998757
568.072023	0.998942
568.427732	0.999429
568.783385	0.999127
569.138982	0.999334
569.494525	0.999125
569.850013	0.999638
570.205445	0.999256
570.560823	0.999676
570.916145	0.999301
571.271412	0.998379
571.626625	0.999296
571.981782	0.999778
572.336884	0.999520
572.691931	0.999033
573.046923	0.999414
573.401860	0.999283
573.756743	0.999322
574.111570	0.999570
574.466342	1.000005
574.821059	0.999278
575.175722	0.999390
575.530330	0.999635
575.884882	0.999897
576.239380	1.000092
576.593823	0.999532
576.948211	0.999784
577.302544	0.999525
577.656823	0.999689
578.011047	0.999100
578.365216	1.000057
578.719330	0.999432
579.073389	0.998394
579.427394	0.999317
579.781344	0.999667
580.135239	0.998640
580.489080	0.999557
580.842866	0.999347
581.196597	0.999070
581.550273	0.999064
581.903895	0.999820
582.257463	0.999340
582.610975	0.999060
582.964434	0.999138
583.317837	0.999062
583.671186	0.999331
584.024481	0.998901
584.377721	0.998743
584.730906	0.999985
585.084037	1.000196
585.437113	0.999671
585.790135	0.999981
586.143103	0.999433
586.496016	0.998904
586.848874	0.999358
587.201679	0.999321
587.554428	0.998597
587.907124	0.999841
588.259765	1.000079
588.612352	1.000257
588.964884	0.999839
589.317362	0.999203
589.669786	0.998165
590.022155	0.998552
590.374470	0.998973
590.726731	0.999134
591.078937	1.000099
591.431090	0.999513
591.783188	0.998270
592.135232	0.999812
592.487222	0.999335
592.839157	0.998867
593.191038	0.999556
593.542866	0.999505
593.894639	0.999053
594.246358	0.999745
594.598022	0.999311
594.949633	0.999527
595.301190	0.998927
595.652692	0.998929
596.004141	0.999196
596.355535	0.999353
596.706876	0.999223
597.058162	0.998713
597.409395	0.999604
597.760573	0.999226
598.111698	0.999780
598.462768	0.998677
598.813785	0.998384
599.164748	0.999489
599.515657	0.999274
599.866511	0.999953
600.217312	0.999935
600.568060	0.999278
600.918753	0.999328
601.269392	0.999457
601.619978	0.998876
601.970510	0.999502
602.320988	0.999690
602.671412	0.999135
603.021783	0.999426
603.372100	0.999653
603.722363	0.999779
604.072572	0.999597
604.422728	1.000027
604.772830	0.999429
605.122878	0.999327
605.472872	0.999882
605.822813	0.998291
606.172701	0.999684
606.522534	0.999283
606.872314	1.000046
607.222041	0.998775
607.571714	0.999860
607.921333	0.999588
608.270899	0.999448
608.620411	0.999104
608.969870	1.000285
609.319276	0.999561
609.668627	0.999903
610.017926	0.998779
610.367171	0.998969
610.716362	0.999336
611.065500	0.999068
611.414585	1.000180
611.763616	0.999139
612.112594	0.999523
612.461518	0.998274
612.810389	0.998738
613.159207	0.999341
613.507971	0.998809
613.856682	1.000521
614.205340	0.998381
614.553945	0.999331
614.902496	0.998927
615.250994	0.999679
615.599439	0.998961
615.947830	0.999076
616.296169	0.999191
616.644454	0.999236
616.992686	0.999811
617.340864	0.999893
617.688990	0.998298
618.037063	0.999153
618.385082	0.998528
618.733048	0.998787
619.080961	0.999367
619.428821	1.000048
619.776628	0.998306
620.124382	0.999766
620.472083	0.999406
620.819731	0.999989
621.167326	0.999874
621.514868	0.999605
621.862357	0.999544
622.209793	0.999714
622.557176	0.999069
622.904506	0.999226
623.251783	0.999229
623.599007	0.999380
623.946179	0.999012
624.293297	1.000383
624.640363	0.999802
624.987376	0.998806
625.334336	0.998875
625.681243	0.998798
626.028097	0.999396
626.374899	0.999547
626.721647	1.000374
627.068343	0.998976
627.414987	0.999403
627.761577	0.998690
628.108115	0.999004
628.454600	0.999893
628.801032	1.000156
629.147412	0.999884
629.493739	1.000116
629.840014	0.998943
630.186236	0.998741
630.532405	0.999190
630.878521	0.998198
631.224585	0.998677
631.570597	0.998295
631.916556	0.999535
632.262462	0.998271
632.608316	0.999369
632.954117	0.998977
633.299866	0.998478
633.645562	0.998808
633.991206	0.999553
634.336797	0.998613
634.682336	0.999816
635.027823	0.998553
635.373257	0.999456
635.718639	0.999553
636.063968	0.999520
636.409245	0.999234
636.754470	1.000456
637.099642	0.999481
637.444762	0.999557
637.789829	0.998741
638.134845	0.999037
638.479808	0.999262
638.824719	0.999814
639.169577	0.998860
639.514383	0.999368
639.859137	0.999765
640.203839	0.998915
640.548489	0.999129
640.893086	0.998289
641.237632	0.999715
641.582125	0.999071
641.926566	1.000511
642.270955	0.999111
642.615292	0.999250
642.959576	0.998671
643.303809	0.999800
643.647990	0.999979
643.992118	0.998964
644.336195	0.998274
644.680219	0.999483
645.024192	0.999858
645.368112	0.998733
645.711981	0.999287
646.055797	0.998517
646.399562	0.997701
646.743274	0.999636
647.086935	0.999377
647.430544	0.998268
647.774101	0.998652
648.117606	0.999328
648.461059	0.999133
648.804460	0.999293
649.147810	0.998354
649.491108	0.998706
649.834354	0.998896
650.177548	0.998641
650.520690	0.999077
650.863781	0.998569
651.206820	0.999022
651.549807	0.998471
651.892742	0.999899
652.235626	0.998879
652.578458	0.998793
652.921238	0.999125
653.263967	0.999180
653.606644	0.998923
653.949269	0.998704
654.291843	0.998255
654.634365	0.999564
654.976836	0.998203
655.319255	0.999945
655.661622	0.999434
656.003938	0.998651
656.346203	0.998338
656.688416	1.000190
657.030577	0.998357
657.372687	0.998803
657.714746	0.998505
658.056753	0.998676
658.398708	0.999350
658.740612	0.999312
659.082465	0.999171
659.424266	0.998601
659.766016	0.998937
660.107715	0.999533
660.449362	0.999014
660.790958	0.998575
661.132503	0.999122
661.473996	0.998699
661.815438	0.999107
662.156829	0.998953
662.498168	0.999804
662.839456	0.998359
663.180693	0.998785
663.521879	0.999009
663.863013	0.998943
664.204097	0.998454
664.545129	0.998552
664.886110	0.999113
665.227040	0.999508
665.567918	0.997653
665.908746	0.998333
666.249522	0.998345
666.590248	0.998646
666.930922	0.998553
667.271545	0.997752
667.612118	0.997899
667.952639	0.998950
668.293109	0.999184
668.633528	0.998195
668.973896	0.999214
669.314213	0.998059
669.654480	0.998447
669.994695	0.997687
670.334859	0.998024
670.674973	0.998286
671.015035	0.997581
671.355047	0.997433
671.695008	0.998090
672.034918	0.998128
672.374777	0.998111
672.714585	0.998771
673.054342	0.999216
673.394049	0.998564
673.733705	0.998330
674.073310	0.999186
674.412864	0.998777
674.752368	0.998683
675.091820	0.999877
675.431223	0.998893
675.770574	0.998164
676.109875	0.999311
676.449125	0.998026
676.788324	0.998154
677.127473	0.998926
677.466571	0.999002
677.805619	0.998381
678.144616	0.999193
678.483562	0.998698
678.822458	0.999320
679.161303	0.998232
679.500098	0.999465
679.838842	0.998052
680.177535	0.998912
680.516179	0.998310
680.854771	0.997889
681.193314	0.998967
681.531805	0.997582
681.870247	0.998051
682.208638	0.998504
682.546978	0.998035
682.885268	0.997794
683.223508	0.998363
683.561697	0.998467
683.899836	0.998070
684.237925	0.997719
684.575963	0.997950
684.913951	0.997870
685.251889	0.998033
685.589776	0.998759
685.927614	0.998737
686.265401	0.998349
686.603137	0.997573
686.940824	0.997896
687.278460	0.998793
687.616046	0.997567
687.953582	0.997524
688.291068	0.999104
688.628504	0.997780
688.965889	0.997569
689.303224	0.996787
689.640510	0.998007
689.977745	0.996784
690.314930	0.997073
690.652065	0.997465
690.989150	0.997436
691.326185	0.999583
691.663170	0.997948
692.000105	0.999110
692.336990	0.998194
692.673825	0.998486
693.010610	0.998007
693.347345	0.997579
693.684030	0.998087
694.020665	0.997622
694.357251	0.997408
694.693786	0.999019
695.030272	0.997667
695.366707	0.998152
695.703093	0.998070
696.039429	0.996915
696.375716	0.998870
696.711952	0.998086
697.048139	0.998311
697.384276	0.998788
697.720363	0.998411
698.056400	0.997156
698.392388	0.997707
698.728326	0.997666
699.064214	0.999278
699.400053	0.997300
699.735842	0.998547
700.071581	0.998511
700.407270	0.998225
700.742910	0.998756
701.078501	0.997721
701.414042	0.999045
701.749533	0.996412
702.084974	0.998089
702.420366	0.997937
702.755709	0.997808
703.091002	0.998381
703.426246	0.998126
703.761440	0.998166
704.096584	0.998228
704.431679	0.996999
704.766725	0.998339
705.101721	0.998642
705.436668	0.998465
705.771565	0.997722
706.106413	0.996668
706.441212	0.998197
706.775961	0.999096
707.110661	0.997955
707.445311	0.998498
707.779913	0.998700
708.114465	0.998693
708.448967	0.998103
708.783421	0.998722
709.117825	0.997280
709.452180	0.998706
709.786485	0.997938
710.120742	0.997505
710.454949	0.997454
710.789107	0.997583
711.123216	0.996670
711.457275	0.997244
711.791286	0.997038
712.125247	0.998992
712.459159	0.997099
712.793023	0.997575
713.126837	0.997924
713.460602	0.997163
713.794318	0.996795
714.127985	0.996349
714.461602	0.998331
714.795171	0.997261
715.128691	0.997118
715.462162	0.998768
715.795584	0.997358
716.128957	0.998221
716.462281	0.998705
716.795556	0.997198
717.128782	0.998645
717.461960	0.997817
717.795088	0.998324
718.128167	0.998727
718.461198	0.997709
718.794180	0.998069
719.127113	0.997878
719.459997	0.998063
719.792833	0.997836
720.125619	0.997673
720.458357	0.998494
720.791046	0.998152
721.123686	0.997973
721.456278	0.997681
721.788821	0.997025
722.121315	0.998456
722.453761	0.998491
722.786158	0.997097
723.118506	0.997365
723.450805	0.996937
723.783056	0.998532
724.115259	0.996984
724.447412	0.999151
724.779518	0.997999
725.111574	0.997712
725.443582	0.997901
725.775542	0.998331
726.107453	0.997247
726.439315	0.998689
726.771129	0.997990
727.102895	0.998671
727.434612	0.997090
727.766281	0.997923
728.097901	0.996856
728.429473	0.998137
728.760996	0.997424
729.092471	0.996617
729.423897	0.997864
729.755276	0.996897
730.086606	0.996689
730.417887	0.997880
730.749120	0.997950
731.080305	0.997903
731.411442	0.997145
731.742530	0.996693
732.073570	0.996766
732.404562	0.997229
732.735506	0.997728
733.066401	0.997932
733.397249	0.997001
733.728048	0.998527
734.058798	0.996935
734.389501	0.999996
734.720156	0.996698
735.050762	0.998512
735.381320	0.998199
735.711831	0.997433
736.042293	0.998089
736.372707	0.998895
736.703073	0.997432
737.033391	0.997903
737.363661	0.998365
737.693883	0.997810
738.024056	0.997182
738.354182	0.997793
738.684260	0.997400
739.014290	0.997452
739.344272	0.998446
739.674207	0.997965
740.004093	0.998089
740.333931	0.998676
740.663722	0.996769
740.993464	0.998656
741.323159	0.998054
741.652806	0.997894
741.982405	0.998584
742.311956	0.998806
742.641460	0.998658
742.970915	0.997934
743.300323	0.997348
743.629683	0.997289
743.958996	0.999415
744.288260	0.996870
744.617477	0.997628
744.946647	0.997991
745.275768	0.997898
745.604842	0.997597
745.933869	0.999383
746.262847	0.998455
746.591778	0.997527
746.920662	0.998683
747.249498	0.998619
747.578286	0.998876
747.907027	0.998264
748.235720	0.998523
748.564365	0.998467
748.892963	0.998368
749.221514	0.998000
749.550017	0.997389
749.878473	0.998316
750.206881	0.999534
750.535242	0.998344
750.863555	0.997406
751.191821	0.998299
751.520039	0.997924
751.848210	0.996704
752.176334	0.997822
752.504411	0.998175
752.832440	0.997155
753.160421	0.998752
753.488356	0.998126
753.816243	0.998175
754.144082	0.998291
754.471875	0.998346
754.799620	0.998757
755.127318	0.998282
755.454969	0.997942
755.782572	0.999144
756.110129	0.997605
756.437638	0.998976
756.765100	0.997977
757.092515	0.997722
757.419882	0.998171
757.747203	0.997615
758.074477	0.998433
758.401703	0.998297
758.728882	0.998380
759.056014	0.997890
759.383099	0.998029
759.710138	0.998274
760.037129	0.998301
760.364073	0.998980
760.690970	0.998445
761.017820	0.996580
761.344623	0.998001
761.671379	0.998616
761.998088	0.998001
762.324751	0.997708
762.651366	0.996928
762.977935	0.996083
763.304456	0.997489
763.630931	0.995592
763.957359	0.995655
764.283740	0.996128
764.610074	0.996107
764.936362	0.996720
765.262602	0.997563
765.588796	0.997341
765.914943	0.997814
766.241044	0.997571
766.567097	0.997837
766.893104	0.997873
767.219064	0.996777
767.544978	0.997302
767.870845	0.998189
768.196665	0.996926
768.522438	0.998086
768.848165	0.997753
769.173846	0.998739
769.499479	0.998734
769.825066	0.998990
770.150607	0.998861
770.476101	0.998046
770.801548	0.999480
771.126949	1.000130
771.452303	0.998579
771.777611	0.998124
772.102872	0.998102
772.428087	0.997390
772.753256	0.998612
773.078378	0.998839
773.403453	0.997815
773.728482	1.000143
774.053465	0.997734
774.378401	0.998558
774.703291	0.999869
775.028135	1.000521
775.352932	0.998605
775.677683	0.999505
776.002388	0.999167
776.327046	0.998004
776.651658	1.000434
776.976224	0.998777
777.300743	0.999011
777.625216	0.998040
777.949643	0.998691
778.274024	0.997148
778.598359	0.999366
778.922647	0.998781
779.246889	0.999413
779.571086	0.998719
779.895236	0.999720
780.219339	0.999060
780.543397	0.998357
780.867409	0.999228
781.191374	0.998249
781.515294	0.999493
781.839167	0.999124
782.162995	0.998857
782.486776	0.998089
782.810511	0.998914
783.134201	0.998620
783.457844	0.999685
783.781441	0.999082
784.104993	0.998332
784.428498	0.999529
784.751958	1.000750
785.075372	0.999198
785.398739	0.998030
785.722061	0.998074
786.045337	0.998709
786.368568	0.998203
786.691752	0.999287
787.014891	0.998988
787.337983	0.997245
787.661030	0.998931
787.984031	0.998810
788.306987	0.998798
788.629897	0.997656
788.952760	0.998037
789.275579	0.998910
789.598351	0.998889
789.921078	0.998474
790.243759	0.998927
790.566395	0.997673
790.888984	0.999739
791.211529	0.999616
791.534027	0.998640
791.856480	0.999436
792.178888	0.998786
792.501249	0.998237
792.823566	0.998920
793.145836	0.998835
793.468062	0.999631
793.790241	0.999957
794.112375	0.997435
794.434464	0.999231
794.756507	0.999726
795.078505	0.999128
795.400457	1.000043
795.722364	0.998907
796.044226	0.998560
796.366042	0.998047
796.687812	0.996933
797.009538	0.998387
797.331218	0.998493
797.652852	0.999652
797.974442	0.998372
798.295986	0.998902
798.617484	0.997961
798.938938	0.999081
799.260346	0.997046
799.581709	0.997118
799.903026	0.999010
800.224299	0.998063
800.545526	0.997466
800.866708	0.998026
801.187845	0.999780
801.508936	0.998086
801.829983	0.998432
802.150984	0.999123
802.471940	0.999495
802.792851	0.999315
803.113717	1.000015
803.434538	0.999436
803.755314	0.999463
804.076045	0.999135
804.396731	0.997639
804.717372	0.998422
805.037967	0.999011
805.358518	0.999426
805.679024	0.998868
805.999485	0.999038
806.319901	0.998835
806.640272	0.999956
806.960598	0.999364
807.280879	0.998120
807.601115	0.999032
807.921306	0.999978
808.241453	0.998764
808.561554	0.999173
808.881611	0.998962
809.201623	0.998225
809.521590	0.998111
809.841513	0.999020
810.161390	0.998269
810.481223	0.997657
810.801011	0.998528
811.120755	0.999728
811.440453	0.998807
811.760107	0.999122
812.079716	0.998493
812.399281	0.999426
812.718801	0.998883
813.038276	0.999156
813.357707	0.998065
813.677093	0.999818
813.996434	0.999058
814.315731	1.000570
814.634983	0.999655
814.954191	0.999850
815.273354	0.998629
815.592473	0.997711
815.911547	0.999956
816.230577	0.998627
816.549562	0.999263
816.868502	0.997918
817.187399	1.000535
817.506250	0.999079
817.825058	0.997530
818.143821	0.998942
818.462539	0.998404
818.781213	0.999619
819.099843	0.998538
819.418429	0.997401
819.736970	0.998256
820.055466	0.997179
820.373919	0.996739
820.692327	0.995951
821.010691	0.995846
821.329011	0.994411
821.647286	0.993442
821.965517	0.991892
822.283704	0.989987
822.601847	0.990184
822.919945	0.990073
823.237999	0.991253
823.556010	0.991609
823.873976	0.992681
824.191897	0.993723
824.509775	0.995080
824.827609	0.995291
825.145398	0.995281
825.463144	0.994283
825.780845	0.993854
826.098502	0.995098
826.416116	0.995380
826.733685	0.994644
827.051210	0.993018
827.368692	0.993361
827.686129	0.994087
828.003522	0.996773
828.320872	0.995110
828.638177	0.995991
828.955439	0.998471
829.272656	0.997455
829.589830	0.996888
829.906960	0.997050
830.224046	0.998009
830.541088	0.998552
830.858086	0.997350
831.175041	0.998955
831.491952	0.998380
831.808819	0.998707
832.125642	0.998534
832.442421	0.998985
832.759157	0.998643
833.075849	0.997594
833.392497	0.995999
833.709101	0.995664
834.025662	0.996414
834.342179	0.996030
834.658653	0.997060
834.975083	0.997474
835.291469	0.997780
835.607811	0.997934
835.924110	0.998237
836.240366	0.998704
836.556578	0.998634
836.872746	0.999373
837.188871	0.998210
837.504952	0.998379
837.820990	0.999817
838.136984	0.996651
838.452935	0.999255
838.768842	0.999763
839.084706	0.998987
839.400526	0.998063
839.716303	0.997848
840.032037	0.997196
840.347727	0.997398
840.663373	0.998001
840.978977	0.998119
841.294537	0.998411
841.610054	0.998807
841.925527	0.999072
842.240957	0.998476
842.556344	0.999013
842.871687	0.998857
843.186987	0.998145
843.502244	0.998865
843.817458	0.998611
844.132629	0.999564
844.447756	0.999514
844.762840	0.999631
845.077881	1.000403
845.392879	0.997729
845.707833	0.999137
846.022745	0.999555
846.337613	0.999038
846.652438	0.998265
846.967221	1.000081
847.281960	0.999744
847.596656	0.999751
847.911309	1.000102
848.225919	0.999332
848.540485	0.999250
848.855009	1.000750
849.169490	0.999279
849.483928	0.999790
849.798323	0.999265
850.112675	0.999844
850.426984	0.999738
850.741251	1.000776
851.055474	0.999454
851.369654	0.999483
851.683792	0.999260
851.997887	0.998848
852.311938	0.999583
852.625947	0.998349
852.939914	0.998442
853.253837	1.001329
853.567718	1.001114
853.881555	0.999399
854.195350	1.000337
854.509103	0.999858
854.822812	1.000286
855.136479	0.999765
855.450103	1.000562
855.763685	1.000170
856.077224	0.999739
856.390720	1.000131
856.704173	1.000216
857.017584	1.000570
857.330953	1.000135
857.644278	0.999187
857.957561	1.000113
858.270802	0.999883
858.584000	0.999494
858.897155	0.999566
859.210268	1.000043
859.523339	0.999507
859.836367	0.999374
860.149352	0.999717
860.462295	0.998689
860.775195	0.999652
861.088054	0.998515
861.400869	0.998962
861.713642	0.999928
862.026373	1.000298
862.339062	1.000846
862.651708	0.999291
862.964312	0.999666
863.276873	0.999683
863.589392	1.000012
863.901869	0.999976
864.214303	0.999570
864.526696	0.999153
864.839045	0.999757
865.151353	0.999584
865.463619	1.000165
865.775842	1.000566
866.088023	1.001057
866.400162	1.000040
866.712258	1.001223
867.024313	1.000130
867.336325	1.000087
867.648296	1.000046
867.960224	1.000423
868.272110	1.000518
868.583954	0.999604
868.895755	1.000262
869.207515	0.999607
869.519233	1.000007
869.830909	0.999734
870.142542	0.998452
870.454134	0.999233
870.765684	0.999029
871.077191	0.999741
871.388657	0.999773
871.700081	0.999652
872.011463	0.999793
872.322803	0.999088
872.634101	0.999661
872.945357	0.998753
873.256571	0.998845
873.567744	0.999786
873.878874	0.999422
874.189963	0.999431
874.501010	1.000761
874.812015	1.000123
875.122979	0.999754
875.433900	0.999925
875.744780	0.999343
876.055618	0.998925
876.366415	0.998939
876.677169	0.999167
876.987882	0.998076
877.298554	1.000230
877.609183	0.998244
877.919771	0.999374
878.230317	0.999946
878.540822	0.998015
878.851285	0.998456
879.161707	0.998309
879.472087	0.999302
879.782425	0.997455
880.092722	0.996737
880.402977	0.995587
880.713191	0.992853
881.023363	0.991952
881.333494	0.990533
881.643583	0.991819
881.953631	0.991183
882.263637	0.991109
882.573602	0.991651
882.883526	0.991247
883.193408	0.994589
883.503248	0.993820
883.813048	0.994283
884.122806	0.995664
884.432522	0.995584
884.742197	0.997803
885.051831	0.997065
885.361424	0.997403
885.670975	0.998165
885.980485	0.997425
886.289954	0.997627
886.599382	0.996971
886.908768	0.999140
887.218113	0.997886
887.527417	0.998779
887.836680	0.999081
888.145901	0.999497
888.455082	0.999148
888.764221	0.999492
889.073319	0.998537
889.382376	0.999677
889.691392	0.997987
890.000366	0.999548
890.309300	0.999280
890.618193	1.000970
890.927044	0.999385
891.235855	0.998899
891.544625	0.998919
891.853353	0.998460
892.162041	0.998792
892.470687	1.000558
892.779293	0.998654
893.087858	0.998309
893.396381	0.999299
893.704864	0.996416
894.013306	0.997239
894.321707	0.996598
894.630068	0.996024
894.938387	0.995543
895.246665	0.996097
895.554903	0.995013
895.863100	0.997425
896.171256	0.995849
896.479371	0.997147
896.787446	0.997212
897.095480	0.998114
897.403473	0.998453
897.711425	0.997914
898.019336	0.998874
898.327207	0.998660
898.635038	0.998653
898.942827	0.998576
899.250576	0.998667
899.558284	0.999668
899.865952	0.998115
900.173579	0.998931
900.481165	0.998772
900.788711	0.999164
901.096216	0.999183
901.403681	1.000212
901.711105	0.999779
902.018489	1.000196
902.325832	0.998839
902.633135	0.999440
902.940397	0.999415
903.247619	0.999166
903.554800	0.997703
903.861941	0.998004
904.169041	0.996009
904.476101	0.995713
904.783121	0.995270
905.090100	0.995190
905.397039	0.995944
905.703938	0.996330
906.010796	0.997199
906.317614	0.997684
906.624391	0.998724
906.931129	0.998437
907.237826	0.998762
907.544483	0.998991
907.851099	0.999235
908.157675	0.998299
908.464211	0.999689
908.770707	0.999433
909.077163	0.998499
909.383578	1.000267
909.689954	0.998857
909.996289	0.999223
910.302584	1.000353
910.608839	1.000223
910.915054	0.999394
911.221229	1.000321
911.527363	0.998475
911.833458	1.000053
912.139513	0.999024
912.445527	0.999625
912.751502	0.999458
913.057436	0.997611
913.363331	1.000494
913.669186	1.000254
913.975000	0.999380
914.280775	0.998613
914.586510	0.998418
914.892205	0.997481
915.197859	0.997031
915.503475	0.996167
915.809050	0.996167
916.114585	0.994944
916.420081	0.994715
916.725536	0.996358
917.030952	0.995147
917.336328	0.995703
917.641665	0.995159
917.946961	0.996673
918.252218	0.996182
918.557435	0.997269
918.862612	0.997202
919.167750	0.998476
919.472848	0.998802
919.777906	0.999299
920.082925	0.999876
920.387904	0.999951
920.692843	0.998762
920.997743	0.998409
921.302603	0.999287
921.607423	0.998004
921.912204	0.999705
922.216946	1.000382
922.521647	0.999515
922.826310	0.999432
923.130932	0.999994
923.435516	0.999423
923.740059	0.998680
924.044564	0.999141
924.349028	0.998365
924.653454	0.999735
924.957840	0.998745
925.262186	0.999446
925.566493	0.999591
925.870761	1.000186
926.174989	0.999864
926.479178	1.001352
926.783328	0.999725
927.087438	0.999614
927.391509	0.999461
927.695541	0.999787
927.999533	0.999667
928.303486	0.998388
928.607400	0.999447
928.911275	0.999178
929.215110	1.001397
929.518906	0.999750
929.822663	1.001198
930.126381	0.998587
930.430060	0.999954
930.733699	1.000447
931.037299	1.000999
931.340861	1.001637
931.644383	1.000091
931.947866	1.000568
932.251309	1.000254
932.554714	1.000136
932.858080	0.999207
933.161407	0.999308
933.464694	0.999034
933.767943	1.000192
934.071153	1.000562
934.374323	1.001525
934.677455	0.999781
934.980548	1.000355
935.283602	1.000031
935.586617	0.999594
935.889593	1.000069
936.192530	1.001241
936.495428	1.000795
936.798287	0.999155
937.101108	1.000176
937.403890	0.999926
937.706632	1.002433
938.009336	1.000402
938.312002	1.000193
938.614628	0.999542
938.917216	0.998463
939.219765	0.999009
939.522275	1.000237
939.824747	0.999785
940.127179	1.000932
940.429573	1.001097
940.731929	0.999185
941.034246	0.999500
941.336524	0.998979
941.638763	0.999135
941.940964	1.000025
942.243126	0.999384
942.545250	1.000069
942.847335	1.001134
943.149381	1.000606
943.451389	0.999643
943.753359	1.000140
944.055290	1.000395
944.357182	0.999904
944.659036	1.000320
944.960851	1.000566
945.262628	1.000317
945.564367	1.000514
945.866067	0.999021
946.167729	1.000823
946.469352	0.999337
946.770937	0.997840
947.072484	1.000891
947.373992	1.000740
947.675462	1.000130
947.976893	0.999008
948.278286	1.001081
948.579641	1.001124
948.880958	1.000124
949.182236	1.000356
949.483476	1.000986
949.784678	0.999979
950.085841	0.999618
950.386967	0.999912
950.688054	0.999986
950.989103	0.998885
951.290114	0.999562
951.591087	1.000185
951.892021	1.000605
952.192917	1.000057
952.493776	1.000381
952.794596	0.999652
953.095378	0.999812
953.396122	1.000006
953.696828	1.001073
953.997496	0.999595
954.298126	0.999883
954.598718	0.999902
954.899272	0.999610
955.199788	0.999479
955.500266	1.001504
955.800706	1.000689
956.101108	0.999812
956.401472	1.001175
956.701798	0.999043
957.002087	0.999955
957.302337	1.000421
957.602550	1.000427
957.902724	0.999633
958.202861	1.000295
958.502960	0.998805
958.803022	1.000644
959.103045	0.999904
959.403031	1.000355
959.702979	1.000811
960.002889	0.999610
960.302762	0.999310
960.602596	1.000755
960.902393	1.000920
961.202153	0.999928
961.501875	1.000123
961.801559	1.000978
962.101205	0.998842
962.400814	1.001494
962.700385	1.000932
962.999918	1.001197
963.299414	0.999272
963.598873	0.999713
963.898293	1.000886
964.197677	0.998844
964.497022	0.999840
964.796331	1.000865
965.095601	1.000434
965.394835	1.000738
965.694030	1.001650
965.993189	0.999815
966.292309	1.001004
966.591393	0.998960
966.890439	1.000567
967.189447	1.000430
967.488419	1.000304
967.787353	1.001183
968.086249	1.001032
968.385108	1.000969
968.683930	1.000845
968.982714	1.000823
969.281462	0.999949
969.580172	1.000095
969.878844	1.001188
970.177480	1.000096
970.476078	1.002103
970.774639	0.999547
971.073162	1.000167
971.371649	1.000782
971.670098	0.999296
971.968510	1.000654
972.266885	0.999722
972.565223	1.000200
972.863524	1.000003
973.161788	1.000777
973.460014	1.001099
973.758204	0.999507
974.056356	0.998725
974.354471	1.001426
974.652550	1.000714
974.950591	1.000020
975.248595	1.000104
975.546563	1.000879
975.844493	1.001166
976.142386	1.000064
976.440243	1.000039
976.738062	1.000564
977.035845	0.999516
977.333590	1.001272
977.631299	1.000019
977.928971	1.000809
978.226606	1.000270
978.524204	0.999895
978.821765	1.000349
979.119290	1.000914
979.416777	1.001033
979.714228	0.999963
980.011642	1.001381
980.309020	1.000625
980.606360	1.000112
980.903664	1.001316
981.200931	1.000179
981.498162	1.000453
981.795356	1.000069
982.092513	0.998822
982.389633	1.001244
982.686717	0.999549
982.983764	1.000904
983.280775	1.000191
983.577749	1.000770
983.874686	0.998934
984.171587	1.000193
984.468451	1.000058
984.765279	1.000725
985.062070	1.000324
985.358824	1.001048
985.655543	1.000712
985.952224	1.000627
986.248869	1.000095
986.545478	1.002027
986.842050	0.999858
987.138586	0.999124
987.435086	0.998979
987.731549	1.000325
988.027975	1.001959
988.324366	1.000156
988.620719	1.001293
988.917037	1.000457
989.213318	1.000278
989.509563	1.000925
989.805772	1.000738
990.101944	1.002215
990.398080	1.001134
990.694180	1.000944
990.990244	0.999745
991.286271	1.000387
991.582262	1.001555
991.878217	1.000316
992.174136	1.001585
992.470019	1.000673
992.765865	1.002077
993.061676	1.001634
993.357450	1.000446
993.653188	1.001866
993.948890	1.000690
994.244556	1.000122
994.540186	1.000049
994.835780	0.999544
995.131337	1.001068
995.426859	1.000205
995.722345	1.000805
996.017795	0.999862
996.313208	1.000517
996.608586	1.001346
996.903928	1.000178
997.199234	0.999617
997.494504	1.002146
997.789738	0.999752
998.084936	1.001992
998.380099	1.000115
998.675225	1.000668
998.970316	1.001357
999.265371	1.000395
999.560390	1.001014
999.855373	1.000356
1000.150320	1.000917
1000.445232	1.001309
1000.740108	1.000118
1001.034948	1.000588
1001.329752	1.000404
1001.624521	1.001375
1001.919254	0.999052
1002.213951	1.001257
1002.508613	1.000066
1002.803239	1.000262
1003.097829	1.000686
1003.392384	0.999827
1003.686903	0.999822
1003.981386	0.999826
1004.275834	1.002338
1004.570246	0.999845
1004.864623	1.000676
1005.158964	1.000027
1005.453270	1.000595
1005.747540	1.000819
1006.041775	1.000628
1006.335974	1.001372
1006.630138	1.001218
1006.924266	0.999550
1007.218359	0.999544
1007.512416	1.001413
1007.806438	1.000123
1008.100425	0.999868
1008.394376	1.001056
1008.688292	0.999930
1008.982172	0.999572
1009.276017	1.000695
1009.569827	1.001041
1009.863602	0.999793
1010.157341	1.000827
1010.451045	1.000219
1010.744714	1.001826
1011.038347	1.000920
1011.331945	0.999444
1011.625508	1.000631
1011.919036	1.000470
1012.212528	1.000842
1012.505986	1.000162
1012.799408	1.001136
1013.092795	1.000798
1013.386147	1.000916
1013.679464	1.000669
1013.972745	1.001135
1014.265992	1.000542
1014.559204	1.001025
1014.852380	1.001051
1015.145521	1.000054
1015.438628	1.000597
1015.731699	1.000976
1016.024736	1.000287
1016.317737	1.001050
1016.610703	1.000106
1016.903635	1.000086
1017.196531	0.999600
1017.489393	1.000428
1017.782219	0.999460
1018.075011	1.001288
1018.367768	1.000334
1018.660490	1.001367
1018.953177	1.001367
1019.245829	1.001367
