Dividing Wavelength (nm)	Counts (n)	Blue Motor Position (mm): 46.600000	Red Motor Position (mm): 0.000000	
326.493990	0.999852
326.888308	0.999852
327.282561	0.999852
327.676750	1.000213
328.070874	1.000218
328.464933	1.001364
328.858929	1.000452
329.252859	1.000723
329.646726	0.999668
330.040528	0.999623
330.434265	0.999577
330.827938	0.999512
331.221547	1.000235
331.615091	1.000273
332.008571	1.001491
332.401986	0.999499
332.795338	1.000280
333.188625	1.000966
333.581847	1.000119
333.975006	1.000643
334.368100	0.999879
334.761129	0.998480
335.154095	0.999802
335.546996	1.000781
335.939833	0.999098
336.332606	1.000364
336.725315	0.999534
337.117960	1.000645
337.510540	0.999523
337.903056	1.000087
338.295508	1.000040
338.687896	0.999886
339.080220	0.999713
339.472480	1.000484
339.864676	1.001331
340.256807	0.998507
340.648875	1.000069
341.040879	0.999177
341.432818	1.000137
341.824694	0.998149
342.216506	1.000148
342.608253	0.999599
342.999937	0.998717
343.391557	1.000397
343.783113	1.000601
344.174605	1.000504
344.566033	0.999752
344.957397	1.001102
345.348697	1.000855
345.739934	0.998742
346.131106	0.998354
346.522215	0.999256
346.913260	0.999887
347.304241	0.999446
347.695159	0.998831
348.086012	1.000532
348.476802	1.000373
348.867528	1.000444
349.258191	0.999960
349.648789	1.000862
350.039324	0.999275
350.429796	0.999989
350.820203	0.999550
351.210548	1.000016
351.600828	0.999958
351.991045	0.999016
352.381198	0.999735
352.771288	0.999755
353.161314	0.999799
353.551276	0.999745
353.941175	0.998209
354.331010	0.998959
354.720782	0.999951
355.110490	0.999392
355.500135	1.000677
355.889717	0.998872
356.279235	0.999445
356.668689	1.000130
357.058080	0.998899
357.447408	0.999063
357.836672	0.999128
358.225873	0.998737
358.615010	0.998724
359.004084	0.998355
359.393095	0.999815
359.782043	0.998005
360.170927	0.999866
360.559748	1.000317
360.948505	0.999001
361.337199	0.998668
361.725830	0.999824
362.114398	0.999863
362.502903	0.999019
362.891344	0.999356
363.279722	0.999295
363.668037	1.000270
364.056289	0.999743
364.444478	1.001111
364.832603	1.000078
365.220665	0.999492
365.608665	0.999155
365.996601	0.999912
366.384474	0.998667
366.772284	0.999072
367.160031	0.997052
367.547715	0.998420
367.935336	0.997536
368.322893	0.996960
368.710388	0.995395
369.097820	0.993859
369.485189	0.991644
369.872495	0.990369
370.259738	0.988873
370.646918	0.985342
371.034035	0.984064
371.421090	0.981494
371.808081	0.976478
372.195010	0.975614
372.581875	0.970643
372.968678	0.968648
373.355418	0.965436
373.742096	0.960603
374.128710	0.958315
374.515262	0.957321
374.901751	0.953912
375.288177	0.952088
375.674540	0.949490
376.060841	0.947488
376.447079	0.945443
376.833254	0.943942
377.219367	0.943248
377.605417	0.938352
377.991404	0.939521
378.377329	0.939183
378.763191	0.937791
379.148991	0.935636
379.534727	0.934619
379.920402	0.933821
380.306013	0.936524
380.691563	0.934939
381.077049	0.934877
381.462474	0.936336
381.847835	0.936478
382.233134	0.938076
382.618371	0.942797
383.003545	0.940142
383.388657	0.943634
383.773706	0.945749
384.158693	0.948458
384.543618	0.951703
384.928480	0.953529
385.313280	0.955109
385.698017	0.957591
386.082692	0.959087
386.467305	0.962894
386.851856	0.966858
387.236344	0.969013
387.620770	0.971551
388.005133	0.973805
388.389435	0.974855
388.773674	0.976623
389.157851	0.979592
389.541965	0.982577
389.926018	0.984275
390.310008	0.985404
390.693936	0.988447
391.077802	0.989548
391.461606	0.989172
391.845348	0.991809
392.229027	0.991072
392.612645	0.994453
392.996200	0.995144
393.379694	0.995007
393.763125	0.995933
394.146494	0.995621
394.529801	0.997470
394.913047	0.995881
395.296230	0.997686
395.679351	0.997881
396.062410	0.998408
396.445408	0.998624
396.828343	0.999242
397.211217	0.998825
397.594028	0.998021
397.976778	0.999155
398.359466	0.999309
398.742092	1.000378
399.124656	0.998611
399.507158	0.998976
399.889598	1.001051
400.271977	0.999035
400.654294	0.999427
401.036549	0.999549
401.418742	0.999383
401.800874	0.999552
402.182944	1.000204
402.564952	0.999239
402.946898	0.999512
403.328783	0.999819
403.710606	0.999044
404.092367	0.999971
404.474067	1.000875
404.855705	1.000269
405.237282	0.999388
405.618797	0.999222
406.000250	0.999804
406.381642	1.000334
406.762972	1.000017
407.144240	0.999912
407.525447	0.999167
407.906593	0.999665
408.287677	0.999565
408.668700	0.999686
409.049661	1.000429
409.430560	0.999452
409.811399	0.999197
410.192176	0.999810
410.572891	1.000700
410.953545	0.999108
411.334138	0.999565
411.714669	0.999185
412.095139	0.999872
412.475547	0.999823
412.855894	0.999454
413.236180	0.999981
413.616405	0.999840
413.996568	0.999830
414.376670	0.999424
414.756711	0.999465
415.136691	1.000252
415.516609	0.998600
415.896466	0.999477
416.276262	0.999301
416.655997	0.999789
417.035670	1.000166
417.415283	0.999797
417.794834	1.000215
418.174324	1.000578
418.553753	0.999967
418.933121	0.999853
419.312428	1.000016
419.691674	1.000783
420.070859	0.999961
420.449983	1.000244
420.829045	0.998532
421.208047	1.000889
421.586988	0.999925
421.965867	0.998872
422.344686	1.000376
422.723444	0.999158
423.102141	1.000256
423.480777	0.998993
423.859352	0.999815
424.237866	1.000315
424.616319	0.999883
424.994712	1.000115
425.373044	0.999860
425.751314	0.999947
426.129524	1.000474
426.507673	0.998632
426.885762	0.999510
427.263789	1.000590
427.641756	0.999904
428.019662	0.999782
428.397508	0.999935
428.775292	1.000098
429.153016	0.999703
429.530679	1.000230
429.908282	1.000973
430.285824	0.999784
430.663305	0.999799
431.040726	1.000045
431.418086	1.000220
431.795385	1.000010
432.172624	1.000600
432.549802	1.000662
432.926920	0.999651
433.303977	1.000302
433.680974	1.000290
434.057910	0.999715
434.434786	0.999616
434.811601	1.000189
435.188355	1.001439
435.565050	1.000466
435.941683	0.999910
436.318257	0.998717
436.694770	1.000268
437.071222	1.000598
437.447614	1.000231
437.823946	1.000445
438.200218	0.999436
438.576429	0.999762
438.952580	1.000571
439.328670	0.998935
439.704700	0.999160
440.080670	0.999972
440.456580	0.999565
440.832429	1.000297
441.208218	1.000678
441.583947	0.999182
441.959616	0.999438
442.335224	0.999856
442.710773	1.001020
443.086261	1.000585
443.461689	0.999916
443.837057	0.999747
444.212365	1.000662
444.587612	1.000951
444.962800	1.000422
445.337927	1.000427
445.712995	1.000145
446.088002	0.999473
446.462949	0.999355
446.837837	1.001155
447.212664	1.000109
447.587431	1.000814
447.962139	1.000709
448.336786	0.999930
448.711374	0.999717
449.085901	1.001173
449.460369	1.000269
449.834776	1.000122
450.209124	0.999896
450.583412	1.000140
450.957640	0.999697
451.331808	1.000611
451.705917	0.999620
452.079965	0.999297
452.453954	1.000047
452.827883	1.000328
453.201752	1.000802
453.575562	0.999705
453.949311	0.999671
454.323001	0.999614
454.696632	1.000057
455.070202	0.999912
455.443713	0.999933
455.817164	0.999868
456.190556	0.999948
456.563888	1.000430
456.937160	1.000443
457.310373	1.000386
457.683526	0.999694
458.056619	0.999757
458.429653	0.999491
458.802628	0.999581
459.175542	1.000042
459.548398	0.999748
459.921194	1.000282
460.293930	1.000782
460.666607	1.000645
461.039224	1.000638
461.411782	0.999845
461.784280	1.000184
462.156719	1.000966
462.529099	1.000145
462.901419	1.000232
463.273680	0.999077
463.645882	0.999951
464.018024	1.000468
464.390106	0.999673
464.762130	1.000375
465.134094	1.000395
465.505999	1.000332
465.877845	1.000435
466.249631	1.000051
466.621358	1.000063
466.993026	1.000255
467.364634	1.000160
467.736184	0.999814
468.107674	0.999889
468.479105	1.000768
468.850477	1.001287
469.221790	1.000357
469.593043	1.000114
469.964238	0.999691
470.335373	1.000181
470.706449	1.000343
471.077467	0.999938
471.448425	1.000747
471.819324	1.000212
472.190164	0.999993
472.560945	0.999989
472.931667	1.000193
473.302330	1.000196
473.672934	1.000307
474.043479	0.999705
474.413965	1.000560
474.784393	1.000239
475.154761	0.999492
475.525070	1.000301
475.895321	1.000886
476.265513	1.000127
476.635645	1.000452
477.005719	1.000509
477.375734	1.000120
477.745691	1.000005
478.115588	0.999955
478.485427	0.999931
478.855207	1.000119
479.224928	0.999916
479.594591	1.000351
479.964194	0.999982
480.333739	1.000072
480.703226	0.999730
481.072653	0.999990
481.442022	1.000702
481.811333	1.000221
482.180584	0.999638
482.549777	1.000501
482.918912	1.000161
483.287988	1.000148
483.657005	0.999607
484.025964	1.000343
484.394864	0.999834
484.763706	0.999284
485.132489	1.000511
485.501213	1.000607
485.869879	0.999947
486.238487	0.999704
486.607036	1.000752
486.975527	1.000276
487.343959	1.000078
487.712333	1.000437
488.080648	1.000207
488.448905	1.000372
488.817104	0.999407
489.185244	1.000147
489.553326	1.000402
489.921350	1.000244
490.289315	0.999911
490.657222	0.999875
491.025070	1.000122
491.392861	1.000294
491.760593	1.000308
492.128267	0.999743
492.495883	0.998971
492.863440	1.000515
493.230939	1.000143
493.598380	1.000028
493.965763	1.000115
494.333088	0.999786
494.700354	0.998887
495.067563	1.000303
495.434713	0.999977
495.801805	0.999625
496.168839	1.000728
496.535815	0.999922
496.902733	0.999885
497.269593	0.999805
497.636395	0.999114
498.003139	0.999290
498.369825	1.000514
498.736453	0.999202
499.103023	1.000347
499.469535	0.999953
499.835989	1.000041
500.202385	0.999486
500.568723	0.999829
500.935003	1.000228
501.301226	1.000026
501.667390	0.999838
502.033497	1.000144
502.399546	0.999236
502.765537	1.000127
503.131470	0.999768
503.497345	0.999866
503.863163	1.000034
504.228923	0.999951
504.594625	0.999302
504.960269	1.000608
505.325856	1.000945
505.691385	1.000075
506.056856	1.000364
506.422270	1.000143
506.787625	0.999666
507.152924	1.000180
507.518164	1.000048
507.883347	0.999717
508.248472	1.000031
508.613540	1.000225
508.978550	1.000328
509.343503	0.999599
509.708398	1.000227
510.073236	1.000434
510.438016	0.999699
510.802738	0.999568
511.167403	1.000047
511.532010	1.000128
511.896561	0.999733
512.261053	0.999789
512.625488	1.000150
512.989866	1.000087
513.354186	0.999460
513.718449	0.999878
514.082655	0.999473
514.446803	1.000189
514.810894	1.000360
515.174927	1.000415
515.538904	1.000536
515.902822	1.000084
516.266684	0.999557
516.630488	0.999899
516.994235	1.000192
517.357925	1.000313
517.721558	0.999970
518.085133	0.999623
518.448651	1.000409
518.812112	0.999977
519.175516	0.999768
519.538863	1.000078
519.902152	1.000265
520.265385	0.999963
520.628560	0.999761
520.991678	1.000124
521.354739	1.000053
521.717743	1.000056
522.080690	0.999266
522.443580	1.000023
522.806413	0.999444
523.169189	1.000045
523.531908	0.999871
523.894569	1.000260
524.257174	1.000235
524.619722	1.000143
524.982213	1.000230
525.344647	0.999933
525.707025	0.999629
526.069345	0.999452
526.431608	1.000385
526.793815	1.000053
527.155964	1.000336
527.518057	1.000550
527.880093	1.000093
528.242072	0.999734
528.603995	0.999692
528.965860	1.000160
529.327669	1.000170
529.689421	0.999767
530.051117	0.999794
530.412755	1.000340
530.774337	0.999884
531.135862	1.000782
531.497331	0.999852
531.858743	1.000711
532.220098	0.999509
532.581396	1.000770
532.942638	1.000544
533.303824	1.000540
533.664953	0.999746
534.026025	1.001062
534.387040	1.000091
534.747999	0.999711
535.108902	0.999994
535.469748	1.000481
535.830537	1.000077
536.191270	1.000559
536.551947	1.000289
536.912567	1.000171
537.273131	1.000158
537.633638	0.999630
537.994089	0.999973
538.354483	1.001161
538.714821	1.000571
539.075103	1.000780
539.435328	1.000341
539.795497	1.000395
540.155609	0.999980
540.515665	1.000224
540.875665	0.999642
541.235609	1.000149
541.595496	0.999308
541.955328	1.000115
542.315102	1.000443
542.674821	0.999647
543.034483	1.000171
543.394090	0.999464
543.753640	1.000290
544.113134	0.999798
544.472571	1.000604
544.831953	0.999901
545.191278	1.000559
545.550548	0.999701
545.909761	0.999330
546.268918	1.000859
546.628019	0.999916
546.987064	1.000189
547.346053	0.999465
547.704986	0.999722
548.063863	0.999184
548.422684	1.000193
548.781449	0.999954
549.140158	1.000000
549.498811	0.999972
549.857408	0.999647
550.215949	0.999139
550.574434	0.999854
550.932864	0.999886
551.291237	0.999946
551.649555	1.000736
552.007817	1.000331
552.366022	1.000473
552.724173	1.000959
553.082267	0.999678
553.440305	0.999730
553.798288	0.999631
554.156215	1.000203
554.514086	0.999761
554.871902	0.999493
555.229661	0.999566
555.587365	1.000198
555.945014	0.999761
556.302606	1.000237
556.660143	1.000179
557.017625	1.000121
557.375050	0.998845
557.732421	0.999728
558.089735	0.999891
558.446994	0.999658
558.804197	0.999863
559.161345	0.999921
559.518437	0.999662
559.875474	1.000329
560.232455	1.000166
560.589381	0.999860
560.946251	0.999891
561.303065	0.999814
561.659825	1.000116
562.016528	1.000509
562.373177	0.999872
562.729770	0.999788
563.086307	0.999280
563.442789	1.000313
563.799216	0.999781
564.155587	0.999678
564.511904	1.000765
564.868164	1.000059
565.224370	0.999478
565.580520	1.000501
565.936615	0.999772
566.292654	1.000223
566.648638	1.000655
567.004567	1.000002
567.360441	1.000237
567.716260	0.999722
568.072023	0.999282
568.427732	1.000527
568.783385	1.000039
569.138982	1.000238
569.494525	0.999962
569.850013	1.000094
570.205445	1.000057
570.560823	1.000372
570.916145	0.999693
571.271412	0.999939
571.626625	1.000158
571.981782	1.000044
572.336884	1.000154
572.691931	1.000180
573.046923	1.000129
573.401860	1.000128
573.756743	1.001095
574.111570	0.999847
574.466342	1.000550
574.821059	0.999848
575.175722	0.999791
575.530330	0.999699
575.884882	1.000049
576.239380	0.999836
576.593823	0.999806
576.948211	0.999867
577.302544	1.000071
577.656823	1.000108
578.011047	0.999836
578.365216	1.000982
578.719330	1.000546
579.073389	0.999579
579.427394	0.999806
579.781344	1.000600
580.135239	0.999935
580.489080	1.000113
580.842866	0.999791
581.196597	1.000062
581.550273	0.999139
581.903895	1.000294
582.257463	0.999660
582.610975	1.000032
582.964434	1.000031
583.317837	1.000918
583.671186	1.000371
584.024481	1.000262
584.377721	0.999082
584.730906	1.000163
585.084037	1.001168
585.437113	1.001062
585.790135	0.999932
586.143103	0.999815
586.496016	1.000200
586.848874	0.999910
587.201679	1.000591
587.554428	0.999564
587.907124	1.000524
588.259765	1.000442
588.612352	1.000644
588.964884	1.000381
589.317362	0.999907
589.669786	0.999930
590.022155	0.999954
590.374470	1.000087
590.726731	0.999528
591.078937	1.000074
591.431090	1.000382
591.783188	0.999886
592.135232	1.000125
592.487222	1.000358
592.839157	0.999576
593.191038	0.999938
593.542866	0.999884
593.894639	0.999688
594.246358	0.999994
594.598022	0.999989
594.949633	1.000493
595.301190	0.999501
595.652692	0.999242
596.004141	0.999495
596.355535	1.000182
596.706876	0.999979
597.058162	1.000345
597.409395	0.999754
597.760573	0.999684
598.111698	0.999789
598.462768	0.999234
598.813785	0.999938
599.164748	1.000013
599.515657	0.999789
599.866511	1.000369
600.217312	1.000372
600.568060	1.000084
600.918753	0.999898
601.269392	1.000141
601.619978	1.000187
601.970510	0.999759
602.320988	0.999920
602.671412	0.999759
603.021783	1.000016
603.372100	1.000048
603.722363	1.000485
604.072572	0.999334
604.422728	0.999565
604.772830	0.999165
605.122878	0.999902
605.472872	1.000514
605.822813	0.998938
606.172701	1.000224
606.522534	1.000155
606.872314	1.000862
607.222041	1.000036
607.571714	0.999975
607.921333	0.999603
608.270899	0.999016
608.620411	0.999451
608.969870	1.000297
609.319276	0.999614
609.668627	1.000319
610.017926	0.999693
610.367171	1.000168
610.716362	1.000312
611.065500	0.999184
611.414585	1.000221
611.763616	0.999673
612.112594	1.000332
612.461518	0.999205
612.810389	0.999594
613.159207	0.999750
613.507971	0.999838
613.856682	1.000876
614.205340	0.998669
614.553945	0.999742
614.902496	0.999781
615.250994	0.999803
615.599439	1.000275
615.947830	0.999544
616.296169	1.000306
616.644454	0.999828
616.992686	0.999931
617.340864	0.999929
617.688990	0.999418
618.037063	1.000239
618.385082	0.999181
618.733048	0.999339
619.080961	0.999693
619.428821	1.000416
619.776628	0.998842
620.124382	1.000235
620.472083	0.999683
620.819731	1.000856
621.167326	0.999696
621.514868	1.000387
621.862357	1.000104
622.209793	0.999889
622.557176	0.999607
622.904506	0.999270
623.251783	0.999529
623.599007	1.000046
623.946179	0.999577
624.293297	0.999643
624.640363	0.999432
624.987376	0.999262
625.334336	0.999103
625.681243	0.999667
626.028097	1.000062
626.374899	0.999388
626.721647	1.000111
627.068343	0.998959
627.414987	0.999930
627.761577	0.999170
628.108115	0.999617
628.454600	1.000125
628.801032	1.000364
629.147412	0.999675
629.493739	1.000551
629.840014	0.999876
630.186236	0.999310
630.532405	0.999531
630.878521	0.999446
631.224585	0.999037
631.570597	0.999601
631.916556	0.999161
632.262462	0.999212
632.608316	1.000436
632.954117	0.999132
633.299866	0.999573
633.645562	0.999773
633.991206	0.999813
634.336797	0.999740
634.682336	1.000404
635.027823	0.999130
635.373257	0.999805
635.718639	1.000564
636.063968	0.999366
636.409245	0.998913
636.754470	1.000951
637.099642	0.999769
637.444762	1.000400
637.789829	0.999481
638.134845	0.999490
638.479808	1.000003
638.824719	0.999625
639.169577	0.999565
639.514383	0.999920
639.859137	0.999992
640.203839	0.999250
640.548489	0.999153
640.893086	0.999212
641.237632	0.999891
641.582125	0.999508
641.926566	1.000880
642.270955	0.999569
642.615292	0.998938
642.959576	0.999798
643.303809	0.998893
643.647990	0.999337
643.992118	1.000022
644.336195	0.998719
644.680219	0.998723
645.024192	0.999341
645.368112	0.998715
645.711981	0.999200
646.055797	0.999698
646.399562	0.998806
646.743274	0.999503
647.086935	0.998717
647.430544	0.999617
647.774101	0.999226
648.117606	0.999814
648.461059	1.000725
648.804460	0.999432
649.147810	0.999008
649.491108	0.998912
649.834354	0.999653
650.177548	0.999721
650.520690	1.000013
650.863781	0.998709
651.206820	0.999581
651.549807	0.999199
651.892742	0.999827
652.235626	0.999704
652.578458	0.999700
652.921238	0.999443
653.263967	0.999309
653.606644	0.999121
653.949269	0.999308
654.291843	0.999257
654.634365	1.000283
654.976836	0.998616
655.319255	0.999933
655.661622	0.999243
656.003938	0.998833
656.346203	0.998825
656.688416	1.000695
657.030577	0.999458
657.372687	0.999398
657.714746	0.998409
658.056753	0.997915
658.398708	0.998508
658.740612	0.999818
659.082465	0.998779
659.424266	1.000147
659.766016	0.998681
660.107715	0.999801
660.449362	0.999586
660.790958	0.998233
661.132503	1.000046
661.473996	0.998836
661.815438	0.999180
662.156829	0.999126
662.498168	0.999786
662.839456	0.999084
663.180693	0.999600
663.521879	0.999398
663.863013	0.999441
664.204097	0.998286
664.545129	0.999023
664.886110	0.999481
665.227040	0.999023
665.567918	0.998856
665.908746	0.998299
666.249522	0.998546
666.590248	0.998789
666.930922	0.998651
667.271545	0.999156
667.612118	0.998595
667.952639	0.999852
668.293109	0.999089
668.633528	0.998930
668.973896	0.999660
669.314213	0.998590
669.654480	0.999141
669.994695	0.998637
670.334859	0.999045
670.674973	0.999181
671.015035	0.998987
671.355047	0.998631
671.695008	0.999031
672.034918	0.998514
672.374777	0.998864
672.714585	0.998898
673.054342	0.999381
673.394049	0.998807
673.733705	0.998582
674.073310	0.999575
674.412864	0.998942
674.752368	0.997818
675.091820	0.999609
675.431223	0.999186
675.770574	0.999287
676.109875	0.999457
676.449125	0.998156
676.788324	0.999225
677.127473	0.999605
677.466571	0.999319
677.805619	0.998856
678.144616	0.999155
678.483562	0.999060
678.822458	0.998949
679.161303	0.998001
679.500098	0.999610
679.838842	0.998885
680.177535	0.999215
680.516179	0.998734
680.854771	0.998500
681.193314	0.998707
681.531805	0.999471
681.870247	0.998163
682.208638	0.999514
682.546978	0.998765
682.885268	0.998933
683.223508	0.998293
683.561697	0.999636
683.899836	0.999498
684.237925	0.997732
684.575963	0.998732
684.913951	0.998965
685.251889	0.998764
685.589776	0.998253
685.927614	0.999083
686.265401	0.997772
686.603137	0.998702
686.940824	0.999195
687.278460	0.999768
687.616046	0.998036
687.953582	0.998834
688.291068	0.999960
688.628504	0.999400
688.965889	0.998309
689.303224	0.998009
689.640510	0.998946
689.977745	0.997585
690.314930	0.998228
690.652065	0.998755
690.989150	0.998043
691.326185	0.999582
691.663170	0.998968
692.000105	0.998971
692.336990	0.998766
692.673825	0.998899
693.010610	0.999226
693.347345	0.998008
693.684030	0.998640
694.020665	0.998879
694.357251	0.998589
694.693786	0.998939
695.030272	0.996794
695.366707	0.997922
695.703093	0.997958
696.039429	0.998071
696.375716	0.998855
696.711952	0.998175
697.048139	0.999419
697.384276	0.998651
697.720363	0.998072
698.056400	0.997604
698.392388	0.997386
698.728326	0.998444
699.064214	0.999969
699.400053	0.998737
699.735842	0.999032
700.071581	0.998910
700.407270	0.999035
700.742910	0.998988
701.078501	0.997444
701.414042	0.999123
701.749533	0.997854
702.084974	0.998222
702.420366	0.998113
702.755709	0.997937
703.091002	0.998349
703.426246	0.998668
703.761440	0.998024
704.096584	0.998309
704.431679	0.997569
704.766725	0.997762
705.101721	0.999195
705.436668	0.998786
705.771565	0.998573
706.106413	0.998309
706.441212	0.998506
706.775961	0.999289
707.110661	0.997635
707.445311	0.997954
707.779913	0.998431
708.114465	0.999044
708.448967	0.999030
708.783421	0.999119
709.117825	0.998779
709.452180	0.999939
709.786485	0.997623
710.120742	0.998359
710.454949	0.998397
710.789107	0.998600
711.123216	0.996956
711.457275	0.997955
711.791286	0.999549
712.125247	0.999695
712.459159	0.999046
712.793023	0.997543
713.126837	0.998475
713.460602	0.997757
713.794318	0.997517
714.127985	0.997112
714.461602	0.998421
714.795171	0.997858
715.128691	0.997557
715.462162	0.999219
715.795584	0.997706
716.128957	0.998385
716.462281	0.997616
716.795556	0.998373
717.128782	0.998464
717.461960	0.998429
717.795088	0.997956
718.128167	0.999245
718.461198	0.999033
718.794180	0.999646
719.127113	0.998676
719.459997	0.998938
719.792833	0.997854
720.125619	0.998574
720.458357	0.999580
720.791046	0.998825
721.123686	0.998876
721.456278	0.997625
721.788821	0.998311
722.121315	0.998333
722.453761	0.999128
722.786158	0.998508
723.118506	0.998745
723.450805	0.997891
723.783056	0.998825
724.115259	0.998076
724.447412	0.998568
724.779518	0.998138
725.111574	0.997447
725.443582	0.998279
725.775542	0.998576
726.107453	0.998000
726.439315	0.998739
726.771129	0.998074
727.102895	0.997832
727.434612	0.998069
727.766281	0.998415
728.097901	0.997910
728.429473	0.998331
728.760996	0.998128
729.092471	0.998722
729.423897	0.998832
729.755276	0.997907
730.086606	0.997875
730.417887	0.998877
730.749120	0.999927
731.080305	0.998152
731.411442	0.998416
731.742530	0.997924
732.073570	0.998302
732.404562	0.998270
732.735506	0.998427
733.066401	0.998124
733.397249	0.998268
733.728048	0.998208
734.058798	0.997420
734.389501	0.998571
734.720156	0.999148
735.050762	0.997817
735.381320	0.998357
735.711831	0.997953
736.042293	0.998049
736.372707	0.999079
736.703073	0.997631
737.033391	0.997774
737.363661	0.998347
737.693883	0.998912
738.024056	0.998393
738.354182	0.998321
738.684260	0.998700
739.014290	0.998365
739.344272	0.998473
739.674207	0.998405
740.004093	0.998532
740.333931	0.998369
740.663722	0.998093
740.993464	0.998065
741.323159	0.998047
741.652806	0.999062
741.982405	0.997979
742.311956	0.997781
742.641460	0.997957
742.970915	0.997034
743.300323	0.996805
743.629683	0.997330
743.958996	0.999503
744.288260	0.997468
744.617477	0.998261
744.946647	0.998529
745.275768	0.999135
745.604842	0.997295
745.933869	0.997893
746.262847	0.998470
746.591778	0.997959
746.920662	0.999532
747.249498	0.999247
747.578286	0.998778
747.907027	0.998786
748.235720	0.999127
748.564365	0.998592
748.892963	0.997649
749.221514	0.998367
749.550017	0.997683
749.878473	0.998825
750.206881	0.998742
750.535242	0.998349
750.863555	0.997818
751.191821	0.998312
751.520039	0.998520
751.848210	0.997760
752.176334	0.998238
752.504411	0.998669
752.832440	0.998242
753.160421	0.997648
753.488356	0.998814
753.816243	0.997535
754.144082	0.998124
754.471875	0.998360
754.799620	0.999156
755.127318	0.997982
755.454969	0.997927
755.782572	0.999091
756.110129	0.998469
756.437638	1.000625
756.765100	0.998910
757.092515	0.998041
757.419882	0.998490
757.747203	0.998332
758.074477	0.999034
758.401703	0.998719
758.728882	0.998408
759.056014	0.997868
759.383099	0.998565
759.710138	0.998051
760.037129	0.998311
760.364073	0.998542
760.690970	0.998516
761.017820	0.997391
761.344623	0.998396
761.671379	0.999533
761.998088	0.999299
762.324751	0.998763
762.651366	0.997516
762.977935	0.997940
763.304456	0.998619
763.630931	0.997068
763.957359	0.996025
764.283740	0.996799
764.610074	0.996665
764.936362	0.996867
765.262602	0.998682
765.588796	0.998119
765.914943	0.998003
766.241044	0.998219
766.567097	0.997665
766.893104	0.998661
767.219064	0.997462
767.544978	0.998513
767.870845	0.999123
768.196665	0.997759
768.522438	0.998877
768.848165	0.998586
769.173846	0.998844
769.499479	0.998916
769.825066	0.998942
770.150607	0.999528
770.476101	0.997534
770.801548	0.998999
771.126949	0.999135
771.452303	0.999280
771.777611	0.999016
772.102872	0.998874
772.428087	0.998360
772.753256	0.999166
773.078378	0.999112
773.403453	0.997961
773.728482	0.999689
774.053465	0.998808
774.378401	0.998063
774.703291	0.999171
775.028135	1.000074
775.352932	0.997705
775.677683	0.999659
776.002388	0.998642
776.327046	0.998587
776.651658	1.000067
776.976224	0.999608
777.300743	0.998019
777.625216	0.998987
777.949643	0.998286
778.274024	0.997608
778.598359	0.999243
778.922647	0.998125
779.246889	0.999111
779.571086	0.998962
779.895236	0.998561
780.219339	0.999183
780.543397	0.998835
780.867409	0.998789
781.191374	0.998074
781.515294	0.999432
781.839167	1.000217
782.162995	0.998705
782.486776	0.998620
782.810511	0.998530
783.134201	1.000371
783.457844	0.999351
783.781441	0.998112
784.104993	0.999054
784.428498	0.998949
784.751958	0.999812
785.075372	0.999668
785.398739	0.998175
785.722061	0.998492
786.045337	0.999514
786.368568	0.997987
786.691752	0.999428
787.014891	0.998708
787.337983	0.999095
787.661030	0.999073
787.984031	0.999269
788.306987	0.999509
788.629897	0.997519
788.952760	0.999029
789.275579	0.998925
789.598351	0.998793
789.921078	0.999726
790.243759	0.998809
790.566395	0.998592
790.888984	0.999031
791.211529	0.999451
791.534027	0.998871
791.856480	0.998403
792.178888	0.998409
792.501249	0.998824
792.823566	0.999964
793.145836	0.997834
793.468062	0.998833
793.790241	0.999454
794.112375	0.998030
794.434464	0.999461
794.756507	0.999350
795.078505	0.999290
795.400457	0.999512
795.722364	0.999188
796.044226	0.999239
796.366042	0.999232
796.687812	0.997987
797.009538	0.998169
797.331218	0.999544
797.652852	0.999737
797.974442	0.999163
798.295986	0.998815
798.617484	0.998670
798.938938	0.999289
799.260346	0.997242
799.581709	0.998384
799.903026	0.999758
800.224299	0.998564
800.545526	0.999111
800.866708	0.998447
801.187845	0.999235
801.508936	0.999358
801.829983	0.999156
802.150984	0.999479
802.471940	0.999255
802.792851	0.997523
803.113717	1.000430
803.434538	0.999535
803.755314	0.999467
804.076045	0.998606
804.396731	0.999513
804.717372	0.997919
805.037967	0.999188
805.358518	0.998983
805.679024	0.998608
805.999485	0.999030
806.319901	0.999314
806.640272	0.999765
806.960598	0.999032
807.280879	0.998926
807.601115	1.000477
807.921306	1.000359
808.241453	0.997943
808.561554	0.998818
808.881611	0.999690
809.201623	0.998307
809.521590	0.999645
809.841513	1.000015
810.161390	0.997785
810.481223	0.998101
810.801011	0.999092
811.120755	1.000787
811.440453	0.998437
811.760107	0.998847
812.079716	1.000035
812.399281	0.999508
812.718801	0.999219
813.038276	0.998407
813.357707	0.998810
813.677093	0.999368
813.996434	0.999032
814.315731	0.999838
814.634983	0.999534
814.954191	0.999150
815.273354	0.998101
815.592473	0.997910
815.911547	0.999123
816.230577	0.999077
816.549562	0.999216
816.868502	0.998091
817.187399	0.999599
817.506250	1.000007
817.825058	0.998579
818.143821	0.999508
818.462539	0.999100
818.781213	0.999453
819.099843	0.998538
819.418429	0.997774
819.736970	0.999210
820.055466	0.997696
820.373919	0.998340
820.692327	0.997202
821.010691	0.997784
821.329011	0.995930
821.647286	0.995517
821.965517	0.996046
822.283704	0.995502
822.601847	0.994513
822.919945	0.993895
823.237999	0.994643
823.556010	0.995738
823.873976	0.995418
824.191897	0.996176
824.509775	0.996469
824.827609	0.996920
825.145398	0.997869
825.463144	0.996548
825.780845	0.995578
826.098502	0.996493
826.416116	0.996559
826.733685	0.996934
827.051210	0.996077
827.368692	0.997023
827.686129	0.996168
828.003522	0.997479
828.320872	0.996658
828.638177	0.997378
828.955439	0.998410
829.272656	0.998464
829.589830	0.997972
829.906960	0.999260
830.224046	0.998469
830.541088	0.998918
830.858086	0.998713
831.175041	0.999528
831.491952	0.998214
831.808819	0.998514
832.125642	0.998249
832.442421	0.999196
832.759157	0.999971
833.075849	0.997908
833.392497	0.997605
833.709101	0.997320
834.025662	0.997865
834.342179	0.997861
834.658653	0.997885
834.975083	0.998345
835.291469	0.999389
835.607811	0.998409
835.924110	0.997551
836.240366	0.999390
836.556578	0.999405
836.872746	0.999416
837.188871	0.998707
837.504952	0.997873
837.820990	1.000284
838.136984	0.998728
838.452935	0.999549
838.768842	0.999384
839.084706	0.999163
839.400526	0.999317
839.716303	0.997931
840.032037	0.999212
840.347727	0.998843
840.663373	0.998864
840.978977	0.998956
841.294537	0.999718
841.610054	0.999573
841.925527	0.999537
842.240957	0.998971
842.556344	0.999538
842.871687	0.998655
843.186987	0.999896
843.502244	1.000215
843.817458	0.998382
844.132629	1.000039
844.447756	0.999432
844.762840	0.999612
845.077881	1.000189
845.392879	0.998401
845.707833	0.998970
846.022745	1.000277
846.337613	0.999700
846.652438	0.998013
846.967221	0.999356
847.281960	0.999816
847.596656	0.999670
847.911309	0.999242
848.225919	0.998816
848.540485	0.999245
848.855009	1.001599
849.169490	0.999406
849.483928	0.999090
849.798323	0.997665
850.112675	1.000466
850.426984	1.000703
850.741251	0.999654
851.055474	0.999337
851.369654	0.999384
851.683792	0.999000
851.997887	1.000176
852.311938	0.999185
852.625947	0.999023
852.939914	0.997939
853.253837	0.999923
853.567718	1.000269
853.881555	1.000618
854.195350	0.999760
854.509103	0.999507
854.822812	1.000198
855.136479	0.999793
855.450103	0.999407
855.763685	0.999295
856.077224	0.999126
856.390720	0.999225
856.704173	0.999738
857.017584	0.999901
857.330953	0.999217
857.644278	0.999399
857.957561	0.999342
858.270802	1.000805
858.584000	0.999592
858.897155	0.999029
859.210268	0.999809
859.523339	1.000421
859.836367	0.999532
860.149352	0.998999
860.462295	0.999168
860.775195	0.998805
861.088054	0.998066
861.400869	0.998703
861.713642	0.999153
862.026373	0.999340
862.339062	0.999694
862.651708	0.999394
862.964312	0.999511
863.276873	0.999695
863.589392	0.999528
863.901869	0.998894
864.214303	1.000300
864.526696	0.999457
864.839045	1.000039
865.151353	0.999723
865.463619	0.999179
865.775842	1.000050
866.088023	0.999560
866.400162	1.000032
866.712258	1.000978
867.024313	0.999658
867.336325	1.000555
867.648296	1.000153
867.960224	1.000269
868.272110	1.000276
868.583954	0.999709
868.895755	0.999645
869.207515	0.998873
869.519233	1.000471
869.830909	0.999371
870.142542	0.998597
870.454134	0.999249
870.765684	0.999369
871.077191	1.000192
871.388657	0.998913
871.700081	1.000841
872.011463	0.999928
872.322803	0.998834
872.634101	0.998740
872.945357	0.999212
873.256571	0.998806
873.567744	1.000503
873.878874	0.999338
874.189963	0.998711
874.501010	1.001865
874.812015	0.998999
875.122979	1.001162
875.433900	0.998699
875.744780	0.999223
876.055618	0.999193
876.366415	0.999617
876.677169	0.999257
876.987882	1.000009
877.298554	1.000163
877.609183	0.998733
877.919771	0.999517
878.230317	1.000004
878.540822	0.999258
878.851285	0.999177
879.161707	0.999231
879.472087	1.000828
879.782425	0.998897
880.092722	0.998723
880.402977	0.997895
880.713191	0.997140
881.023363	0.996613
881.333494	0.997243
881.643583	0.997931
881.953631	0.997090
882.263637	0.995910
882.573602	0.996678
882.883526	0.997015
883.193408	0.997480
883.503248	0.997555
883.813048	0.997591
884.122806	0.997813
884.432522	0.998073
884.742197	1.000042
885.051831	0.998460
885.361424	0.999467
885.670975	1.000027
885.980485	0.998910
886.289954	0.999208
886.599382	0.998453
886.908768	1.000054
887.218113	0.997985
887.527417	0.999356
887.836680	0.999868
888.145901	0.999385
888.455082	1.001238
888.764221	1.000597
889.073319	0.999413
889.382376	1.001399
889.691392	0.998154
890.000366	0.999973
890.309300	0.999051
890.618193	1.000130
890.927044	0.998841
891.235855	0.999038
891.544625	0.999604
891.853353	0.998702
892.162041	0.999685
892.470687	1.000413
892.779293	0.999088
893.087858	0.998802
893.396381	0.999402
893.704864	0.999230
894.013306	0.999109
894.321707	0.999406
894.630068	0.998783
894.938387	0.997454
895.246665	0.999196
895.554903	0.997442
895.863100	0.999778
896.171256	0.998454
896.479371	0.999312
896.787446	0.998609
897.095480	0.998819
897.403473	0.999243
897.711425	0.999244
898.019336	0.999223
898.327207	0.999772
898.635038	0.997525
898.942827	0.999736
899.250576	0.998745
899.558284	0.999658
899.865952	0.998846
900.173579	0.999741
900.481165	0.999121
900.788711	0.998786
901.096216	0.999588
901.403681	0.999575
901.711105	1.000017
902.018489	0.999373
902.325832	0.999037
902.633135	0.999403
902.940397	1.000258
903.247619	0.999772
903.554800	0.999076
903.861941	0.999424
904.169041	0.999441
904.476101	0.998656
904.783121	0.998795
905.090100	0.999178
905.397039	0.998813
905.703938	0.997846
906.010796	0.997914
906.317614	0.998204
906.624391	0.998372
906.931129	0.999214
907.237826	0.999372
907.544483	0.998572
907.851099	0.998728
908.157675	0.999368
908.464211	1.000820
908.770707	0.998910
909.077163	0.999623
909.383578	0.999093
909.689954	0.999537
909.996289	0.999011
910.302584	0.999317
910.608839	1.000780
910.915054	0.999874
911.221229	0.999988
911.527363	0.999487
911.833458	1.000438
912.139513	0.999710
912.445527	1.001582
912.751502	1.000092
913.057436	0.998852
913.363331	0.999748
913.669186	1.000010
913.975000	1.000151
914.280775	1.000229
914.586510	0.999209
914.892205	0.998738
915.197859	0.999190
915.503475	0.999063
915.809050	0.999177
916.114585	0.998230
916.420081	0.998899
916.725536	0.999506
917.030952	0.999697
917.336328	0.997703
917.641665	0.998448
917.946961	0.998372
918.252218	0.998954
918.557435	0.999186
918.862612	0.999454
919.167750	1.000730
919.472848	0.999679
919.777906	1.000782
920.082925	0.999686
920.387904	0.999993
920.692843	0.999233
920.997743	0.998217
921.302603	1.000275
921.607423	0.999307
921.912204	0.999704
922.216946	1.000602
922.521647	0.999114
922.826310	0.998099
923.130932	0.999878
923.435516	1.000731
923.740059	0.999074
924.044564	1.000090
924.349028	0.999144
924.653454	1.000769
924.957840	0.999687
925.262186	1.000227
925.566493	0.999361
925.870761	0.998811
926.174989	0.999015
926.479178	1.000776
926.783328	0.999470
927.087438	0.999194
927.391509	0.999334
927.695541	1.000672
927.999533	0.999873
928.303486	0.999533
928.607400	0.999872
928.911275	0.999535
929.215110	1.000706
929.518906	1.001148
929.822663	0.999924
930.126381	1.000637
930.430060	0.999491
930.733699	1.000583
931.037299	1.000118
931.340861	0.999762
931.644383	0.999018
931.947866	1.000190
932.251309	1.000752
932.554714	0.999955
932.858080	0.999682
933.161407	0.998929
933.464694	0.999077
933.767943	0.999897
934.071153	1.000619
934.374323	1.000374
934.677455	0.999186
934.980548	1.000756
935.283602	1.000695
935.586617	0.999044
935.889593	0.999378
936.192530	1.000259
936.495428	0.999500
936.798287	0.999610
937.101108	1.000148
937.403890	0.999386
937.706632	1.001374
938.009336	1.000103
938.312002	0.999353
938.614628	0.999525
938.917216	0.999388
939.219765	0.999266
939.522275	0.999675
939.824747	0.999636
940.127179	0.999659
940.429573	1.001504
940.731929	0.998996
941.034246	1.000050
941.336524	0.998587
941.638763	0.999051
941.940964	0.999077
942.243126	0.999953
942.545250	1.000476
942.847335	1.000484
943.149381	0.999842
943.451389	1.000188
943.753359	0.999447
944.055290	1.001167
944.357182	1.000122
944.659036	0.999498
944.960851	0.998910
945.262628	1.000280
945.564367	0.999674
945.866067	0.999086
946.167729	1.000506
946.469352	1.000132
946.770937	0.998259
947.072484	1.000842
947.373992	1.000353
947.675462	0.999130
947.976893	0.999304
948.278286	1.001074
948.579641	1.000545
948.880958	1.000439
949.182236	0.999920
949.483476	1.000781
949.784678	1.000849
950.085841	0.998886
950.386967	0.999728
950.688054	1.000159
950.989103	0.999396
951.290114	0.998661
951.591087	1.000417
951.892021	0.999023
952.192917	0.999746
952.493776	0.999184
952.794596	1.000174
953.095378	1.000017
953.396122	1.000177
953.696828	0.999933
953.997496	1.000327
954.298126	1.000639
954.598718	0.999581
954.899272	0.999557
955.199788	0.999965
955.500266	1.000594
955.800706	0.999375
956.101108	0.999801
956.401472	1.001524
956.701798	0.998613
957.002087	1.000217
957.302337	0.999387
957.602550	1.000117
957.902724	1.000760
958.202861	0.999132
958.502960	0.999218
958.803022	1.001178
959.103045	1.000944
959.403031	1.000988
959.702979	1.001445
960.002889	0.998589
960.302762	0.999120
960.602596	0.999838
960.902393	1.000363
961.202153	0.999405
961.501875	1.000619
961.801559	0.999504
962.101205	0.998964
962.400814	1.000462
962.700385	0.999503
962.999918	0.999571
963.299414	0.998801
963.598873	0.999952
963.898293	0.998913
964.197677	1.000999
964.497022	0.999998
964.796331	1.000275
965.095601	0.999792
965.394835	0.999359
965.694030	1.000630
965.993189	0.999283
966.292309	0.999970
966.591393	0.999239
966.890439	0.999330
967.189447	0.999873
967.488419	0.999476
967.787353	1.000050
968.086249	1.001022
968.385108	1.000126
968.683930	1.000289
968.982714	0.999275
969.281462	1.000323
969.580172	1.000737
969.878844	1.000665
970.177480	1.000244
970.476078	1.000358
970.774639	0.999122
971.073162	1.000763
971.371649	0.998906
971.670098	0.999812
971.968510	0.999312
972.266885	0.999212
972.565223	0.999304
972.863524	1.000401
973.161788	0.998889
973.460014	0.999541
973.758204	0.999690
974.056356	0.999929
974.354471	0.999162
974.652550	1.001212
974.950591	0.999663
975.248595	0.998419
975.546563	0.999384
975.844493	1.001272
976.142386	0.999193
976.440243	1.000351
976.738062	0.999584
977.035845	1.000500
977.333590	0.999921
977.631299	0.999909
977.928971	1.000049
978.226606	0.999466
978.524204	0.999968
978.821765	0.999459
979.119290	1.001184
979.416777	0.999801
979.714228	0.999815
980.011642	1.000983
980.309020	0.999674
980.606360	0.998966
980.903664	0.999104
981.200931	0.999140
981.498162	1.000365
981.795356	0.998624
982.092513	1.000141
982.389633	1.001588
982.686717	0.998161
982.983764	0.999416
983.280775	0.999336
983.577749	1.001385
983.874686	0.998894
984.171587	0.999355
984.468451	0.999597
984.765279	1.001170
985.062070	0.999464
985.358824	0.999338
985.655543	0.999403
985.952224	1.000072
986.248869	0.999156
986.545478	1.001952
986.842050	1.000543
987.138586	0.999907
987.435086	0.998660
987.731549	1.000223
988.027975	1.001289
988.324366	1.000073
988.620719	1.001426
988.917037	0.999944
989.213318	1.001132
989.509563	0.999344
989.805772	0.999961
990.101944	1.000136
990.398080	0.999971
990.694180	0.999946
990.990244	0.999811
991.286271	0.999737
991.582262	0.999676
991.878217	0.999554
992.174136	0.999734
992.470019	0.999875
992.765865	1.000832
993.061676	1.000681
993.357450	1.000390
993.653188	1.000611
993.948890	1.000151
994.244556	0.998916
994.540186	0.998594
994.835780	0.999525
995.131337	1.000000
995.426859	1.000013
995.722345	0.999815
996.017795	0.999087
996.313208	0.999808
996.608586	0.999903
996.903928	1.000584
997.199234	0.999594
997.494504	1.001435
997.789738	0.999020
998.084936	1.001035
998.380099	0.998247
998.675225	1.000453
998.970316	1.001539
999.265371	0.999909
999.560390	0.999804
999.855373	0.999686
1000.150320	0.999618
1000.445232	0.999803
1000.740108	1.000181
1001.034948	0.999593
1001.329752	1.001062
1001.624521	0.997950
1001.919254	0.999917
1002.213951	1.000518
1002.508613	0.999387
1002.803239	0.998897
1003.097829	0.999826
1003.392384	1.000170
1003.686903	0.999518
1003.981386	0.999605
1004.275834	1.000262
1004.570246	0.999212
1004.864623	1.000752
1005.158964	1.000388
1005.453270	1.000534
1005.747540	0.998817
1006.041775	1.000377
1006.335974	1.000320
1006.630138	1.000109
1006.924266	0.999173
1007.218359	0.998880
1007.512416	1.001165
1007.806438	0.999343
1008.100425	0.999086
1008.394376	1.001429
1008.688292	1.000139
1008.982172	0.999868
1009.276017	0.999308
1009.569827	1.001527
1009.863602	0.998888
1010.157341	1.002123
1010.451045	0.999732
1010.744714	1.002123
1011.038347	1.000658
1011.331945	0.999892
1011.625508	0.999891
1011.919036	0.999986
1012.212528	0.999661
1012.505986	1.000125
1012.799408	1.000256
1013.092795	1.000225
1013.386147	0.999710
1013.679464	0.999965
1013.972745	1.000394
1014.265992	0.998662
1014.559204	0.999494
1014.852380	1.001556
1015.145521	0.999916
1015.438628	0.998945
1015.731699	0.998790
1016.024736	1.001039
1016.317737	1.000125
1016.610703	1.000790
1016.903635	1.000079
1017.196531	0.999088
1017.489393	0.999803
1017.782219	0.999255
1018.075011	0.999216
1018.367768	0.998686
1018.660490	0.999508
1018.953177	0.999508
1019.245829	0.999508
