Dividing Wavelength (nm)	Counts (n)	Blue Motor Position (mm): 36.700000	Red Motor Position (mm): 0.000000	
326.493990	0.999159
326.888308	0.999159
327.282561	0.999159
327.676750	1.000441
328.070874	1.001364
328.464933	1.000803
328.858929	1.000085
329.252859	0.999366
329.646726	0.998718
330.040528	0.999499
330.434265	0.999695
330.827938	0.999367
331.221547	0.999584
331.615091	0.999458
332.008571	1.000429
332.401986	0.999298
332.795338	1.000425
333.188625	1.000853
333.581847	0.999477
333.975006	0.999253
334.368100	1.000128
334.761129	0.998572
335.154095	1.000346
335.546996	1.000084
335.939833	0.999759
336.332606	0.999655
336.725315	0.998531
337.117960	1.000222
337.510540	0.999078
337.903056	1.000478
338.295508	0.999357
338.687896	1.001598
339.080220	0.998697
339.472480	0.999364
339.864676	0.999560
340.256807	0.998334
340.648875	1.000373
341.040879	0.999283
341.432818	0.999962
341.824694	0.998981
342.216506	0.999507
342.608253	0.999639
342.999937	0.999881
343.391557	0.999097
343.783113	1.000887
344.174605	1.000216
344.566033	0.999457
344.957397	0.999884
345.348697	1.000411
345.739934	0.999139
346.131106	0.999014
346.522215	1.000090
346.913260	1.000480
347.304241	0.999393
347.695159	0.999474
348.086012	1.000134
348.476802	0.998488
348.867528	0.998282
349.258191	0.998834
349.648789	0.999592
350.039324	1.000113
350.429796	0.998676
350.820203	0.998701
351.210548	1.000121
351.600828	0.999716
351.991045	0.998897
352.381198	0.998282
352.771288	0.998390
353.161314	0.999363
353.551276	0.998618
353.941175	0.996641
354.331010	0.998528
354.720782	0.999288
355.110490	0.998294
355.500135	0.998508
355.889717	0.998027
356.279235	0.998046
356.668689	1.000154
357.058080	0.998128
357.447408	0.998586
357.836672	0.998123
358.225873	0.998093
358.615010	0.997413
359.004084	0.996543
359.393095	0.998179
359.782043	0.998325
360.170927	0.998773
360.559748	0.998723
360.948505	0.997543
361.337199	0.998191
361.725830	0.999076
362.114398	0.997952
362.502903	0.998060
362.891344	0.997313
363.279722	0.996866
363.668037	0.997996
364.056289	0.997498
364.444478	0.998744
364.832603	0.997406
365.220665	0.997494
365.608665	0.997030
365.996601	0.996349
366.384474	0.996681
366.772284	0.996783
367.160031	0.996121
367.547715	0.996701
367.935336	0.996038
368.322893	0.994837
368.710388	0.993576
369.097820	0.990997
369.485189	0.988966
369.872495	0.986787
370.259738	0.986027
370.646918	0.982858
371.034035	0.980283
371.421090	0.977500
371.808081	0.972690
372.195010	0.970034
372.581875	0.964927
372.968678	0.960939
373.355418	0.957911
373.742096	0.948689
374.128710	0.945714
374.515262	0.940022
374.901751	0.934250
375.288177	0.930197
375.674540	0.923239
376.060841	0.916857
376.447079	0.910755
376.833254	0.903972
377.219367	0.897935
377.605417	0.888095
377.991404	0.883998
378.377329	0.879167
378.763191	0.871913
379.148991	0.863151
379.534727	0.855270
379.920402	0.847241
380.306013	0.842810
380.691563	0.830281
381.077049	0.823969
381.462474	0.820544
381.847835	0.808491
382.233134	0.803141
382.618371	0.803704
383.003545	0.786996
383.388657	0.784706
383.773706	0.777417
384.158693	0.772668
384.543618	0.768798
384.928480	0.759423
385.313280	0.749670
385.698017	0.748244
386.082692	0.737364
386.467305	0.735969
386.851856	0.729953
387.236344	0.725154
387.620770	0.719859
388.005133	0.713869
388.389435	0.708600
388.773674	0.706020
389.157851	0.697611
389.541965	0.695335
389.926018	0.701627
390.310008	0.688954
390.693936	0.686208
391.077802	0.677661
391.461606	0.680299
391.845348	0.668939
392.229027	0.669194
392.612645	0.666963
392.996200	0.653868
393.379694	0.645949
393.763125	0.637470
394.146494	0.641963
394.529801	0.632287
394.913047	0.624470
395.296230	0.630427
395.679351	0.621616
396.062410	0.619010
396.445408	0.621870
396.828343	0.617123
397.211217	0.612774
397.594028	0.625590
397.976778	0.616719
398.359466	0.613645
398.742092	0.610339
399.124656	0.623669
399.507158	0.613054
399.889598	0.612160
400.271977	0.605076
400.654294	0.610930
401.036549	0.612227
401.418742	0.619438
401.800874	0.608113
402.182944	0.608906
402.564952	0.604207
402.946898	0.609145
403.328783	0.614128
403.710606	0.628005
404.092367	0.610638
404.474067	0.619770
404.855705	0.622837
405.237282	0.635137
405.618797	0.629008
406.000250	0.631300
406.381642	0.628243
406.762972	0.638795
407.144240	0.643579
407.525447	0.650373
407.906593	0.650735
408.287677	0.654503
408.668700	0.668108
409.049661	0.670945
409.430560	0.674853
409.811399	0.689276
410.192176	0.684912
410.572891	0.697698
410.953545	0.696957
411.334138	0.714236
411.714669	0.718190
412.095139	0.734509
412.475547	0.733486
412.855894	0.743431
413.236180	0.751305
413.616405	0.762894
413.996568	0.766655
414.376670	0.777859
414.756711	0.789187
415.136691	0.795991
415.516609	0.800617
415.896466	0.807517
416.276262	0.814224
416.655997	0.824552
417.035670	0.826025
417.415283	0.830623
417.794834	0.840872
418.174324	0.850844
418.553753	0.860692
418.933121	0.862982
419.312428	0.870254
419.691674	0.879919
420.070859	0.884246
420.449983	0.892050
420.829045	0.896423
421.208047	0.904321
421.586988	0.910009
421.965867	0.914800
422.344686	0.920359
422.723444	0.926512
423.102141	0.934725
423.480777	0.934580
423.859352	0.943288
424.237866	0.945339
424.616319	0.949741
424.994712	0.952181
425.373044	0.957731
425.751314	0.960450
426.129524	0.965010
426.507673	0.966243
426.885762	0.969733
427.263789	0.972186
427.641756	0.974760
428.019662	0.977335
428.397508	0.979981
428.775292	0.981175
429.153016	0.983186
429.530679	0.985490
429.908282	0.986193
430.285824	0.987472
430.663305	0.989060
431.040726	0.989881
431.418086	0.990007
431.795385	0.992110
432.172624	0.993412
432.549802	0.993598
432.926920	0.993123
433.303977	0.994271
433.680974	0.995359
434.057910	0.995210
434.434786	0.994823
434.811601	0.996422
435.188355	0.995850
435.565050	0.996904
435.941683	0.996542
436.318257	0.995823
436.694770	0.996893
437.071222	0.997011
437.447614	0.997559
437.823946	0.997607
438.200218	0.997527
438.576429	0.997013
438.952580	0.997675
439.328670	0.997017
439.704700	0.996870
440.080670	0.998135
440.456580	0.997818
440.832429	0.998636
441.208218	0.998041
441.583947	0.997512
441.959616	0.997242
442.335224	0.998577
442.710773	0.998604
443.086261	0.998359
443.461689	0.997687
443.837057	0.998129
444.212365	0.998373
444.587612	0.998704
444.962800	0.998320
445.337927	0.998479
445.712995	0.998090
446.088002	0.998287
446.462949	0.998090
446.837837	0.999495
447.212664	0.998153
447.587431	0.998595
447.962139	0.998505
448.336786	0.997609
448.711374	0.997322
449.085901	0.999121
449.460369	0.999043
449.834776	0.998131
450.209124	0.998766
450.583412	0.998670
450.957640	0.998572
451.331808	0.998841
451.705917	0.997656
452.079965	0.998272
452.453954	0.998559
452.827883	0.998494
453.201752	0.998643
453.575562	0.998113
453.949311	0.998905
454.323001	0.998663
454.696632	0.998781
455.070202	0.998137
455.443713	0.998111
455.817164	0.998899
456.190556	0.998529
456.563888	0.998520
456.937160	0.998239
457.310373	0.998525
457.683526	0.998141
458.056619	0.998643
458.429653	0.997778
458.802628	0.997485
459.175542	0.998428
459.548398	0.998735
459.921194	0.997998
460.293930	0.998633
460.666607	0.998983
461.039224	0.997970
461.411782	0.998154
461.784280	0.997754
462.156719	0.998191
462.529099	0.997886
462.901419	0.998206
463.273680	0.998184
463.645882	0.997908
464.018024	0.998379
464.390106	0.998423
464.762130	0.998616
465.134094	0.998341
465.505999	0.998168
465.877845	0.997287
466.249631	0.997554
466.621358	0.996986
466.993026	0.997518
467.364634	0.997551
467.736184	0.997653
468.107674	0.997670
468.479105	0.997708
468.850477	0.998048
469.221790	0.998297
469.593043	0.997432
469.964238	0.997693
470.335373	0.997132
470.706449	0.997916
471.077467	0.997702
471.448425	0.998203
471.819324	0.997389
472.190164	0.997640
472.560945	0.997348
472.931667	0.997480
473.302330	0.997530
473.672934	0.997927
474.043479	0.998376
474.413965	0.997482
474.784393	0.997682
475.154761	0.997388
475.525070	0.997705
475.895321	0.998219
476.265513	0.998011
476.635645	0.997756
477.005719	0.997587
477.375734	0.997355
477.745691	0.997160
478.115588	0.996811
478.485427	0.996928
478.855207	0.997026
479.224928	0.997762
479.594591	0.997998
479.964194	0.996474
480.333739	0.997838
480.703226	0.996666
481.072653	0.996582
481.442022	0.997560
481.811333	0.997219
482.180584	0.997466
482.549777	0.997687
482.918912	0.997668
483.287988	0.997396
483.657005	0.997529
484.025964	0.997347
484.394864	0.997479
484.763706	0.997332
485.132489	0.997765
485.501213	0.997478
485.869879	0.998042
486.238487	0.996464
486.607036	0.998037
486.975527	0.997321
487.343959	0.996795
487.712333	0.997634
488.080648	0.996854
488.448905	0.997650
488.817104	0.996820
489.185244	0.997420
489.553326	0.997565
489.921350	0.998088
490.289315	0.996763
490.657222	0.997097
491.025070	0.998061
491.392861	0.997578
491.760593	0.996839
492.128267	0.997541
492.495883	0.997013
492.863440	0.997111
493.230939	0.997469
493.598380	0.997867
493.965763	0.997109
494.333088	0.996746
494.700354	0.997460
495.067563	0.997222
495.434713	0.998054
495.801805	0.997695
496.168839	0.997745
496.535815	0.997878
496.902733	0.997064
497.269593	0.997382
497.636395	0.996998
498.003139	0.996993
498.369825	0.998055
498.736453	0.997551
499.103023	0.998019
499.469535	0.997215
499.835989	0.997434
500.202385	0.996895
500.568723	0.997894
500.935003	0.997750
501.301226	0.997693
501.667390	0.997320
502.033497	0.997513
502.399546	0.997614
502.765537	0.997491
503.131470	0.997649
503.497345	0.998092
503.863163	0.996989
504.228923	0.997112
504.594625	0.997482
504.960269	0.997750
505.325856	0.998235
505.691385	0.997886
506.056856	0.997570
506.422270	0.997813
506.787625	0.998140
507.152924	0.998220
507.518164	0.997700
507.883347	0.997213
508.248472	0.997432
508.613540	0.997103
508.978550	0.997952
509.343503	0.997383
509.708398	0.997772
510.073236	0.997786
510.438016	0.996824
510.802738	0.996931
511.167403	0.997474
511.532010	0.997795
511.896561	0.998165
512.261053	0.997363
512.625488	0.997237
512.989866	0.997586
513.354186	0.997814
513.718449	0.997953
514.082655	0.997563
514.446803	0.997358
514.810894	0.998051
515.174927	0.997957
515.538904	0.997833
515.902822	0.997882
516.266684	0.997509
516.630488	0.997262
516.994235	0.997730
517.357925	0.997827
517.721558	0.997559
518.085133	0.996523
518.448651	0.997486
518.812112	0.998275
519.175516	0.997711
519.538863	0.997256
519.902152	0.998546
520.265385	0.997275
520.628560	0.996757
520.991678	0.998043
521.354739	0.998248
521.717743	0.997581
522.080690	0.997320
522.443580	0.998263
522.806413	0.996948
523.169189	0.997967
523.531908	0.997549
523.894569	0.997393
524.257174	0.998054
524.619722	0.997766
524.982213	0.997787
525.344647	0.997308
525.707025	0.997306
526.069345	0.996800
526.431608	0.997523
526.793815	0.997290
527.155964	0.997947
527.518057	0.998169
527.880093	0.997108
528.242072	0.997557
528.603995	0.997471
528.965860	0.998378
529.327669	0.998186
529.689421	0.997441
530.051117	0.997733
530.412755	0.997955
530.774337	0.997979
531.135862	0.998490
531.497331	0.997837
531.858743	0.997771
532.220098	0.996945
532.581396	0.997937
532.942638	0.998206
533.303824	0.998916
533.664953	0.997996
534.026025	0.998887
534.387040	0.997689
534.747999	0.997807
535.108902	0.997824
535.469748	0.998275
535.830537	0.997899
536.191270	0.997695
536.551947	0.997814
536.912567	0.997774
537.273131	0.998398
537.633638	0.998007
537.994089	0.998028
538.354483	0.997640
538.714821	0.998241
539.075103	0.997953
539.435328	0.998558
539.795497	0.997832
540.155609	0.997712
540.515665	0.998054
540.875665	0.997877
541.235609	0.997953
541.595496	0.997766
541.955328	0.998031
542.315102	0.998262
542.674821	0.998200
543.034483	0.998451
543.394090	0.997650
543.753640	0.997225
544.113134	0.998179
544.472571	0.998996
544.831953	0.998223
545.191278	0.998036
545.550548	0.997830
545.909761	0.997487
546.268918	0.998360
546.628019	0.998271
546.987064	0.998255
547.346053	0.997156
547.704986	0.997851
548.063863	0.996989
548.422684	0.998595
548.781449	0.997642
549.140158	0.998688
549.498811	0.997366
549.857408	0.996998
550.215949	0.997152
550.574434	0.997574
550.932864	0.998133
551.291237	0.997738
551.649555	0.998381
552.007817	0.998644
552.366022	0.998342
552.724173	0.998466
553.082267	0.997494
553.440305	0.997392
553.798288	0.997079
554.156215	0.997843
554.514086	0.998267
554.871902	0.998212
555.229661	0.997305
555.587365	0.998049
555.945014	0.998237
556.302606	0.997904
556.660143	0.998306
557.017625	0.998314
557.375050	0.997434
557.732421	0.998398
558.089735	0.997497
558.446994	0.997609
558.804197	0.998150
559.161345	0.998205
559.518437	0.997722
559.875474	0.998656
560.232455	0.998264
560.589381	0.997878
560.946251	0.998297
561.303065	0.997656
561.659825	0.998160
562.016528	0.998360
562.373177	0.998096
562.729770	0.997988
563.086307	0.997334
563.442789	0.997968
563.799216	0.997844
564.155587	0.998356
564.511904	0.998682
564.868164	0.997383
565.224370	0.998121
565.580520	0.998156
565.936615	0.998094
566.292654	0.997162
566.648638	0.998281
567.004567	0.997628
567.360441	0.998273
567.716260	0.997947
568.072023	0.997556
568.427732	0.998007
568.783385	0.998009
569.138982	0.998085
569.494525	0.998159
569.850013	0.998037
570.205445	0.998661
570.560823	0.997984
570.916145	0.997389
571.271412	0.997990
571.626625	0.997957
571.981782	0.998261
572.336884	0.998882
572.691931	0.998076
573.046923	0.998162
573.401860	0.997707
573.756743	0.998139
574.111570	0.997915
574.466342	0.998725
574.821059	0.997978
575.175722	0.997847
575.530330	0.998068
575.884882	0.997899
576.239380	0.998194
576.593823	0.997600
576.948211	0.998403
577.302544	0.997823
577.656823	0.998128
578.011047	0.997366
578.365216	0.998628
578.719330	0.998158
579.073389	0.997582
579.427394	0.997685
579.781344	0.998556
580.135239	0.997734
580.489080	0.997886
580.842866	0.998433
581.196597	0.997928
581.550273	0.997549
581.903895	0.998845
582.257463	0.998099
582.610975	0.997700
582.964434	0.998479
583.317837	0.998739
583.671186	0.999079
584.024481	0.998259
584.377721	0.997750
584.730906	0.998669
585.084037	0.999254
585.437113	0.998373
585.790135	0.997820
586.143103	0.998170
586.496016	0.998040
586.848874	0.998230
587.201679	0.998102
587.554428	0.997198
587.907124	0.998477
588.259765	0.998744
588.612352	0.998409
588.964884	0.998542
589.317362	0.998334
589.669786	0.998213
590.022155	0.997967
590.374470	0.997998
590.726731	0.997011
591.078937	0.998132
591.431090	0.998760
591.783188	0.997702
592.135232	0.998633
592.487222	0.998051
592.839157	0.998320
593.191038	0.998321
593.542866	0.998101
593.894639	0.997302
594.246358	0.998440
594.598022	0.998478
594.949633	0.998462
595.301190	0.997861
595.652692	0.998256
596.004141	0.997716
596.355535	0.998009
596.706876	0.998437
597.058162	0.998421
597.409395	0.998164
597.760573	0.998048
598.111698	0.997847
598.462768	0.997716
598.813785	0.997506
599.164748	0.997581
599.515657	0.997790
599.866511	0.998734
600.217312	0.998877
600.568060	0.997611
600.918753	0.998288
601.269392	0.998276
601.619978	0.997887
601.970510	0.998832
602.320988	0.998516
602.671412	0.998499
603.021783	0.997799
603.372100	0.998574
603.722363	0.998583
604.072572	0.997620
604.422728	0.997652
604.772830	0.998087
605.122878	0.998573
605.472872	0.998688
605.822813	0.998273
606.172701	0.998688
606.522534	0.998293
606.872314	0.998642
607.222041	0.998606
607.571714	0.997875
607.921333	0.997959
608.270899	0.997754
608.620411	0.997998
608.969870	0.998793
609.319276	0.998188
609.668627	0.997652
610.017926	0.998632
610.367171	0.998384
610.716362	0.998282
611.065500	0.997257
611.414585	0.997804
611.763616	0.997783
612.112594	0.997822
612.461518	0.997864
612.810389	0.997824
613.159207	0.997769
613.507971	0.997746
613.856682	0.999093
614.205340	0.997360
614.553945	0.998306
614.902496	0.997965
615.250994	0.997724
615.599439	0.998680
615.947830	0.997931
616.296169	0.998484
616.644454	0.998495
616.992686	0.998639
617.340864	0.998059
617.688990	0.997815
618.037063	0.998800
618.385082	0.997333
618.733048	0.997638
619.080961	0.997743
619.428821	0.998249
619.776628	0.997427
620.124382	0.999255
620.472083	0.998374
620.819731	0.998643
621.167326	0.998404
621.514868	0.999011
621.862357	0.997946
622.209793	0.997651
622.557176	0.997713
622.904506	0.997687
623.251783	0.998221
623.599007	0.998753
623.946179	0.997665
624.293297	0.998166
624.640363	0.998860
624.987376	0.997626
625.334336	0.998489
625.681243	0.998495
626.028097	0.998422
626.374899	0.998664
626.721647	0.999196
627.068343	0.998283
627.414987	0.997999
627.761577	0.997668
628.108115	0.998465
628.454600	0.998803
628.801032	0.998715
629.147412	0.998471
629.493739	0.999451
629.840014	0.997973
630.186236	0.997872
630.532405	0.998338
630.878521	0.997915
631.224585	0.998694
631.570597	0.997938
631.916556	0.998909
632.262462	0.998286
632.608316	0.998930
632.954117	0.998180
633.299866	0.997490
633.645562	0.997871
633.991206	0.998299
634.336797	0.997935
634.682336	0.999175
635.027823	0.997702
635.373257	0.999020
635.718639	0.998235
636.063968	0.998301
636.409245	0.998516
636.754470	0.997716
637.099642	0.998105
637.444762	0.998246
637.789829	0.997784
638.134845	0.997975
638.479808	0.998126
638.824719	0.998244
639.169577	0.997932
639.514383	0.998833
639.859137	0.998311
640.203839	0.998373
640.548489	0.998385
640.893086	0.997705
641.237632	0.998117
641.582125	0.997808
641.926566	0.998629
642.270955	0.998014
642.615292	0.998144
642.959576	0.998524
643.303809	0.998797
643.647990	0.998726
643.992118	0.998541
644.336195	0.997947
644.680219	0.998010
645.024192	0.998391
645.368112	0.997786
645.711981	0.997757
646.055797	0.998039
646.399562	0.997701
646.743274	0.998649
647.086935	0.997776
647.430544	0.997612
647.774101	0.997788
648.117606	0.999500
648.461059	0.998940
648.804460	0.997857
649.147810	0.998000
649.491108	0.997525
649.834354	0.998470
650.177548	0.998228
650.520690	0.998168
650.863781	0.997209
651.206820	0.998192
651.549807	0.998008
651.892742	0.998565
652.235626	0.998201
652.578458	0.998696
652.921238	0.998973
653.263967	0.998631
653.606644	0.997516
653.949269	0.999013
654.291843	0.997968
654.634365	0.998849
654.976836	0.997955
655.319255	0.998237
655.661622	0.998948
656.003938	0.998075
656.346203	0.997638
656.688416	0.998604
657.030577	0.997909
657.372687	0.998483
657.714746	0.998328
658.056753	0.997983
658.398708	0.998734
658.740612	0.998747
659.082465	0.998458
659.424266	0.998424
659.766016	0.998351
660.107715	0.998479
660.449362	0.998412
660.790958	0.998412
661.132503	0.998562
661.473996	0.997309
661.815438	0.999068
662.156829	0.998135
662.498168	0.999205
662.839456	0.998045
663.180693	0.998504
663.521879	0.998075
663.863013	0.998912
664.204097	0.997776
664.545129	0.998047
664.886110	0.998735
665.227040	0.998538
665.567918	0.997860
665.908746	0.997639
666.249522	0.997347
666.590248	0.997587
666.930922	0.998207
667.271545	0.998073
667.612118	0.998334
667.952639	0.998352
668.293109	0.997743
668.633528	0.997838
668.973896	0.998542
669.314213	0.997452
669.654480	0.998318
669.994695	0.997605
670.334859	0.997701
670.674973	0.997858
671.015035	0.998064
671.355047	0.998375
671.695008	0.998428
672.034918	0.997536
672.374777	0.998216
672.714585	0.997603
673.054342	0.998319
673.394049	0.998419
673.733705	0.997507
674.073310	0.997811
674.412864	0.996922
674.752368	0.997963
675.091820	0.998769
675.431223	0.998593
675.770574	0.997268
676.109875	0.998376
676.449125	0.997390
676.788324	0.997931
677.127473	0.998509
677.466571	0.999565
677.805619	0.998112
678.144616	0.998480
678.483562	0.998148
678.822458	0.998560
679.161303	0.998613
679.500098	0.997906
679.838842	0.998389
680.177535	0.998337
680.516179	0.997409
680.854771	0.998035
681.193314	0.998514
681.531805	0.997466
681.870247	0.997751
682.208638	0.997446
682.546978	0.997246
682.885268	0.997291
683.223508	0.997709
683.561697	0.997565
683.899836	0.997962
684.237925	0.997102
684.575963	0.997627
684.913951	0.998346
685.251889	0.997570
685.589776	0.997905
685.927614	0.998020
686.265401	0.997743
686.603137	0.997347
686.940824	0.997957
687.278460	0.998756
687.616046	0.997441
687.953582	0.997472
688.291068	0.998455
688.628504	0.997793
688.965889	0.997528
689.303224	0.995994
689.640510	0.997498
689.977745	0.996905
690.314930	0.997229
690.652065	0.997386
690.989150	0.997197
691.326185	0.998415
691.663170	0.996963
692.000105	0.997353
692.336990	0.997982
692.673825	0.997932
693.010610	0.997360
693.347345	0.997975
693.684030	0.997873
694.020665	0.997277
694.357251	0.997151
694.693786	0.997706
695.030272	0.996699
695.366707	0.997702
695.703093	0.997201
696.039429	0.996457
696.375716	0.997976
696.711952	0.997294
697.048139	0.997545
697.384276	0.997207
697.720363	0.996846
698.056400	0.996737
698.392388	0.997994
698.728326	0.997413
699.064214	0.998337
699.400053	0.997382
699.735842	0.999232
700.071581	0.997400
700.407270	0.997936
700.742910	0.998431
701.078501	0.997639
701.414042	0.998637
701.749533	0.997122
702.084974	0.998366
702.420366	0.997278
702.755709	0.997001
703.091002	0.997727
703.426246	0.999177
703.761440	0.997516
704.096584	0.997366
704.431679	0.996133
704.766725	0.997471
705.101721	0.997978
705.436668	0.998000
705.771565	0.997630
706.106413	0.997110
706.441212	0.997489
706.775961	0.997091
707.110661	0.997682
707.445311	0.997197
707.779913	0.997847
708.114465	0.998680
708.448967	0.999356
708.783421	0.998295
709.117825	0.998234
709.452180	0.997800
709.786485	0.998012
710.120742	0.997773
710.454949	0.997594
710.789107	0.997603
711.123216	0.996844
711.457275	0.996824
711.791286	0.997235
712.125247	0.999426
712.459159	0.997372
712.793023	0.997146
713.126837	0.998408
713.460602	0.996815
713.794318	0.997368
714.127985	0.996482
714.461602	0.997529
714.795171	0.995831
715.128691	0.996673
715.462162	0.997725
715.795584	0.997168
716.128957	0.999138
716.462281	0.998603
716.795556	0.996720
717.128782	0.998512
717.461960	0.997716
717.795088	0.997733
718.128167	0.998487
718.461198	0.996842
718.794180	0.997753
719.127113	0.997696
719.459997	0.996380
719.792833	0.996721
720.125619	0.997227
720.458357	0.997289
720.791046	0.998127
721.123686	0.997830
721.456278	0.997492
721.788821	0.996594
722.121315	0.998589
722.453761	0.998192
722.786158	0.998118
723.118506	0.997931
723.450805	0.996984
723.783056	0.997771
724.115259	0.997455
724.447412	0.998446
724.779518	0.997834
725.111574	0.996724
725.443582	0.997563
725.775542	0.998348
726.107453	0.998563
726.439315	0.997595
726.771129	0.998197
727.102895	0.998451
727.434612	0.997196
727.766281	0.997113
728.097901	0.996829
728.429473	0.997946
728.760996	0.997837
729.092471	0.997769
729.423897	0.997876
729.755276	0.997262
730.086606	0.996571
730.417887	0.998238
730.749120	0.997520
731.080305	0.998133
731.411442	0.997172
731.742530	0.997110
732.073570	0.996808
732.404562	0.997116
732.735506	0.997885
733.066401	0.997412
733.397249	0.996976
733.728048	0.997718
734.058798	0.998487
734.389501	0.997851
734.720156	0.997977
735.050762	0.998745
735.381320	0.997805
735.711831	0.996678
736.042293	0.996797
736.372707	0.998987
736.703073	0.995873
737.033391	0.997226
737.363661	0.998278
737.693883	0.997913
738.024056	0.996905
738.354182	0.998715
738.684260	0.997675
739.014290	0.998015
739.344272	0.997840
739.674207	0.997829
740.004093	0.998276
740.333931	0.998012
740.663722	0.997025
740.993464	0.998108
741.323159	0.996686
741.652806	0.997481
741.982405	0.997104
742.311956	0.997825
742.641460	0.997624
742.970915	0.996422
743.300323	0.997194
743.629683	0.997984
743.958996	0.998082
744.288260	0.997681
744.617477	0.996752
744.946647	0.998844
745.275768	0.998143
745.604842	0.996999
745.933869	0.997547
746.262847	0.997841
746.591778	0.996543
746.920662	0.998753
747.249498	0.998887
747.578286	0.999070
747.907027	0.997530
748.235720	0.997990
748.564365	0.998179
748.892963	0.997126
749.221514	0.998049
749.550017	0.997333
749.878473	0.997715
750.206881	0.999200
750.535242	0.996797
750.863555	0.997612
751.191821	0.997996
751.520039	0.996632
751.848210	0.996583
752.176334	0.997427
752.504411	0.996825
752.832440	0.997579
753.160421	0.998493
753.488356	0.997446
753.816243	0.997457
754.144082	0.997528
754.471875	0.997676
754.799620	0.997480
755.127318	0.997174
755.454969	0.997216
755.782572	0.999206
756.110129	0.997659
756.437638	0.998518
756.765100	0.997820
757.092515	0.997812
757.419882	0.998358
757.747203	0.997889
758.074477	0.999261
758.401703	0.998040
758.728882	0.997796
759.056014	0.997794
759.383099	0.998179
759.710138	0.996833
760.037129	0.998372
760.364073	0.998103
760.690970	0.998157
761.017820	0.997008
761.344623	0.997389
761.671379	0.998414
761.998088	0.996912
762.324751	0.998273
762.651366	0.997143
762.977935	0.996541
763.304456	0.997192
763.630931	0.996162
763.957359	0.995644
764.283740	0.995654
764.610074	0.996669
764.936362	0.996787
765.262602	0.997708
765.588796	0.998216
765.914943	0.996672
766.241044	0.997012
766.567097	0.997344
766.893104	0.998284
767.219064	0.996722
767.544978	0.997782
767.870845	0.998037
768.196665	0.998112
768.522438	0.996843
768.848165	0.998319
769.173846	0.998966
769.499479	0.998717
769.825066	0.998511
770.150607	0.999251
770.476101	0.997522
770.801548	0.999586
771.126949	1.000039
771.452303	0.998404
771.777611	0.998309
772.102872	0.997763
772.428087	0.997756
772.753256	0.998654
773.078378	0.998530
773.403453	0.997610
773.728482	0.998922
774.053465	0.998302
774.378401	0.997976
774.703291	0.999088
775.028135	1.000410
775.352932	0.996809
775.677683	0.999176
776.002388	0.997707
776.327046	0.998142
776.651658	0.999807
776.976224	0.998422
777.300743	0.997868
777.625216	0.997355
777.949643	0.997832
778.274024	0.998247
778.598359	0.998524
778.922647	0.998580
779.246889	0.998807
779.571086	0.998281
779.895236	0.997475
780.219339	0.998819
780.543397	0.997778
780.867409	0.999810
781.191374	0.997376
781.515294	0.998611
781.839167	0.998676
782.162995	0.998421
782.486776	0.998462
782.810511	0.998029
783.134201	0.999115
783.457844	0.998339
783.781441	0.997833
784.104993	0.998426
784.428498	0.998254
784.751958	0.999670
785.075372	0.998888
785.398739	0.997957
785.722061	0.997365
786.045337	0.997813
786.368568	0.998511
786.691752	0.997560
787.014891	0.998353
787.337983	0.998379
787.661030	0.998378
787.984031	0.998193
788.306987	0.998768
788.629897	0.997621
788.952760	0.998211
789.275579	0.997746
789.598351	0.998462
789.921078	0.998994
790.243759	0.998718
790.566395	0.998056
790.888984	0.999118
791.211529	0.998551
791.534027	0.998703
791.856480	0.998430
792.178888	0.997901
792.501249	0.998411
792.823566	0.999178
793.145836	0.998186
793.468062	0.998895
793.790241	0.999516
794.112375	0.997221
794.434464	0.998599
794.756507	0.999488
795.078505	0.999453
795.400457	0.998513
795.722364	0.998597
796.044226	0.998256
796.366042	0.998111
796.687812	0.997400
797.009538	0.998118
797.331218	0.999304
797.652852	0.999080
797.974442	0.997663
798.295986	0.997994
798.617484	0.997115
798.938938	0.999168
799.260346	0.998042
799.581709	0.997159
799.903026	0.999112
800.224299	0.997953
800.545526	0.998024
800.866708	0.998273
801.187845	0.998301
801.508936	0.998604
801.829983	0.998152
802.150984	0.998551
802.471940	0.999310
802.792851	0.997140
803.113717	0.999142
803.434538	0.998915
803.755314	0.999952
804.076045	0.998847
804.396731	0.999200
804.717372	0.997643
805.037967	0.999642
805.358518	0.999085
805.679024	0.997063
805.999485	0.997717
806.319901	0.998452
806.640272	0.999151
806.960598	0.998901
807.280879	0.998454
807.601115	0.999240
807.921306	0.999085
808.241453	0.997718
808.561554	0.998968
808.881611	0.998664
809.201623	0.998500
809.521590	0.998836
809.841513	0.998508
810.161390	0.997293
810.481223	0.997481
810.801011	0.998885
811.120755	0.999978
811.440453	0.998013
811.760107	0.998677
812.079716	0.998538
812.399281	0.998879
812.718801	0.998314
813.038276	0.997828
813.357707	0.998864
813.677093	0.998934
813.996434	0.997940
814.315731	0.999222
814.634983	0.998447
814.954191	0.999324
815.273354	0.998721
815.592473	0.998102
815.911547	0.999577
816.230577	0.997745
816.549562	0.998399
816.868502	0.997270
817.187399	0.999052
817.506250	0.999064
817.825058	0.997462
818.143821	0.998151
818.462539	0.997819
818.781213	0.998321
819.099843	0.998805
819.418429	0.997235
819.736970	0.998247
820.055466	0.996885
820.373919	0.997200
820.692327	0.996949
821.010691	0.996562
821.329011	0.994048
821.647286	0.994029
821.965517	0.992698
822.283704	0.991096
822.601847	0.991119
822.919945	0.990045
823.237999	0.991766
823.556010	0.992216
823.873976	0.993447
824.191897	0.992813
824.509775	0.994729
824.827609	0.995024
825.145398	0.995148
825.463144	0.994770
825.780845	0.994546
826.098502	0.994830
826.416116	0.995094
826.733685	0.994527
827.051210	0.992939
827.368692	0.993817
827.686129	0.993574
828.003522	0.996120
828.320872	0.995478
828.638177	0.995839
828.955439	0.997451
829.272656	0.997062
829.589830	0.997106
829.906960	0.998135
830.224046	0.997902
830.541088	0.997280
830.858086	0.998226
831.175041	0.998239
831.491952	0.997531
831.808819	0.998331
832.125642	0.998801
832.442421	0.998016
832.759157	0.999040
833.075849	0.996011
833.392497	0.995795
833.709101	0.994817
834.025662	0.995834
834.342179	0.996251
834.658653	0.996930
834.975083	0.997214
835.291469	0.996705
835.607811	0.997609
835.924110	0.997703
836.240366	0.998588
836.556578	0.998609
836.872746	0.999464
837.188871	0.997631
837.504952	0.998375
837.820990	0.998742
838.136984	0.998159
838.452935	0.998492
838.768842	0.999066
839.084706	0.998907
839.400526	0.997583
839.716303	0.997195
840.032037	0.997974
840.347727	0.997329
840.663373	0.997600
840.978977	0.997889
841.294537	0.998947
841.610054	0.997885
841.925527	0.999381
842.240957	0.999603
842.556344	0.999540
842.871687	0.999196
843.186987	0.999033
843.502244	0.999451
843.817458	0.998935
844.132629	0.997618
844.447756	0.999004
844.762840	0.999265
845.077881	1.000276
845.392879	0.998394
845.707833	0.998634
846.022745	0.997734
846.337613	0.998994
846.652438	0.998961
846.967221	0.998032
847.281960	0.999449
847.596656	0.998464
847.911309	0.999314
848.225919	0.998287
848.540485	0.998896
848.855009	1.000384
849.169490	0.999495
849.483928	0.999100
849.798323	0.998774
850.112675	1.000104
850.426984	0.999847
850.741251	0.999375
851.055474	0.997368
851.369654	0.999327
851.683792	0.998503
851.997887	0.999334
852.311938	0.999338
852.625947	0.998416
852.939914	0.998262
853.253837	1.000375
853.567718	0.999205
853.881555	1.000374
854.195350	0.998635
854.509103	0.999222
854.822812	0.999238
855.136479	0.999085
855.450103	1.000048
855.763685	0.999418
856.077224	0.999666
856.390720	0.998313
856.704173	1.001028
857.017584	0.999426
857.330953	0.999936
857.644278	0.998741
857.957561	1.000457
858.270802	0.999723
858.584000	0.999895
858.897155	0.998558
859.210268	0.999207
859.523339	0.999579
859.836367	0.998331
860.149352	0.998448
860.462295	1.000040
860.775195	0.998934
861.088054	0.998146
861.400869	0.999547
861.713642	0.997960
862.026373	0.999471
862.339062	0.999987
862.651708	0.999226
862.964312	1.000067
863.276873	0.999965
863.589392	0.998817
863.901869	0.998890
864.214303	0.998892
864.526696	0.997999
864.839045	0.999104
865.151353	0.998395
865.463619	0.998726
865.775842	0.999821
866.088023	0.999679
866.400162	0.998440
866.712258	1.000009
867.024313	0.999184
867.336325	1.000341
867.648296	0.999114
867.960224	0.999741
868.272110	0.999970
868.583954	1.000711
868.895755	1.000105
869.207515	0.998443
869.519233	1.000025
869.830909	0.998456
870.142542	0.997903
870.454134	0.999122
870.765684	0.998729
871.077191	0.999902
871.388657	0.999140
871.700081	0.999877
872.011463	0.999214
872.322803	0.999493
872.634101	0.998376
872.945357	0.998035
873.256571	0.998512
873.567744	0.999151
873.878874	0.999187
874.189963	0.998297
874.501010	1.000491
874.812015	0.999070
875.122979	0.998966
875.433900	0.998793
875.744780	0.999674
876.055618	0.998000
876.366415	0.997844
876.677169	0.998552
876.987882	0.998644
877.298554	0.999460
877.609183	0.998906
877.919771	0.999024
878.230317	0.999312
878.540822	0.998373
878.851285	0.998043
879.161707	0.999158
879.472087	0.999290
879.782425	0.997637
880.092722	0.996516
880.402977	0.995583
880.713191	0.993431
881.023363	0.992655
881.333494	0.991524
881.643583	0.992015
881.953631	0.991799
882.263637	0.990777
882.573602	0.991468
882.883526	0.992045
883.193408	0.993564
883.503248	0.993298
883.813048	0.994430
884.122806	0.996001
884.432522	0.995213
884.742197	0.996422
885.051831	0.997577
885.361424	0.997225
885.670975	0.997868
885.980485	0.996529
886.289954	0.997444
886.599382	0.996591
886.908768	0.999039
887.218113	0.997460
887.527417	0.998180
887.836680	0.998782
888.145901	0.999548
888.455082	0.999997
888.764221	0.999378
889.073319	0.998370
889.382376	0.999652
889.691392	0.997852
890.000366	0.999971
890.309300	0.999728
890.618193	0.999493
890.927044	0.997955
891.235855	0.998963
891.544625	0.998282
891.853353	0.999516
892.162041	0.998771
892.470687	0.999166
892.779293	0.998096
893.087858	0.997044
893.396381	0.998798
893.704864	0.996946
894.013306	0.996511
894.321707	0.996612
894.630068	0.994881
894.938387	0.994906
895.246665	0.995156
895.554903	0.995243
895.863100	0.997154
896.171256	0.995863
896.479371	0.997400
896.787446	0.997586
897.095480	0.996777
897.403473	0.997810
897.711425	0.998772
898.019336	0.998286
898.327207	0.998722
898.635038	0.997727
898.942827	0.998679
899.250576	0.997015
899.558284	0.998360
899.865952	0.997731
900.173579	0.998466
900.481165	0.999057
900.788711	0.998006
901.096216	0.999339
901.403681	0.998713
901.711105	0.998489
902.018489	0.998210
902.325832	0.999443
902.633135	0.999068
902.940397	0.999031
903.247619	0.998915
903.554800	0.997638
903.861941	0.996392
904.169041	0.996794
904.476101	0.994789
904.783121	0.994232
905.090100	0.994987
905.397039	0.995671
905.703938	0.996150
906.010796	0.996164
906.317614	0.997056
906.624391	0.998005
906.931129	0.998401
907.237826	0.997925
907.544483	0.999079
907.851099	0.998025
908.157675	0.998484
908.464211	0.998606
908.770707	0.997277
909.077163	0.999587
909.383578	0.998619
909.689954	0.998695
909.996289	0.998315
910.302584	0.999619
910.608839	1.000000
910.915054	0.999281
911.221229	0.999683
911.527363	0.998471
911.833458	0.998587
912.139513	0.999038
912.445527	0.999244
912.751502	0.999310
913.057436	0.998863
913.363331	1.000426
913.669186	0.999346
913.975000	0.998908
914.280775	0.998856
914.586510	0.996843
914.892205	0.996995
915.197859	0.996360
915.503475	0.995942
915.809050	0.995612
916.114585	0.993826
916.420081	0.994863
916.725536	0.995270
917.030952	0.995949
917.336328	0.994876
917.641665	0.994814
917.946961	0.996150
918.252218	0.996312
918.557435	0.996805
918.862612	0.997843
919.167750	0.997146
919.472848	0.998358
919.777906	0.999320
920.082925	0.998652
920.387904	0.998920
920.692843	0.999280
920.997743	0.997439
921.302603	0.998719
921.607423	0.997425
921.912204	0.999445
922.216946	0.999873
922.521647	0.997987
922.826310	0.998808
923.130932	0.999146
923.435516	0.998185
923.740059	0.999553
924.044564	0.998856
924.349028	0.998738
924.653454	0.999583
924.957840	0.999976
925.262186	0.999004
925.566493	1.000268
925.870761	0.997967
926.174989	0.999360
926.479178	0.999700
926.783328	1.000056
927.087438	0.999264
927.391509	0.998597
927.695541	0.999032
927.999533	0.999747
928.303486	0.999225
928.607400	1.000012
928.911275	0.999625
929.215110	0.999746
929.518906	0.999301
929.822663	1.000125
930.126381	1.001131
930.430060	0.999527
930.733699	0.999065
931.037299	1.000232
931.340861	0.999843
931.644383	0.998996
931.947866	0.999773
932.251309	0.999447
932.554714	0.998979
932.858080	0.999582
933.161407	0.999756
933.464694	0.999350
933.767943	0.999712
934.071153	0.999728
934.374323	1.000144
934.677455	0.999450
934.980548	0.998001
935.283602	1.000050
935.586617	0.999731
935.889593	1.001094
936.192530	0.999527
936.495428	0.999515
936.798287	0.999198
937.101108	1.000121
937.403890	0.999452
937.706632	1.001136
938.009336	0.999736
938.312002	0.997872
938.614628	0.999074
938.917216	0.999376
939.219765	0.999558
939.522275	1.000385
939.824747	0.998839
940.127179	0.999029
940.429573	1.000456
940.731929	0.997382
941.034246	0.998795
941.336524	0.998493
941.638763	0.999879
941.940964	0.999037
942.243126	0.999252
942.545250	1.000340
942.847335	0.999965
943.149381	0.999935
943.451389	0.998936
943.753359	0.999094
944.055290	1.001683
944.357182	0.998413
944.659036	0.999615
944.960851	0.999309
945.262628	0.999231
945.564367	0.999912
945.866067	0.999756
946.167729	0.999037
946.469352	0.999200
946.770937	0.998132
947.072484	1.000927
947.373992	0.998621
947.675462	0.998500
947.976893	0.998785
948.278286	1.001596
948.579641	0.999384
948.880958	1.000491
949.182236	0.999180
949.483476	0.999584
949.784678	0.998875
950.085841	0.998603
950.386967	0.998755
950.688054	0.999431
950.989103	0.998078
951.290114	0.998290
951.591087	0.999613
951.892021	0.998113
952.192917	0.999536
952.493776	0.999613
952.794596	0.999375
953.095378	0.998938
953.396122	0.999433
953.696828	1.000472
953.997496	0.999748
954.298126	1.000897
954.598718	0.999567
954.899272	0.999716
955.199788	0.998432
955.500266	1.000125
955.800706	0.999063
956.101108	1.000001
956.401472	1.001066
956.701798	0.999555
957.002087	0.999856
957.302337	1.000069
957.602550	0.999477
957.902724	0.999738
958.202861	0.999101
958.502960	0.999342
958.803022	1.001191
959.103045	0.999526
959.403031	1.000047
959.702979	0.999830
960.002889	0.999032
960.302762	0.998191
960.602596	0.999837
960.902393	0.999966
961.202153	0.999702
961.501875	1.000012
961.801559	1.000039
962.101205	0.998300
962.400814	1.001226
962.700385	1.000124
962.999918	1.000799
963.299414	0.999606
963.598873	1.000030
963.898293	0.999584
964.197677	1.000120
964.497022	1.000382
964.796331	0.999975
965.095601	1.000577
965.394835	0.999522
965.694030	1.000285
965.993189	0.997988
966.292309	1.000145
966.591393	0.998491
966.890439	1.000202
967.189447	0.999415
967.488419	0.999356
967.787353	0.999301
968.086249	0.999076
968.385108	0.999205
968.683930	1.000327
968.982714	0.999426
969.281462	1.000081
969.580172	0.999684
969.878844	0.999269
970.177480	0.999538
970.476078	1.000052
970.774639	0.999632
971.073162	0.999272
971.371649	0.999891
971.670098	0.999134
971.968510	0.999893
972.266885	0.998511
972.565223	0.999465
972.863524	0.999068
973.161788	0.999519
973.460014	1.000093
973.758204	0.999326
974.056356	0.999402
974.354471	0.998659
974.652550	1.000583
974.950591	0.999090
975.248595	0.998554
975.546563	0.999992
975.844493	0.999427
976.142386	0.998534
976.440243	1.000204
976.738062	1.000621
977.035845	0.999861
977.333590	1.000586
977.631299	1.000419
977.928971	1.000135
978.226606	1.000482
978.524204	0.998865
978.821765	0.999334
979.119290	1.000661
979.416777	0.999999
979.714228	0.999806
980.011642	1.000353
980.309020	0.999065
980.606360	0.998992
980.903664	0.999204
981.200931	0.999285
981.498162	1.000180
981.795356	0.998655
982.092513	0.998790
982.389633	1.001328
982.686717	0.999166
982.983764	0.999584
983.280775	0.999931
983.577749	1.000467
983.874686	1.000375
984.171587	0.999248
984.468451	1.000020
984.765279	0.999467
985.062070	0.999533
985.358824	0.999506
985.655543	1.000118
985.952224	1.000097
986.248869	0.999637
986.545478	1.001081
986.842050	1.000580
987.138586	0.999761
987.435086	0.998295
987.731549	0.999954
988.027975	0.999928
988.324366	0.999386
988.620719	1.001337
988.917037	0.999977
989.213318	0.998857
989.509563	1.000119
989.805772	1.001021
990.101944	1.000644
990.398080	0.999575
990.694180	0.999631
990.990244	0.999382
991.286271	0.999924
991.582262	1.000776
991.878217	0.999731
992.174136	1.001367
992.470019	1.000437
992.765865	1.000647
993.061676	0.999910
993.357450	0.999603
993.653188	1.000284
993.948890	0.999953
994.244556	0.999351
994.540186	0.999606
994.835780	1.000502
995.131337	1.000994
995.426859	0.998832
995.722345	0.999480
996.017795	0.999123
996.313208	0.999610
996.608586	0.999453
996.903928	1.000363
997.199234	0.999629
997.494504	1.000857
997.789738	0.999280
998.084936	1.000438
998.380099	0.999182
998.675225	1.000097
998.970316	0.999953
999.265371	1.000580
999.560390	0.998730
999.855373	1.000042
1000.150320	1.000000
1000.445232	1.000045
1000.740108	1.000167
1001.034948	0.999900
1001.329752	1.001546
1001.624521	0.999389
1001.919254	0.999549
1002.213951	0.999868
1002.508613	0.999691
1002.803239	1.000034
1003.097829	1.000150
1003.392384	1.000818
1003.686903	1.000494
1003.981386	0.999957
1004.275834	1.000825
1004.570246	0.998220
1004.864623	1.001011
1005.158964	1.000372
1005.453270	0.999231
1005.747540	0.999265
1006.041775	0.999502
1006.335974	1.000652
1006.630138	1.000497
1006.924266	0.997748
1007.218359	0.998480
1007.512416	0.999919
1007.806438	0.999884
1008.100425	0.999675
1008.394376	1.000279
1008.688292	0.999212
1008.982172	0.999504
1009.276017	0.999638
1009.569827	1.001250
1009.863602	0.999789
1010.157341	0.999434
1010.451045	1.000654
1010.744714	1.000511
1011.038347	0.999368
1011.331945	0.999500
1011.625508	0.999719
1011.919036	1.000078
1012.212528	1.000983
1012.505986	0.999191
1012.799408	0.999421
1013.092795	1.000097
1013.386147	1.001124
1013.679464	1.000238
1013.972745	0.999637
1014.265992	0.999182
1014.559204	0.998991
1014.852380	1.000595
1015.145521	0.999806
1015.438628	1.000177
1015.731699	0.999398
1016.024736	1.000825
1016.317737	1.000323
1016.610703	0.999909
1016.903635	1.000248
1017.196531	0.999878
1017.489393	0.998740
1017.782219	0.999135
1018.075011	0.998779
1018.367768	1.000108
1018.660490	1.000589
1018.953177	1.000589
1019.245829	1.000589
