Dividing Wavelength (nm)	Counts (n)	Blue Motor Position (mm): 7.500000	Red Motor Position (mm): 0.000000	
326.493990	1.004227
326.888308	1.004227
327.282561	1.004227
327.676750	1.006602
328.070874	1.006211
328.464933	1.005987
328.858929	1.005617
329.252859	1.005114
329.646726	1.005430
330.040528	1.004617
330.434265	1.005272
330.827938	1.005737
331.221547	1.005838
331.615091	1.005700
332.008571	1.005852
332.401986	1.004789
332.795338	1.005318
333.188625	1.005027
333.581847	1.004865
333.975006	1.004782
334.368100	1.005988
334.761129	1.003935
335.154095	1.004939
335.546996	1.003088
335.939833	0.997831
336.332606	0.999137
336.725315	0.997824
337.117960	0.999929
337.510540	0.997709
337.903056	0.999114
338.295508	0.999647
338.687896	0.998781
339.080220	0.998263
339.472480	0.998601
339.864676	0.999860
340.256807	0.998146
340.648875	0.999217
341.040879	0.999318
341.432818	0.999962
341.824694	0.998569
342.216506	0.998756
342.608253	0.998488
342.999937	0.998890
343.391557	0.997980
343.783113	0.999301
344.174605	0.998459
344.566033	0.997761
344.957397	0.999154
345.348697	0.998632
345.739934	0.998759
346.131106	0.998678
346.522215	0.997881
346.913260	0.997977
347.304241	0.997897
347.695159	0.999678
348.086012	0.998974
348.476802	0.997146
348.867528	0.997426
349.258191	0.998854
349.648789	0.999073
350.039324	0.998002
350.429796	0.998347
350.820203	0.997419
351.210548	0.998623
351.600828	0.998156
351.991045	0.997774
352.381198	0.997768
352.771288	0.998371
353.161314	0.998792
353.551276	0.997476
353.941175	0.996119
354.331010	0.998330
354.720782	0.998122
355.110490	0.998071
355.500135	0.998343
355.889717	0.996688
356.279235	0.997667
356.668689	0.998289
357.058080	0.998043
357.447408	0.995929
357.836672	0.996984
358.225873	0.997330
358.615010	0.998832
359.004084	0.996361
359.393095	0.996647
359.782043	0.998776
360.170927	0.997776
360.559748	0.998140
360.948505	0.996353
361.337199	0.997280
361.725830	0.997522
362.114398	0.997675
362.502903	0.996586
362.891344	0.995848
363.279722	0.996495
363.668037	0.997906
364.056289	0.995722
364.444478	0.998074
364.832603	0.996548
365.220665	0.996712
365.608665	0.995608
365.996601	0.996749
366.384474	0.995839
366.772284	0.996369
367.160031	0.995477
367.547715	0.995806
367.935336	0.994246
368.322893	0.993629
368.710388	0.992352
369.097820	0.990119
369.485189	0.987967
369.872495	0.986272
370.259738	0.984568
370.646918	0.981753
371.034035	0.979599
371.421090	0.975803
371.808081	0.971213
372.195010	0.968708
372.581875	0.963003
372.968678	0.958400
373.355418	0.955650
373.742096	0.947824
374.128710	0.942831
374.515262	0.938877
374.901751	0.933230
375.288177	0.927190
375.674540	0.921829
376.060841	0.915805
376.447079	0.908472
376.833254	0.902462
377.219367	0.897410
377.605417	0.885618
377.991404	0.883179
378.377329	0.874712
378.763191	0.869633
379.148991	0.860825
379.534727	0.852658
379.920402	0.844977
380.306013	0.841436
380.691563	0.828726
381.077049	0.822198
381.462474	0.817800
381.847835	0.806388
382.233134	0.802576
382.618371	0.802106
383.003545	0.785174
383.388657	0.783063
383.773706	0.775968
384.158693	0.771527
384.543618	0.766154
384.928480	0.757246
385.313280	0.747225
385.698017	0.746288
386.082692	0.735095
386.467305	0.734372
386.851856	0.728271
387.236344	0.723295
387.620770	0.718003
388.005133	0.711692
388.389435	0.706559
388.773674	0.703957
389.157851	0.695762
389.541965	0.692669
389.926018	0.699691
390.310008	0.686471
390.693936	0.682703
391.077802	0.675700
391.461606	0.676547
391.845348	0.666027
392.229027	0.665448
392.612645	0.663888
392.996200	0.650316
393.379694	0.643565
393.763125	0.633129
394.146494	0.638258
394.529801	0.629414
394.913047	0.621375
395.296230	0.627296
395.679351	0.617778
396.062410	0.615643
396.445408	0.617498
396.828343	0.613206
397.211217	0.608122
397.594028	0.620267
397.976778	0.610944
398.359466	0.607130
398.742092	0.602644
399.124656	0.615059
399.507158	0.602767
399.889598	0.599912
400.271977	0.591524
400.654294	0.595623
401.036549	0.594324
401.418742	0.599272
401.800874	0.584140
402.182944	0.581588
402.564952	0.572389
402.946898	0.574688
403.328783	0.575564
403.710606	0.586458
404.092367	0.561244
404.474067	0.566766
404.855705	0.565053
405.237282	0.574398
405.618797	0.560585
406.000250	0.555999
406.381642	0.546313
406.762972	0.551717
407.144240	0.550121
407.525447	0.549596
407.906593	0.542239
408.287677	0.538329
408.668700	0.546230
409.049661	0.540702
409.430560	0.536141
409.811399	0.544506
410.192176	0.526618
410.572891	0.533119
410.953545	0.521558
411.334138	0.534618
411.714669	0.527559
412.095139	0.539632
412.475547	0.523759
412.855894	0.525620
413.236180	0.524096
413.616405	0.529858
413.996568	0.519902
414.376670	0.527051
414.756711	0.531755
415.136691	0.528543
415.516609	0.519602
415.896466	0.515730
416.276262	0.512145
416.655997	0.513681
417.035670	0.495234
417.415283	0.486854
417.794834	0.492235
418.174324	0.497032
418.553753	0.506184
418.933121	0.488279
419.312428	0.482501
419.691674	0.487904
420.070859	0.476268
420.449983	0.484367
420.829045	0.473209
421.208047	0.482767
421.586988	0.475566
421.965867	0.473899
422.344686	0.462962
422.723444	0.475997
423.102141	0.493382
423.480777	0.465635
423.859352	0.486991
424.237866	0.463656
424.616319	0.464381
424.994712	0.455287
425.373044	0.465151
425.751314	0.453775
426.129524	0.470531
426.507673	0.453538
426.885762	0.447251
427.263789	0.452728
427.641756	0.461970
428.019662	0.452776
428.397508	0.451835
428.775292	0.456581
429.153016	0.448258
429.530679	0.454607
429.908282	0.447626
430.285824	0.457795
430.663305	0.435958
431.040726	0.457374
431.418086	0.456852
431.795385	0.448879
432.172624	0.447501
432.549802	0.448105
432.926920	0.447500
433.303977	0.446340
433.680974	0.443896
434.057910	0.442542
434.434786	0.441435
434.811601	0.444480
435.188355	0.427189
435.565050	0.435872
435.941683	0.437346
436.318257	0.421109
436.694770	0.421803
437.071222	0.420447
437.447614	0.424630
437.823946	0.431356
438.200218	0.420320
438.576429	0.430261
438.952580	0.423357
439.328670	0.420002
439.704700	0.426122
440.080670	0.427836
440.456580	0.408948
440.832429	0.417007
441.208218	0.427826
441.583947	0.417290
441.959616	0.416257
442.335224	0.422000
442.710773	0.412584
443.086261	0.410847
443.461689	0.424834
443.837057	0.414519
444.212365	0.404152
444.587612	0.411587
444.962800	0.401268
445.337927	0.403065
445.712995	0.428523
446.088002	0.390635
446.462949	0.401139
446.837837	0.406086
447.212664	0.394821
447.587431	0.386447
447.962139	0.357271
448.336786	0.315735
448.711374	0.326252
449.085901	0.370694
449.460369	0.374688
449.834776	0.378471
450.209124	0.357455
450.583412	0.350496
450.957640	0.343381
451.331808	0.354876
451.705917	0.378312
452.079965	0.382622
452.453954	0.371218
452.827883	0.377701
453.201752	0.372892
453.575562	0.383725
453.949311	0.372708
454.323001	0.378654
454.696632	0.374864
455.070202	0.367097
455.443713	0.358480
455.817164	0.353474
456.190556	0.349523
456.563888	0.346294
456.937160	0.343640
457.310373	0.361053
457.683526	0.359884
458.056619	0.365569
458.429653	0.366235
458.802628	0.369913
459.175542	0.364010
459.548398	0.346508
459.921194	0.339009
460.293930	0.339278
460.666607	0.316094
461.039224	0.304614
461.411782	0.300630
461.784280	0.299772
462.156719	0.303716
462.529099	0.308389
462.901419	0.324641
463.273680	0.328706
463.645882	0.327702
464.018024	0.334029
464.390106	0.326978
464.762130	0.311331
465.134094	0.294370
465.505999	0.263436
465.877845	0.233667
466.249631	0.220413
466.621358	0.228051
466.993026	0.242174
467.364634	0.248283
467.736184	0.256835
468.107674	0.265733
468.479105	0.264961
468.850477	0.271790
469.221790	0.278830
469.593043	0.289105
469.964238	0.293035
470.335373	0.292989
470.706449	0.291008
471.077467	0.291645
471.448425	0.253907
471.819324	0.229040
472.190164	0.228929
472.560945	0.257709
472.931667	0.279749
473.302330	0.284226
473.672934	0.295910
474.043479	0.284061
474.413965	0.286129
474.784393	0.289219
475.154761	0.284584
475.525070	0.281286
475.895321	0.287183
476.265513	0.281258
476.635645	0.277034
477.005719	0.276683
477.375734	0.273339
477.745691	0.266407
478.115588	0.262891
478.485427	0.256391
478.855207	0.243327
479.224928	0.225704
479.594591	0.213880
479.964194	0.217196
480.333739	0.218700
480.703226	0.219959
481.072653	0.218131
481.442022	0.214026
481.811333	0.210546
482.180584	0.213851
482.549777	0.219514
482.918912	0.222507
483.287988	0.222362
483.657005	0.222169
484.025964	0.228493
484.394864	0.225752
484.763706	0.226477
485.132489	0.231505
485.501213	0.232013
485.869879	0.230535
486.238487	0.233672
486.607036	0.231541
486.975527	0.236325
487.343959	0.232110
487.712333	0.231334
488.080648	0.232234
488.448905	0.232107
488.817104	0.233094
489.185244	0.227571
489.553326	0.224451
489.921350	0.214389
490.289315	0.196824
490.657222	0.191768
491.025070	0.193182
491.392861	0.194820
491.760593	0.200651
492.128267	0.206374
492.495883	0.211869
492.863440	0.218346
493.230939	0.224758
493.598380	0.226086
493.965763	0.228418
494.333088	0.230012
494.700354	0.231955
495.067563	0.230817
495.434713	0.234496
495.801805	0.232065
496.168839	0.233495
496.535815	0.235114
496.902733	0.235104
497.269593	0.236314
497.636395	0.234176
498.003139	0.234407
498.369825	0.237523
498.736453	0.233853
499.103023	0.235684
499.469535	0.235073
499.835989	0.235158
500.202385	0.235872
500.568723	0.239511
500.935003	0.234444
501.301226	0.238672
501.667390	0.233027
502.033497	0.230827
502.399546	0.233966
502.765537	0.235942
503.131470	0.234565
503.497345	0.230764
503.863163	0.239376
504.228923	0.232450
504.594625	0.231142
504.960269	0.236431
505.325856	0.232016
505.691385	0.236001
506.056856	0.232913
506.422270	0.232349
506.787625	0.234836
507.152924	0.232212
507.518164	0.232331
507.883347	0.234358
508.248472	0.236109
508.613540	0.230916
508.978550	0.233467
509.343503	0.233915
509.708398	0.231902
510.073236	0.229258
510.438016	0.228986
510.802738	0.230014
511.167403	0.228937
511.532010	0.231215
511.896561	0.226601
512.261053	0.224812
512.625488	0.227307
512.989866	0.227607
513.354186	0.227707
513.718449	0.230056
514.082655	0.226032
514.446803	0.228360
514.810894	0.225949
515.174927	0.228773
515.538904	0.228328
515.902822	0.225172
516.266684	0.227450
516.630488	0.228862
516.994235	0.227470
517.357925	0.226341
517.721558	0.224638
518.085133	0.223925
518.448651	0.224260
518.812112	0.226496
519.175516	0.226051
519.538863	0.223521
519.902152	0.225106
520.265385	0.222267
520.628560	0.223635
520.991678	0.224231
521.354739	0.223468
521.717743	0.224338
522.080690	0.224679
522.443580	0.221980
522.806413	0.222895
523.169189	0.222439
523.531908	0.221179
523.894569	0.224798
524.257174	0.224829
524.619722	0.222347
524.982213	0.223641
525.344647	0.222398
525.707025	0.223441
526.069345	0.221728
526.431608	0.223390
526.793815	0.221238
527.155964	0.225398
527.518057	0.224162
527.880093	0.225129
528.242072	0.223890
528.603995	0.225720
528.965860	0.227246
529.327669	0.226407
529.689421	0.227066
530.051117	0.228048
530.412755	0.225458
530.774337	0.227948
531.135862	0.228604
531.497331	0.227827
531.858743	0.230613
532.220098	0.227309
532.581396	0.229778
532.942638	0.230306
533.303824	0.231450
533.664953	0.230866
534.026025	0.233154
534.387040	0.230896
534.747999	0.230746
535.108902	0.229367
535.469748	0.234673
535.830537	0.232289
536.191270	0.233015
536.551947	0.232326
536.912567	0.232389
537.273131	0.234032
537.633638	0.234553
537.994089	0.234995
538.354483	0.235914
538.714821	0.232803
539.075103	0.232524
539.435328	0.233265
539.795497	0.237086
540.155609	0.233763
540.515665	0.232000
540.875665	0.237627
541.235609	0.236072
541.595496	0.236164
541.955328	0.232712
542.315102	0.235416
542.674821	0.236672
543.034483	0.236627
543.394090	0.236428
543.753640	0.237842
544.113134	0.233163
544.472571	0.236584
544.831953	0.233159
545.191278	0.237454
545.550548	0.236613
545.909761	0.233686
546.268918	0.234587
546.628019	0.232528
546.987064	0.235489
547.346053	0.237141
547.704986	0.235199
548.063863	0.235135
548.422684	0.235350
548.781449	0.237461
549.140158	0.235359
549.498811	0.237561
549.857408	0.240631
550.215949	0.235828
550.574434	0.238880
550.932864	0.236975
551.291237	0.235153
551.649555	0.236878
552.007817	0.236561
552.366022	0.237483
552.724173	0.237757
553.082267	0.238003
553.440305	0.234916
553.798288	0.239390
554.156215	0.235902
554.514086	0.236580
554.871902	0.240014
555.229661	0.238921
555.587365	0.239458
555.945014	0.241821
556.302606	0.239143
556.660143	0.241651
557.017625	0.238130
557.375050	0.240375
557.732421	0.237359
558.089735	0.239318
558.446994	0.239178
558.804197	0.238384
559.161345	0.238284
559.518437	0.241642
559.875474	0.240041
560.232455	0.239442
560.589381	0.240320
560.946251	0.240560
561.303065	0.238011
561.659825	0.239233
562.016528	0.241080
562.373177	0.243772
562.729770	0.240966
563.086307	0.242834
563.442789	0.240787
563.799216	0.243644
564.155587	0.242715
564.511904	0.243736
564.868164	0.243573
565.224370	0.243819
565.580520	0.245328
565.936615	0.245299
566.292654	0.248224
566.648638	0.244921
567.004567	0.245771
567.360441	0.246566
567.716260	0.248706
568.072023	0.246083
568.427732	0.246928
568.783385	0.249575
569.138982	0.247584
569.494525	0.247249
569.850013	0.250347
570.205445	0.248764
570.560823	0.250996
570.916145	0.253258
571.271412	0.251492
571.626625	0.253002
571.981782	0.253509
572.336884	0.254136
572.691931	0.254132
573.046923	0.255743
573.401860	0.256430
573.756743	0.258007
574.111570	0.257016
574.466342	0.257462
574.821059	0.256496
575.175722	0.259783
575.530330	0.259457
575.884882	0.259685
576.239380	0.261335
576.593823	0.262200
576.948211	0.261947
577.302544	0.264647
577.656823	0.264529
578.011047	0.264319
578.365216	0.265181
578.719330	0.267302
579.073389	0.266768
579.427394	0.268158
579.781344	0.269113
580.135239	0.270003
580.489080	0.270101
580.842866	0.273014
581.196597	0.273327
581.550273	0.271687
581.903895	0.272646
582.257463	0.270709
582.610975	0.274008
582.964434	0.273347
583.317837	0.275860
583.671186	0.275980
584.024481	0.276565
584.377721	0.278723
584.730906	0.279816
585.084037	0.279062
585.437113	0.280913
585.790135	0.279653
586.143103	0.283214
586.496016	0.284030
586.848874	0.281436
587.201679	0.282207
587.554428	0.285788
587.907124	0.284307
588.259765	0.285168
588.612352	0.285632
588.964884	0.289603
589.317362	0.289252
589.669786	0.288934
590.022155	0.287491
590.374470	0.286827
590.726731	0.288590
591.078937	0.293739
591.431090	0.290203
591.783188	0.293967
592.135232	0.295074
592.487222	0.294340
592.839157	0.292949
593.191038	0.295067
593.542866	0.296874
593.894639	0.300176
594.246358	0.298882
594.598022	0.298096
594.949633	0.301840
595.301190	0.302444
595.652692	0.301480
596.004141	0.297306
596.355535	0.305694
596.706876	0.306174
597.058162	0.308670
597.409395	0.305819
597.760573	0.304057
598.111698	0.306864
598.462768	0.307218
598.813785	0.308641
599.164748	0.309831
599.515657	0.310094
599.866511	0.313813
600.217312	0.309183
600.568060	0.314041
600.918753	0.310718
601.269392	0.311623
601.619978	0.315077
601.970510	0.312494
602.320988	0.312506
602.671412	0.310344
603.021783	0.313143
603.372100	0.313960
603.722363	0.313794
604.072572	0.314653
604.422728	0.314482
604.772830	0.316956
605.122878	0.316451
605.472872	0.317204
605.822813	0.314964
606.172701	0.317839
606.522534	0.315180
606.872314	0.315521
607.222041	0.316248
607.571714	0.314060
607.921333	0.315735
608.270899	0.315527
608.620411	0.312155
608.969870	0.316314
609.319276	0.316507
609.668627	0.316362
610.017926	0.314761
610.367171	0.313090
610.716362	0.314121
611.065500	0.314093
611.414585	0.313062
611.763616	0.313354
612.112594	0.313788
612.461518	0.313311
612.810389	0.311166
613.159207	0.312982
613.507971	0.314736
613.856682	0.311135
614.205340	0.311943
614.553945	0.309513
614.902496	0.313197
615.250994	0.310922
615.599439	0.311763
615.947830	0.311061
616.296169	0.312006
616.644454	0.311776
616.992686	0.311663
617.340864	0.309871
617.688990	0.313170
618.037063	0.309842
618.385082	0.311378
618.733048	0.308530
619.080961	0.310724
619.428821	0.310504
619.776628	0.310117
620.124382	0.312019
620.472083	0.312666
620.819731	0.311843
621.167326	0.315565
621.514868	0.315561
621.862357	0.319666
622.209793	0.319172
622.557176	0.321716
622.904506	0.322691
623.251783	0.325236
623.599007	0.327279
623.946179	0.326682
624.293297	0.328859
624.640363	0.332660
624.987376	0.333146
625.334336	0.335649
625.681243	0.337894
626.028097	0.338395
626.374899	0.339707
626.721647	0.339987
627.068343	0.343178
627.414987	0.344288
627.761577	0.346385
628.108115	0.344480
628.454600	0.349914
628.801032	0.347413
629.147412	0.349103
629.493739	0.350089
629.840014	0.352805
630.186236	0.349853
630.532405	0.356222
630.878521	0.353175
631.224585	0.355326
631.570597	0.358811
631.916556	0.357904
632.262462	0.356963
632.608316	0.359708
632.954117	0.360576
633.299866	0.361244
633.645562	0.361655
633.991206	0.365912
634.336797	0.368936
634.682336	0.371653
635.027823	0.373026
635.373257	0.373353
635.718639	0.377159
636.063968	0.376153
636.409245	0.382061
636.754470	0.382996
637.099642	0.385028
637.444762	0.388701
637.789829	0.387672
638.134845	0.390851
638.479808	0.392101
638.824719	0.392306
639.169577	0.396010
639.514383	0.395187
639.859137	0.399267
640.203839	0.398792
640.548489	0.399689
640.893086	0.400598
641.237632	0.402206
641.582125	0.401305
641.926566	0.403121
642.270955	0.402774
642.615292	0.402557
642.959576	0.402170
643.303809	0.403196
643.647990	0.402497
643.992118	0.403322
644.336195	0.406569
644.680219	0.404551
645.024192	0.405466
645.368112	0.399424
645.711981	0.397792
646.055797	0.392980
646.399562	0.395743
646.743274	0.388462
647.086935	0.385302
647.430544	0.385510
647.774101	0.384070
648.117606	0.383866
648.461059	0.384688
648.804460	0.387214
649.147810	0.391697
649.491108	0.393460
649.834354	0.395300
650.177548	0.400281
650.520690	0.406048
650.863781	0.406613
651.206820	0.406532
651.549807	0.411024
651.892742	0.415224
652.235626	0.414716
652.578458	0.415407
652.921238	0.422295
653.263967	0.419538
653.606644	0.423250
653.949269	0.423209
654.291843	0.427205
654.634365	0.424037
654.976836	0.427048
655.319255	0.428003
655.661622	0.429010
656.003938	0.429119
656.346203	0.432203
656.688416	0.430567
657.030577	0.433105
657.372687	0.435770
657.714746	0.435828
658.056753	0.432945
658.398708	0.436814
658.740612	0.438553
659.082465	0.434572
659.424266	0.435199
659.766016	0.434209
660.107715	0.437590
660.449362	0.436099
660.790958	0.436483
661.132503	0.438040
661.473996	0.434775
661.815438	0.436041
662.156829	0.436518
662.498168	0.436748
662.839456	0.438441
663.180693	0.435987
663.521879	0.436438
663.863013	0.437123
664.204097	0.435387
664.545129	0.432378
664.886110	0.433011
665.227040	0.429992
665.567918	0.433083
665.908746	0.430360
666.249522	0.430562
666.590248	0.431497
666.930922	0.429336
667.271545	0.428633
667.612118	0.428502
667.952639	0.430433
668.293109	0.429503
668.633528	0.431915
668.973896	0.431338
669.314213	0.432587
669.654480	0.434452
669.994695	0.434188
670.334859	0.435106
670.674973	0.435523
671.015035	0.436005
671.355047	0.435808
671.695008	0.436409
672.034918	0.438798
672.374777	0.438012
672.714585	0.439360
673.054342	0.439490
673.394049	0.439193
673.733705	0.437467
674.073310	0.438505
674.412864	0.440853
674.752368	0.441594
675.091820	0.442565
675.431223	0.446426
675.770574	0.446274
676.109875	0.449438
676.449125	0.449957
676.788324	0.452273
677.127473	0.457401
677.466571	0.457349
677.805619	0.458855
678.144616	0.460626
678.483562	0.462541
678.822458	0.464898
679.161303	0.465051
679.500098	0.466042
679.838842	0.467759
680.177535	0.466936
680.516179	0.465789
680.854771	0.465435
681.193314	0.458738
681.531805	0.449969
681.870247	0.438967
682.208638	0.431593
682.546978	0.430606
682.885268	0.432156
683.223508	0.438832
683.561697	0.443041
683.899836	0.445253
684.237925	0.448351
684.575963	0.451456
684.913951	0.454772
685.251889	0.450494
685.589776	0.452522
685.927614	0.455518
686.265401	0.450061
686.603137	0.451602
686.940824	0.445754
687.278460	0.444670
687.616046	0.443885
687.953582	0.439201
688.291068	0.440798
688.628504	0.436874
688.965889	0.438942
689.303224	0.442630
689.640510	0.446838
689.977745	0.452372
690.314930	0.460409
690.652065	0.465336
690.989150	0.472259
691.326185	0.478772
691.663170	0.483883
692.000105	0.490926
692.336990	0.497806
692.673825	0.500294
693.010610	0.506860
693.347345	0.513084
693.684030	0.514365
694.020665	0.519533
694.357251	0.527933
694.693786	0.527621
695.030272	0.531136
695.366707	0.535866
695.703093	0.539126
696.039429	0.536904
696.375716	0.539695
696.711952	0.542073
697.048139	0.543367
697.384276	0.545891
697.720363	0.545201
698.056400	0.543180
698.392388	0.549355
698.728326	0.552149
699.064214	0.554865
699.400053	0.555131
699.735842	0.560302
700.071581	0.561763
700.407270	0.565886
700.742910	0.568419
701.078501	0.574545
701.414042	0.575589
701.749533	0.578783
702.084974	0.587391
702.420366	0.580113
702.755709	0.587191
703.091002	0.594762
703.426246	0.589546
703.761440	0.594353
704.096584	0.598607
704.431679	0.597219
704.766725	0.599317
705.101721	0.601657
705.436668	0.597336
705.771565	0.603499
706.106413	0.599707
706.441212	0.596656
706.775961	0.596270
707.110661	0.597877
707.445311	0.594759
707.779913	0.593248
708.114465	0.591646
708.448967	0.588501
708.783421	0.581602
709.117825	0.576033
709.452180	0.575830
709.786485	0.570439
710.120742	0.561134
710.454949	0.562193
710.789107	0.555134
711.123216	0.546793
711.457275	0.548083
711.791286	0.540945
712.125247	0.541044
712.459159	0.549807
712.793023	0.542257
713.126837	0.548077
713.460602	0.548486
713.794318	0.555924
714.127985	0.555987
714.461602	0.566176
714.795171	0.567765
715.128691	0.576348
715.462162	0.584068
715.795584	0.590488
716.128957	0.593212
716.462281	0.599199
716.795556	0.602555
717.128782	0.608912
717.461960	0.617222
717.795088	0.616307
718.128167	0.622130
718.461198	0.629325
718.794180	0.630942
719.127113	0.633964
719.459997	0.637239
719.792833	0.642833
720.125619	0.643691
720.458357	0.650247
720.791046	0.650902
721.123686	0.653925
721.456278	0.661035
721.788821	0.657952
722.121315	0.662849
722.453761	0.666730
722.786158	0.664667
723.118506	0.661607
723.450805	0.668076
723.783056	0.665620
724.115259	0.663586
724.447412	0.663393
724.779518	0.663748
725.111574	0.663626
725.443582	0.659762
725.775542	0.662536
726.107453	0.655514
726.439315	0.655172
726.771129	0.654159
727.102895	0.647541
727.434612	0.642101
727.766281	0.639910
728.097901	0.638557
728.429473	0.638533
728.760996	0.637545
729.092471	0.638174
729.423897	0.641645
729.755276	0.641429
730.086606	0.640244
730.417887	0.635263
730.749120	0.626869
731.080305	0.619801
731.411442	0.615831
731.742530	0.618599
732.073570	0.618759
732.404562	0.613339
732.735506	0.614104
733.066401	0.618426
733.397249	0.627400
733.728048	0.638485
734.058798	0.651536
734.389501	0.662144
734.720156	0.670293
735.050762	0.677898
735.381320	0.679461
735.711831	0.686619
736.042293	0.691976
736.372707	0.690171
736.703073	0.693966
737.033391	0.695019
737.363661	0.692073
737.693883	0.688780
738.024056	0.687638
738.354182	0.687530
738.684260	0.678375
739.014290	0.675571
739.344272	0.675088
739.674207	0.670826
740.004093	0.669639
740.333931	0.670056
740.663722	0.670873
740.993464	0.671754
741.323159	0.674803
741.652806	0.680298
741.982405	0.685652
742.311956	0.689853
742.641460	0.691480
742.970915	0.695364
743.300323	0.701320
743.629683	0.707341
743.958996	0.710035
744.288260	0.713528
744.617477	0.720004
744.946647	0.721373
745.275768	0.727165
745.604842	0.727947
745.933869	0.734942
746.262847	0.737554
746.591778	0.732061
746.920662	0.737616
747.249498	0.742450
747.578286	0.736428
747.907027	0.732764
748.235720	0.731111
748.564365	0.728604
748.892963	0.728549
749.221514	0.732553
749.550017	0.735088
749.878473	0.736292
750.206881	0.742350
750.535242	0.743857
750.863555	0.742543
751.191821	0.743392
751.520039	0.745808
751.848210	0.748898
752.176334	0.745286
752.504411	0.745192
752.832440	0.751328
753.160421	0.754820
753.488356	0.753285
753.816243	0.752466
754.144082	0.759267
754.471875	0.762279
754.799620	0.759243
755.127318	0.760737
755.454969	0.760665
755.782572	0.761846
756.110129	0.765187
756.437638	0.767808
756.765100	0.764468
757.092515	0.763615
757.419882	0.762805
757.747203	0.767115
758.074477	0.767131
758.401703	0.764325
758.728882	0.760522
759.056014	0.759336
759.383099	0.758185
759.710138	0.757689
760.037129	0.754333
760.364073	0.750999
760.690970	0.753051
761.017820	0.755846
761.344623	0.753646
761.671379	0.746501
761.998088	0.735796
762.324751	0.715313
762.651366	0.675613
762.977935	0.613705
763.304456	0.569562
763.630931	0.563373
763.957359	0.597059
764.283740	0.637191
764.610074	0.664800
764.936362	0.693992
765.262602	0.717791
765.588796	0.736956
765.914943	0.751918
766.241044	0.767954
766.567097	0.774139
766.893104	0.783406
767.219064	0.788352
767.544978	0.794844
767.870845	0.806035
768.196665	0.809198
768.522438	0.808898
768.848165	0.809879
769.173846	0.817846
769.499479	0.822901
769.825066	0.825803
770.150607	0.829614
770.476101	0.826101
770.801548	0.829367
771.126949	0.837064
771.452303	0.841087
771.777611	0.840260
772.102872	0.840291
772.428087	0.845887
772.753256	0.849279
773.078378	0.849963
773.403453	0.856481
773.728482	0.860987
774.053465	0.854677
774.378401	0.858715
774.703291	0.864979
775.028135	0.866679
775.352932	0.865900
775.677683	0.870479
776.002388	0.871480
776.327046	0.870776
776.651658	0.873437
776.976224	0.875605
777.300743	0.876481
777.625216	0.878761
777.949643	0.879946
778.274024	0.878724
778.598359	0.882307
778.922647	0.880037
779.246889	0.881964
779.571086	0.883730
779.895236	0.885911
780.219339	0.884900
780.543397	0.882566
780.867409	0.881205
781.191374	0.882340
781.515294	0.884242
781.839167	0.884158
782.162995	0.884986
782.486776	0.883579
782.810511	0.883686
783.134201	0.887520
783.457844	0.887254
783.781441	0.888830
784.104993	0.892643
784.428498	0.892789
784.751958	0.890674
785.075372	0.892470
785.398739	0.894260
785.722061	0.889934
786.045337	0.890329
786.368568	0.891666
786.691752	0.895234
787.014891	0.882442
787.337983	0.875583
787.661030	0.867752
787.984031	0.852534
788.306987	0.842543
788.629897	0.842401
788.952760	0.848401
789.275579	0.853603
789.598351	0.866154
789.921078	0.877185
790.243759	0.879169
790.566395	0.883520
790.888984	0.889529
791.211529	0.894346
791.534027	0.896765
791.856480	0.899310
792.178888	0.901369
792.501249	0.902986
792.823566	0.906466
793.145836	0.905851
793.468062	0.908242
793.790241	0.908863
794.112375	0.905392
794.434464	0.902762
794.756507	0.903331
795.078505	0.900053
795.400457	0.895974
795.722364	0.885962
796.044226	0.881170
796.366042	0.880001
796.687812	0.881503
797.009538	0.879475
797.331218	0.883790
797.652852	0.886914
797.974442	0.890305
798.295986	0.891032
798.617484	0.893820
798.938938	0.897349
799.260346	0.901191
799.581709	0.902160
799.903026	0.905882
800.224299	0.905149
800.545526	0.908121
800.866708	0.911375
801.187845	0.914839
801.508936	0.914275
801.829983	0.912790
802.150984	0.916619
802.471940	0.919570
802.792851	0.918906
803.113717	0.920357
803.434538	0.919255
803.755314	0.922109
804.076045	0.921713
804.396731	0.922279
804.717372	0.920120
805.037967	0.923474
805.358518	0.921023
805.679024	0.918339
805.999485	0.919326
806.319901	0.919115
806.640272	0.921634
806.960598	0.919061
807.280879	0.916815
807.601115	0.915703
807.921306	0.919629
808.241453	0.918013
808.561554	0.918126
808.881611	0.918298
809.201623	0.919765
809.521590	0.919810
809.841513	0.921450
810.161390	0.918992
810.481223	0.920524
810.801011	0.924018
811.120755	0.924940
811.440453	0.923901
811.760107	0.924828
812.079716	0.924314
812.399281	0.926700
812.718801	0.928384
813.038276	0.928993
813.357707	0.929408
813.677093	0.928186
813.996434	0.929740
814.315731	0.931997
814.634983	0.931581
814.954191	0.931046
815.273354	0.928078
815.592473	0.926036
815.911547	0.926854
816.230577	0.923295
816.549562	0.921521
816.868502	0.920819
817.187399	0.920055
817.506250	0.916170
817.825058	0.917459
818.143821	0.914507
818.462539	0.910335
818.781213	0.904122
819.099843	0.895913
819.418429	0.881242
819.736970	0.867397
820.055466	0.850790
820.373919	0.831661
820.692327	0.806519
821.010691	0.775859
821.329011	0.705494
821.647286	0.599557
821.965517	0.497833
822.283704	0.458243
822.601847	0.461822
822.919945	0.501828
823.237999	0.541971
823.556010	0.585285
823.873976	0.634639
824.191897	0.679490
824.509775	0.716014
824.827609	0.750731
825.145398	0.769786
825.463144	0.771708
825.780845	0.757722
826.098502	0.740388
826.416116	0.701894
826.733685	0.662606
827.051210	0.655982
827.368692	0.669941
827.686129	0.706613
828.003522	0.750510
828.320872	0.790605
828.638177	0.824410
828.955439	0.849720
829.272656	0.866761
829.589830	0.879364
829.906960	0.893179
830.224046	0.901995
830.541088	0.909942
830.858086	0.914203
831.175041	0.919866
831.491952	0.918763
831.808819	0.915240
832.125642	0.910126
832.442421	0.900557
832.759157	0.881658
833.075849	0.842983
833.392497	0.789867
833.709101	0.758703
834.025662	0.769444
834.342179	0.796455
834.658653	0.828230
834.975083	0.857759
835.291469	0.878463
835.607811	0.895444
835.924110	0.908453
836.240366	0.921551
836.556578	0.930341
836.872746	0.936330
837.188871	0.941082
837.504952	0.943789
837.820990	0.947404
838.136984	0.949579
838.452935	0.952525
838.768842	0.953314
839.084706	0.947290
839.400526	0.928287
839.716303	0.893108
840.032037	0.876544
840.347727	0.882125
840.663373	0.897233
840.978977	0.915195
841.294537	0.932809
841.610054	0.943210
841.925527	0.950102
842.240957	0.955048
842.556344	0.960129
842.871687	0.964712
843.186987	0.967393
843.502244	0.968867
843.817458	0.968685
844.132629	0.971893
844.447756	0.974608
844.762840	0.974806
845.077881	0.975799
845.392879	0.974005
845.707833	0.976697
846.022745	0.978414
846.337613	0.977634
846.652438	0.978122
846.967221	0.978884
847.281960	0.978521
847.596656	0.980480
847.911309	0.979921
848.225919	0.980329
848.540485	0.981608
848.855009	0.981422
849.169490	0.982075
849.483928	0.981604
849.798323	0.980401
850.112675	0.981713
850.426984	0.982526
850.741251	0.982042
851.055474	0.982105
851.369654	0.982162
851.683792	0.981299
851.997887	0.981536
852.311938	0.982793
852.625947	0.980911
852.939914	0.980687
853.253837	0.981982
853.567718	0.982648
853.881555	0.982506
854.195350	0.982031
854.509103	0.982507
854.822812	0.983043
855.136479	0.983644
855.450103	0.982614
855.763685	0.981833
856.077224	0.983603
856.390720	0.984326
856.704173	0.983833
857.017584	0.982988
857.330953	0.981669
857.644278	0.980945
857.957561	0.981706
858.270802	0.982566
858.584000	0.981362
858.897155	0.982190
859.210268	0.981124
859.523339	0.982676
859.836367	0.983251
860.149352	0.981626
860.462295	0.982554
860.775195	0.982647
861.088054	0.981056
861.400869	0.982573
861.713642	0.982735
862.026373	0.984734
862.339062	0.984792
862.651708	0.982881
862.964312	0.982269
863.276873	0.982006
863.589392	0.981035
863.901869	0.979724
864.214303	0.979017
864.526696	0.978457
864.839045	0.978426
865.151353	0.977395
865.463619	0.977665
865.775842	0.978882
866.088023	0.978813
866.400162	0.978350
866.712258	0.978809
867.024313	0.978662
867.336325	0.980184
867.648296	0.979178
867.960224	0.977860
868.272110	0.979926
868.583954	0.980125
868.895755	0.979323
869.207515	0.977460
869.519233	0.977904
869.830909	0.977759
870.142542	0.977904
870.454134	0.978046
870.765684	0.976239
871.077191	0.976523
871.388657	0.976177
871.700081	0.975828
872.011463	0.976755
872.322803	0.974820
872.634101	0.973493
872.945357	0.973217
873.256571	0.971226
873.567744	0.971113
873.878874	0.972836
874.189963	0.972713
874.501010	0.974221
874.812015	0.971297
875.122979	0.970196
875.433900	0.972620
875.744780	0.973204
876.055618	0.971614
876.366415	0.970573
876.677169	0.971323
876.987882	0.971592
877.298554	0.972660
877.609183	0.970034
877.919771	0.968877
878.230317	0.968889
878.540822	0.964247
878.851285	0.963170
879.161707	0.957760
879.472087	0.951257
879.782425	0.937949
880.092722	0.914751
880.402977	0.874153
880.713191	0.821372
881.023363	0.766205
881.333494	0.733805
881.643583	0.715342
881.953631	0.720610
882.263637	0.748198
882.573602	0.781147
882.883526	0.805003
883.193408	0.825123
883.503248	0.844388
883.813048	0.864864
884.122806	0.886537
884.432522	0.903649
884.742197	0.918653
885.051831	0.926010
885.361424	0.934399
885.670975	0.943590
885.980485	0.948107
886.289954	0.951657
886.599382	0.954176
886.908768	0.958370
887.218113	0.962310
887.527417	0.964714
887.836680	0.966063
888.145901	0.968164
888.455082	0.971854
888.764221	0.973360
889.073319	0.973616
889.382376	0.975397
889.691392	0.973608
890.000366	0.975895
890.309300	0.973665
890.618193	0.974495
890.927044	0.972141
891.235855	0.971874
891.544625	0.972280
891.853353	0.973021
892.162041	0.971293
892.470687	0.968458
892.779293	0.963405
893.087858	0.960361
893.396381	0.955026
893.704864	0.944666
894.013306	0.928290
894.321707	0.909936
894.630068	0.898519
894.938387	0.894516
895.246665	0.898838
895.554903	0.908338
895.863100	0.920604
896.171256	0.931168
896.479371	0.943369
896.787446	0.952161
897.095480	0.956111
897.403473	0.957910
897.711425	0.962013
898.019336	0.966276
898.327207	0.968259
898.635038	0.968823
898.942827	0.969710
899.250576	0.970762
899.558284	0.973581
899.865952	0.974230
900.173579	0.975563
900.481165	0.977210
900.788711	0.977338
901.096216	0.980255
901.403681	0.981204
901.711105	0.980161
902.018489	0.980465
902.325832	0.980577
902.633135	0.978885
902.940397	0.976733
903.247619	0.968163
903.554800	0.950905
903.861941	0.922171
904.169041	0.893071
904.476101	0.881334
904.783121	0.883008
905.090100	0.897568
905.397039	0.913236
905.703938	0.929991
906.010796	0.943790
906.317614	0.953450
906.624391	0.963115
906.931129	0.968804
907.237826	0.974419
907.544483	0.977220
907.851099	0.981252
908.157675	0.982889
908.464211	0.985964
908.770707	0.985873
909.077163	0.987093
909.383578	0.988899
909.689954	0.987080
909.996289	0.989942
910.302584	0.989449
910.608839	0.991389
910.915054	0.990359
911.221229	0.990795
911.527363	0.988063
911.833458	0.990421
912.139513	0.988826
912.445527	0.989374
912.751502	0.987940
913.057436	0.985635
913.363331	0.984082
913.669186	0.983341
913.975000	0.979659
914.280775	0.975686
914.586510	0.970646
914.892205	0.961007
915.197859	0.946347
915.503475	0.928760
915.809050	0.913429
916.114585	0.907362
916.420081	0.906752
916.725536	0.907373
917.030952	0.914351
917.336328	0.923374
917.641665	0.933197
917.946961	0.944956
918.252218	0.951097
918.557435	0.957118
918.862612	0.962626
919.167750	0.966724
919.472848	0.970690
919.777906	0.975383
920.082925	0.977396
920.387904	0.978756
920.692843	0.980283
920.997743	0.981173
921.302603	0.983433
921.607423	0.983929
921.912204	0.985800
922.216946	0.987664
922.521647	0.987649
922.826310	0.986894
923.130932	0.990276
923.435516	0.989561
923.740059	0.991292
924.044564	0.990125
924.349028	0.990970
924.653454	0.992544
924.957840	0.993487
925.262186	0.994306
925.566493	0.993868
925.870761	0.993934
926.174989	0.995275
926.479178	0.996108
926.783328	0.996581
927.087438	0.996132
927.391509	0.995764
927.695541	0.996489
927.999533	0.997412
928.303486	0.996124
928.607400	0.997508
928.911275	0.998926
929.215110	0.998628
929.518906	0.997626
929.822663	0.998215
930.126381	0.998151
930.430060	0.998399
930.733699	0.997658
931.037299	0.998204
931.340861	0.998406
931.644383	0.996180
931.947866	0.997965
932.251309	0.998299
932.554714	0.998105
932.858080	0.998247
933.161407	0.996473
933.464694	0.997784
933.767943	0.998606
934.071153	0.998110
934.374323	0.999809
934.677455	0.997613
934.980548	0.997740
935.283602	0.999006
935.586617	0.997678
935.889593	0.998991
936.192530	0.998238
936.495428	0.999349
936.798287	0.997579
937.101108	0.998118
937.403890	0.996515
937.706632	0.998154
938.009336	0.995815
938.312002	0.993858
938.614628	0.994052
938.917216	0.993760
939.219765	0.992489
939.522275	0.993875
939.824747	0.993197
940.127179	0.993915
940.429573	0.995255
940.731929	0.994539
941.034246	0.995023
941.336524	0.993771
941.638763	0.994027
941.940964	0.994482
942.243126	0.995859
942.545250	0.996111
942.847335	0.995698
943.149381	0.996079
943.451389	0.996889
943.753359	0.997223
944.055290	0.996831
944.357182	0.997629
944.659036	0.998543
944.960851	0.997189
945.262628	0.998019
945.564367	0.997809
945.866067	0.996821
946.167729	0.998158
946.469352	0.996842
946.770937	0.995205
947.072484	0.998345
947.373992	0.998383
947.675462	0.997030
947.976893	0.997771
948.278286	0.999392
948.579641	0.998863
948.880958	0.998527
949.182236	0.997651
949.483476	0.998877
949.784678	0.998483
950.085841	0.998357
950.386967	0.997558
950.688054	0.998213
950.989103	0.997116
951.290114	0.997844
951.591087	0.998218
951.892021	0.996974
952.192917	0.996341
952.493776	0.998106
952.794596	0.996019
953.095378	0.996807
953.396122	0.994644
953.696828	0.996904
953.997496	0.997664
954.298126	0.998707
954.598718	0.998289
954.899272	0.997516
955.199788	0.997587
955.500266	0.999784
955.800706	0.998171
956.101108	0.999158
956.401472	1.000830
956.701798	0.998941
957.002087	0.999099
957.302337	0.998825
957.602550	0.999814
957.902724	1.000698
958.202861	1.000151
958.502960	1.000003
958.803022	1.002098
959.103045	1.000646
959.403031	1.002170
959.702979	1.002128
960.002889	1.000569
960.302762	1.000510
960.602596	1.001202
960.902393	1.000894
961.202153	1.001565
961.501875	1.002246
961.801559	1.001843
962.101205	1.000981
962.400814	1.004644
962.700385	1.003287
962.999918	1.002048
963.299414	1.000578
963.598873	1.002139
963.898293	1.002348
964.197677	1.000853
964.497022	1.001849
964.796331	1.001749
965.095601	1.002216
965.394835	1.002616
965.694030	1.002982
965.993189	1.001792
966.292309	1.002189
966.591393	1.000465
966.890439	1.002923
967.189447	1.001482
967.488419	1.002008
967.787353	1.002199
968.086249	1.002746
968.385108	1.001449
968.683930	1.003153
968.982714	1.001150
969.281462	1.003122
969.580172	1.002300
969.878844	1.004001
970.177480	1.001932
970.476078	1.004509
970.774639	1.002027
971.073162	1.001922
971.371649	1.001589
971.670098	1.001535
971.968510	1.002533
972.266885	1.001104
972.565223	1.001517
972.863524	1.001257
973.161788	1.002333
973.460014	1.002239
973.758204	1.001673
974.056356	1.001346
974.354471	1.000939
974.652550	1.003147
974.950591	1.003059
975.248595	1.001609
975.546563	1.002515
975.844493	1.002605
976.142386	1.001781
976.440243	1.002236
976.738062	1.002698
977.035845	1.002062
977.333590	1.003389
977.631299	1.002071
977.928971	1.002950
978.226606	1.002741
978.524204	1.001865
978.821765	1.002606
979.119290	1.003916
979.416777	1.001820
979.714228	1.002935
980.011642	1.004579
980.309020	1.002502
980.606360	1.002054
980.903664	1.002467
981.200931	1.001810
981.498162	1.001847
981.795356	1.001291
982.092513	1.000519
982.389633	1.000227
982.686717	0.999985
982.983764	0.998219
983.280775	0.999264
983.577749	0.999187
983.874686	0.998266
984.171587	0.998806
984.468451	1.000059
984.765279	1.000912
985.062070	1.002026
985.358824	1.000411
985.655543	1.002166
985.952224	1.002312
986.248869	1.002145
986.545478	1.002654
986.842050	1.001533
987.138586	1.001761
987.435086	1.001896
987.731549	1.002509
988.027975	1.004060
988.324366	1.002405
988.620719	1.004210
988.917037	1.002705
989.213318	1.003908
989.509563	1.003034
989.805772	1.002949
990.101944	1.003632
990.398080	1.004084
990.694180	1.003611
990.990244	1.003129
991.286271	1.002745
991.582262	1.002667
991.878217	1.003052
992.174136	1.004294
992.470019	1.003226
992.765865	1.004793
993.061676	1.003646
993.357450	1.002891
993.653188	1.004252
993.948890	1.002555
994.244556	1.000935
994.540186	1.003345
994.835780	1.003868
995.131337	1.003366
995.426859	1.003065
995.722345	1.001738
996.017795	1.001863
996.313208	1.002312
996.608586	1.002700
996.903928	1.001738
997.199234	1.001694
997.494504	1.002196
997.789738	1.001204
998.084936	1.003169
998.380099	1.002612
998.675225	1.004284
998.970316	1.002898
999.265371	1.001893
999.560390	1.001901
999.855373	1.002875
1000.150320	1.003927
1000.445232	1.003367
1000.740108	1.002839
1001.034948	1.002219
1001.329752	1.003935
1001.624521	1.002316
1001.919254	1.003756
1002.213951	1.003556
1002.508613	1.002661
1002.803239	1.002499
1003.097829	1.003349
1003.392384	1.003573
1003.686903	1.003049
1003.981386	1.004026
1004.275834	1.004163
1004.570246	1.002830
1004.864623	1.004219
1005.158964	1.003784
1005.453270	1.003198
1005.747540	1.003466
1006.041775	1.003898
1006.335974	1.003356
1006.630138	1.004803
1006.924266	1.002905
1007.218359	1.002007
1007.512416	1.005281
1007.806438	1.003463
1008.100425	1.003436
1008.394376	1.004266
1008.688292	1.003105
1008.982172	1.003516
1009.276017	1.004613
1009.569827	1.004570
1009.863602	1.002466
1010.157341	1.004152
1010.451045	1.003229
1010.744714	1.004982
1011.038347	1.003317
1011.331945	1.002701
1011.625508	1.004041
1011.919036	1.003189
1012.212528	1.003200
1012.505986	1.002695
1012.799408	1.002832
1013.092795	1.003953
1013.386147	1.004085
1013.679464	1.004060
1013.972745	1.003859
1014.265992	1.003327
1014.559204	1.004485
1014.852380	1.004105
1015.145521	1.004066
1015.438628	1.003043
1015.731699	1.002718
1016.024736	1.004423
1016.317737	1.003660
1016.610703	1.005489
1016.903635	1.004343
1017.196531	1.004670
1017.489393	1.003246
1017.782219	1.003100
1018.075011	1.003130
1018.367768	1.003665
1018.660490	1.003239
1018.953177	1.003239
1019.245829	1.003239
