Dividing Wavelength (nm)	Counts (n)	Blue Motor Position (mm): 15.600000	Red Motor Position (mm): 0.000000	
326.493990	1.003453
326.888308	1.003453
327.282561	1.003453
327.676750	1.003911
328.070874	1.004501
328.464933	1.003230
328.858929	1.004336
329.252859	1.003083
329.646726	1.002545
330.040528	1.002301
330.434265	1.002365
330.827938	1.001775
331.221547	1.002749
331.615091	1.003273
332.008571	1.002587
332.401986	1.002038
332.795338	1.002336
333.188625	1.004070
333.581847	1.001504
333.975006	1.003383
334.368100	1.002881
334.761129	1.001662
335.154095	1.001858
335.546996	1.001514
335.939833	0.998274
336.332606	0.999385
336.725315	0.998356
337.117960	1.000161
337.510540	0.998436
337.903056	1.000054
338.295508	0.999644
338.687896	0.999529
339.080220	0.997952
339.472480	0.998587
339.864676	0.998889
340.256807	0.997739
340.648875	0.999122
341.040879	0.998801
341.432818	0.998162
341.824694	0.999539
342.216506	0.999640
342.608253	0.998354
342.999937	0.998347
343.391557	0.998110
343.783113	0.999293
344.174605	0.999146
344.566033	0.998696
344.957397	0.998930
345.348697	0.998817
345.739934	0.999501
346.131106	0.998663
346.522215	0.997848
346.913260	0.997916
347.304241	0.998520
347.695159	0.999806
348.086012	0.999298
348.476802	0.998749
348.867528	0.999588
349.258191	0.998722
349.648789	0.998279
350.039324	0.998256
350.429796	0.998336
350.820203	0.996674
351.210548	0.998997
351.600828	0.998243
351.991045	0.998697
352.381198	0.999285
352.771288	0.997773
353.161314	0.997434
353.551276	0.997567
353.941175	0.997377
354.331010	0.999444
354.720782	0.998305
355.110490	0.998525
355.500135	0.998562
355.889717	0.996102
356.279235	0.997822
356.668689	0.998649
357.058080	0.998549
357.447408	0.997231
357.836672	0.997682
358.225873	0.997836
358.615010	0.997980
359.004084	0.996764
359.393095	0.998988
359.782043	0.997465
360.170927	0.997995
360.559748	0.997815
360.948505	0.996402
361.337199	0.996702
361.725830	0.996788
362.114398	0.997526
362.502903	0.995125
362.891344	0.996082
363.279722	0.997045
363.668037	0.997671
364.056289	0.997033
364.444478	0.997917
364.832603	0.997976
365.220665	0.996639
365.608665	0.995760
365.996601	0.996529
366.384474	0.995329
366.772284	0.995919
367.160031	0.995243
367.547715	0.995274
367.935336	0.993725
368.322893	0.992460
368.710388	0.991710
369.097820	0.990257
369.485189	0.988920
369.872495	0.985818
370.259738	0.984733
370.646918	0.980801
371.034035	0.979853
371.421090	0.976337
371.808081	0.970860
372.195010	0.969048
372.581875	0.962797
372.968678	0.959124
373.355418	0.955463
373.742096	0.947461
374.128710	0.943518
374.515262	0.938518
374.901751	0.932993
375.288177	0.928381
375.674540	0.921294
376.060841	0.915462
376.447079	0.908550
376.833254	0.901281
377.219367	0.897863
377.605417	0.886429
377.991404	0.881766
378.377329	0.876873
378.763191	0.869653
379.148991	0.860583
379.534727	0.853601
379.920402	0.844633
380.306013	0.841820
380.691563	0.829390
381.077049	0.821878
381.462474	0.817318
381.847835	0.806892
382.233134	0.802370
382.618371	0.802270
383.003545	0.785377
383.388657	0.782746
383.773706	0.774957
384.158693	0.771434
384.543618	0.765260
384.928480	0.756928
385.313280	0.747147
385.698017	0.746414
386.082692	0.735065
386.467305	0.733815
386.851856	0.728146
387.236344	0.722935
387.620770	0.716764
388.005133	0.711138
388.389435	0.706063
388.773674	0.704034
389.157851	0.695109
389.541965	0.692658
389.926018	0.698961
390.310008	0.686105
390.693936	0.683935
391.077802	0.675315
391.461606	0.677302
391.845348	0.665718
392.229027	0.665382
392.612645	0.663430
392.996200	0.650571
393.379694	0.643912
393.763125	0.633460
394.146494	0.639005
394.529801	0.628843
394.913047	0.621935
395.296230	0.627322
395.679351	0.618473
396.062410	0.615380
396.445408	0.617598
396.828343	0.614288
397.211217	0.608201
397.594028	0.620467
397.976778	0.611052
398.359466	0.606961
398.742092	0.602666
399.124656	0.614339
399.507158	0.602559
399.889598	0.600702
400.271977	0.591476
400.654294	0.595467
401.036549	0.594567
401.418742	0.598416
401.800874	0.584033
402.182944	0.580894
402.564952	0.572765
402.946898	0.574789
403.328783	0.575443
403.710606	0.586832
404.092367	0.561954
404.474067	0.567039
404.855705	0.565133
405.237282	0.574527
405.618797	0.560330
406.000250	0.555937
406.381642	0.546037
406.762972	0.551115
407.144240	0.550501
407.525447	0.550247
407.906593	0.541882
408.287677	0.538280
408.668700	0.546629
409.049661	0.541191
409.430560	0.535588
409.811399	0.544451
410.192176	0.525860
410.572891	0.534203
410.953545	0.521622
411.334138	0.534994
411.714669	0.527439
412.095139	0.539084
412.475547	0.523221
412.855894	0.524879
413.236180	0.524827
413.616405	0.529915
413.996568	0.520342
414.376670	0.527255
414.756711	0.531365
415.136691	0.528235
415.516609	0.519717
415.896466	0.515842
416.276262	0.512313
416.655997	0.514280
417.035670	0.495887
417.415283	0.486663
417.794834	0.491925
418.174324	0.496812
418.553753	0.506161
418.933121	0.488202
419.312428	0.482617
419.691674	0.488144
420.070859	0.476787
420.449983	0.484393
420.829045	0.473196
421.208047	0.482638
421.586988	0.475534
421.965867	0.474644
422.344686	0.462924
422.723444	0.476070
423.102141	0.492409
423.480777	0.465717
423.859352	0.485895
424.237866	0.463374
424.616319	0.464481
424.994712	0.455325
425.373044	0.465389
425.751314	0.453803
426.129524	0.470841
426.507673	0.453761
426.885762	0.447057
427.263789	0.452994
427.641756	0.462144
428.019662	0.452706
428.397508	0.451859
428.775292	0.456033
429.153016	0.448066
429.530679	0.454650
429.908282	0.447339
430.285824	0.457317
430.663305	0.436582
431.040726	0.457146
431.418086	0.457577
431.795385	0.448576
432.172624	0.448226
432.549802	0.448126
432.926920	0.447471
433.303977	0.446750
433.680974	0.443846
434.057910	0.442198
434.434786	0.441774
434.811601	0.444849
435.188355	0.426726
435.565050	0.436341
435.941683	0.437824
436.318257	0.420742
436.694770	0.423125
437.071222	0.420701
437.447614	0.424829
437.823946	0.431086
438.200218	0.420870
438.576429	0.430363
438.952580	0.423297
439.328670	0.419716
439.704700	0.426777
440.080670	0.428037
440.456580	0.409016
440.832429	0.416954
441.208218	0.427805
441.583947	0.416791
441.959616	0.416517
442.335224	0.422079
442.710773	0.412463
443.086261	0.410541
443.461689	0.424553
443.837057	0.414391
444.212365	0.404295
444.587612	0.411750
444.962800	0.401231
445.337927	0.403210
445.712995	0.428950
446.088002	0.391199
446.462949	0.401898
446.837837	0.406555
447.212664	0.395096
447.587431	0.386439
447.962139	0.356765
448.336786	0.316201
448.711374	0.326530
449.085901	0.370809
449.460369	0.374958
449.834776	0.377911
450.209124	0.358009
450.583412	0.350348
450.957640	0.343351
451.331808	0.354825
451.705917	0.378049
452.079965	0.383257
452.453954	0.371278
452.827883	0.378164
453.201752	0.373051
453.575562	0.383623
453.949311	0.372532
454.323001	0.378492
454.696632	0.374545
455.070202	0.367014
455.443713	0.359079
455.817164	0.353393
456.190556	0.349706
456.563888	0.346507
456.937160	0.344116
457.310373	0.360876
457.683526	0.360131
458.056619	0.366213
458.429653	0.366054
458.802628	0.369728
459.175542	0.363877
459.548398	0.346399
459.921194	0.338864
460.293930	0.339448
460.666607	0.316715
461.039224	0.305126
461.411782	0.300513
461.784280	0.299774
462.156719	0.303779
462.529099	0.308454
462.901419	0.324243
463.273680	0.328714
463.645882	0.328443
464.018024	0.334580
464.390106	0.327011
464.762130	0.311785
465.134094	0.294295
465.505999	0.263254
465.877845	0.233720
466.249631	0.220704
466.621358	0.228171
466.993026	0.242021
467.364634	0.248579
467.736184	0.257078
468.107674	0.265809
468.479105	0.265134
468.850477	0.271581
469.221790	0.278667
469.593043	0.289065
469.964238	0.293795
470.335373	0.293171
470.706449	0.291385
471.077467	0.291836
471.448425	0.253909
471.819324	0.229609
472.190164	0.228788
472.560945	0.257868
472.931667	0.279985
473.302330	0.284323
473.672934	0.296248
474.043479	0.283901
474.413965	0.286245
474.784393	0.289859
475.154761	0.284438
475.525070	0.281641
475.895321	0.287860
476.265513	0.281669
476.635645	0.277156
477.005719	0.277078
477.375734	0.273602
477.745691	0.266648
478.115588	0.263148
478.485427	0.256540
478.855207	0.243769
479.224928	0.225961
479.594591	0.214261
479.964194	0.217562
480.333739	0.218673
480.703226	0.220314
481.072653	0.218503
481.442022	0.214374
481.811333	0.210923
482.180584	0.214138
482.549777	0.219816
482.918912	0.223066
483.287988	0.222798
483.657005	0.222438
484.025964	0.228925
484.394864	0.226164
484.763706	0.226809
485.132489	0.231811
485.501213	0.232325
485.869879	0.230911
486.238487	0.234024
486.607036	0.231921
486.975527	0.236752
487.343959	0.232400
487.712333	0.231352
488.080648	0.232986
488.448905	0.232203
488.817104	0.233277
489.185244	0.227868
489.553326	0.224672
489.921350	0.214756
490.289315	0.197073
490.657222	0.192009
491.025070	0.193311
491.392861	0.195301
491.760593	0.201074
492.128267	0.206978
492.495883	0.212261
492.863440	0.218664
493.230939	0.224870
493.598380	0.226628
493.965763	0.228558
494.333088	0.230800
494.700354	0.232228
495.067563	0.231381
495.434713	0.234731
495.801805	0.232491
496.168839	0.234196
496.535815	0.235437
496.902733	0.235314
497.269593	0.236773
497.636395	0.234785
498.003139	0.235001
498.369825	0.238248
498.736453	0.234641
499.103023	0.236458
499.469535	0.235553
499.835989	0.235810
500.202385	0.236392
500.568723	0.239896
500.935003	0.235241
501.301226	0.239299
501.667390	0.233748
502.033497	0.231628
502.399546	0.234669
502.765537	0.236544
503.131470	0.234922
503.497345	0.231441
503.863163	0.239952
504.228923	0.232821
504.594625	0.231686
504.960269	0.237437
505.325856	0.232477
505.691385	0.236858
506.056856	0.233543
506.422270	0.233021
506.787625	0.235436
507.152924	0.233063
507.518164	0.233288
507.883347	0.234892
508.248472	0.236716
508.613540	0.231611
508.978550	0.234274
509.343503	0.234903
509.708398	0.232387
510.073236	0.230158
510.438016	0.229761
510.802738	0.231182
511.167403	0.229684
511.532010	0.232347
511.896561	0.227441
512.261053	0.225979
512.625488	0.228429
512.989866	0.228796
513.354186	0.229079
513.718449	0.230920
514.082655	0.227201
514.446803	0.229682
514.810894	0.227378
515.174927	0.230003
515.538904	0.229557
515.902822	0.226355
516.266684	0.228745
516.630488	0.229967
516.994235	0.229027
517.357925	0.227834
517.721558	0.225892
518.085133	0.225752
518.448651	0.225473
518.812112	0.228011
519.175516	0.227507
519.538863	0.225028
519.902152	0.227044
520.265385	0.223706
520.628560	0.225488
520.991678	0.226173
521.354739	0.224816
521.717743	0.226092
522.080690	0.226613
522.443580	0.223998
522.806413	0.224985
523.169189	0.224519
523.531908	0.223079
523.894569	0.226785
524.257174	0.226916
524.619722	0.224641
524.982213	0.225824
525.344647	0.224826
525.707025	0.225607
526.069345	0.223950
526.431608	0.225699
526.793815	0.223664
527.155964	0.227790
527.518057	0.227109
527.880093	0.228100
528.242072	0.226447
528.603995	0.228568
528.965860	0.230359
529.327669	0.229244
529.689421	0.230295
530.051117	0.231292
530.412755	0.229171
530.774337	0.231594
531.135862	0.232178
531.497331	0.231445
531.858743	0.234601
532.220098	0.231231
532.581396	0.234067
532.942638	0.234806
533.303824	0.236035
533.664953	0.235879
534.026025	0.237748
534.387040	0.235886
534.747999	0.235904
535.108902	0.234929
535.469748	0.240474
535.830537	0.238460
536.191270	0.238849
536.551947	0.238691
536.912567	0.238747
537.273131	0.241174
537.633638	0.241440
537.994089	0.242061
538.354483	0.243532
538.714821	0.240397
539.075103	0.240665
539.435328	0.241932
539.795497	0.245831
540.155609	0.243122
540.515665	0.241319
540.875665	0.247285
541.235609	0.246409
541.595496	0.246729
541.955328	0.243759
542.315102	0.246899
542.674821	0.248463
543.034483	0.248768
543.394090	0.249051
543.753640	0.251069
544.113134	0.246878
544.472571	0.250656
544.831953	0.247884
545.191278	0.252638
545.550548	0.252602
545.909761	0.250218
546.268918	0.251461
546.628019	0.250521
546.987064	0.253956
547.346053	0.256005
547.704986	0.254784
548.063863	0.255599
548.422684	0.256770
548.781449	0.259112
549.140158	0.257962
549.498811	0.261164
549.857408	0.264940
550.215949	0.260886
550.574434	0.264826
550.932864	0.264166
551.291237	0.263083
551.649555	0.265985
552.007817	0.266350
552.366022	0.268391
552.724173	0.269371
553.082267	0.270578
553.440305	0.269121
553.798288	0.274082
554.156215	0.272439
554.514086	0.274205
554.871902	0.278321
555.229661	0.278939
555.587365	0.281031
555.945014	0.284376
556.302606	0.283220
556.660143	0.286970
557.017625	0.285301
557.375050	0.288605
557.732421	0.287353
558.089735	0.290851
558.446994	0.292414
558.804197	0.293028
559.161345	0.294707
559.518437	0.298945
559.875474	0.299301
560.232455	0.300764
560.589381	0.303298
560.946251	0.305736
561.303065	0.304070
561.659825	0.307692
562.016528	0.310651
562.373177	0.314568
562.729770	0.314980
563.086307	0.317887
563.442789	0.318595
563.799216	0.323416
564.155587	0.324066
564.511904	0.327595
564.868164	0.329557
565.224370	0.330901
565.580520	0.336159
565.936615	0.336694
566.292654	0.342938
566.648638	0.341740
567.004567	0.345491
567.360441	0.347931
567.716260	0.352598
568.072023	0.352238
568.427732	0.356306
568.783385	0.359798
569.138982	0.361959
569.494525	0.363908
569.850013	0.368814
570.205445	0.371101
570.560823	0.374678
570.916145	0.379492
571.271412	0.381249
571.626625	0.385183
571.981782	0.387820
572.336884	0.392225
572.691931	0.393485
573.046923	0.399110
573.401860	0.402493
573.756743	0.406856
574.111570	0.408332
574.466342	0.411237
574.821059	0.413719
575.175722	0.419009
575.530330	0.421973
575.884882	0.424934
576.239380	0.429698
576.593823	0.432176
576.948211	0.436141
577.302544	0.440168
577.656823	0.444690
578.011047	0.446638
578.365216	0.451624
578.719330	0.456040
579.073389	0.459382
579.427394	0.462964
579.781344	0.466718
580.135239	0.470644
580.489080	0.473660
580.842866	0.479636
581.196597	0.482651
581.550273	0.484112
581.903895	0.489539
582.257463	0.490810
582.610975	0.497168
582.964434	0.499303
583.317837	0.505308
583.671186	0.507680
584.024481	0.511870
584.377721	0.516335
584.730906	0.520489
585.084037	0.524154
585.437113	0.528237
585.790135	0.531765
586.143103	0.536919
586.496016	0.540439
586.848874	0.542661
587.201679	0.545500
587.554428	0.551868
587.907124	0.554314
588.259765	0.558423
588.612352	0.562775
588.964884	0.567950
589.317362	0.571097
589.669786	0.574674
590.022155	0.576177
590.374470	0.580166
590.726731	0.583340
591.078937	0.591478
591.431090	0.592864
591.783188	0.597751
592.135232	0.602976
592.487222	0.603941
592.839157	0.607180
593.191038	0.611778
593.542866	0.615636
593.894639	0.620805
594.246358	0.623461
594.598022	0.626788
594.949633	0.632384
595.301190	0.635698
595.652692	0.638370
596.004141	0.640567
596.355535	0.647367
596.706876	0.651509
597.058162	0.655700
597.409395	0.658139
597.760573	0.659922
598.111698	0.664251
598.462768	0.668484
598.813785	0.671278
599.164748	0.676886
599.515657	0.678988
599.866511	0.685658
600.217312	0.685158
600.568060	0.690780
600.918753	0.692839
601.269392	0.696092
601.619978	0.701297
601.970510	0.703437
602.320988	0.705797
602.671412	0.708340
603.021783	0.712520
603.372100	0.715887
603.722363	0.720243
604.072572	0.722142
604.422728	0.724866
604.772830	0.729044
605.122878	0.732222
605.472872	0.735917
605.822813	0.737401
606.172701	0.741469
606.522534	0.744144
606.872314	0.746957
607.222041	0.750628
607.571714	0.752219
607.921333	0.755489
608.270899	0.758985
608.620411	0.760458
608.969870	0.765541
609.319276	0.767150
609.668627	0.771242
610.017926	0.772940
610.367171	0.775900
610.716362	0.777958
611.065500	0.780691
611.414585	0.783970
611.763616	0.785135
612.112594	0.788408
612.461518	0.790355
612.810389	0.792230
613.159207	0.796315
613.507971	0.798465
613.856682	0.801246
614.205340	0.802312
614.553945	0.805075
614.902496	0.808173
615.250994	0.810745
615.599439	0.812332
615.947830	0.814422
616.296169	0.817672
616.644454	0.819924
616.992686	0.821465
617.340864	0.823677
617.688990	0.826431
618.037063	0.827352
618.385082	0.829702
618.733048	0.831592
619.080961	0.833666
619.428821	0.836599
619.776628	0.838375
620.124382	0.841664
620.472083	0.844376
620.819731	0.846513
621.167326	0.849209
621.514868	0.852191
621.862357	0.854734
622.209793	0.856925
622.557176	0.859690
622.904506	0.862306
623.251783	0.865324
623.599007	0.868025
623.946179	0.869491
624.293297	0.873765
624.640363	0.876292
624.987376	0.878407
625.334336	0.880409
625.681243	0.883285
626.028097	0.885062
626.374899	0.886797
626.721647	0.889481
627.068343	0.890518
627.414987	0.893109
627.761577	0.894520
628.108115	0.895321
628.454600	0.899663
628.801032	0.899900
629.147412	0.901626
629.493739	0.904225
629.840014	0.904371
630.186236	0.904755
630.532405	0.908426
630.878521	0.908609
631.224585	0.910367
631.570597	0.911640
631.916556	0.913969
632.262462	0.914209
632.608316	0.917273
632.954117	0.917352
633.299866	0.918207
633.645562	0.921130
633.991206	0.922799
634.336797	0.924417
634.682336	0.926590
635.027823	0.927301
635.373257	0.929466
635.718639	0.931613
636.063968	0.931639
636.409245	0.933591
636.754470	0.935391
637.099642	0.936314
637.444762	0.938787
637.789829	0.939337
638.134845	0.940834
638.479808	0.941947
638.824719	0.943158
639.169577	0.944118
639.514383	0.945802
639.859137	0.946727
640.203839	0.947459
640.548489	0.948259
640.893086	0.949372
641.237632	0.951239
641.582125	0.951333
641.926566	0.953158
642.270955	0.953589
642.615292	0.953998
642.959576	0.956237
643.303809	0.955806
643.647990	0.956030
643.992118	0.958223
644.336195	0.956991
644.680219	0.959232
645.024192	0.959380
645.368112	0.958943
645.711981	0.960261
646.055797	0.959326
646.399562	0.960052
646.743274	0.961484
647.086935	0.959572
647.430544	0.960759
647.774101	0.961696
648.117606	0.962703
648.461059	0.963736
648.804460	0.963786
649.147810	0.963678
649.491108	0.965686
649.834354	0.965723
650.177548	0.966671
650.520690	0.967859
650.863781	0.968040
651.206820	0.968907
651.549807	0.969487
651.892742	0.970427
652.235626	0.972099
652.578458	0.971737
652.921238	0.972986
653.263967	0.972381
653.606644	0.972547
653.949269	0.973452
654.291843	0.973349
654.634365	0.975340
654.976836	0.974192
655.319255	0.976590
655.661622	0.976096
656.003938	0.976355
656.346203	0.976336
656.688416	0.977760
657.030577	0.977575
657.372687	0.978053
657.714746	0.978972
658.056753	0.978042
658.398708	0.978763
658.740612	0.980297
659.082465	0.979910
659.424266	0.979882
659.766016	0.979596
660.107715	0.980985
660.449362	0.980822
660.790958	0.981015
661.132503	0.981113
661.473996	0.981380
661.815438	0.982594
662.156829	0.982513
662.498168	0.983116
662.839456	0.981686
663.180693	0.982507
663.521879	0.983227
663.863013	0.983903
664.204097	0.982685
664.545129	0.983670
664.886110	0.984010
665.227040	0.984058
665.567918	0.983640
665.908746	0.983414
666.249522	0.984328
666.590248	0.985249
666.930922	0.983966
667.271545	0.984863
667.612118	0.984473
667.952639	0.985564
668.293109	0.985226
668.633528	0.984344
668.973896	0.985911
669.314213	0.985634
669.654480	0.985858
669.994695	0.985549
670.334859	0.986402
670.674973	0.986143
671.015035	0.987728
671.355047	0.986732
671.695008	0.986895
672.034918	0.987324
672.374777	0.986915
672.714585	0.986712
673.054342	0.987938
673.394049	0.986609
673.733705	0.987112
674.073310	0.987600
674.412864	0.987766
674.752368	0.987240
675.091820	0.988233
675.431223	0.987580
675.770574	0.986909
676.109875	0.988731
676.449125	0.988445
676.788324	0.988517
677.127473	0.989114
677.466571	0.989142
677.805619	0.989599
678.144616	0.989981
678.483562	0.989712
678.822458	0.989428
679.161303	0.988492
679.500098	0.989791
679.838842	0.990501
680.177535	0.989564
680.516179	0.988851
680.854771	0.989069
681.193314	0.989334
681.531805	0.990194
681.870247	0.989331
682.208638	0.989244
682.546978	0.988639
682.885268	0.989057
683.223508	0.989336
683.561697	0.989542
683.899836	0.989377
684.237925	0.989431
684.575963	0.990193
684.913951	0.989831
685.251889	0.989792
685.589776	0.989113
685.927614	0.990296
686.265401	0.989862
686.603137	0.989224
686.940824	0.990071
687.278460	0.990425
687.616046	0.989101
687.953582	0.989066
688.291068	0.990340
688.628504	0.989850
688.965889	0.988553
689.303224	0.989243
689.640510	0.989980
689.977745	0.988815
690.314930	0.989796
690.652065	0.989754
690.989150	0.989123
691.326185	0.990552
691.663170	0.991027
692.000105	0.990622
692.336990	0.990739
692.673825	0.990951
693.010610	0.990652
693.347345	0.990535
693.684030	0.990757
694.020665	0.991334
694.357251	0.991426
694.693786	0.991724
695.030272	0.990107
695.366707	0.992245
695.703093	0.991987
696.039429	0.990803
696.375716	0.991588
696.711952	0.990339
697.048139	0.992473
697.384276	0.991940
697.720363	0.992087
698.056400	0.990232
698.392388	0.990689
698.728326	0.991894
699.064214	0.992489
699.400053	0.992175
699.735842	0.992260
700.071581	0.991553
700.407270	0.991603
700.742910	0.992632
701.078501	0.992504
701.414042	0.992407
701.749533	0.990396
702.084974	0.992477
702.420366	0.991948
702.755709	0.991968
703.091002	0.992426
703.426246	0.993507
703.761440	0.991498
704.096584	0.991283
704.431679	0.991589
704.766725	0.992056
705.101721	0.992943
705.436668	0.991934
705.771565	0.992901
706.106413	0.991802
706.441212	0.992681
706.775961	0.992900
707.110661	0.991883
707.445311	0.992377
707.779913	0.993443
708.114465	0.993582
708.448967	0.993484
708.783421	0.992995
709.117825	0.991618
709.452180	0.992306
709.786485	0.992483
710.120742	0.991538
710.454949	0.991289
710.789107	0.992333
711.123216	0.989982
711.457275	0.990516
711.791286	0.991714
712.125247	0.991419
712.459159	0.991042
712.793023	0.991568
713.126837	0.991946
713.460602	0.991111
713.794318	0.990165
714.127985	0.990588
714.461602	0.992207
714.795171	0.990771
715.128691	0.991226
715.462162	0.991835
715.795584	0.991873
716.128957	0.992590
716.462281	0.991639
716.795556	0.992240
717.128782	0.992957
717.461960	0.991606
717.795088	0.991935
718.128167	0.993245
718.461198	0.992425
718.794180	0.993516
719.127113	0.992949
719.459997	0.992964
719.792833	0.993006
720.125619	0.992082
720.458357	0.993056
720.791046	0.993211
721.123686	0.993384
721.456278	0.992667
721.788821	0.993608
722.121315	0.992998
722.453761	0.993077
722.786158	0.993052
723.118506	0.994005
723.450805	0.991698
723.783056	0.993193
724.115259	0.992550
724.447412	0.993758
724.779518	0.993912
725.111574	0.992234
725.443582	0.993715
725.775542	0.993015
726.107453	0.993351
726.439315	0.994483
726.771129	0.991945
727.102895	0.992478
727.434612	0.992530
727.766281	0.993557
728.097901	0.991047
728.429473	0.991829
728.760996	0.992101
729.092471	0.992369
729.423897	0.992379
729.755276	0.992230
730.086606	0.991625
730.417887	0.993222
730.749120	0.992515
731.080305	0.991870
731.411442	0.991694
731.742530	0.991100
732.073570	0.991841
732.404562	0.992120
732.735506	0.990860
733.066401	0.991195
733.397249	0.991711
733.728048	0.991979
734.058798	0.992495
734.389501	0.993105
734.720156	0.992776
735.050762	0.993534
735.381320	0.993360
735.711831	0.992276
736.042293	0.992260
736.372707	0.993605
736.703073	0.992132
737.033391	0.993005
737.363661	0.993588
737.693883	0.992928
738.024056	0.991604
738.354182	0.992311
738.684260	0.992876
739.014290	0.992880
739.344272	0.992208
739.674207	0.991834
740.004093	0.992250
740.333931	0.992601
740.663722	0.991427
740.993464	0.992413
741.323159	0.992042
741.652806	0.991946
741.982405	0.992561
742.311956	0.992645
742.641460	0.993113
742.970915	0.991988
743.300323	0.992192
743.629683	0.992063
743.958996	0.993890
744.288260	0.992730
744.617477	0.993194
744.946647	0.992428
745.275768	0.994594
745.604842	0.993258
745.933869	0.993872
746.262847	0.993902
746.591778	0.992376
746.920662	0.993421
747.249498	0.994603
747.578286	0.993747
747.907027	0.992852
748.235720	0.994484
748.564365	0.993591
748.892963	0.992939
749.221514	0.993875
749.550017	0.993315
749.878473	0.993253
750.206881	0.994199
750.535242	0.993557
750.863555	0.992901
751.191821	0.993665
751.520039	0.992900
751.848210	0.992147
752.176334	0.993721
752.504411	0.994108
752.832440	0.993039
753.160421	0.994235
753.488356	0.993888
753.816243	0.993286
754.144082	0.993655
754.471875	0.993625
754.799620	0.994130
755.127318	0.993484
755.454969	0.994555
755.782572	0.995074
756.110129	0.992594
756.437638	0.994681
756.765100	0.994431
757.092515	0.993157
757.419882	0.994407
757.747203	0.993522
758.074477	0.995447
758.401703	0.994386
758.728882	0.993355
759.056014	0.993857
759.383099	0.993514
759.710138	0.993384
760.037129	0.993859
760.364073	0.993503
760.690970	0.993510
761.017820	0.992910
761.344623	0.994349
761.671379	0.993896
761.998088	0.992513
762.324751	0.992713
762.651366	0.992088
762.977935	0.990554
763.304456	0.990346
763.630931	0.987186
763.957359	0.986688
764.283740	0.988307
764.610074	0.990109
764.936362	0.990612
765.262602	0.991793
765.588796	0.991833
765.914943	0.993234
766.241044	0.992995
766.567097	0.993781
766.893104	0.994396
767.219064	0.992804
767.544978	0.993014
767.870845	0.993421
768.196665	0.994475
768.522438	0.995056
768.848165	0.994324
769.173846	0.996291
769.499479	0.994853
769.825066	0.995264
770.150607	0.996508
770.476101	0.994655
770.801548	0.994925
771.126949	0.996593
771.452303	0.995291
771.777611	0.995532
772.102872	0.996377
772.428087	0.995132
772.753256	0.995001
773.078378	0.994879
773.403453	0.994479
773.728482	0.995892
774.053465	0.995343
774.378401	0.996070
774.703291	0.996244
775.028135	0.997223
775.352932	0.994317
775.677683	0.996638
776.002388	0.995897
776.327046	0.994824
776.651658	0.996965
776.976224	0.995591
777.300743	0.995259
777.625216	0.995455
777.949643	0.995840
778.274024	0.995216
778.598359	0.996461
778.922647	0.995586
779.246889	0.996696
779.571086	0.997098
779.895236	0.996078
780.219339	0.996568
780.543397	0.995976
780.867409	0.996360
781.191374	0.996027
781.515294	0.996461
781.839167	0.996238
782.162995	0.996625
782.486776	0.995131
782.810511	0.995822
783.134201	0.997527
783.457844	0.997347
783.781441	0.996319
784.104993	0.995375
784.428498	0.996406
784.751958	0.997193
785.075372	0.997165
785.398739	0.995603
785.722061	0.995089
786.045337	0.996431
786.368568	0.995982
786.691752	0.996440
787.014891	0.996370
787.337983	0.996314
787.661030	0.995424
787.984031	0.996808
788.306987	0.995488
788.629897	0.993242
788.952760	0.994673
789.275579	0.995749
789.598351	0.994859
789.921078	0.996162
790.243759	0.995408
790.566395	0.995002
790.888984	0.996212
791.211529	0.997300
791.534027	0.995946
791.856480	0.996105
792.178888	0.996475
792.501249	0.995579
792.823566	0.997669
793.145836	0.997135
793.468062	0.996947
793.790241	0.996751
794.112375	0.994898
794.434464	0.996433
794.756507	0.995948
795.078505	0.996089
795.400457	0.997103
795.722364	0.997075
796.044226	0.996959
796.366042	0.995487
796.687812	0.994322
797.009538	0.995173
797.331218	0.996816
797.652852	0.995518
797.974442	0.994870
798.295986	0.996185
798.617484	0.996504
798.938938	0.995856
799.260346	0.996728
799.581709	0.994749
799.903026	0.997202
800.224299	0.996558
800.545526	0.996812
800.866708	0.996016
801.187845	0.997810
801.508936	0.997007
801.829983	0.997259
802.150984	0.996719
802.471940	0.997194
802.792851	0.996504
803.113717	0.996928
803.434538	0.997939
803.755314	0.997242
804.076045	0.996739
804.396731	0.996458
804.717372	0.996013
805.037967	0.997678
805.358518	0.997050
805.679024	0.996236
805.999485	0.997411
806.319901	0.997103
806.640272	0.997228
806.960598	0.996903
807.280879	0.997771
807.601115	0.996803
807.921306	0.997048
808.241453	0.996782
808.561554	0.997040
808.881611	0.996776
809.201623	0.996520
809.521590	0.997028
809.841513	0.998072
810.161390	0.996125
810.481223	0.996414
810.801011	0.996045
811.120755	0.997346
811.440453	0.995935
811.760107	0.996547
812.079716	0.996592
812.399281	0.997537
812.718801	0.995366
813.038276	0.996049
813.357707	0.996538
813.677093	0.996975
813.996434	0.996817
814.315731	0.998145
814.634983	0.997179
814.954191	0.997991
815.273354	0.996138
815.592473	0.996251
815.911547	0.997568
816.230577	0.996189
816.549562	0.996796
816.868502	0.996048
817.187399	0.997535
817.506250	0.997283
817.825058	0.995054
818.143821	0.996305
818.462539	0.995655
818.781213	0.995783
819.099843	0.995405
819.418429	0.994473
819.736970	0.994918
820.055466	0.991745
820.373919	0.991213
820.692327	0.989868
821.010691	0.989450
821.329011	0.985191
821.647286	0.981893
821.965517	0.977869
822.283704	0.972967
822.601847	0.970427
822.919945	0.971708
823.237999	0.973442
823.556010	0.975495
823.873976	0.978175
824.191897	0.980664
824.509775	0.983091
824.827609	0.985167
825.145398	0.986408
825.463144	0.985532
825.780845	0.985721
826.098502	0.985836
826.416116	0.985600
826.733685	0.982881
827.051210	0.979110
827.368692	0.980806
827.686129	0.981978
828.003522	0.985157
828.320872	0.987046
828.638177	0.989030
828.955439	0.992009
829.272656	0.992249
829.589830	0.992646
829.906960	0.994039
830.224046	0.993964
830.541088	0.995087
830.858086	0.994870
831.175041	0.996401
831.491952	0.994234
831.808819	0.994751
832.125642	0.994406
832.442421	0.994132
832.759157	0.994088
833.075849	0.991880
833.392497	0.989165
833.709101	0.986300
834.025662	0.986455
834.342179	0.987240
834.658653	0.989645
834.975083	0.990805
835.291469	0.990717
835.607811	0.992270
835.924110	0.994984
836.240366	0.996193
836.556578	0.996117
836.872746	0.995808
837.188871	0.995703
837.504952	0.995970
837.820990	0.997762
838.136984	0.996319
838.452935	0.996797
838.768842	0.997390
839.084706	0.997526
839.400526	0.997296
839.716303	0.993542
840.032037	0.992157
840.347727	0.991670
840.663373	0.993951
840.978977	0.994108
841.294537	0.996018
841.610054	0.997395
841.925527	0.997497
842.240957	0.998798
842.556344	0.997569
842.871687	0.998406
843.186987	0.997335
843.502244	0.998438
843.817458	0.997605
844.132629	0.998339
844.447756	0.998318
844.762840	0.998191
845.077881	0.999904
845.392879	0.997686
845.707833	0.998774
846.022745	0.999102
846.337613	0.998678
846.652438	0.999121
846.967221	0.998300
847.281960	0.999708
847.596656	1.000171
847.911309	0.999460
848.225919	0.998265
848.540485	0.998539
848.855009	1.000803
849.169490	0.998715
849.483928	0.998361
849.798323	0.997650
850.112675	0.999686
850.426984	0.998943
850.741251	0.999698
851.055474	0.999180
851.369654	0.999830
851.683792	0.998379
851.997887	0.998440
852.311938	1.000240
852.625947	0.998633
852.939914	0.998267
853.253837	1.000420
853.567718	1.000277
853.881555	0.999640
854.195350	0.999624
854.509103	0.998859
854.822812	1.000317
855.136479	0.999605
855.450103	0.999998
855.763685	0.999987
856.077224	0.999144
856.390720	0.999703
856.704173	0.999244
857.017584	0.999604
857.330953	1.000015
857.644278	0.998829
857.957561	0.998797
858.270802	0.999617
858.584000	0.999298
858.897155	0.998554
859.210268	0.998434
859.523339	0.999621
859.836367	0.999530
860.149352	0.998531
860.462295	0.999261
860.775195	0.999583
861.088054	0.998215
861.400869	0.998239
861.713642	0.998584
862.026373	1.000310
862.339062	0.998955
862.651708	0.999627
862.964312	0.999389
863.276873	0.998950
863.589392	0.998214
863.901869	0.998486
864.214303	0.999465
864.526696	0.999063
864.839045	0.998791
865.151353	0.999252
865.463619	0.998417
865.775842	0.999092
866.088023	0.999932
866.400162	0.998680
866.712258	0.999108
867.024313	0.998362
867.336325	1.000316
867.648296	0.999133
867.960224	0.999460
868.272110	0.999635
868.583954	0.998495
868.895755	0.999514
869.207515	0.998214
869.519233	0.998785
869.830909	0.997786
870.142542	0.998835
870.454134	0.998103
870.765684	0.998615
871.077191	0.998832
871.388657	0.998915
871.700081	0.998240
872.011463	0.998510
872.322803	0.997728
872.634101	0.997113
872.945357	0.997973
873.256571	0.996895
873.567744	0.997382
873.878874	0.997744
874.189963	0.997848
874.501010	0.999718
874.812015	0.996986
875.122979	0.997468
875.433900	0.998412
875.744780	0.998648
876.055618	0.995740
876.366415	0.998127
876.677169	0.997697
876.987882	0.996758
877.298554	0.998331
877.609183	0.996830
877.919771	0.998065
878.230317	0.997719
878.540822	0.994838
878.851285	0.995365
879.161707	0.995464
879.472087	0.996246
879.782425	0.992742
880.092722	0.990540
880.402977	0.987363
880.713191	0.983304
881.023363	0.978121
881.333494	0.975004
881.643583	0.975601
881.953631	0.974086
882.263637	0.973921
882.573602	0.976436
882.883526	0.976842
883.193408	0.980936
883.503248	0.982450
883.813048	0.984626
884.122806	0.986829
884.432522	0.987324
884.742197	0.990469
885.051831	0.990810
885.361424	0.992294
885.670975	0.993928
885.980485	0.993447
886.289954	0.994115
886.599382	0.994827
886.908768	0.995968
887.218113	0.994762
887.527417	0.996386
887.836680	0.996659
888.145901	0.996788
888.455082	0.998038
888.764221	0.997137
889.073319	0.996502
889.382376	0.997845
889.691392	0.995954
890.000366	0.998455
890.309300	0.997400
890.618193	0.996517
890.927044	0.996005
891.235855	0.996793
891.544625	0.996955
891.853353	0.996153
892.162041	0.996384
892.470687	0.996785
892.779293	0.996094
893.087858	0.993955
893.396381	0.994708
893.704864	0.994012
894.013306	0.991795
894.321707	0.990491
894.630068	0.987566
894.938387	0.986228
895.246665	0.986347
895.554903	0.986813
895.863100	0.989616
896.171256	0.990523
896.479371	0.992278
896.787446	0.992166
897.095480	0.993786
897.403473	0.993748
897.711425	0.995385
898.019336	0.995809
898.327207	0.995905
898.635038	0.995758
898.942827	0.996387
899.250576	0.995471
899.558284	0.996529
899.865952	0.995929
900.173579	0.997495
900.481165	0.996162
900.788711	0.996399
901.096216	0.996858
901.403681	0.997418
901.711105	0.997999
902.018489	0.997918
902.325832	0.996802
902.633135	0.997480
902.940397	0.997125
903.247619	0.995181
903.554800	0.993246
903.861941	0.990343
904.169041	0.986679
904.476101	0.984506
904.783121	0.983547
905.090100	0.984698
905.397039	0.987641
905.703938	0.990436
906.010796	0.991436
906.317614	0.992535
906.624391	0.994758
906.931129	0.996093
907.237826	0.996077
907.544483	0.997922
907.851099	0.996717
908.157675	0.998346
908.464211	0.998247
908.770707	0.997770
909.077163	0.998163
909.383578	0.998362
909.689954	0.997973
909.996289	0.999002
910.302584	0.999369
910.608839	0.999923
910.915054	0.998280
911.221229	0.999883
911.527363	0.998103
911.833458	0.998030
912.139513	0.997761
912.445527	0.998914
912.751502	0.998205
913.057436	0.998005
913.363331	0.997920
913.669186	0.998441
913.975000	0.997749
914.280775	0.996404
914.586510	0.994981
914.892205	0.993060
915.197859	0.991937
915.503475	0.990260
915.809050	0.986879
916.114585	0.983540
916.420081	0.984375
916.725536	0.985651
917.030952	0.985024
917.336328	0.985825
917.641665	0.987351
917.946961	0.989495
918.252218	0.990168
918.557435	0.991073
918.862612	0.994104
919.167750	0.993701
919.472848	0.995276
919.777906	0.996316
920.082925	0.996916
920.387904	0.996671
920.692843	0.996979
920.997743	0.996300
921.302603	0.997826
921.607423	0.997384
921.912204	0.998780
922.216946	0.999463
922.521647	0.998359
922.826310	0.997557
923.130932	0.998238
923.435516	0.998149
923.740059	0.998723
924.044564	0.998332
924.349028	0.998031
924.653454	0.999179
924.957840	0.999922
925.262186	0.998667
925.566493	0.999642
925.870761	0.999255
926.174989	0.999670
926.479178	1.000272
926.783328	0.999787
927.087438	0.999485
927.391509	0.998541
927.695541	1.000141
927.999533	1.000446
928.303486	0.999399
928.607400	1.000556
928.911275	1.000866
929.215110	1.001075
929.518906	0.999960
929.822663	1.000309
930.126381	1.000712
930.430060	0.998645
930.733699	1.000115
931.037299	1.001660
931.340861	1.001042
931.644383	0.998636
931.947866	1.000836
932.251309	1.000545
932.554714	0.999286
932.858080	1.000705
933.161407	1.000118
933.464694	1.000658
933.767943	1.001157
934.071153	1.000307
934.374323	1.001454
934.677455	0.999034
934.980548	1.000914
935.283602	1.000706
935.586617	1.000214
935.889593	1.000705
936.192530	1.000961
936.495428	1.000102
936.798287	0.999365
937.101108	1.000831
937.403890	0.998860
937.706632	1.000936
938.009336	0.998411
938.312002	0.998521
938.614628	0.999338
938.917216	0.999047
939.219765	0.997699
939.522275	0.999117
939.824747	0.998626
940.127179	0.999005
940.429573	0.999632
940.731929	0.998493
941.034246	0.999188
941.336524	0.998605
941.638763	0.998768
941.940964	0.999968
942.243126	0.998059
942.545250	1.000379
942.847335	0.999778
943.149381	0.999783
943.451389	0.999092
943.753359	0.999476
944.055290	1.000977
944.357182	0.999622
944.659036	1.000219
944.960851	1.001122
945.262628	1.001098
945.564367	1.000159
945.866067	1.000015
946.167729	1.000877
946.469352	0.999782
946.770937	0.999502
947.072484	1.000026
947.373992	0.999472
947.675462	0.998829
947.976893	1.000146
948.278286	1.001923
948.579641	1.000595
948.880958	0.999383
949.182236	1.000089
949.483476	1.000856
949.784678	1.000505
950.085841	1.000341
950.386967	0.999600
950.688054	0.999379
950.989103	0.998980
951.290114	0.999866
951.591087	0.999760
951.892021	0.999052
952.192917	0.999857
952.493776	1.000137
952.794596	1.000021
953.095378	0.999323
953.396122	1.000878
953.696828	1.000000
953.997496	0.999469
954.298126	1.000243
954.598718	0.999018
954.899272	0.999809
955.199788	0.998937
955.500266	1.001814
955.800706	1.000312
956.101108	0.999445
956.401472	1.001518
956.701798	1.000818
957.002087	1.001034
957.302337	1.000050
957.602550	1.001834
957.902724	0.999909
958.202861	1.000612
958.502960	1.000176
958.803022	1.002809
959.103045	1.000429
959.403031	1.002454
959.702979	1.001614
960.002889	1.000712
960.302762	1.000308
960.602596	1.001419
960.902393	1.000148
961.202153	1.001005
961.501875	1.001379
961.801559	1.000387
962.101205	1.001734
962.400814	1.001753
962.700385	1.002326
962.999918	1.001883
963.299414	1.000923
963.598873	1.002078
963.898293	1.001629
964.197677	1.000757
964.497022	1.001426
964.796331	1.001024
965.095601	1.003131
965.394835	1.001141
965.694030	1.001116
965.993189	1.001034
966.292309	1.001684
966.591393	0.999774
966.890439	1.001822
967.189447	1.000610
967.488419	1.001297
967.787353	1.000176
968.086249	1.001809
968.385108	1.001463
968.683930	1.003352
968.982714	1.000963
969.281462	1.002099
969.580172	1.000599
969.878844	1.001819
970.177480	1.001499
970.476078	1.002848
970.774639	1.001914
971.073162	1.000740
971.371649	1.001110
971.670098	1.000990
971.968510	1.001978
972.266885	0.999569
972.565223	1.001137
972.863524	1.000029
973.161788	1.001892
973.460014	1.002216
973.758204	1.000238
974.056356	1.001036
974.354471	1.000925
974.652550	1.002216
974.950591	1.001370
975.248595	1.000770
975.546563	1.000651
975.844493	1.002159
976.142386	1.000081
976.440243	1.001957
976.738062	1.001113
977.035845	1.000849
977.333590	1.000725
977.631299	1.001138
977.928971	1.001328
978.226606	1.001615
978.524204	1.000643
978.821765	1.000865
979.119290	1.002822
979.416777	1.001234
979.714228	1.000524
980.011642	1.002066
980.309020	1.001023
980.606360	1.000857
980.903664	1.001324
981.200931	1.000981
981.498162	1.000897
981.795356	1.001179
982.092513	1.000352
982.389633	1.001350
982.686717	1.000045
982.983764	0.999524
983.280775	1.000734
983.577749	1.001823
983.874686	1.000130
984.171587	0.999984
984.468451	1.000778
984.765279	1.000385
985.062070	1.002131
985.358824	1.001439
985.655543	1.001507
985.952224	1.001315
986.248869	1.001453
986.545478	1.002953
986.842050	1.000235
987.138586	1.000193
987.435086	1.000550
987.731549	1.002921
988.027975	1.002774
988.324366	1.001234
988.620719	1.003127
988.917037	1.002265
989.213318	1.001883
989.509563	1.002656
989.805772	1.002082
990.101944	1.001282
990.398080	1.002544
990.694180	1.002426
990.990244	1.001288
991.286271	1.000681
991.582262	1.001793
991.878217	1.001816
992.174136	1.002961
992.470019	1.001876
992.765865	1.003708
993.061676	1.002245
993.357450	1.001513
993.653188	1.002893
993.948890	1.000901
994.244556	1.001401
994.540186	1.000901
994.835780	1.000760
995.131337	1.001783
995.426859	1.001592
995.722345	1.001775
996.017795	1.000671
996.313208	1.001370
996.608586	1.001690
996.903928	1.001579
997.199234	1.001359
997.494504	1.002098
997.789738	1.000508
998.084936	1.002268
998.380099	1.001067
998.675225	1.002052
998.970316	1.002597
999.265371	1.001918
999.560390	1.001754
999.855373	1.001710
1000.150320	1.001215
1000.445232	1.002184
1000.740108	1.001854
1001.034948	1.000472
1001.329752	1.003218
1001.624521	1.001321
1001.919254	1.001329
1002.213951	1.002973
1002.508613	1.000177
1002.803239	1.002195
1003.097829	1.002547
1003.392384	1.002555
1003.686903	1.001808
1003.981386	1.001970
1004.275834	1.002914
1004.570246	1.001395
1004.864623	1.001863
1005.158964	1.001868
1005.453270	1.001333
1005.747540	1.002336
1006.041775	1.002049
1006.335974	1.001672
1006.630138	1.001361
1006.924266	1.001317
1007.218359	1.000267
1007.512416	1.002657
1007.806438	1.001144
1008.100425	1.001454
1008.394376	1.001734
1008.688292	1.001430
1008.982172	1.002468
1009.276017	1.002025
1009.569827	1.003644
1009.863602	0.999997
1010.157341	1.002463
1010.451045	1.001166
1010.744714	1.002898
1011.038347	1.001467
1011.331945	1.002094
1011.625508	1.002058
1011.919036	1.002733
1012.212528	1.002827
1012.505986	1.001907
1012.799408	1.001612
1013.092795	1.002624
1013.386147	1.002642
1013.679464	1.002601
1013.972745	1.001040
1014.265992	1.002244
1014.559204	1.001682
1014.852380	1.001667
1015.145521	1.002205
1015.438628	1.002119
1015.731699	1.001335
1016.024736	1.002514
1016.317737	1.001648
1016.610703	1.003007
1016.903635	1.001262
1017.196531	1.001311
1017.489393	1.000695
1017.782219	1.001530
1018.075011	1.002071
1018.367768	1.001822
1018.660490	1.001265
1018.953177	1.001265
1019.245829	1.001265
