Dividing Wavelength (nm)	Counts (n)	Blue Motor Position (mm): 2.500000	Red Motor Position (mm): 0.000000	
326.493990	1.004970
326.888308	1.004970
327.282561	1.004970
327.676750	1.007300
328.070874	1.007700
328.464933	1.008028
328.858929	1.007346
329.252859	1.006177
329.646726	1.005543
330.040528	1.005444
330.434265	1.006248
330.827938	1.006523
331.221547	1.006291
331.615091	1.006820
332.008571	1.008655
332.401986	1.004848
332.795338	1.005322
333.188625	1.007925
333.581847	1.006063
333.975006	1.005414
334.368100	1.006876
334.761129	1.005674
335.154095	1.006708
335.546996	1.004039
335.939833	0.998137
336.332606	0.999831
336.725315	0.998706
337.117960	0.999683
337.510540	0.998066
337.903056	0.999948
338.295508	0.999919
338.687896	1.000149
339.080220	1.000097
339.472480	0.998629
339.864676	0.999291
340.256807	0.998635
340.648875	0.999759
341.040879	0.999484
341.432818	1.000246
341.824694	0.999160
342.216506	1.000762
342.608253	0.999508
342.999937	0.999102
343.391557	0.999488
343.783113	1.001149
344.174605	0.999839
344.566033	0.998111
344.957397	1.000859
345.348697	0.999891
345.739934	1.000043
346.131106	0.999389
346.522215	0.998337
346.913260	0.999302
347.304241	0.998953
347.695159	0.999660
348.086012	0.999130
348.476802	0.999658
348.867528	0.999065
349.258191	1.000266
349.648789	0.999098
350.039324	0.999811
350.429796	0.998573
350.820203	0.997650
351.210548	1.000132
351.600828	0.999840
351.991045	0.999183
352.381198	0.998435
352.771288	0.997843
353.161314	0.998940
353.551276	0.998727
353.941175	0.997324
354.331010	0.999022
354.720782	0.998796
355.110490	0.998446
355.500135	0.998127
355.889717	0.998359
356.279235	0.997825
356.668689	0.998596
357.058080	0.998491
357.447408	0.997923
357.836672	0.998576
358.225873	0.997679
358.615010	0.998536
359.004084	0.997100
359.393095	0.997989
359.782043	0.997157
360.170927	0.998492
360.559748	0.997674
360.948505	0.997347
361.337199	0.996339
361.725830	0.998344
362.114398	0.997829
362.502903	0.997846
362.891344	0.996544
363.279722	0.996915
363.668037	0.998216
364.056289	0.997156
364.444478	0.998401
364.832603	0.996687
365.220665	0.998432
365.608665	0.997327
365.996601	0.997152
366.384474	0.997165
366.772284	0.997034
367.160031	0.995417
367.547715	0.995851
367.935336	0.996401
368.322893	0.994105
368.710388	0.992040
369.097820	0.990733
369.485189	0.989049
369.872495	0.987177
370.259738	0.985911
370.646918	0.982969
371.034035	0.979947
371.421090	0.977171
371.808081	0.972000
372.195010	0.970875
372.581875	0.963459
372.968678	0.959668
373.355418	0.956809
373.742096	0.948110
374.128710	0.945101
374.515262	0.940595
374.901751	0.934278
375.288177	0.928982
375.674540	0.922749
376.060841	0.916886
376.447079	0.909601
376.833254	0.904519
377.219367	0.897202
377.605417	0.886181
377.991404	0.883403
378.377329	0.876786
378.763191	0.870164
379.148991	0.861784
379.534727	0.853523
379.920402	0.845948
380.306013	0.841858
380.691563	0.829550
381.077049	0.822554
381.462474	0.818952
381.847835	0.807094
382.233134	0.803901
382.618371	0.802825
383.003545	0.785279
383.388657	0.783686
383.773706	0.775794
384.158693	0.772076
384.543618	0.767366
384.928480	0.757944
385.313280	0.748486
385.698017	0.746334
386.082692	0.735736
386.467305	0.734499
386.851856	0.728722
387.236344	0.723364
387.620770	0.717903
388.005133	0.711365
388.389435	0.706278
388.773674	0.704363
389.157851	0.695452
389.541965	0.693352
389.926018	0.699694
390.310008	0.686601
390.693936	0.683758
391.077802	0.675567
391.461606	0.677270
391.845348	0.667095
392.229027	0.665861
392.612645	0.664351
392.996200	0.651856
393.379694	0.643881
393.763125	0.634894
394.146494	0.638753
394.529801	0.629552
394.913047	0.621521
395.296230	0.627824
395.679351	0.619153
396.062410	0.615818
396.445408	0.618276
396.828343	0.614049
397.211217	0.608344
397.594028	0.620630
397.976778	0.610821
398.359466	0.607581
398.742092	0.602602
399.124656	0.615100
399.507158	0.603269
399.889598	0.600868
400.271977	0.591518
400.654294	0.595608
401.036549	0.594712
401.418742	0.599031
401.800874	0.584930
402.182944	0.581601
402.564952	0.573250
402.946898	0.575258
403.328783	0.575768
403.710606	0.587154
404.092367	0.562131
404.474067	0.567360
404.855705	0.565694
405.237282	0.575006
405.618797	0.561102
406.000250	0.556048
406.381642	0.546383
406.762972	0.552116
407.144240	0.550898
407.525447	0.550054
407.906593	0.543345
408.287677	0.538820
408.668700	0.547243
409.049661	0.541275
409.430560	0.535993
409.811399	0.544210
410.192176	0.525812
410.572891	0.533540
410.953545	0.521705
411.334138	0.535460
411.714669	0.527691
412.095139	0.539869
412.475547	0.523287
412.855894	0.525869
413.236180	0.524946
413.616405	0.529890
413.996568	0.520343
414.376670	0.527114
414.756711	0.531381
415.136691	0.528624
415.516609	0.519889
415.896466	0.516146
416.276262	0.512329
416.655997	0.514333
417.035670	0.495809
417.415283	0.487058
417.794834	0.492327
418.174324	0.497338
418.553753	0.507045
418.933121	0.489002
419.312428	0.483182
419.691674	0.488621
420.070859	0.476877
420.449983	0.484740
420.829045	0.473862
421.208047	0.483097
421.586988	0.475662
421.965867	0.474548
422.344686	0.463573
422.723444	0.476348
423.102141	0.493580
423.480777	0.465868
423.859352	0.486694
424.237866	0.464000
424.616319	0.464988
424.994712	0.455706
425.373044	0.465825
425.751314	0.453813
426.129524	0.471048
426.507673	0.453709
426.885762	0.447903
427.263789	0.453113
427.641756	0.462418
428.019662	0.453254
428.397508	0.452289
428.775292	0.456272
429.153016	0.448377
429.530679	0.454823
429.908282	0.448078
430.285824	0.457888
430.663305	0.436268
431.040726	0.457373
431.418086	0.457019
431.795385	0.448969
432.172624	0.448407
432.549802	0.448480
432.926920	0.447806
433.303977	0.447131
433.680974	0.444280
434.057910	0.442839
434.434786	0.441757
434.811601	0.444927
435.188355	0.426843
435.565050	0.436636
435.941683	0.437939
436.318257	0.421920
436.694770	0.422605
437.071222	0.420942
437.447614	0.424769
437.823946	0.431440
438.200218	0.420582
438.576429	0.431131
438.952580	0.423989
439.328670	0.420347
439.704700	0.427100
440.080670	0.428136
440.456580	0.409285
440.832429	0.417227
441.208218	0.428063
441.583947	0.417048
441.959616	0.415966
442.335224	0.422660
442.710773	0.412810
443.086261	0.410932
443.461689	0.424500
443.837057	0.414747
444.212365	0.404616
444.587612	0.411858
444.962800	0.401856
445.337927	0.403268
445.712995	0.429206
446.088002	0.390967
446.462949	0.401869
446.837837	0.406319
447.212664	0.395636
447.587431	0.386876
447.962139	0.357248
448.336786	0.316354
448.711374	0.326811
449.085901	0.371025
449.460369	0.375176
449.834776	0.378558
450.209124	0.357777
450.583412	0.350490
450.957640	0.343518
451.331808	0.355421
451.705917	0.377929
452.079965	0.383137
452.453954	0.371398
452.827883	0.378176
453.201752	0.372957
453.575562	0.384227
453.949311	0.372708
454.323001	0.378695
454.696632	0.374835
455.070202	0.367231
455.443713	0.358999
455.817164	0.353949
456.190556	0.349862
456.563888	0.346852
456.937160	0.343958
457.310373	0.361498
457.683526	0.359877
458.056619	0.365852
458.429653	0.365981
458.802628	0.369929
459.175542	0.364437
459.548398	0.346667
459.921194	0.339841
460.293930	0.339736
460.666607	0.316891
461.039224	0.305436
461.411782	0.300730
461.784280	0.300149
462.156719	0.304056
462.529099	0.308685
462.901419	0.324446
463.273680	0.329190
463.645882	0.328318
464.018024	0.334091
464.390106	0.327210
464.762130	0.311361
465.134094	0.294557
465.505999	0.263351
465.877845	0.233704
466.249631	0.220751
466.621358	0.228103
466.993026	0.242151
467.364634	0.248374
467.736184	0.257136
468.107674	0.265831
468.479105	0.265063
468.850477	0.271834
469.221790	0.278809
469.593043	0.288843
469.964238	0.293846
470.335373	0.292937
470.706449	0.291544
471.077467	0.291810
471.448425	0.253850
471.819324	0.229318
472.190164	0.228972
472.560945	0.257886
472.931667	0.280099
473.302330	0.284499
473.672934	0.296254
474.043479	0.284222
474.413965	0.286252
474.784393	0.289673
475.154761	0.284774
475.525070	0.281695
475.895321	0.287493
476.265513	0.281620
476.635645	0.277181
477.005719	0.276861
477.375734	0.273618
477.745691	0.266377
478.115588	0.263170
478.485427	0.256615
478.855207	0.243785
479.224928	0.225812
479.594591	0.213821
479.964194	0.217282
480.333739	0.218547
480.703226	0.220004
481.072653	0.218473
481.442022	0.214058
481.811333	0.210576
482.180584	0.214171
482.549777	0.219783
482.918912	0.222750
483.287988	0.222537
483.657005	0.222309
484.025964	0.228592
484.394864	0.226153
484.763706	0.226497
485.132489	0.231561
485.501213	0.232639
485.869879	0.230797
486.238487	0.233883
486.607036	0.231584
486.975527	0.236523
487.343959	0.232263
487.712333	0.231298
488.080648	0.232535
488.448905	0.232005
488.817104	0.233380
489.185244	0.227725
489.553326	0.224541
489.921350	0.214217
490.289315	0.196890
490.657222	0.191823
491.025070	0.192973
491.392861	0.195047
491.760593	0.200856
492.128267	0.206636
492.495883	0.212050
492.863440	0.218360
493.230939	0.224756
493.598380	0.226220
493.965763	0.228380
494.333088	0.230412
494.700354	0.231900
495.067563	0.231206
495.434713	0.234684
495.801805	0.232066
496.168839	0.233901
496.535815	0.235051
496.902733	0.235059
497.269593	0.236525
497.636395	0.234271
498.003139	0.234534
498.369825	0.237576
498.736453	0.234378
499.103023	0.235746
499.469535	0.235220
499.835989	0.235183
500.202385	0.235984
500.568723	0.239632
500.935003	0.234599
501.301226	0.238947
501.667390	0.232971
502.033497	0.231164
502.399546	0.234026
502.765537	0.235991
503.131470	0.234671
503.497345	0.230863
503.863163	0.239209
504.228923	0.232564
504.594625	0.231378
504.960269	0.236459
505.325856	0.231954
505.691385	0.236435
506.056856	0.232931
506.422270	0.232462
506.787625	0.234941
507.152924	0.232382
507.518164	0.232763
507.883347	0.234515
508.248472	0.236124
508.613540	0.231116
508.978550	0.233791
509.343503	0.234237
509.708398	0.232009
510.073236	0.229399
510.438016	0.229181
510.802738	0.230124
511.167403	0.228943
511.532010	0.231308
511.896561	0.226725
512.261053	0.225039
512.625488	0.227263
512.989866	0.227770
513.354186	0.228136
513.718449	0.229974
514.082655	0.226355
514.446803	0.228600
514.810894	0.225985
515.174927	0.229210
515.538904	0.228646
515.902822	0.225050
516.266684	0.227778
516.630488	0.228753
516.994235	0.227847
517.357925	0.226397
517.721558	0.224665
518.085133	0.224355
518.448651	0.224215
518.812112	0.226586
519.175516	0.226171
519.538863	0.223921
519.902152	0.225321
520.265385	0.222384
520.628560	0.224042
520.991678	0.224165
521.354739	0.223434
521.717743	0.224725
522.080690	0.224792
522.443580	0.222362
522.806413	0.223184
523.169189	0.222384
523.531908	0.221233
523.894569	0.224998
524.257174	0.225077
524.619722	0.222650
524.982213	0.223669
525.344647	0.222507
525.707025	0.223478
526.069345	0.221530
526.431608	0.223680
526.793815	0.221243
527.155964	0.225340
527.518057	0.224337
527.880093	0.225169
528.242072	0.224051
528.603995	0.225806
528.965860	0.227490
529.327669	0.226709
529.689421	0.227112
530.051117	0.227874
530.412755	0.225995
530.774337	0.228208
531.135862	0.228405
531.497331	0.227913
531.858743	0.230686
532.220098	0.227313
532.581396	0.230026
532.942638	0.230421
533.303824	0.231722
533.664953	0.230990
534.026025	0.233249
534.387040	0.230910
534.747999	0.230781
535.108902	0.229691
535.469748	0.234779
535.830537	0.232641
536.191270	0.233223
536.551947	0.232483
536.912567	0.232970
537.273131	0.234196
537.633638	0.234746
537.994089	0.234999
538.354483	0.235909
538.714821	0.232764
539.075103	0.232594
539.435328	0.233331
539.795497	0.237345
540.155609	0.233804
540.515665	0.231986
540.875665	0.237615
541.235609	0.236132
541.595496	0.236125
541.955328	0.232628
542.315102	0.235507
542.674821	0.236737
543.034483	0.236611
543.394090	0.236019
543.753640	0.238208
544.113134	0.232909
544.472571	0.236575
544.831953	0.232977
545.191278	0.237600
545.550548	0.236716
545.909761	0.233606
546.268918	0.234268
546.628019	0.232876
546.987064	0.235715
547.346053	0.237211
547.704986	0.234919
548.063863	0.235204
548.422684	0.235612
548.781449	0.237232
549.140158	0.235085
549.498811	0.237620
549.857408	0.240786
550.215949	0.235762
550.574434	0.238646
550.932864	0.236763
551.291237	0.235246
551.649555	0.236896
552.007817	0.236739
552.366022	0.237395
552.724173	0.237276
553.082267	0.238036
553.440305	0.234678
553.798288	0.239154
554.156215	0.235795
554.514086	0.236294
554.871902	0.239680
555.229661	0.238794
555.587365	0.239488
555.945014	0.241880
556.302606	0.238841
556.660143	0.241693
557.017625	0.237911
557.375050	0.240383
557.732421	0.237208
558.089735	0.238968
558.446994	0.238983
558.804197	0.238555
559.161345	0.238060
559.518437	0.241677
559.875474	0.239802
560.232455	0.239153
560.589381	0.240332
560.946251	0.240507
561.303065	0.237772
561.659825	0.239295
562.016528	0.240941
562.373177	0.243653
562.729770	0.240934
563.086307	0.242696
563.442789	0.240828
563.799216	0.243435
564.155587	0.242279
564.511904	0.243501
564.868164	0.243550
565.224370	0.243459
565.580520	0.245021
565.936615	0.244824
566.292654	0.247900
566.648638	0.245232
567.004567	0.245931
567.360441	0.246461
567.716260	0.248524
568.072023	0.246301
568.427732	0.247079
568.783385	0.249494
569.138982	0.247422
569.494525	0.247315
569.850013	0.250083
570.205445	0.248622
570.560823	0.251190
570.916145	0.252898
571.271412	0.251195
571.626625	0.253049
571.981782	0.253333
572.336884	0.254213
572.691931	0.254016
573.046923	0.255523
573.401860	0.256242
573.756743	0.258031
574.111570	0.256857
574.466342	0.257405
574.821059	0.256363
575.175722	0.259599
575.530330	0.259151
575.884882	0.259130
576.239380	0.261409
576.593823	0.262093
576.948211	0.261542
577.302544	0.264685
577.656823	0.264286
578.011047	0.264253
578.365216	0.265243
578.719330	0.267485
579.073389	0.266822
579.427394	0.268074
579.781344	0.269021
580.135239	0.270271
580.489080	0.269828
580.842866	0.272796
581.196597	0.272878
581.550273	0.271513
581.903895	0.272504
582.257463	0.270905
582.610975	0.274210
582.964434	0.273584
583.317837	0.275875
583.671186	0.276109
584.024481	0.276526
584.377721	0.278687
584.730906	0.279678
585.084037	0.279024
585.437113	0.280646
585.790135	0.280338
586.143103	0.282958
586.496016	0.283959
586.848874	0.282050
587.201679	0.282480
587.554428	0.285748
587.907124	0.284713
588.259765	0.285098
588.612352	0.286090
588.964884	0.289832
589.317362	0.289018
589.669786	0.288905
590.022155	0.287536
590.374470	0.286896
590.726731	0.289024
591.078937	0.293652
591.431090	0.290606
591.783188	0.294225
592.135232	0.295062
592.487222	0.294731
592.839157	0.292911
593.191038	0.295206
593.542866	0.297126
593.894639	0.300366
594.246358	0.298817
594.598022	0.298134
594.949633	0.301909
595.301190	0.302673
595.652692	0.301534
596.004141	0.297523
596.355535	0.305969
596.706876	0.306382
597.058162	0.308734
597.409395	0.305834
597.760573	0.303534
598.111698	0.307370
598.462768	0.307398
598.813785	0.308846
599.164748	0.310284
599.515657	0.310273
599.866511	0.314090
600.217312	0.309282
600.568060	0.314320
600.918753	0.310690
601.269392	0.311448
601.619978	0.315032
601.970510	0.312607
602.320988	0.312668
602.671412	0.310192
603.021783	0.313103
603.372100	0.314126
603.722363	0.313957
604.072572	0.314947
604.422728	0.314565
604.772830	0.316952
605.122878	0.316507
605.472872	0.316626
605.822813	0.315609
606.172701	0.317842
606.522534	0.315399
606.872314	0.315178
607.222041	0.316348
607.571714	0.314429
607.921333	0.315934
608.270899	0.315376
608.620411	0.312092
608.969870	0.316644
609.319276	0.316423
609.668627	0.315996
610.017926	0.314870
610.367171	0.313341
610.716362	0.314216
611.065500	0.314112
611.414585	0.312921
611.763616	0.312999
612.112594	0.313841
612.461518	0.313124
612.810389	0.311236
613.159207	0.313487
613.507971	0.314660
613.856682	0.310986
614.205340	0.312033
614.553945	0.309392
614.902496	0.313277
615.250994	0.311053
615.599439	0.312092
615.947830	0.311351
616.296169	0.312125
616.644454	0.312147
616.992686	0.311598
617.340864	0.309783
617.688990	0.313196
618.037063	0.309874
618.385082	0.311564
618.733048	0.308681
619.080961	0.310755
619.428821	0.310238
619.776628	0.309867
620.124382	0.312206
620.472083	0.312586
620.819731	0.311718
621.167326	0.315706
621.514868	0.315223
621.862357	0.319336
622.209793	0.319135
622.557176	0.321887
622.904506	0.322271
623.251783	0.325309
623.599007	0.327632
623.946179	0.326661
624.293297	0.329281
624.640363	0.333036
624.987376	0.333138
625.334336	0.335240
625.681243	0.337929
626.028097	0.338801
626.374899	0.339771
626.721647	0.340192
627.068343	0.342936
627.414987	0.344435
627.761577	0.346360
628.108115	0.344518
628.454600	0.349880
628.801032	0.347131
629.147412	0.348987
629.493739	0.350051
629.840014	0.353063
630.186236	0.349904
630.532405	0.355738
630.878521	0.352846
631.224585	0.355408
631.570597	0.359055
631.916556	0.357912
632.262462	0.357420
632.608316	0.359903
632.954117	0.360594
633.299866	0.361583
633.645562	0.361756
633.991206	0.366434
634.336797	0.369080
634.682336	0.371736
635.027823	0.372849
635.373257	0.373706
635.718639	0.377351
636.063968	0.376570
636.409245	0.382191
636.754470	0.382495
637.099642	0.384909
637.444762	0.388579
637.789829	0.387873
638.134845	0.391174
638.479808	0.391527
638.824719	0.391671
639.169577	0.395999
639.514383	0.394906
639.859137	0.399298
640.203839	0.399013
640.548489	0.399095
640.893086	0.400550
641.237632	0.402568
641.582125	0.401010
641.926566	0.403417
642.270955	0.402952
642.615292	0.402829
642.959576	0.401955
643.303809	0.402459
643.647990	0.402555
643.992118	0.403389
644.336195	0.406409
644.680219	0.404435
645.024192	0.405670
645.368112	0.399422
645.711981	0.397922
646.055797	0.393001
646.399562	0.395620
646.743274	0.388345
647.086935	0.384654
647.430544	0.385325
647.774101	0.383724
648.117606	0.383515
648.461059	0.384364
648.804460	0.386853
649.147810	0.391431
649.491108	0.393744
649.834354	0.395312
650.177548	0.400759
650.520690	0.405335
650.863781	0.407108
651.206820	0.406121
651.549807	0.411078
651.892742	0.415648
652.235626	0.414484
652.578458	0.414991
652.921238	0.422172
653.263967	0.419246
653.606644	0.423213
653.949269	0.423119
654.291843	0.426953
654.634365	0.423777
654.976836	0.426980
655.319255	0.427307
655.661622	0.428777
656.003938	0.428805
656.346203	0.431917
656.688416	0.429600
657.030577	0.432456
657.372687	0.435115
657.714746	0.435819
658.056753	0.432674
658.398708	0.436368
658.740612	0.437664
659.082465	0.434053
659.424266	0.434360
659.766016	0.434059
660.107715	0.437068
660.449362	0.435759
660.790958	0.436597
661.132503	0.436932
661.473996	0.434417
661.815438	0.435516
662.156829	0.435799
662.498168	0.436661
662.839456	0.437678
663.180693	0.435908
663.521879	0.435043
663.863013	0.436094
664.204097	0.434554
664.545129	0.431797
664.886110	0.431956
665.227040	0.429352
665.567918	0.431761
665.908746	0.430124
666.249522	0.429425
666.590248	0.430811
666.930922	0.427882
667.271545	0.427675
667.612118	0.427628
667.952639	0.429367
668.293109	0.428138
668.633528	0.430812
668.973896	0.430156
669.314213	0.431115
669.654480	0.432814
669.994695	0.433261
670.334859	0.434124
670.674973	0.434406
671.015035	0.434136
671.355047	0.433836
671.695008	0.435221
672.034918	0.436948
672.374777	0.436239
672.714585	0.437887
673.054342	0.437841
673.394049	0.437686
673.733705	0.435706
674.073310	0.436685
674.412864	0.439500
674.752368	0.439812
675.091820	0.440159
675.431223	0.444766
675.770574	0.444789
676.109875	0.447125
676.449125	0.447279
676.788324	0.449245
677.127473	0.454963
677.466571	0.455450
677.805619	0.457018
678.144616	0.457755
678.483562	0.459990
678.822458	0.462663
679.161303	0.463159
679.500098	0.463611
679.838842	0.465536
680.177535	0.463875
680.516179	0.463476
680.854771	0.461820
681.193314	0.455859
681.531805	0.446649
681.870247	0.436096
682.208638	0.427522
682.546978	0.426908
682.885268	0.428088
683.223508	0.434498
683.561697	0.438566
683.899836	0.440940
684.237925	0.444253
684.575963	0.447502
684.913951	0.450501
685.251889	0.446080
685.589776	0.448190
685.927614	0.450133
686.265401	0.444717
686.603137	0.445528
686.940824	0.440265
687.278460	0.438566
687.616046	0.437640
687.953582	0.432886
688.291068	0.434494
688.628504	0.429426
688.965889	0.432109
689.303224	0.435980
689.640510	0.439460
689.977745	0.444985
690.314930	0.453410
690.652065	0.458045
690.989150	0.465246
691.326185	0.472481
691.663170	0.477057
692.000105	0.484245
692.336990	0.491126
692.673825	0.493275
693.010610	0.500202
693.347345	0.506610
693.684030	0.507330
694.020665	0.511642
694.357251	0.520799
694.693786	0.520820
695.030272	0.524079
695.366707	0.528177
695.703093	0.531910
696.039429	0.529044
696.375716	0.531944
696.711952	0.533973
697.048139	0.536017
697.384276	0.538094
697.720363	0.536834
698.056400	0.534878
698.392388	0.541054
698.728326	0.543656
699.064214	0.546703
699.400053	0.546828
699.735842	0.551377
700.071581	0.554020
700.407270	0.556983
700.742910	0.559865
701.078501	0.566045
701.414042	0.566948
701.749533	0.569081
702.084974	0.578196
702.420366	0.571248
702.755709	0.578620
703.091002	0.585979
703.426246	0.579206
703.761440	0.585536
704.096584	0.589734
704.431679	0.586742
704.766725	0.589189
705.101721	0.592048
705.436668	0.587237
705.771565	0.593919
706.106413	0.590184
706.441212	0.585947
706.775961	0.585492
707.110661	0.587917
707.445311	0.583743
707.779913	0.581959
708.114465	0.579872
708.448967	0.576630
708.783421	0.568757
709.117825	0.563318
709.452180	0.562783
709.786485	0.557220
710.120742	0.546071
710.454949	0.548637
710.789107	0.540622
711.123216	0.531272
711.457275	0.533136
711.791286	0.524136
712.125247	0.523730
712.459159	0.534057
712.793023	0.525963
713.126837	0.530438
713.460602	0.530773
713.794318	0.538977
714.127985	0.538657
714.461602	0.548842
714.795171	0.552686
715.128691	0.560155
715.462162	0.567730
715.795584	0.573952
716.128957	0.576578
716.462281	0.583517
716.795556	0.586326
717.128782	0.592309
717.461960	0.600776
717.795088	0.599775
718.128167	0.606623
718.461198	0.614441
718.794180	0.615333
719.127113	0.617750
719.459997	0.620974
719.792833	0.627245
720.125619	0.628764
720.458357	0.634895
720.791046	0.634699
721.123686	0.638744
721.456278	0.645709
721.788821	0.642117
722.121315	0.647819
722.453761	0.651161
722.786158	0.648687
723.118506	0.644772
723.450805	0.652848
723.783056	0.649740
724.115259	0.646872
724.447412	0.646731
724.779518	0.646984
725.111574	0.646253
725.443582	0.641588
725.775542	0.643913
726.107453	0.636140
726.439315	0.636238
726.771129	0.634170
727.102895	0.627846
727.434612	0.620718
727.766281	0.618533
728.097901	0.617478
728.429473	0.617185
728.760996	0.615927
729.092471	0.616637
729.423897	0.620073
729.755276	0.618808
730.086606	0.619211
730.417887	0.613861
730.749120	0.604223
731.080305	0.594590
731.411442	0.591155
731.742530	0.594857
732.073570	0.594965
732.404562	0.586974
732.735506	0.588231
733.066401	0.593497
733.397249	0.601928
733.728048	0.614141
734.058798	0.627553
734.389501	0.638068
734.720156	0.647825
735.050762	0.655507
735.381320	0.656653
735.711831	0.664741
736.042293	0.668966
736.372707	0.666435
736.703073	0.670639
737.033391	0.672393
737.363661	0.669568
737.693883	0.664996
738.024056	0.664388
738.354182	0.664927
738.684260	0.653292
739.014290	0.650410
739.344272	0.650525
739.674207	0.644040
740.004093	0.643487
740.333931	0.643985
740.663722	0.643527
740.993464	0.644519
741.323159	0.648232
741.652806	0.652798
741.982405	0.658247
742.311956	0.663067
742.641460	0.664350
742.970915	0.668463
743.300323	0.674721
743.629683	0.681959
743.958996	0.685027
744.288260	0.688628
744.617477	0.695124
744.946647	0.697134
745.275768	0.702653
745.604842	0.701622
745.933869	0.712668
746.262847	0.713547
746.591778	0.705408
746.920662	0.712537
747.249498	0.719649
747.578286	0.709730
747.907027	0.706426
748.235720	0.707057
748.564365	0.703043
748.892963	0.701569
749.221514	0.705596
749.550017	0.708673
749.878473	0.710100
750.206881	0.716692
750.535242	0.716515
750.863555	0.715626
751.191821	0.717615
751.520039	0.720324
751.848210	0.724321
752.176334	0.718751
752.504411	0.716480
752.832440	0.725766
753.160421	0.729622
753.488356	0.727450
753.816243	0.725067
754.144082	0.733215
754.471875	0.736537
754.799620	0.732220
755.127318	0.733875
755.454969	0.734725
755.782572	0.734606
756.110129	0.737374
756.437638	0.740931
756.765100	0.737714
757.092515	0.735440
757.419882	0.733549
757.747203	0.739999
758.074477	0.739938
758.401703	0.735678
758.728882	0.731574
759.056014	0.730046
759.383099	0.729562
759.710138	0.730357
760.037129	0.725929
760.364073	0.720537
760.690970	0.722342
761.017820	0.727033
761.344623	0.723860
761.671379	0.715064
761.998088	0.703809
762.324751	0.679811
762.651366	0.637240
762.977935	0.569687
763.304456	0.517792
763.630931	0.508170
763.957359	0.547697
764.283740	0.591316
764.610074	0.619873
764.936362	0.651698
765.262602	0.679196
765.588796	0.699395
765.914943	0.716839
766.241044	0.735188
766.567097	0.742212
766.893104	0.752858
767.219064	0.757526
767.544978	0.765871
767.870845	0.779271
768.196665	0.782616
768.522438	0.781939
768.848165	0.783983
769.173846	0.791006
769.499479	0.796596
769.825066	0.800915
770.150607	0.804063
770.476101	0.799863
770.801548	0.802058
771.126949	0.813555
771.452303	0.817583
771.777611	0.815929
772.102872	0.813894
772.428087	0.820950
772.753256	0.824163
773.078378	0.825929
773.403453	0.834063
773.728482	0.838735
774.053465	0.832358
774.378401	0.834779
774.703291	0.845073
775.028135	0.844361
775.352932	0.845009
775.677683	0.849007
776.002388	0.849625
776.327046	0.849484
776.651658	0.853859
776.976224	0.856077
777.300743	0.855485
777.625216	0.857511
777.949643	0.860485
778.274024	0.858347
778.598359	0.860922
778.922647	0.860256
779.246889	0.861016
779.571086	0.863953
779.895236	0.866446
780.219339	0.864306
780.543397	0.860220
780.867409	0.859696
781.191374	0.861424
781.515294	0.863602
781.839167	0.861538
782.162995	0.865619
782.486776	0.861265
782.810511	0.863498
783.134201	0.867616
783.457844	0.865893
783.781441	0.868441
784.104993	0.873436
784.428498	0.873343
784.751958	0.870673
785.075372	0.870836
785.398739	0.875833
785.722061	0.870684
786.045337	0.867068
786.368568	0.871210
786.691752	0.874341
787.014891	0.859963
787.337983	0.851260
787.661030	0.843750
787.984031	0.824969
788.306987	0.813376
788.629897	0.814024
788.952760	0.820028
789.275579	0.823695
789.598351	0.840555
789.921078	0.852426
790.243759	0.854148
790.566395	0.859106
790.888984	0.866907
791.211529	0.871887
791.534027	0.874156
791.856480	0.878016
792.178888	0.882806
792.501249	0.883972
792.823566	0.887350
793.145836	0.885542
793.468062	0.888600
793.790241	0.888970
794.112375	0.885291
794.434464	0.882875
794.756507	0.881436
795.078505	0.879271
795.400457	0.875360
795.722364	0.862665
796.044226	0.856808
796.366042	0.853871
796.687812	0.858349
797.009538	0.853204
797.331218	0.858287
797.652852	0.861950
797.974442	0.866157
798.295986	0.868042
798.617484	0.868936
798.938938	0.873660
799.260346	0.877642
799.581709	0.879368
799.903026	0.883204
800.224299	0.883360
800.545526	0.886684
800.866708	0.892084
801.187845	0.895229
801.508936	0.894678
801.829983	0.892646
802.150984	0.896141
802.471940	0.900774
802.792851	0.900564
803.113717	0.902279
803.434538	0.898338
803.755314	0.902866
804.076045	0.903741
804.396731	0.903373
804.717372	0.901545
805.037967	0.905148
805.358518	0.902658
805.679024	0.898215
805.999485	0.900539
806.319901	0.899171
806.640272	0.901929
806.960598	0.899734
807.280879	0.896857
807.601115	0.895304
807.921306	0.898643
808.241453	0.900238
808.561554	0.898441
808.881611	0.897570
809.201623	0.898967
809.521590	0.899655
809.841513	0.901122
810.161390	0.896918
810.481223	0.899543
810.801011	0.904104
811.120755	0.905265
811.440453	0.903715
811.760107	0.905031
812.079716	0.904458
812.399281	0.907522
812.718801	0.909110
813.038276	0.911225
813.357707	0.909783
813.677093	0.908733
813.996434	0.909241
814.315731	0.912776
814.634983	0.913509
814.954191	0.912405
815.273354	0.908000
815.592473	0.904470
815.911547	0.905552
816.230577	0.901841
816.549562	0.898880
816.868502	0.898093
817.187399	0.896072
817.506250	0.891475
817.825058	0.891674
818.143821	0.889880
818.462539	0.884082
818.781213	0.875242
819.099843	0.865662
819.418429	0.849059
819.736970	0.831176
820.055466	0.810632
820.373919	0.784183
820.692327	0.751240
821.010691	0.715434
821.329011	0.634669
821.647286	0.517155
821.965517	0.402530
822.283704	0.359131
822.601847	0.359835
822.919945	0.395565
823.237999	0.431073
823.556010	0.478833
823.873976	0.535043
824.191897	0.587318
824.509775	0.630571
824.827609	0.677022
825.145398	0.700117
825.463144	0.701695
825.780845	0.684096
826.098502	0.665505
826.416116	0.619885
826.733685	0.574279
827.051210	0.565244
827.368692	0.580738
827.686129	0.619688
828.003522	0.674054
828.320872	0.723060
828.638177	0.767052
828.955439	0.800573
829.272656	0.822283
829.589830	0.839918
829.906960	0.856273
830.224046	0.868605
830.541088	0.879299
830.858086	0.883312
831.175041	0.891963
831.491952	0.889366
831.808819	0.885701
832.125642	0.879528
832.442421	0.864913
832.759157	0.841194
833.075849	0.793403
833.392497	0.728963
833.709101	0.687342
834.025662	0.696761
834.342179	0.729702
834.658653	0.769941
834.975083	0.805083
835.291469	0.833530
835.607811	0.856662
835.924110	0.874192
836.240366	0.891449
836.556578	0.904075
836.872746	0.911329
837.188871	0.917702
837.504952	0.923507
837.820990	0.926168
838.136984	0.930787
838.452935	0.933287
838.768842	0.935732
839.084706	0.928188
839.400526	0.903087
839.716303	0.859989
840.032037	0.838614
840.347727	0.841451
840.663373	0.858868
840.978977	0.881477
841.294537	0.905624
841.610054	0.921314
841.925527	0.929403
842.240957	0.937157
842.556344	0.944470
842.871687	0.950564
843.186987	0.953755
843.502244	0.955078
843.817458	0.955544
844.132629	0.960059
844.447756	0.965390
844.762840	0.965350
845.077881	0.965418
845.392879	0.962678
845.707833	0.966227
846.022745	0.969180
846.337613	0.969452
846.652438	0.969706
846.967221	0.969467
847.281960	0.970223
847.596656	0.971272
847.911309	0.971031
848.225919	0.971695
848.540485	0.973477
848.855009	0.974759
849.169490	0.973357
849.483928	0.973455
849.798323	0.972643
850.112675	0.975124
850.426984	0.975329
850.741251	0.975350
851.055474	0.975705
851.369654	0.972723
851.683792	0.972448
851.997887	0.974834
852.311938	0.975246
852.625947	0.973321
852.939914	0.973117
853.253837	0.973270
853.567718	0.974742
853.881555	0.975188
854.195350	0.974062
854.509103	0.974576
854.822812	0.975662
855.136479	0.975260
855.450103	0.973733
855.763685	0.972665
856.077224	0.974601
856.390720	0.975427
856.704173	0.974755
857.017584	0.973005
857.330953	0.972615
857.644278	0.971932
857.957561	0.973214
858.270802	0.974031
858.584000	0.973637
858.897155	0.972287
859.210268	0.971516
859.523339	0.974743
859.836367	0.975932
860.149352	0.973644
860.462295	0.975312
860.775195	0.973725
861.088054	0.973654
861.400869	0.975605
861.713642	0.974769
862.026373	0.976056
862.339062	0.976217
862.651708	0.973797
862.964312	0.972727
863.276873	0.973616
863.589392	0.972629
863.901869	0.970616
864.214303	0.968280
864.526696	0.968404
864.839045	0.968210
865.151353	0.968351
865.463619	0.966088
865.775842	0.966538
866.088023	0.967493
866.400162	0.966361
866.712258	0.968641
867.024313	0.967999
867.336325	0.969977
867.648296	0.968929
867.960224	0.966670
868.272110	0.966533
868.583954	0.968775
868.895755	0.969057
869.207515	0.966542
869.519233	0.964857
869.830909	0.964969
870.142542	0.966053
870.454134	0.966031
870.765684	0.964476
871.077191	0.963719
871.388657	0.962808
871.700081	0.962705
872.011463	0.964020
872.322803	0.961996
872.634101	0.960717
872.945357	0.957492
873.256571	0.956563
873.567744	0.957627
873.878874	0.958037
874.189963	0.956670
874.501010	0.957696
874.812015	0.954368
875.122979	0.954988
875.433900	0.957463
875.744780	0.957921
876.055618	0.954549
876.366415	0.953187
876.677169	0.952886
876.987882	0.955017
877.298554	0.955316
877.609183	0.951558
877.919771	0.948040
878.230317	0.947621
878.540822	0.943180
878.851285	0.939049
879.161707	0.930874
879.472087	0.918175
879.782425	0.900055
880.092722	0.865931
880.402977	0.810848
880.713191	0.747574
881.023363	0.686228
881.333494	0.651049
881.643583	0.624158
881.953631	0.624268
882.263637	0.652764
882.573602	0.692825
882.883526	0.719060
883.193408	0.743707
883.503248	0.766880
883.813048	0.795848
884.122806	0.826081
884.432522	0.851045
884.742197	0.870724
885.051831	0.882490
885.361424	0.894071
885.670975	0.906273
885.980485	0.914551
886.289954	0.921536
886.599382	0.925123
886.908768	0.931346
887.218113	0.936962
887.527417	0.942350
887.836680	0.945284
888.145901	0.947614
888.455082	0.949851
888.764221	0.955154
889.073319	0.956445
889.382376	0.957469
889.691392	0.955549
890.000366	0.958461
890.309300	0.955884
890.618193	0.956828
890.927044	0.955708
891.235855	0.956036
891.544625	0.955302
891.853353	0.956227
892.162041	0.953291
892.470687	0.946529
892.779293	0.941026
893.087858	0.935812
893.396381	0.928825
893.704864	0.913877
894.013306	0.889475
894.321707	0.863678
894.630068	0.847669
894.938387	0.840847
895.246665	0.844256
895.554903	0.856188
895.863100	0.869827
896.171256	0.887866
896.479371	0.908784
896.787446	0.921131
897.095480	0.927718
897.403473	0.930371
897.711425	0.934997
898.019336	0.941678
898.327207	0.948344
898.635038	0.947967
898.942827	0.949584
899.250576	0.952369
899.558284	0.956338
899.865952	0.957828
900.173579	0.958229
900.481165	0.960086
900.788711	0.963024
901.096216	0.965511
901.403681	0.966991
901.711105	0.966477
902.018489	0.966739
902.325832	0.966532
902.633135	0.964592
902.940397	0.960015
903.247619	0.945806
903.554800	0.919876
903.861941	0.879549
904.169041	0.841455
904.476101	0.822941
904.783121	0.824008
905.090100	0.841135
905.397039	0.863399
905.703938	0.885466
906.010796	0.906634
906.317614	0.925975
906.624391	0.936709
906.931129	0.947467
907.237826	0.956171
907.544483	0.960947
907.851099	0.968161
908.157675	0.970697
908.464211	0.974729
908.770707	0.975646
909.077163	0.978499
909.383578	0.979264
909.689954	0.979465
909.996289	0.980483
910.302584	0.982902
910.608839	0.984376
910.915054	0.983212
911.221229	0.982533
911.527363	0.980893
911.833458	0.982309
912.139513	0.982460
912.445527	0.981398
912.751502	0.980221
913.057436	0.976951
913.363331	0.975839
913.669186	0.971282
913.975000	0.965326
914.280775	0.959130
914.586510	0.951277
914.892205	0.937277
915.197859	0.914454
915.503475	0.886518
915.809050	0.865338
916.114585	0.860450
916.420081	0.857132
916.725536	0.854951
917.030952	0.862546
917.336328	0.875099
917.641665	0.891629
917.946961	0.908891
918.252218	0.920160
918.557435	0.929115
918.862612	0.938753
919.167750	0.943656
919.472848	0.948905
919.777906	0.956866
920.082925	0.961138
920.387904	0.965209
920.692843	0.966910
920.997743	0.967787
921.302603	0.972160
921.607423	0.972598
921.912204	0.974926
922.216946	0.977806
922.521647	0.978630
922.826310	0.979278
923.130932	0.981512
923.435516	0.983819
923.740059	0.984434
924.044564	0.984313
924.349028	0.984575
924.653454	0.988091
924.957840	0.988688
925.262186	0.988348
925.566493	0.988451
925.870761	0.989415
926.174989	0.989698
926.479178	0.993466
926.783328	0.992936
927.087438	0.993049
927.391509	0.992928
927.695541	0.993315
927.999533	0.994925
928.303486	0.995279
928.607400	0.996005
928.911275	0.995446
929.215110	0.995789
929.518906	0.996094
929.822663	0.997211
930.126381	0.996589
930.430060	0.996531
930.733699	0.995089
931.037299	0.995136
931.340861	0.995334
931.644383	0.994265
931.947866	0.995718
932.251309	0.995925
932.554714	0.995146
932.858080	0.996286
933.161407	0.994595
933.464694	0.996298
933.767943	0.997106
934.071153	0.995919
934.374323	0.996847
934.677455	0.995679
934.980548	0.997198
935.283602	0.996788
935.586617	0.995238
935.889593	0.996829
936.192530	0.997472
936.495428	0.996624
936.798287	0.995574
937.101108	0.995537
937.403890	0.994528
937.706632	0.994541
938.009336	0.991360
938.312002	0.990645
938.614628	0.988502
938.917216	0.987823
939.219765	0.985979
939.522275	0.987043
939.824747	0.987374
940.127179	0.989128
940.429573	0.990368
940.731929	0.988639
941.034246	0.989288
941.336524	0.989939
941.638763	0.990322
941.940964	0.991144
942.243126	0.991753
942.545250	0.993083
942.847335	0.992469
943.149381	0.994013
943.451389	0.993035
943.753359	0.993938
944.055290	0.995555
944.357182	0.994585
944.659036	0.994130
944.960851	0.996304
945.262628	0.995941
945.564367	0.995600
945.866067	0.993993
946.167729	0.995205
946.469352	0.994953
946.770937	0.993514
947.072484	0.995392
947.373992	0.993861
947.675462	0.993904
947.976893	0.995415
948.278286	0.996975
948.579641	0.997155
948.880958	0.995555
949.182236	0.996909
949.483476	0.997069
949.784678	0.996307
950.085841	0.995271
950.386967	0.996365
950.688054	0.996787
950.989103	0.994718
951.290114	0.994379
951.591087	0.994657
951.892021	0.993799
952.192917	0.993613
952.493776	0.994251
952.794596	0.994266
953.095378	0.992985
953.396122	0.992819
953.696828	0.994289
953.997496	0.994364
954.298126	0.994861
954.598718	0.994997
954.899272	0.995947
955.199788	0.995578
955.500266	0.997825
955.800706	0.997876
956.101108	0.997050
956.401472	0.999293
956.701798	0.998409
957.002087	1.000347
957.302337	0.999322
957.602550	0.998980
957.902724	1.000525
958.202861	1.000797
958.502960	1.000178
958.803022	1.001224
959.103045	1.001637
959.403031	1.002380
959.702979	1.001984
960.002889	1.000449
960.302762	1.000772
960.602596	1.002412
960.902393	1.001373
961.202153	1.001417
961.501875	1.001773
961.801559	1.002500
962.101205	1.000947
962.400814	1.002771
962.700385	1.001855
962.999918	1.003144
963.299414	1.001876
963.598873	1.002790
963.898293	1.002851
964.197677	1.002079
964.497022	1.002787
964.796331	1.002865
965.095601	1.003882
965.394835	1.001495
965.694030	1.003938
965.993189	1.002740
966.292309	1.003650
966.591393	1.001222
966.890439	1.003601
967.189447	1.002752
967.488419	1.002409
967.787353	1.002616
968.086249	1.003111
968.385108	1.001770
968.683930	1.003579
968.982714	1.002341
969.281462	1.003295
969.580172	1.002769
969.878844	1.004358
970.177480	1.002510
970.476078	1.003212
970.774639	1.003180
971.073162	1.001625
971.371649	1.001846
971.670098	1.000598
971.968510	1.002340
972.266885	1.001417
972.565223	1.001404
972.863524	1.002098
973.161788	1.002431
973.460014	1.003648
973.758204	1.001617
974.056356	1.001409
974.354471	1.000769
974.652550	1.002432
974.950591	1.001076
975.248595	1.000994
975.546563	1.003850
975.844493	1.002723
976.142386	1.002822
976.440243	1.003313
976.738062	1.003377
977.035845	1.000691
977.333590	1.004099
977.631299	1.002035
977.928971	1.002346
978.226606	1.002385
978.524204	1.001549
978.821765	1.003246
979.119290	1.003699
979.416777	1.002433
979.714228	1.002891
980.011642	1.002420
980.309020	1.002748
980.606360	1.001623
980.903664	1.002327
981.200931	1.002752
981.498162	1.001596
981.795356	1.000872
982.092513	1.000265
982.389633	0.999265
982.686717	0.996593
982.983764	0.996836
983.280775	0.996593
983.577749	0.996870
983.874686	0.996648
984.171587	0.996449
984.468451	0.998619
984.765279	1.000390
985.062070	1.001215
985.358824	1.000915
985.655543	1.001404
985.952224	1.002798
986.248869	1.002622
986.545478	1.004737
986.842050	1.002059
987.138586	1.002292
987.435086	1.002809
987.731549	1.003356
988.027975	1.005088
988.324366	1.003322
988.620719	1.004073
988.917037	1.003184
989.213318	1.003623
989.509563	1.003491
989.805772	1.004380
990.101944	1.004815
990.398080	1.004340
990.694180	1.004291
990.990244	1.002741
991.286271	1.003682
991.582262	1.004174
991.878217	1.003237
992.174136	1.004940
992.470019	1.003568
992.765865	1.005542
993.061676	1.003681
993.357450	1.003790
993.653188	1.004245
993.948890	1.003117
994.244556	1.002978
994.540186	1.004183
994.835780	1.002278
995.131337	1.004553
995.426859	1.003086
995.722345	1.002352
996.017795	1.000976
996.313208	1.001885
996.608586	1.002755
996.903928	1.001827
997.199234	1.001923
997.494504	1.002269
997.789738	1.001527
998.084936	1.002875
998.380099	1.002267
998.675225	1.003168
998.970316	1.003437
999.265371	1.004711
999.560390	1.004072
999.855373	1.003881
1000.150320	1.003948
1000.445232	1.004412
1000.740108	1.003723
1001.034948	1.004272
1001.329752	1.005797
1001.624521	1.005007
1001.919254	1.003234
1002.213951	1.004015
1002.508613	1.004331
1002.803239	1.003350
1003.097829	1.004339
1003.392384	1.003484
1003.686903	1.005659
1003.981386	1.004043
1004.275834	1.005623
1004.570246	1.003753
1004.864623	1.005444
1005.158964	1.004531
1005.453270	1.004731
1005.747540	1.005320
1006.041775	1.003886
1006.335974	1.006301
1006.630138	1.004842
1006.924266	1.003800
1007.218359	1.003378
1007.512416	1.004852
1007.806438	1.003894
1008.100425	1.004660
1008.394376	1.005081
1008.688292	1.004164
1008.982172	1.003631
1009.276017	1.005855
1009.569827	1.004840
1009.863602	1.004003
1010.157341	1.004778
1010.451045	1.004789
1010.744714	1.005986
1011.038347	1.006092
1011.331945	1.004362
1011.625508	1.004912
1011.919036	1.004749
1012.212528	1.005862
1012.505986	1.003373
1012.799408	1.004244
1013.092795	1.005436
1013.386147	1.004993
1013.679464	1.006409
1013.972745	1.004604
1014.265992	1.004413
1014.559204	1.004794
1014.852380	1.006271
1015.145521	1.004464
1015.438628	1.004878
1015.731699	1.003769
1016.024736	1.005814
1016.317737	1.005313
1016.610703	1.003982
1016.903635	1.004403
1017.196531	1.003269
1017.489393	1.004836
1017.782219	1.003499
1018.075011	1.003997
1018.367768	1.004682
1018.660490	1.004285
1018.953177	1.004285
1019.245829	1.004285
