Dividing Wavelength (nm)	Counts (n)	Blue Motor Position (mm): 13.400000	Red Motor Position (mm): 0.000000	
326.493990	1.002474
326.888308	1.002474
327.282561	1.002474
327.676750	1.003746
328.070874	1.004999
328.464933	1.005367
328.858929	1.005641
329.252859	1.004214
329.646726	1.002501
330.040528	1.003500
330.434265	1.004373
330.827938	1.002621
331.221547	1.004058
331.615091	1.004005
332.008571	1.004639
332.401986	1.003710
332.795338	1.003312
333.188625	1.003599
333.581847	1.002195
333.975006	1.003666
334.368100	1.002944
334.761129	1.002484
335.154095	1.003938
335.546996	1.002116
335.939833	0.997580
336.332606	0.999384
336.725315	0.998277
337.117960	0.999982
337.510540	0.998134
337.903056	0.998612
338.295508	0.999872
338.687896	0.999124
339.080220	0.998897
339.472480	0.999300
339.864676	0.999462
340.256807	0.997789
340.648875	0.999409
341.040879	0.998744
341.432818	0.999687
341.824694	0.998244
342.216506	0.999286
342.608253	0.998224
342.999937	0.999081
343.391557	0.999352
343.783113	1.000532
344.174605	0.999717
344.566033	0.998457
344.957397	0.999920
345.348697	0.999514
345.739934	0.998500
346.131106	0.999388
346.522215	0.998438
346.913260	0.998932
347.304241	0.998124
347.695159	0.999409
348.086012	0.997819
348.476802	0.998984
348.867528	0.997941
349.258191	0.999208
349.648789	0.998383
350.039324	0.998956
350.429796	0.999911
350.820203	0.997622
351.210548	0.999328
351.600828	0.998441
351.991045	0.998181
352.381198	0.998644
352.771288	0.998468
353.161314	0.997702
353.551276	0.997642
353.941175	0.997592
354.331010	0.998471
354.720782	0.997897
355.110490	0.999451
355.500135	0.998220
355.889717	0.997653
356.279235	0.997348
356.668689	0.998649
357.058080	0.998585
357.447408	0.997279
357.836672	0.997435
358.225873	0.999266
358.615010	0.997347
359.004084	0.997646
359.393095	0.997468
359.782043	0.996979
360.170927	0.999051
360.559748	0.998304
360.948505	0.997340
361.337199	0.999215
361.725830	0.997398
362.114398	0.997115
362.502903	0.997173
362.891344	0.996469
363.279722	0.997436
363.668037	0.998266
364.056289	0.996108
364.444478	0.997509
364.832603	0.996864
365.220665	0.997666
365.608665	0.996911
365.996601	0.996898
366.384474	0.995754
366.772284	0.996400
367.160031	0.995458
367.547715	0.995358
367.935336	0.995316
368.322893	0.992980
368.710388	0.992722
369.097820	0.991494
369.485189	0.988229
369.872495	0.986707
370.259738	0.984937
370.646918	0.982269
371.034035	0.978972
371.421090	0.976483
371.808081	0.972428
372.195010	0.968942
372.581875	0.964161
372.968678	0.959721
373.355418	0.956317
373.742096	0.949190
374.128710	0.943720
374.515262	0.939682
374.901751	0.934580
375.288177	0.928072
375.674540	0.922585
376.060841	0.916137
376.447079	0.909914
376.833254	0.901934
377.219367	0.898515
377.605417	0.886639
377.991404	0.882714
378.377329	0.876969
378.763191	0.870521
379.148991	0.860920
379.534727	0.853632
379.920402	0.845328
380.306013	0.841561
380.691563	0.829134
381.077049	0.822461
381.462474	0.818398
381.847835	0.806796
382.233134	0.802603
382.618371	0.802320
383.003545	0.785865
383.388657	0.783087
383.773706	0.776436
384.158693	0.771142
384.543618	0.766090
384.928480	0.757763
385.313280	0.748087
385.698017	0.746680
386.082692	0.735484
386.467305	0.733941
386.851856	0.727875
387.236344	0.722557
387.620770	0.717712
388.005133	0.711595
388.389435	0.706681
388.773674	0.704053
389.157851	0.695946
389.541965	0.693603
389.926018	0.699852
390.310008	0.686633
390.693936	0.684112
391.077802	0.675562
391.461606	0.677049
391.845348	0.666506
392.229027	0.666331
392.612645	0.663989
392.996200	0.651020
393.379694	0.643784
393.763125	0.633806
394.146494	0.639072
394.529801	0.629139
394.913047	0.621182
395.296230	0.627736
395.679351	0.619255
396.062410	0.615402
396.445408	0.618077
396.828343	0.613706
397.211217	0.608740
397.594028	0.621053
397.976778	0.610928
398.359466	0.607521
398.742092	0.603456
399.124656	0.614149
399.507158	0.603351
399.889598	0.600382
400.271977	0.591987
400.654294	0.595616
401.036549	0.594712
401.418742	0.598807
401.800874	0.584448
402.182944	0.581034
402.564952	0.572985
402.946898	0.575209
403.328783	0.575460
403.710606	0.586688
404.092367	0.561675
404.474067	0.567236
404.855705	0.565933
405.237282	0.574403
405.618797	0.561303
406.000250	0.556879
406.381642	0.546561
406.762972	0.551991
407.144240	0.550068
407.525447	0.550329
407.906593	0.543027
408.287677	0.538731
408.668700	0.546834
409.049661	0.541470
409.430560	0.535916
409.811399	0.544832
410.192176	0.525840
410.572891	0.533118
410.953545	0.521625
411.334138	0.534849
411.714669	0.527555
412.095139	0.539466
412.475547	0.524111
412.855894	0.525345
413.236180	0.524839
413.616405	0.529890
413.996568	0.520709
414.376670	0.526622
414.756711	0.531877
415.136691	0.528079
415.516609	0.519352
415.896466	0.515846
416.276262	0.512538
416.655997	0.513629
417.035670	0.495439
417.415283	0.487106
417.794834	0.491844
418.174324	0.497628
418.553753	0.506844
418.933121	0.488615
419.312428	0.482601
419.691674	0.488537
420.070859	0.476296
420.449983	0.484785
420.829045	0.473513
421.208047	0.483064
421.586988	0.476285
421.965867	0.474952
422.344686	0.463229
422.723444	0.476229
423.102141	0.493194
423.480777	0.465980
423.859352	0.486469
424.237866	0.463534
424.616319	0.464864
424.994712	0.455537
425.373044	0.465590
425.751314	0.453969
426.129524	0.470793
426.507673	0.453693
426.885762	0.447202
427.263789	0.453104
427.641756	0.462764
428.019662	0.452816
428.397508	0.452065
428.775292	0.456306
429.153016	0.448321
429.530679	0.454042
429.908282	0.447433
430.285824	0.458058
430.663305	0.436540
431.040726	0.458029
431.418086	0.457351
431.795385	0.448887
432.172624	0.447958
432.549802	0.448886
432.926920	0.447292
433.303977	0.447178
433.680974	0.443600
434.057910	0.442675
434.434786	0.441949
434.811601	0.444633
435.188355	0.427126
435.565050	0.436446
435.941683	0.437441
436.318257	0.421470
436.694770	0.423005
437.071222	0.420612
437.447614	0.424932
437.823946	0.431773
438.200218	0.420149
438.576429	0.430401
438.952580	0.423573
439.328670	0.420133
439.704700	0.426364
440.080670	0.428341
440.456580	0.408890
440.832429	0.417185
441.208218	0.428000
441.583947	0.417346
441.959616	0.416526
442.335224	0.421716
442.710773	0.412970
443.086261	0.410647
443.461689	0.425158
443.837057	0.414317
444.212365	0.404808
444.587612	0.411211
444.962800	0.401451
445.337927	0.403031
445.712995	0.429638
446.088002	0.390897
446.462949	0.401811
446.837837	0.406447
447.212664	0.395123
447.587431	0.387056
447.962139	0.356970
448.336786	0.315982
448.711374	0.326725
449.085901	0.370857
449.460369	0.375349
449.834776	0.378684
450.209124	0.357799
450.583412	0.350624
450.957640	0.343424
451.331808	0.355088
451.705917	0.378236
452.079965	0.382805
452.453954	0.371141
452.827883	0.377828
453.201752	0.372813
453.575562	0.383532
453.949311	0.372880
454.323001	0.378796
454.696632	0.374904
455.070202	0.367452
455.443713	0.359038
455.817164	0.353541
456.190556	0.349862
456.563888	0.346321
456.937160	0.343972
457.310373	0.361183
457.683526	0.360125
458.056619	0.366170
458.429653	0.366289
458.802628	0.369754
459.175542	0.364249
459.548398	0.346678
459.921194	0.339293
460.293930	0.339180
460.666607	0.316783
461.039224	0.305339
461.411782	0.300456
461.784280	0.299673
462.156719	0.303542
462.529099	0.308371
462.901419	0.324485
463.273680	0.328623
463.645882	0.328094
464.018024	0.333965
464.390106	0.326863
464.762130	0.311585
465.134094	0.294260
465.505999	0.263592
465.877845	0.233652
466.249631	0.220920
466.621358	0.228053
466.993026	0.242264
467.364634	0.248356
467.736184	0.257159
468.107674	0.265948
468.479105	0.265088
468.850477	0.271974
469.221790	0.278854
469.593043	0.289213
469.964238	0.293742
470.335373	0.293227
470.706449	0.291545
471.077467	0.292210
471.448425	0.253909
471.819324	0.229436
472.190164	0.228955
472.560945	0.257917
472.931667	0.279925
473.302330	0.284716
473.672934	0.296449
474.043479	0.284055
474.413965	0.286095
474.784393	0.289748
475.154761	0.284668
475.525070	0.281749
475.895321	0.287573
476.265513	0.281909
476.635645	0.276977
477.005719	0.276705
477.375734	0.273537
477.745691	0.266768
478.115588	0.263209
478.485427	0.256604
478.855207	0.243562
479.224928	0.226097
479.594591	0.213964
479.964194	0.217187
480.333739	0.218715
480.703226	0.220123
481.072653	0.218375
481.442022	0.214128
481.811333	0.210690
482.180584	0.214184
482.549777	0.219577
482.918912	0.223153
483.287988	0.222861
483.657005	0.222272
484.025964	0.228805
484.394864	0.225889
484.763706	0.226807
485.132489	0.231678
485.501213	0.232614
485.869879	0.231140
486.238487	0.233825
486.607036	0.231989
486.975527	0.236495
487.343959	0.232003
487.712333	0.231460
488.080648	0.232720
488.448905	0.232250
488.817104	0.233255
489.185244	0.227655
489.553326	0.224653
489.921350	0.214667
490.289315	0.197030
490.657222	0.191817
491.025070	0.193351
491.392861	0.195227
491.760593	0.201054
492.128267	0.206914
492.495883	0.212153
492.863440	0.218471
493.230939	0.224909
493.598380	0.226476
493.965763	0.228634
494.333088	0.230536
494.700354	0.232090
495.067563	0.231177
495.434713	0.234408
495.801805	0.232473
496.168839	0.233795
496.535815	0.235545
496.902733	0.235255
497.269593	0.236787
497.636395	0.234235
498.003139	0.234916
498.369825	0.237826
498.736453	0.234087
499.103023	0.236188
499.469535	0.235182
499.835989	0.235472
500.202385	0.236391
500.568723	0.239444
500.935003	0.234935
501.301226	0.239163
501.667390	0.233529
502.033497	0.231308
502.399546	0.234140
502.765537	0.236196
503.131470	0.234838
503.497345	0.231129
503.863163	0.239735
504.228923	0.232826
504.594625	0.231305
504.960269	0.236989
505.325856	0.232180
505.691385	0.236413
506.056856	0.233192
506.422270	0.232813
506.787625	0.235094
507.152924	0.232501
507.518164	0.233064
507.883347	0.234735
508.248472	0.236501
508.613540	0.231179
508.978550	0.233726
509.343503	0.234622
509.708398	0.231966
510.073236	0.229688
510.438016	0.229579
510.802738	0.230571
511.167403	0.229720
511.532010	0.231844
511.896561	0.226697
512.261053	0.225690
512.625488	0.228104
512.989866	0.228164
513.354186	0.228750
513.718449	0.230486
514.082655	0.226984
514.446803	0.229054
514.810894	0.226832
515.174927	0.229469
515.538904	0.228899
515.902822	0.225673
516.266684	0.228479
516.630488	0.229284
516.994235	0.228294
517.357925	0.226951
517.721558	0.225177
518.085133	0.225091
518.448651	0.224871
518.812112	0.227529
519.175516	0.227018
519.538863	0.224401
519.902152	0.226324
520.265385	0.223393
520.628560	0.224805
520.991678	0.225255
521.354739	0.224266
521.717743	0.225447
522.080690	0.225801
522.443580	0.223544
522.806413	0.224032
523.169189	0.223537
523.531908	0.222281
523.894569	0.226205
524.257174	0.226156
524.619722	0.223741
524.982213	0.224900
525.344647	0.223629
525.707025	0.224637
526.069345	0.222842
526.431608	0.224529
526.793815	0.222623
527.155964	0.226867
527.518057	0.225828
527.880093	0.226937
528.242072	0.225037
528.603995	0.227162
528.965860	0.229021
529.327669	0.227795
529.689421	0.228828
530.051117	0.229687
530.412755	0.227307
530.774337	0.229641
531.135862	0.230494
531.497331	0.229275
531.858743	0.232374
532.220098	0.228980
532.581396	0.231863
532.942638	0.232260
533.303824	0.233546
533.664953	0.233027
534.026025	0.234897
534.387040	0.232544
534.747999	0.232489
535.108902	0.231550
535.469748	0.236715
535.830537	0.234348
536.191270	0.234772
536.551947	0.234355
536.912567	0.234492
537.273131	0.235916
537.633638	0.236465
537.994089	0.236762
538.354483	0.238059
538.714821	0.234802
539.075103	0.234537
539.435328	0.235511
539.795497	0.239527
540.155609	0.236150
540.515665	0.234089
540.875665	0.239770
541.235609	0.238355
541.595496	0.238450
541.955328	0.235200
542.315102	0.237682
542.674821	0.238789
543.034483	0.238922
543.394090	0.238292
543.753640	0.240410
544.113134	0.235270
544.472571	0.238999
544.831953	0.235533
545.191278	0.240024
545.550548	0.238942
545.909761	0.236035
546.268918	0.236955
546.628019	0.235437
546.987064	0.237833
547.346053	0.239735
547.704986	0.237480
548.063863	0.237735
548.422684	0.238377
548.781449	0.239904
549.140158	0.237865
549.498811	0.240635
549.857408	0.243575
550.215949	0.238183
550.574434	0.241598
550.932864	0.239727
551.291237	0.238071
551.649555	0.239872
552.007817	0.239551
552.366022	0.240340
552.724173	0.240468
553.082267	0.240788
553.440305	0.237766
553.798288	0.242109
554.156215	0.239121
554.514086	0.239642
554.871902	0.242979
555.229661	0.242259
555.587365	0.242764
555.945014	0.245254
556.302606	0.242417
556.660143	0.245062
557.017625	0.241586
557.375050	0.243681
557.732421	0.241109
558.089735	0.242885
558.446994	0.242686
558.804197	0.242246
559.161345	0.242201
559.518437	0.245694
559.875474	0.243834
560.232455	0.243317
560.589381	0.244737
560.946251	0.244938
561.303065	0.242299
561.659825	0.244043
562.016528	0.245812
562.373177	0.248388
562.729770	0.246012
563.086307	0.247579
563.442789	0.246006
563.799216	0.248961
564.155587	0.247982
564.511904	0.249215
564.868164	0.249381
565.224370	0.249323
565.580520	0.251377
565.936615	0.251043
566.292654	0.254440
566.648638	0.251742
567.004567	0.252551
567.360441	0.253391
567.716260	0.255601
568.072023	0.253402
568.427732	0.254891
568.783385	0.256804
569.138982	0.255830
569.494525	0.255492
569.850013	0.258571
570.205445	0.257098
570.560823	0.260128
570.916145	0.262247
571.271412	0.261042
571.626625	0.262840
571.981782	0.263378
572.336884	0.264482
572.691931	0.264745
573.046923	0.266297
573.401860	0.267646
573.756743	0.269687
574.111570	0.269060
574.466342	0.270004
574.821059	0.269155
575.175722	0.272725
575.530330	0.272496
575.884882	0.273260
576.239380	0.275574
576.593823	0.276370
576.948211	0.276346
577.302544	0.279835
577.656823	0.280382
578.011047	0.280322
578.365216	0.282096
578.719330	0.284511
579.073389	0.284404
579.427394	0.286335
579.781344	0.287653
580.135239	0.289525
580.489080	0.289606
580.842866	0.293364
581.196597	0.294103
581.550273	0.293225
581.903895	0.295114
582.257463	0.293718
582.610975	0.298401
582.964434	0.298150
583.317837	0.301161
583.671186	0.302115
584.024481	0.303148
584.377721	0.306161
584.730906	0.307498
585.084037	0.307796
585.437113	0.310269
585.790135	0.310786
586.143103	0.314368
586.496016	0.316103
586.848874	0.314914
587.201679	0.316406
587.554428	0.320518
587.907124	0.320577
588.259765	0.322307
588.612352	0.323953
588.964884	0.328484
589.317362	0.329513
589.669786	0.330330
590.022155	0.329353
590.374470	0.330339
590.726731	0.333038
591.078937	0.339096
591.431090	0.337078
591.783188	0.341829
592.135232	0.343769
592.487222	0.344315
592.839157	0.344017
593.191038	0.347069
593.542866	0.350400
593.894639	0.354827
594.246358	0.354456
594.598022	0.355100
594.949633	0.359805
595.301190	0.361865
595.652692	0.361954
596.004141	0.360265
596.355535	0.368780
596.706876	0.370797
597.058162	0.374882
597.409395	0.373406
597.760573	0.372926
598.111698	0.376979
598.462768	0.379128
598.813785	0.381381
599.164748	0.384841
599.515657	0.386008
599.866511	0.392062
600.217312	0.388494
600.568060	0.394963
600.918753	0.393261
601.269392	0.395644
601.619978	0.400925
601.970510	0.400225
602.320988	0.401877
602.671412	0.402650
603.021783	0.406145
603.372100	0.409255
603.722363	0.410899
604.072572	0.413329
604.422728	0.414662
604.772830	0.418854
605.122878	0.421063
605.472872	0.422523
605.822813	0.423381
606.172701	0.427705
606.522534	0.427289
606.872314	0.429471
607.222041	0.432561
607.571714	0.432562
607.921333	0.436016
608.270899	0.437752
608.620411	0.437025
608.969870	0.442655
609.319276	0.444812
609.668627	0.446901
610.017926	0.447948
610.367171	0.449578
610.716362	0.451779
611.065500	0.453803
611.414585	0.456145
611.763616	0.457478
612.112594	0.461238
612.461518	0.462637
612.810389	0.463106
613.159207	0.468070
613.507971	0.471649
613.856682	0.471331
614.205340	0.473827
614.553945	0.474622
614.902496	0.479941
615.250994	0.481402
615.599439	0.484611
615.947830	0.486344
616.296169	0.489980
616.644454	0.492059
616.992686	0.494473
617.340864	0.496155
617.688990	0.501270
618.037063	0.501037
618.385082	0.504360
618.733048	0.505450
619.080961	0.508817
619.428821	0.511155
619.776628	0.514242
620.124382	0.518752
620.472083	0.521303
620.819731	0.523309
621.167326	0.528551
621.514868	0.530484
621.862357	0.535919
622.209793	0.537130
622.557176	0.541976
622.904506	0.544696
623.251783	0.548193
623.599007	0.552547
623.946179	0.554127
624.293297	0.559376
624.640363	0.563621
624.987376	0.566096
625.334336	0.569970
625.681243	0.575408
626.028097	0.577877
626.374899	0.580228
626.721647	0.583569
627.068343	0.588170
627.414987	0.591379
627.761577	0.594524
628.108115	0.595709
628.454600	0.602495
628.801032	0.603675
629.147412	0.606817
629.493739	0.610398
629.840014	0.614094
630.186236	0.615244
630.532405	0.620871
630.878521	0.621556
631.224585	0.625375
631.570597	0.629246
631.916556	0.632041
632.262462	0.632788
632.608316	0.638061
632.954117	0.640689
633.299866	0.642818
633.645562	0.646092
633.991206	0.650842
634.336797	0.654538
634.682336	0.658931
635.027823	0.661745
635.373257	0.664206
635.718639	0.669127
636.063968	0.670962
636.409245	0.676389
636.754470	0.679493
637.099642	0.682476
637.444762	0.687192
637.789829	0.688833
638.134845	0.692403
638.479808	0.696301
638.824719	0.697980
639.169577	0.701943
639.514383	0.704318
639.859137	0.708820
640.203839	0.709589
640.548489	0.712754
640.893086	0.715055
641.237632	0.718929
641.582125	0.720190
641.926566	0.724267
642.270955	0.725883
642.615292	0.727364
642.959576	0.729741
643.303809	0.731818
643.647990	0.734305
643.992118	0.736350
644.336195	0.738687
644.680219	0.741116
645.024192	0.743123
645.368112	0.742482
645.711981	0.743398
646.055797	0.743522
646.399562	0.746500
646.743274	0.745994
647.086935	0.745146
647.430544	0.747581
647.774101	0.749717
648.117606	0.750991
648.461059	0.753909
648.804460	0.757152
649.147810	0.760141
649.491108	0.764238
649.834354	0.766641
650.177548	0.771145
650.520690	0.775257
650.863781	0.777528
651.206820	0.780241
651.549807	0.783655
651.892742	0.787635
652.235626	0.788457
652.578458	0.790837
652.921238	0.795613
653.263967	0.796467
653.606644	0.799303
653.949269	0.802175
654.291843	0.803969
654.634365	0.805355
654.976836	0.807445
655.319255	0.809474
655.661622	0.812144
656.003938	0.814197
656.346203	0.816215
656.688416	0.817961
657.030577	0.819544
657.372687	0.822836
657.714746	0.824718
658.056753	0.825576
658.398708	0.828274
658.740612	0.830198
659.082465	0.831814
659.424266	0.832540
659.766016	0.833298
660.107715	0.837308
660.449362	0.838319
660.790958	0.840086
661.132503	0.843453
661.473996	0.841699
661.815438	0.844762
662.156829	0.846620
662.498168	0.848216
662.839456	0.847970
663.180693	0.850582
663.521879	0.851136
663.863013	0.853644
664.204097	0.855250
664.545129	0.855223
664.886110	0.857599
665.227040	0.858185
665.567918	0.858296
665.908746	0.859742
666.249522	0.861719
666.590248	0.862985
666.930922	0.863861
667.271545	0.865633
667.612118	0.866420
667.952639	0.868359
668.293109	0.870155
668.633528	0.871205
668.973896	0.872007
669.314213	0.873823
669.654480	0.876553
669.994695	0.876767
670.334859	0.879460
670.674973	0.880821
671.015035	0.881570
671.355047	0.883737
671.695008	0.884356
672.034918	0.885861
672.374777	0.887206
672.714585	0.888284
673.054342	0.889435
673.394049	0.890293
673.733705	0.890320
674.073310	0.893268
674.412864	0.894090
674.752368	0.895249
675.091820	0.897728
675.431223	0.898586
675.770574	0.899468
676.109875	0.901333
676.449125	0.903059
676.788324	0.904536
677.127473	0.906928
677.466571	0.908207
677.805619	0.909634
678.144616	0.910950
678.483562	0.912652
678.822458	0.914694
679.161303	0.915166
679.500098	0.916801
679.838842	0.917591
680.177535	0.917875
680.516179	0.918818
680.854771	0.919092
681.193314	0.918979
681.531805	0.918050
681.870247	0.916744
682.208638	0.915442
682.546978	0.916125
682.885268	0.918344
683.223508	0.920125
683.561697	0.921893
683.899836	0.923005
684.237925	0.923925
684.575963	0.925271
684.913951	0.925711
685.251889	0.926360
685.589776	0.926865
685.927614	0.927551
686.265401	0.926917
686.603137	0.928046
686.940824	0.928080
687.278460	0.927929
687.616046	0.927171
687.953582	0.926655
688.291068	0.927992
688.628504	0.927277
688.965889	0.927942
689.303224	0.928302
689.640510	0.931953
689.977745	0.932220
690.314930	0.935152
690.652065	0.936857
690.989150	0.938187
691.326185	0.941066
691.663170	0.942134
692.000105	0.943927
692.336990	0.945641
692.673825	0.946713
693.010610	0.948030
693.347345	0.949871
693.684030	0.950424
694.020665	0.951844
694.357251	0.952967
694.693786	0.954175
695.030272	0.954003
695.366707	0.955847
695.703093	0.955968
696.039429	0.956401
696.375716	0.958108
696.711952	0.957587
697.048139	0.958850
697.384276	0.959092
697.720363	0.959285
698.056400	0.958622
698.392388	0.960214
698.728326	0.960515
699.064214	0.962038
699.400053	0.962552
699.735842	0.963729
700.071581	0.963386
700.407270	0.965081
700.742910	0.965949
701.078501	0.965712
701.414042	0.968283
701.749533	0.967500
702.084974	0.968876
702.420366	0.969184
702.755709	0.969462
703.091002	0.971153
703.426246	0.971483
703.761440	0.970937
704.096584	0.971270
704.431679	0.972043
704.766725	0.972755
705.101721	0.973820
705.436668	0.973380
705.771565	0.973208
706.106413	0.972403
706.441212	0.974249
706.775961	0.973807
707.110661	0.973443
707.445311	0.974082
707.779913	0.975594
708.114465	0.975449
708.448967	0.975074
708.783421	0.974940
709.117825	0.974270
709.452180	0.974687
709.786485	0.974406
710.120742	0.973267
710.454949	0.972965
710.789107	0.972644
711.123216	0.971034
711.457275	0.970597
711.791286	0.970965
712.125247	0.971640
712.459159	0.971260
712.793023	0.971354
713.126837	0.973921
713.460602	0.971974
713.794318	0.972721
714.127985	0.972329
714.461602	0.975143
714.795171	0.975286
715.128691	0.976811
715.462162	0.977301
715.795584	0.977833
716.128957	0.979004
716.462281	0.978914
716.795556	0.979261
717.128782	0.980650
717.461960	0.980456
717.795088	0.980562
718.128167	0.982675
718.461198	0.982017
718.794180	0.981838
719.127113	0.981795
719.459997	0.981957
719.792833	0.983253
720.125619	0.982589
720.458357	0.984372
720.791046	0.983890
721.123686	0.984020
721.456278	0.984554
721.788821	0.984544
722.121315	0.985327
722.453761	0.984879
722.786158	0.984162
723.118506	0.985416
723.450805	0.984866
723.783056	0.985593
724.115259	0.984423
724.447412	0.986097
724.779518	0.985838
725.111574	0.985156
725.443582	0.985461
725.775542	0.985239
726.107453	0.985656
726.439315	0.986376
726.771129	0.984508
727.102895	0.984900
727.434612	0.984610
727.766281	0.985211
728.097901	0.983824
728.429473	0.985258
728.760996	0.984728
729.092471	0.985291
729.423897	0.985326
729.755276	0.984194
730.086606	0.984980
730.417887	0.985348
730.749120	0.984707
731.080305	0.984456
731.411442	0.984236
731.742530	0.984542
732.073570	0.984947
732.404562	0.985201
732.735506	0.985348
733.066401	0.984634
733.397249	0.984810
733.728048	0.985999
734.058798	0.987183
734.389501	0.988178
734.720156	0.988172
735.050762	0.988392
735.381320	0.988733
735.711831	0.987492
736.042293	0.988756
736.372707	0.989685
736.703073	0.987073
737.033391	0.988430
737.363661	0.989790
737.693883	0.988565
738.024056	0.988525
738.354182	0.989164
738.684260	0.988229
739.014290	0.988052
739.344272	0.987947
739.674207	0.988112
740.004093	0.988133
740.333931	0.987773
740.663722	0.987081
740.993464	0.989207
741.323159	0.987667
741.652806	0.988146
741.982405	0.988999
742.311956	0.989538
742.641460	0.988318
742.970915	0.988879
743.300323	0.988435
743.629683	0.989033
743.958996	0.990740
744.288260	0.989609
744.617477	0.990353
744.946647	0.989957
745.275768	0.991725
745.604842	0.990660
745.933869	0.990929
746.262847	0.991029
746.591778	0.989508
746.920662	0.990711
747.249498	0.991969
747.578286	0.992957
747.907027	0.991251
748.235720	0.991571
748.564365	0.991308
748.892963	0.990979
749.221514	0.991074
749.550017	0.991464
749.878473	0.991158
750.206881	0.991837
750.535242	0.991568
750.863555	0.991278
751.191821	0.990982
751.520039	0.990303
751.848210	0.989890
752.176334	0.990952
752.504411	0.991048
752.832440	0.990730
753.160421	0.990814
753.488356	0.991990
753.816243	0.991818
754.144082	0.991163
754.471875	0.991961
754.799620	0.992050
755.127318	0.992053
755.454969	0.991618
755.782572	0.993988
756.110129	0.992019
756.437638	0.993913
756.765100	0.992778
757.092515	0.991945
757.419882	0.993281
757.747203	0.991703
758.074477	0.993276
758.401703	0.992093
758.728882	0.992215
759.056014	0.992260
759.383099	0.992650
759.710138	0.992321
760.037129	0.992039
760.364073	0.991864
760.690970	0.991901
761.017820	0.991068
761.344623	0.992297
761.671379	0.992074
761.998088	0.991190
762.324751	0.991238
762.651366	0.990348
762.977935	0.987933
763.304456	0.987385
763.630931	0.983566
763.957359	0.983424
764.283740	0.984944
764.610074	0.986756
764.936362	0.988398
765.262602	0.989410
765.588796	0.990952
765.914943	0.990513
766.241044	0.991644
766.567097	0.992490
766.893104	0.992360
767.219064	0.992213
767.544978	0.992392
767.870845	0.992769
768.196665	0.993153
768.522438	0.993987
768.848165	0.993656
769.173846	0.993786
769.499479	0.994567
769.825066	0.994336
770.150607	0.995411
770.476101	0.995173
770.801548	0.995898
771.126949	0.995519
771.452303	0.994967
771.777611	0.995418
772.102872	0.994904
772.428087	0.994140
772.753256	0.995026
773.078378	0.996063
773.403453	0.995296
773.728482	0.996235
774.053465	0.994607
774.378401	0.994292
774.703291	0.994887
775.028135	0.996675
775.352932	0.994960
775.677683	0.995232
776.002388	0.994881
776.327046	0.994331
776.651658	0.996681
776.976224	0.996155
777.300743	0.995372
777.625216	0.995905
777.949643	0.996534
778.274024	0.995559
778.598359	0.996934
778.922647	0.995248
779.246889	0.996700
779.571086	0.995551
779.895236	0.995818
780.219339	0.996324
780.543397	0.996042
780.867409	0.996833
781.191374	0.995621
781.515294	0.996789
781.839167	0.995838
782.162995	0.995003
782.486776	0.996121
782.810511	0.995962
783.134201	0.996972
783.457844	0.997162
783.781441	0.994874
784.104993	0.996854
784.428498	0.996564
784.751958	0.997413
785.075372	0.996143
785.398739	0.995518
785.722061	0.995163
786.045337	0.997070
786.368568	0.996925
786.691752	0.995922
787.014891	0.995768
787.337983	0.994855
787.661030	0.995676
787.984031	0.995024
788.306987	0.994378
788.629897	0.992416
788.952760	0.993518
789.275579	0.995087
789.598351	0.994097
789.921078	0.996486
790.243759	0.995812
790.566395	0.995391
790.888984	0.996710
791.211529	0.996125
791.534027	0.995048
791.856480	0.996841
792.178888	0.995217
792.501249	0.996656
792.823566	0.997275
793.145836	0.996400
793.468062	0.996926
793.790241	0.997801
794.112375	0.996190
794.434464	0.996324
794.756507	0.997221
795.078505	0.996206
795.400457	0.996665
795.722364	0.995355
796.044226	0.994770
796.366042	0.994144
796.687812	0.993933
797.009538	0.994692
797.331218	0.996189
797.652852	0.995929
797.974442	0.995245
798.295986	0.995521
798.617484	0.995450
798.938938	0.996029
799.260346	0.995579
799.581709	0.996398
799.903026	0.996995
800.224299	0.996266
800.545526	0.996413
800.866708	0.995704
801.187845	0.996773
801.508936	0.995911
801.829983	0.996252
802.150984	0.997236
802.471940	0.996947
802.792851	0.995626
803.113717	0.998035
803.434538	0.998280
803.755314	0.997860
804.076045	0.997676
804.396731	0.996306
804.717372	0.995194
805.037967	0.997181
805.358518	0.997269
805.679024	0.996606
805.999485	0.996306
806.319901	0.996914
806.640272	0.997851
806.960598	0.995450
807.280879	0.996459
807.601115	0.996860
807.921306	0.997820
808.241453	0.996307
808.561554	0.997627
808.881611	0.996202
809.201623	0.996119
809.521590	0.996430
809.841513	0.996611
810.161390	0.995681
810.481223	0.995870
810.801011	0.997510
811.120755	0.996748
811.440453	0.995832
811.760107	0.997325
812.079716	0.996796
812.399281	0.997644
812.718801	0.996767
813.038276	0.996733
813.357707	0.996608
813.677093	0.997424
813.996434	0.996959
814.315731	0.998317
814.634983	0.996713
814.954191	0.997359
815.273354	0.996413
815.592473	0.996110
815.911547	0.997272
816.230577	0.996624
816.549562	0.996962
816.868502	0.994840
817.187399	0.996760
817.506250	0.997198
817.825058	0.994510
818.143821	0.996308
818.462539	0.995243
818.781213	0.995425
819.099843	0.994496
819.418429	0.994723
819.736970	0.993261
820.055466	0.991063
820.373919	0.991721
820.692327	0.989717
821.010691	0.988399
821.329011	0.984269
821.647286	0.979914
821.965517	0.974412
822.283704	0.969491
822.601847	0.967211
822.919945	0.968472
823.237999	0.971003
823.556010	0.973893
823.873976	0.976606
824.191897	0.978619
824.509775	0.981505
824.827609	0.984227
825.145398	0.985264
825.463144	0.984230
825.780845	0.985181
826.098502	0.985763
826.416116	0.984240
826.733685	0.981072
827.051210	0.977526
827.368692	0.978257
827.686129	0.980574
828.003522	0.983581
828.320872	0.984675
828.638177	0.987930
828.955439	0.990442
829.272656	0.990511
829.589830	0.992154
829.906960	0.994029
830.224046	0.994250
830.541088	0.994853
830.858086	0.994198
831.175041	0.996330
831.491952	0.995165
831.808819	0.994538
832.125642	0.994497
832.442421	0.993755
832.759157	0.993590
833.075849	0.990852
833.392497	0.987897
833.709101	0.985522
834.025662	0.985099
834.342179	0.986094
834.658653	0.988622
834.975083	0.989555
835.291469	0.991473
835.607811	0.992823
835.924110	0.994001
836.240366	0.996793
836.556578	0.995957
836.872746	0.995153
837.188871	0.995704
837.504952	0.996667
837.820990	0.996536
838.136984	0.996275
838.452935	0.996682
838.768842	0.998081
839.084706	0.997440
839.400526	0.996702
839.716303	0.993849
840.032037	0.992988
840.347727	0.992592
840.663373	0.992909
840.978977	0.994341
841.294537	0.996113
841.610054	0.997032
841.925527	0.997094
842.240957	0.997889
842.556344	0.997688
842.871687	0.997784
843.186987	0.997684
843.502244	0.999219
843.817458	0.997406
844.132629	0.997702
844.447756	0.998547
844.762840	0.998659
845.077881	1.000767
845.392879	0.997069
845.707833	0.998684
846.022745	0.998311
846.337613	0.999442
846.652438	0.998564
846.967221	0.998829
847.281960	1.000043
847.596656	1.000134
847.911309	1.000047
848.225919	0.998634
848.540485	0.998888
848.855009	1.000295
849.169490	0.998425
849.483928	0.998811
849.798323	0.999308
850.112675	0.999481
850.426984	1.001212
850.741251	0.999805
851.055474	0.998995
851.369654	0.999844
851.683792	0.999483
851.997887	0.999248
852.311938	1.000294
852.625947	1.000101
852.939914	0.997957
853.253837	1.000815
853.567718	0.999523
853.881555	1.000412
854.195350	0.999747
854.509103	1.000019
854.822812	1.000292
855.136479	0.998713
855.450103	0.999253
855.763685	0.999232
856.077224	0.998939
856.390720	0.999143
856.704173	0.999885
857.017584	1.000176
857.330953	1.000253
857.644278	0.999214
857.957561	0.999121
858.270802	1.000429
858.584000	1.000263
858.897155	0.999527
859.210268	0.999074
859.523339	1.000565
859.836367	0.999449
860.149352	0.998578
860.462295	0.999384
860.775195	0.998681
861.088054	0.998415
861.400869	0.999181
861.713642	0.998929
862.026373	1.000343
862.339062	1.000324
862.651708	0.999254
862.964312	0.999632
863.276873	0.998910
863.589392	0.998899
863.901869	0.998550
864.214303	0.999343
864.526696	0.999189
864.839045	0.998455
865.151353	0.998618
865.463619	0.999180
865.775842	0.999343
866.088023	0.999533
866.400162	0.998845
866.712258	1.000907
867.024313	0.998952
867.336325	0.999287
867.648296	0.999476
867.960224	0.998428
868.272110	0.999210
868.583954	0.999724
868.895755	0.999668
869.207515	0.998704
869.519233	0.999990
869.830909	0.997967
870.142542	0.998250
870.454134	0.998250
870.765684	0.997522
871.077191	0.998534
871.388657	0.998950
871.700081	0.999458
872.011463	0.998990
872.322803	0.998110
872.634101	0.997656
872.945357	0.997731
873.256571	0.997259
873.567744	0.997680
873.878874	0.998236
874.189963	0.997184
874.501010	0.999665
874.812015	0.997573
875.122979	0.998018
875.433900	0.996496
875.744780	0.998327
876.055618	0.997386
876.366415	0.996563
876.677169	0.996618
876.987882	0.997258
877.298554	0.998020
877.609183	0.996711
877.919771	0.997265
878.230317	0.996621
878.540822	0.996180
878.851285	0.995658
879.161707	0.995071
879.472087	0.995680
879.782425	0.991301
880.092722	0.989551
880.402977	0.986905
880.713191	0.980950
881.023363	0.976138
881.333494	0.972276
881.643583	0.972899
881.953631	0.971722
882.263637	0.971963
882.573602	0.974092
882.883526	0.976586
883.193408	0.979953
883.503248	0.980913
883.813048	0.983065
884.122806	0.985725
884.432522	0.986732
884.742197	0.989271
885.051831	0.990304
885.361424	0.991142
885.670975	0.993491
885.980485	0.994229
886.289954	0.993952
886.599382	0.993838
886.908768	0.995554
887.218113	0.995154
887.527417	0.995942
887.836680	0.996020
888.145901	0.996484
888.455082	0.997333
888.764221	0.997820
889.073319	0.996249
889.382376	0.998172
889.691392	0.996307
890.000366	0.997436
890.309300	0.996801
890.618193	0.997731
890.927044	0.997279
891.235855	0.996766
891.544625	0.996671
891.853353	0.996772
892.162041	0.997246
892.470687	0.996402
892.779293	0.995464
893.087858	0.994414
893.396381	0.994454
893.704864	0.992624
894.013306	0.991000
894.321707	0.988711
894.630068	0.987058
894.938387	0.985763
895.246665	0.986199
895.554903	0.985927
895.863100	0.988091
896.171256	0.989598
896.479371	0.992597
896.787446	0.991786
897.095480	0.993697
897.403473	0.994471
897.711425	0.994477
898.019336	0.995355
898.327207	0.996226
898.635038	0.995119
898.942827	0.996108
899.250576	0.996109
899.558284	0.997317
899.865952	0.995796
900.173579	0.997109
900.481165	0.996888
900.788711	0.996168
901.096216	0.996516
901.403681	0.997247
901.711105	0.997516
902.018489	0.997886
902.325832	0.997155
902.633135	0.996351
902.940397	0.996653
903.247619	0.995841
903.554800	0.992778
903.861941	0.990526
904.169041	0.985446
904.476101	0.983590
904.783121	0.982312
905.090100	0.984566
905.397039	0.987076
905.703938	0.988743
906.010796	0.990805
906.317614	0.992558
906.624391	0.993753
906.931129	0.995055
907.237826	0.995301
907.544483	0.996921
907.851099	0.996713
908.157675	0.995869
908.464211	0.997927
908.770707	0.997224
909.077163	0.997904
909.383578	0.999312
909.689954	0.997684
909.996289	0.998805
910.302584	0.999389
910.608839	1.000080
910.915054	0.998179
911.221229	0.999708
911.527363	0.997491
911.833458	0.998700
912.139513	0.998401
912.445527	0.997872
912.751502	0.997371
913.057436	0.996511
913.363331	0.999353
913.669186	0.998794
913.975000	0.996830
914.280775	0.996617
914.586510	0.994529
914.892205	0.992805
915.197859	0.991640
915.503475	0.989447
915.809050	0.986264
916.114585	0.983450
916.420081	0.983873
916.725536	0.984572
917.030952	0.985081
917.336328	0.986312
917.641665	0.987355
917.946961	0.989356
918.252218	0.989630
918.557435	0.992430
918.862612	0.993407
919.167750	0.994782
919.472848	0.995093
919.777906	0.996280
920.082925	0.996941
920.387904	0.996986
920.692843	0.997032
920.997743	0.995562
921.302603	0.997323
921.607423	0.997581
921.912204	0.997429
922.216946	0.998492
922.521647	0.997779
922.826310	0.998537
923.130932	0.998017
923.435516	0.998504
923.740059	0.999136
924.044564	0.998918
924.349028	0.998223
924.653454	0.999383
924.957840	0.999467
925.262186	0.999943
925.566493	0.998106
925.870761	0.998746
926.174989	0.997385
926.479178	0.999431
926.783328	0.999242
927.087438	0.999919
927.391509	0.999173
927.695541	0.999751
927.999533	1.000155
928.303486	1.000117
928.607400	1.000233
928.911275	1.000220
929.215110	1.001396
929.518906	1.000402
929.822663	1.001531
930.126381	1.000345
930.430060	1.000692
930.733699	1.000779
931.037299	1.000664
931.340861	1.001514
931.644383	0.999508
931.947866	1.000670
932.251309	1.001119
932.554714	1.000027
932.858080	0.999654
933.161407	0.999484
933.464694	1.000032
933.767943	0.999693
934.071153	1.000369
934.374323	1.000324
934.677455	0.999946
934.980548	1.000438
935.283602	1.000839
935.586617	0.999558
935.889593	1.000456
936.192530	1.001125
936.495428	0.999949
936.798287	0.999344
937.101108	1.000143
937.403890	0.999934
937.706632	1.000836
938.009336	1.000017
938.312002	0.998286
938.614628	0.999901
938.917216	0.999038
939.219765	0.998425
939.522275	0.999465
939.824747	0.999516
940.127179	0.999023
940.429573	1.001149
940.731929	0.997318
941.034246	0.998394
941.336524	0.998464
941.638763	0.998167
941.940964	0.998843
942.243126	0.998573
942.545250	1.001166
942.847335	0.998989
943.149381	1.000811
943.451389	0.999222
943.753359	1.000313
944.055290	1.000198
944.357182	1.001532
944.659036	1.000708
944.960851	1.000770
945.262628	1.000724
945.564367	1.000289
945.866067	0.999628
946.167729	0.999708
946.469352	0.999960
946.770937	0.998983
947.072484	1.000786
947.373992	1.000036
947.675462	0.999179
947.976893	0.999340
948.278286	1.001302
948.579641	1.000951
948.880958	1.000058
949.182236	1.000045
949.483476	1.001538
949.784678	1.001466
950.085841	1.000113
950.386967	0.999367
950.688054	1.000664
950.989103	0.998466
951.290114	0.998837
951.591087	1.000546
951.892021	0.999265
952.192917	1.000462
952.493776	1.000589
952.794596	0.998983
953.095378	0.999314
953.396122	0.999458
953.696828	1.000474
953.997496	1.000298
954.298126	1.000591
954.598718	0.998814
954.899272	1.000915
955.199788	0.999809
955.500266	1.001078
955.800706	1.000910
956.101108	0.999378
956.401472	1.002114
956.701798	1.000609
957.002087	1.000972
957.302337	1.000394
957.602550	1.000697
957.902724	1.000573
958.202861	1.000629
958.502960	1.000599
958.803022	1.002088
959.103045	1.001801
959.403031	1.001443
959.702979	1.001445
960.002889	1.000731
960.302762	1.000459
960.602596	1.002027
960.902393	1.001515
961.202153	1.001521
961.501875	1.002261
961.801559	1.001201
962.101205	1.000149
962.400814	1.002336
962.700385	1.002812
962.999918	1.001205
963.299414	1.001398
963.598873	1.002580
963.898293	1.001532
964.197677	1.001174
964.497022	1.000994
964.796331	1.001634
965.095601	1.001484
965.394835	1.000432
965.694030	1.001898
965.993189	1.000295
966.292309	1.001762
966.591393	1.000275
966.890439	1.001514
967.189447	1.001705
967.488419	1.001535
967.787353	1.000869
968.086249	1.002702
968.385108	1.001447
968.683930	1.001859
968.982714	1.002599
969.281462	1.001839
969.580172	1.001000
969.878844	1.002044
970.177480	1.001149
970.476078	1.002596
970.774639	1.001673
971.073162	1.001215
971.371649	1.000653
971.670098	1.001406
971.968510	1.001467
972.266885	1.000525
972.565223	1.002246
972.863524	1.000634
973.161788	1.001497
973.460014	1.002517
973.758204	1.001277
974.056356	1.001779
974.354471	1.001493
974.652550	1.002417
974.950591	1.001491
975.248595	1.000134
975.546563	1.003016
975.844493	1.002220
976.142386	1.000980
976.440243	1.002270
976.738062	1.001852
977.035845	1.001809
977.333590	1.003138
977.631299	1.000716
977.928971	1.000570
978.226606	1.001246
978.524204	1.001261
978.821765	1.002604
979.119290	1.002724
979.416777	1.000675
979.714228	1.002146
980.011642	1.001525
980.309020	1.001167
980.606360	1.002599
980.903664	1.001218
981.200931	1.001252
981.498162	1.001567
981.795356	1.001517
982.092513	1.001985
982.389633	1.003181
982.686717	1.000069
982.983764	1.000969
983.280775	1.001090
983.577749	1.001335
983.874686	1.000199
984.171587	0.999762
984.468451	1.001611
984.765279	1.001549
985.062070	1.001568
985.358824	1.000554
985.655543	1.002270
985.952224	1.003027
986.248869	1.001292
986.545478	1.002824
986.842050	1.001644
987.138586	1.001208
987.435086	1.001027
987.731549	1.003452
988.027975	1.002641
988.324366	1.001871
988.620719	1.002636
988.917037	1.002115
989.213318	1.001568
989.509563	1.001941
989.805772	1.002279
990.101944	1.003086
990.398080	1.001775
990.694180	1.002401
990.990244	1.000870
991.286271	1.002338
991.582262	1.002616
991.878217	1.002566
992.174136	1.003391
992.470019	1.002466
992.765865	1.002929
993.061676	1.002660
993.357450	1.001172
993.653188	1.002706
993.948890	1.003116
994.244556	1.001255
994.540186	1.002770
994.835780	1.001009
995.131337	1.001868
995.426859	1.002161
995.722345	1.001861
996.017795	1.001826
996.313208	1.002270
996.608586	1.001160
996.903928	1.001513
997.199234	1.002318
997.494504	1.002637
997.789738	1.001274
998.084936	1.002745
998.380099	1.002148
998.675225	1.003152
998.970316	1.003188
999.265371	1.002219
999.560390	1.002933
999.855373	1.001506
1000.150320	1.002093
1000.445232	1.001901
1000.740108	1.001652
1001.034948	1.002203
1001.329752	1.002956
1001.624521	1.002332
1001.919254	1.002195
1002.213951	1.002769
1002.508613	1.001378
1002.803239	1.002089
1003.097829	1.001824
1003.392384	1.002550
1003.686903	1.002286
1003.981386	1.002476
1004.275834	1.004091
1004.570246	1.000809
1004.864623	1.003955
1005.158964	1.002467
1005.453270	1.001526
1005.747540	1.001823
1006.041775	1.003407
1006.335974	1.003082
1006.630138	1.002573
1006.924266	1.001333
1007.218359	1.001032
1007.512416	1.003618
1007.806438	1.002500
1008.100425	1.003352
1008.394376	1.002618
1008.688292	1.002076
1008.982172	1.001493
1009.276017	1.003387
1009.569827	1.003795
1009.863602	1.001764
1010.157341	1.003045
1010.451045	1.002571
1010.744714	1.004120
1011.038347	1.003355
1011.331945	1.002021
1011.625508	1.002837
1011.919036	1.001310
1012.212528	1.002004
1012.505986	1.002278
1012.799408	1.002446
1013.092795	1.003804
1013.386147	1.002647
1013.679464	1.002367
1013.972745	1.003438
1014.265992	1.001718
1014.559204	1.001868
1014.852380	1.002122
1015.145521	1.002244
1015.438628	1.002251
1015.731699	1.003107
1016.024736	1.003145
1016.317737	1.003395
1016.610703	1.003115
1016.903635	1.002468
1017.196531	1.003332
1017.489393	1.002257
1017.782219	1.002095
1018.075011	1.001825
1018.367768	1.000864
1018.660490	1.003297
1018.953177	1.003297
1019.245829	1.003297
