Dividing Wavelength (nm)	Counts (n)	Blue Motor Position (mm): 24.300000	Red Motor Position (mm): 0.000000	
326.493990	1.002497
326.888308	1.002497
327.282561	1.002497
327.676750	1.001409
328.070874	1.002939
328.464933	1.003104
328.858929	1.003475
329.252859	1.002361
329.646726	1.002159
330.040528	1.002390
330.434265	1.001811
330.827938	1.001478
331.221547	1.001752
331.615091	1.002592
332.008571	1.002006
332.401986	1.001583
332.795338	1.001387
333.188625	1.002500
333.581847	1.002201
333.975006	1.003252
334.368100	1.002150
334.761129	1.001255
335.154095	1.002014
335.546996	1.001180
335.939833	0.998460
336.332606	1.000336
336.725315	0.999997
337.117960	1.001036
337.510540	0.999759
337.903056	1.000907
338.295508	1.001225
338.687896	1.001239
339.080220	1.000746
339.472480	0.999473
339.864676	1.000994
340.256807	0.999160
340.648875	1.000434
341.040879	0.999159
341.432818	1.000526
341.824694	0.999854
342.216506	1.001720
342.608253	1.000161
342.999937	1.000621
343.391557	0.999512
343.783113	1.002120
344.174605	0.999837
344.566033	1.000072
344.957397	1.000260
345.348697	1.000100
345.739934	0.999544
346.131106	0.999353
346.522215	0.999696
346.913260	1.000324
347.304241	0.999713
347.695159	0.999766
348.086012	1.000338
348.476802	0.998386
348.867528	0.999794
349.258191	1.000124
349.648789	1.000590
350.039324	0.999744
350.429796	1.000315
350.820203	0.997603
351.210548	0.998999
351.600828	0.998138
351.991045	1.000646
352.381198	0.998989
352.771288	0.999586
353.161314	0.999758
353.551276	0.999145
353.941175	0.998234
354.331010	0.999513
354.720782	0.999539
355.110490	0.999677
355.500135	1.000074
355.889717	0.997775
356.279235	0.998777
356.668689	0.999627
357.058080	0.999625
357.447408	0.997865
357.836672	0.998221
358.225873	0.998695
358.615010	0.997452
359.004084	0.997599
359.393095	0.998707
359.782043	0.997751
360.170927	0.999762
360.559748	0.998858
360.948505	0.999126
361.337199	0.998376
361.725830	0.999092
362.114398	0.998243
362.502903	0.997835
362.891344	0.997527
363.279722	0.997607
363.668037	0.998721
364.056289	0.997270
364.444478	1.000013
364.832603	0.997117
365.220665	0.999258
365.608665	0.997350
365.996601	0.998230
366.384474	0.996460
366.772284	0.997455
367.160031	0.995341
367.547715	0.997428
367.935336	0.996469
368.322893	0.994281
368.710388	0.993703
369.097820	0.991028
369.485189	0.989100
369.872495	0.988324
370.259738	0.985990
370.646918	0.982132
371.034035	0.981062
371.421090	0.978042
371.808081	0.972078
372.195010	0.970168
372.581875	0.965131
372.968678	0.960428
373.355418	0.957291
373.742096	0.949726
374.128710	0.944314
374.515262	0.940271
374.901751	0.934993
375.288177	0.930118
375.674540	0.922696
376.060841	0.916226
376.447079	0.909816
376.833254	0.903282
377.219367	0.898238
377.605417	0.887420
377.991404	0.882996
378.377329	0.876805
378.763191	0.870746
379.148991	0.863269
379.534727	0.854657
379.920402	0.846822
380.306013	0.842991
380.691563	0.829712
381.077049	0.823856
381.462474	0.818685
381.847835	0.808242
382.233134	0.803486
382.618371	0.803162
383.003545	0.786849
383.388657	0.783610
383.773706	0.775693
384.158693	0.772341
384.543618	0.767802
384.928480	0.758233
385.313280	0.748382
385.698017	0.747483
386.082692	0.736091
386.467305	0.735231
386.851856	0.729386
387.236344	0.723908
387.620770	0.718458
388.005133	0.713297
388.389435	0.707974
388.773674	0.703961
389.157851	0.696178
389.541965	0.694744
389.926018	0.700672
390.310008	0.687080
390.693936	0.684903
391.077802	0.676915
391.461606	0.677728
391.845348	0.666750
392.229027	0.666522
392.612645	0.664736
392.996200	0.651740
393.379694	0.644673
393.763125	0.634719
394.146494	0.639702
394.529801	0.630619
394.913047	0.622045
395.296230	0.628224
395.679351	0.619715
396.062410	0.616640
396.445408	0.619139
396.828343	0.614996
397.211217	0.608770
397.594028	0.621423
397.976778	0.612203
398.359466	0.608273
398.742092	0.603460
399.124656	0.615809
399.507158	0.603725
399.889598	0.601543
400.271977	0.592405
400.654294	0.596856
401.036549	0.595677
401.418742	0.599548
401.800874	0.585349
402.182944	0.582247
402.564952	0.574229
402.946898	0.575763
403.328783	0.576349
403.710606	0.587737
404.092367	0.562686
404.474067	0.567524
404.855705	0.566817
405.237282	0.575527
405.618797	0.561929
406.000250	0.557913
406.381642	0.546911
406.762972	0.552458
407.144240	0.551650
407.525447	0.550848
407.906593	0.543463
408.287677	0.539515
408.668700	0.547380
409.049661	0.541477
409.430560	0.536989
409.811399	0.545354
410.192176	0.527004
410.572891	0.534496
410.953545	0.522815
411.334138	0.536385
411.714669	0.528514
412.095139	0.540478
412.475547	0.524775
412.855894	0.526506
413.236180	0.525452
413.616405	0.530991
413.996568	0.521215
414.376670	0.527380
414.756711	0.532464
415.136691	0.529209
415.516609	0.520523
415.896466	0.517136
416.276262	0.513165
416.655997	0.514547
417.035670	0.496378
417.415283	0.488728
417.794834	0.493051
418.174324	0.498203
418.553753	0.507248
418.933121	0.490264
419.312428	0.483719
419.691674	0.489525
420.070859	0.477253
420.449983	0.485634
420.829045	0.474278
421.208047	0.483459
421.586988	0.476712
421.965867	0.475593
422.344686	0.464579
422.723444	0.477135
423.102141	0.493671
423.480777	0.466357
423.859352	0.487638
424.237866	0.464771
424.616319	0.465619
424.994712	0.456107
425.373044	0.466772
425.751314	0.454659
426.129524	0.471275
426.507673	0.455073
426.885762	0.448178
427.263789	0.454274
427.641756	0.463817
428.019662	0.454212
428.397508	0.452865
428.775292	0.457537
429.153016	0.449236
429.530679	0.455822
429.908282	0.449025
430.285824	0.459106
430.663305	0.437778
431.040726	0.458426
431.418086	0.458549
431.795385	0.450169
432.172624	0.449387
432.549802	0.449172
432.926920	0.448442
433.303977	0.447788
433.680974	0.444723
434.057910	0.443687
434.434786	0.442943
434.811601	0.446082
435.188355	0.428152
435.565050	0.437730
435.941683	0.438391
436.318257	0.422639
436.694770	0.423812
437.071222	0.422009
437.447614	0.425962
437.823946	0.432710
438.200218	0.421762
438.576429	0.431786
438.952580	0.424901
439.328670	0.421504
439.704700	0.427594
440.080670	0.429627
440.456580	0.410340
440.832429	0.418600
441.208218	0.429489
441.583947	0.418942
441.959616	0.417627
442.335224	0.423642
442.710773	0.413819
443.086261	0.412692
443.461689	0.426197
443.837057	0.416143
444.212365	0.406008
444.587612	0.413749
444.962800	0.402541
445.337927	0.404690
445.712995	0.431167
446.088002	0.392510
446.462949	0.403320
446.837837	0.408526
447.212664	0.396800
447.587431	0.388124
447.962139	0.359033
448.336786	0.317574
448.711374	0.328247
449.085901	0.373126
449.460369	0.376733
449.834776	0.381007
450.209124	0.359775
450.583412	0.352966
450.957640	0.345498
451.331808	0.357438
451.705917	0.380521
452.079965	0.385988
452.453954	0.374157
452.827883	0.380807
453.201752	0.375682
453.575562	0.387215
453.949311	0.376276
454.323001	0.382182
454.696632	0.378648
455.070202	0.370766
455.443713	0.363102
455.817164	0.358463
456.190556	0.355008
456.563888	0.352087
456.937160	0.349867
457.310373	0.367461
457.683526	0.367057
458.056619	0.373424
458.429653	0.374372
458.802628	0.378362
459.175542	0.373751
459.548398	0.357220
459.921194	0.350559
460.293930	0.351836
460.666607	0.330980
461.039224	0.320475
461.411782	0.317063
461.784280	0.317144
462.156719	0.322288
462.529099	0.327739
462.901419	0.344515
463.273680	0.350000
463.645882	0.350546
464.018024	0.358237
464.390106	0.352289
464.762130	0.338994
465.134094	0.325831
465.505999	0.299295
465.877845	0.274008
466.249631	0.262764
466.621358	0.270521
466.993026	0.285982
467.364634	0.293012
467.736184	0.303944
468.107674	0.315272
468.479105	0.317787
468.850477	0.325725
469.221790	0.334731
469.593043	0.347343
469.964238	0.355053
470.335373	0.357700
470.706449	0.359380
471.077467	0.363477
471.448425	0.333439
471.819324	0.315933
472.190164	0.317759
472.560945	0.347355
472.931667	0.371705
473.302330	0.379027
473.672934	0.393927
474.043479	0.387821
474.413965	0.394034
474.784393	0.402580
475.154761	0.402267
475.525070	0.405064
475.895321	0.414912
476.265513	0.415213
476.635645	0.415794
477.005719	0.422230
477.375734	0.424589
477.745691	0.424884
478.115588	0.428031
478.485427	0.429283
478.855207	0.425272
479.224928	0.419933
479.594591	0.416901
479.964194	0.425581
480.333739	0.431471
480.703226	0.440192
481.072653	0.446045
481.442022	0.451813
481.811333	0.455628
482.180584	0.465069
482.549777	0.477286
482.918912	0.486383
483.287988	0.494038
483.657005	0.500555
484.025964	0.512635
484.394864	0.518279
484.763706	0.526783
485.132489	0.537204
485.501213	0.545224
485.869879	0.550735
486.238487	0.561947
486.607036	0.566970
486.975527	0.579064
487.343959	0.583391
487.712333	0.591374
488.080648	0.598705
488.448905	0.607379
488.817104	0.615084
489.185244	0.619492
489.553326	0.627056
489.921350	0.629017
490.289315	0.626960
490.657222	0.630627
491.025070	0.640534
491.392861	0.648711
491.760593	0.660441
492.128267	0.671887
492.495883	0.682118
492.863440	0.692983
493.230939	0.703380
493.598380	0.711596
493.965763	0.720725
494.333088	0.726475
494.700354	0.735772
495.067563	0.740883
495.434713	0.751118
495.801805	0.755904
496.168839	0.763983
496.535815	0.771730
496.902733	0.776620
497.269593	0.784060
497.636395	0.788563
498.003139	0.796442
498.369825	0.802996
498.736453	0.808291
499.103023	0.813980
499.469535	0.820322
499.835989	0.826070
500.202385	0.831865
500.568723	0.837677
500.935003	0.841209
501.301226	0.849499
501.667390	0.852099
502.033497	0.856740
502.399546	0.862342
502.765537	0.868014
503.131470	0.872551
503.497345	0.876334
503.863163	0.882875
504.228923	0.885850
504.594625	0.890181
504.960269	0.895311
505.325856	0.899303
505.691385	0.903086
506.056856	0.906361
506.422270	0.910593
506.787625	0.914176
507.152924	0.917760
507.518164	0.920806
507.883347	0.924408
508.248472	0.928002
508.613540	0.930103
508.978550	0.933707
509.343503	0.936200
509.708398	0.939658
510.073236	0.941837
510.438016	0.944159
510.802738	0.946530
511.167403	0.948413
511.532010	0.952108
511.896561	0.953893
512.261053	0.955465
512.625488	0.957525
512.989866	0.959281
513.354186	0.961155
513.718449	0.963687
514.082655	0.964616
514.446803	0.966776
514.810894	0.968773
515.174927	0.970444
515.538904	0.971568
515.902822	0.972789
516.266684	0.974321
516.630488	0.975501
516.994235	0.976477
517.357925	0.978148
517.721558	0.978626
518.085133	0.979294
518.448651	0.980478
518.812112	0.982153
519.175516	0.982404
519.538863	0.982660
519.902152	0.983862
520.265385	0.984713
520.628560	0.985016
520.991678	0.985542
521.354739	0.986773
521.717743	0.986708
522.080690	0.987405
522.443580	0.987889
522.806413	0.988019
523.169189	0.988955
523.531908	0.988573
523.894569	0.989179
524.257174	0.989714
524.619722	0.989610
524.982213	0.990265
525.344647	0.990853
525.707025	0.990362
526.069345	0.990349
526.431608	0.991724
526.793815	0.991720
527.155964	0.991944
527.518057	0.992086
527.880093	0.991619
528.242072	0.991880
528.603995	0.993108
528.965860	0.993515
529.327669	0.992537
529.689421	0.992969
530.051117	0.993850
530.412755	0.993894
530.774337	0.992651
531.135862	0.993769
531.497331	0.993651
531.858743	0.994356
532.220098	0.993716
532.581396	0.993877
532.942638	0.993878
533.303824	0.994985
533.664953	0.994320
534.026025	0.994829
534.387040	0.994535
534.747999	0.994717
535.108902	0.993802
535.469748	0.994873
535.830537	0.995215
536.191270	0.994360
536.551947	0.994411
536.912567	0.994731
537.273131	0.995586
537.633638	0.995166
537.994089	0.994864
538.354483	0.995113
538.714821	0.994267
539.075103	0.995038
539.435328	0.995501
539.795497	0.995456
540.155609	0.995499
540.515665	0.995403
540.875665	0.994632
541.235609	0.995173
541.595496	0.995602
541.955328	0.995112
542.315102	0.995741
542.674821	0.995794
543.034483	0.996168
543.394090	0.994915
543.753640	0.995282
544.113134	0.995327
544.472571	0.996118
544.831953	0.996359
545.191278	0.995659
545.550548	0.995329
545.909761	0.995288
546.268918	0.996307
546.628019	0.995420
546.987064	0.996175
547.346053	0.994844
547.704986	0.995325
548.063863	0.995370
548.422684	0.995904
548.781449	0.995355
549.140158	0.995481
549.498811	0.995093
549.857408	0.994580
550.215949	0.994909
550.574434	0.995781
550.932864	0.995947
551.291237	0.994793
551.649555	0.995774
552.007817	0.995719
552.366022	0.995501
552.724173	0.996539
553.082267	0.995582
553.440305	0.996027
553.798288	0.994872
554.156215	0.995705
554.514086	0.995645
554.871902	0.995483
555.229661	0.995048
555.587365	0.995685
555.945014	0.995859
556.302606	0.995671
556.660143	0.996421
557.017625	0.996016
557.375050	0.994936
557.732421	0.995742
558.089735	0.995371
558.446994	0.995186
558.804197	0.996000
559.161345	0.995105
559.518437	0.996019
559.875474	0.995811
560.232455	0.996109
560.589381	0.996053
560.946251	0.995719
561.303065	0.995924
561.659825	0.995395
562.016528	0.996094
562.373177	0.995780
562.729770	0.995698
563.086307	0.995473
563.442789	0.995813
563.799216	0.995271
564.155587	0.995119
564.511904	0.996542
564.868164	0.994965
565.224370	0.995392
565.580520	0.995942
565.936615	0.995455
566.292654	0.995594
566.648638	0.995984
567.004567	0.995464
567.360441	0.995717
567.716260	0.995517
568.072023	0.994762
568.427732	0.995630
568.783385	0.995324
569.138982	0.995418
569.494525	0.995363
569.850013	0.996385
570.205445	0.995974
570.560823	0.995350
570.916145	0.995774
571.271412	0.996234
571.626625	0.996328
571.981782	0.995716
572.336884	0.995963
572.691931	0.995554
573.046923	0.996593
573.401860	0.995791
573.756743	0.995893
574.111570	0.995490
574.466342	0.996663
574.821059	0.995678
575.175722	0.996076
575.530330	0.995967
575.884882	0.995223
576.239380	0.995766
576.593823	0.995272
576.948211	0.995787
577.302544	0.995482
577.656823	0.996077
578.011047	0.995460
578.365216	0.996658
578.719330	0.995973
579.073389	0.995570
579.427394	0.996071
579.781344	0.996677
580.135239	0.995035
580.489080	0.995543
580.842866	0.995521
581.196597	0.995402
581.550273	0.995171
581.903895	0.996178
582.257463	0.995664
582.610975	0.995870
582.964434	0.995353
583.317837	0.995749
583.671186	0.995672
584.024481	0.995418
584.377721	0.995087
584.730906	0.995726
585.084037	0.996665
585.437113	0.995972
585.790135	0.995424
586.143103	0.995827
586.496016	0.995544
586.848874	0.995781
587.201679	0.995675
587.554428	0.995604
587.907124	0.996426
588.259765	0.996145
588.612352	0.996143
588.964884	0.995946
589.317362	0.995214
589.669786	0.995790
590.022155	0.995368
590.374470	0.995411
590.726731	0.995561
591.078937	0.995625
591.431090	0.995677
591.783188	0.995619
592.135232	0.996624
592.487222	0.995168
592.839157	0.995384
593.191038	0.995927
593.542866	0.995725
593.894639	0.995011
594.246358	0.996060
594.598022	0.996433
594.949633	0.996258
595.301190	0.996419
595.652692	0.995397
596.004141	0.995585
596.355535	0.995187
596.706876	0.996535
597.058162	0.995917
597.409395	0.995729
597.760573	0.995719
598.111698	0.995899
598.462768	0.995348
598.813785	0.994527
599.164748	0.994861
599.515657	0.995505
599.866511	0.995906
600.217312	0.996317
600.568060	0.995348
600.918753	0.995911
601.269392	0.995945
601.619978	0.995553
601.970510	0.996046
602.320988	0.995120
602.671412	0.995650
603.021783	0.996221
603.372100	0.995670
603.722363	0.996291
604.072572	0.995337
604.422728	0.995417
604.772830	0.995663
605.122878	0.995981
605.472872	0.996765
605.822813	0.995350
606.172701	0.995130
606.522534	0.996071
606.872314	0.996076
607.222041	0.995698
607.571714	0.996111
607.921333	0.995486
608.270899	0.995299
608.620411	0.995921
608.969870	0.996511
609.319276	0.995758
609.668627	0.996797
610.017926	0.996075
610.367171	0.994791
610.716362	0.995547
611.065500	0.995349
611.414585	0.996175
611.763616	0.995777
612.112594	0.995865
612.461518	0.994766
612.810389	0.995913
613.159207	0.995453
613.507971	0.995197
613.856682	0.996826
614.205340	0.994859
614.553945	0.996025
614.902496	0.995148
615.250994	0.996177
615.599439	0.995594
615.947830	0.994633
616.296169	0.995488
616.644454	0.995861
616.992686	0.995523
617.340864	0.996047
617.688990	0.995207
618.037063	0.995560
618.385082	0.995081
618.733048	0.995568
619.080961	0.995466
619.428821	0.996168
619.776628	0.995057
620.124382	0.996009
620.472083	0.996220
620.819731	0.996114
621.167326	0.995446
621.514868	0.996120
621.862357	0.995868
622.209793	0.995182
622.557176	0.995435
622.904506	0.995613
623.251783	0.995710
623.599007	0.995537
623.946179	0.995157
624.293297	0.996046
624.640363	0.996440
624.987376	0.994795
625.334336	0.994613
625.681243	0.995935
626.028097	0.995889
626.374899	0.995679
626.721647	0.996385
627.068343	0.995176
627.414987	0.995810
627.761577	0.995390
628.108115	0.995648
628.454600	0.996687
628.801032	0.996368
629.147412	0.995758
629.493739	0.996558
629.840014	0.995736
630.186236	0.995165
630.532405	0.995628
630.878521	0.995103
631.224585	0.995646
631.570597	0.995386
631.916556	0.996605
632.262462	0.994944
632.608316	0.995849
632.954117	0.995370
633.299866	0.995570
633.645562	0.996008
633.991206	0.995918
634.336797	0.996277
634.682336	0.996455
635.027823	0.996137
635.373257	0.996142
635.718639	0.996454
636.063968	0.995671
636.409245	0.995345
636.754470	0.996042
637.099642	0.996121
637.444762	0.996444
637.789829	0.995637
638.134845	0.995311
638.479808	0.996491
638.824719	0.996198
639.169577	0.995517
639.514383	0.996350
639.859137	0.996428
640.203839	0.995917
640.548489	0.995469
640.893086	0.995437
641.237632	0.996877
641.582125	0.995141
641.926566	0.996966
642.270955	0.995886
642.615292	0.995756
642.959576	0.996060
643.303809	0.995981
643.647990	0.995841
643.992118	0.996723
644.336195	0.995103
644.680219	0.996359
645.024192	0.996181
645.368112	0.995590
645.711981	0.995103
646.055797	0.996116
646.399562	0.995404
646.743274	0.996086
647.086935	0.995741
647.430544	0.995496
647.774101	0.995286
648.117606	0.995939
648.461059	0.996098
648.804460	0.995782
649.147810	0.995377
649.491108	0.995478
649.834354	0.995851
650.177548	0.995814
650.520690	0.995580
650.863781	0.995393
651.206820	0.996421
651.549807	0.995683
651.892742	0.996158
652.235626	0.996236
652.578458	0.996158
652.921238	0.996604
653.263967	0.995760
653.606644	0.995745
653.949269	0.996634
654.291843	0.995296
654.634365	0.996303
654.976836	0.995068
655.319255	0.996292
655.661622	0.995963
656.003938	0.995857
656.346203	0.995350
656.688416	0.995688
657.030577	0.995590
657.372687	0.996338
657.714746	0.995598
658.056753	0.995069
658.398708	0.995140
658.740612	0.996466
659.082465	0.995863
659.424266	0.995590
659.766016	0.995449
660.107715	0.996666
660.449362	0.995062
660.790958	0.995575
661.132503	0.996478
661.473996	0.995332
661.815438	0.996802
662.156829	0.996939
662.498168	0.996445
662.839456	0.995373
663.180693	0.995948
663.521879	0.996537
663.863013	0.996148
664.204097	0.995658
664.545129	0.995503
664.886110	0.995703
665.227040	0.995434
665.567918	0.995280
665.908746	0.995183
666.249522	0.994754
666.590248	0.996226
666.930922	0.995657
667.271545	0.995478
667.612118	0.994937
667.952639	0.995783
668.293109	0.996122
668.633528	0.994453
668.973896	0.995848
669.314213	0.994732
669.654480	0.995203
669.994695	0.995399
670.334859	0.995634
670.674973	0.995164
671.015035	0.995275
671.355047	0.995150
671.695008	0.995138
672.034918	0.995034
672.374777	0.995765
672.714585	0.995953
673.054342	0.995936
673.394049	0.994835
673.733705	0.995223
674.073310	0.995613
674.412864	0.995565
674.752368	0.995055
675.091820	0.996064
675.431223	0.996016
675.770574	0.995040
676.109875	0.995542
676.449125	0.995639
676.788324	0.995271
677.127473	0.995951
677.466571	0.995197
677.805619	0.995819
678.144616	0.996151
678.483562	0.995983
678.822458	0.996238
679.161303	0.995727
679.500098	0.995819
679.838842	0.995890
680.177535	0.995425
680.516179	0.994838
680.854771	0.995538
681.193314	0.996509
681.531805	0.995511
681.870247	0.995792
682.208638	0.995489
682.546978	0.994586
682.885268	0.994652
683.223508	0.995072
683.561697	0.995095
683.899836	0.995058
684.237925	0.994730
684.575963	0.995737
684.913951	0.995474
685.251889	0.995333
685.589776	0.995114
685.927614	0.995484
686.265401	0.994801
686.603137	0.995517
686.940824	0.995023
687.278460	0.996042
687.616046	0.994738
687.953582	0.994490
688.291068	0.995732
688.628504	0.994966
688.965889	0.994509
689.303224	0.994232
689.640510	0.995102
689.977745	0.995044
690.314930	0.995415
690.652065	0.995654
690.989150	0.994474
691.326185	0.995434
691.663170	0.994880
692.000105	0.995727
692.336990	0.995247
692.673825	0.995427
693.010610	0.995537
693.347345	0.995290
693.684030	0.995297
694.020665	0.994532
694.357251	0.995786
694.693786	0.996292
695.030272	0.994670
695.366707	0.995534
695.703093	0.995501
696.039429	0.995506
696.375716	0.996457
696.711952	0.995988
697.048139	0.996138
697.384276	0.995704
697.720363	0.995687
698.056400	0.994430
698.392388	0.994874
698.728326	0.995271
699.064214	0.996550
699.400053	0.995555
699.735842	0.996698
700.071581	0.995782
700.407270	0.996417
700.742910	0.995718
701.078501	0.995860
701.414042	0.996492
701.749533	0.995304
702.084974	0.996547
702.420366	0.996245
702.755709	0.995827
703.091002	0.996407
703.426246	0.996848
703.761440	0.996140
704.096584	0.995431
704.431679	0.995444
704.766725	0.995617
705.101721	0.997128
705.436668	0.996926
705.771565	0.996077
706.106413	0.995044
706.441212	0.997064
706.775961	0.996236
707.110661	0.995401
707.445311	0.996678
707.779913	0.996827
708.114465	0.996729
708.448967	0.995892
708.783421	0.996590
709.117825	0.995761
709.452180	0.996322
709.786485	0.996142
710.120742	0.995426
710.454949	0.994590
710.789107	0.995673
711.123216	0.994175
711.457275	0.994820
711.791286	0.995147
712.125247	0.996855
712.459159	0.995250
712.793023	0.995092
713.126837	0.996875
713.460602	0.995108
713.794318	0.995040
714.127985	0.995061
714.461602	0.995454
714.795171	0.995227
715.128691	0.995358
715.462162	0.996177
715.795584	0.996309
716.128957	0.995714
716.462281	0.996362
716.795556	0.994864
717.128782	0.996776
717.461960	0.995989
717.795088	0.995800
718.128167	0.997156
718.461198	0.995464
718.794180	0.996887
719.127113	0.996233
719.459997	0.995264
719.792833	0.996484
720.125619	0.995449
720.458357	0.995711
720.791046	0.996847
721.123686	0.996458
721.456278	0.996726
721.788821	0.995132
722.121315	0.996868
722.453761	0.996056
722.786158	0.995709
723.118506	0.996599
723.450805	0.995115
723.783056	0.997102
724.115259	0.995616
724.447412	0.996546
724.779518	0.996454
725.111574	0.996734
725.443582	0.996500
725.775542	0.996490
726.107453	0.996776
726.439315	0.997714
726.771129	0.996844
727.102895	0.995988
727.434612	0.996197
727.766281	0.996666
728.097901	0.995541
728.429473	0.995982
728.760996	0.995131
729.092471	0.996067
729.423897	0.996264
729.755276	0.995717
730.086606	0.994809
730.417887	0.995477
730.749120	0.996312
731.080305	0.995305
731.411442	0.994542
731.742530	0.995053
732.073570	0.994429
732.404562	0.995600
732.735506	0.994791
733.066401	0.995502
733.397249	0.997143
733.728048	0.996138
734.058798	0.996480
734.389501	0.996773
734.720156	0.996355
735.050762	0.996712
735.381320	0.996233
735.711831	0.994916
736.042293	0.996125
736.372707	0.997495
736.703073	0.994845
737.033391	0.996828
737.363661	0.997150
737.693883	0.996586
738.024056	0.995975
738.354182	0.996579
738.684260	0.996252
739.014290	0.996094
739.344272	0.995137
739.674207	0.996361
740.004093	0.996413
740.333931	0.995853
740.663722	0.995226
740.993464	0.996213
741.323159	0.995264
741.652806	0.995267
741.982405	0.996166
742.311956	0.996708
742.641460	0.996421
742.970915	0.995201
743.300323	0.995562
743.629683	0.996455
743.958996	0.997449
744.288260	0.995668
744.617477	0.996479
744.946647	0.996212
745.275768	0.997244
745.604842	0.996093
745.933869	0.997074
746.262847	0.996742
746.591778	0.995065
746.920662	0.997200
747.249498	0.997614
747.578286	0.997513
747.907027	0.996779
748.235720	0.996790
748.564365	0.996979
748.892963	0.996410
749.221514	0.997144
749.550017	0.996274
749.878473	0.995787
750.206881	0.997066
750.535242	0.996564
750.863555	0.996151
751.191821	0.996605
751.520039	0.996419
751.848210	0.995673
752.176334	0.995982
752.504411	0.996824
752.832440	0.996705
753.160421	0.996806
753.488356	0.996711
753.816243	0.996055
754.144082	0.996045
754.471875	0.996539
754.799620	0.997719
755.127318	0.996327
755.454969	0.996146
755.782572	0.997673
756.110129	0.996278
756.437638	0.998164
756.765100	0.997354
757.092515	0.996679
757.419882	0.997002
757.747203	0.996295
758.074477	0.996465
758.401703	0.996527
758.728882	0.995610
759.056014	0.996093
759.383099	0.995867
759.710138	0.996265
760.037129	0.996682
760.364073	0.997561
760.690970	0.996490
761.017820	0.994705
761.344623	0.998071
761.671379	0.997152
761.998088	0.996140
762.324751	0.995959
762.651366	0.995690
762.977935	0.993899
763.304456	0.994702
763.630931	0.992335
763.957359	0.991835
764.283740	0.992793
764.610074	0.994353
764.936362	0.995302
765.262602	0.995363
765.588796	0.996438
765.914943	0.996024
766.241044	0.995810
766.567097	0.996345
766.893104	0.996782
767.219064	0.995669
767.544978	0.997370
767.870845	0.997602
768.196665	0.997216
768.522438	0.997549
768.848165	0.997464
769.173846	0.998021
769.499479	0.998138
769.825066	0.998787
770.150607	0.998439
770.476101	0.998054
770.801548	0.998452
771.126949	0.998980
771.452303	0.997225
771.777611	0.997618
772.102872	0.998094
772.428087	0.997187
772.753256	0.997611
773.078378	0.996959
773.403453	0.997005
773.728482	0.999092
774.053465	0.998344
774.378401	0.997726
774.703291	0.998745
775.028135	0.999393
775.352932	0.997611
775.677683	0.998656
776.002388	0.998258
776.327046	0.997575
776.651658	0.999890
776.976224	0.998239
777.300743	0.998614
777.625216	0.998200
777.949643	0.998078
778.274024	0.998034
778.598359	0.997784
778.922647	0.998436
779.246889	0.998950
779.571086	0.997909
779.895236	0.998631
780.219339	0.999289
780.543397	0.997873
780.867409	0.999232
781.191374	0.997971
781.515294	0.998248
781.839167	0.998537
782.162995	0.998216
782.486776	0.998373
782.810511	0.998051
783.134201	0.999019
783.457844	0.998468
783.781441	0.998799
784.104993	0.997429
784.428498	0.998635
784.751958	0.999652
785.075372	0.999220
785.398739	0.998039
785.722061	0.997260
786.045337	0.997353
786.368568	0.998115
786.691752	0.998204
787.014891	0.997562
787.337983	0.997242
787.661030	0.997561
787.984031	0.997812
788.306987	0.998465
788.629897	0.996585
788.952760	0.997223
789.275579	0.998342
789.598351	0.998281
789.921078	0.998889
790.243759	0.997263
790.566395	0.997194
790.888984	0.998793
791.211529	0.999155
791.534027	0.998082
791.856480	0.997819
792.178888	0.997626
792.501249	0.998292
792.823566	1.000339
793.145836	0.998697
793.468062	0.998745
793.790241	0.999664
794.112375	0.997918
794.434464	0.998113
794.756507	0.998814
795.078505	0.998042
795.400457	0.998576
795.722364	0.998679
796.044226	0.998985
796.366042	0.998086
796.687812	0.996374
797.009538	0.997457
797.331218	0.999168
797.652852	0.998487
797.974442	0.997294
798.295986	0.998608
798.617484	0.998283
798.938938	0.998105
799.260346	0.998386
799.581709	0.996928
799.903026	0.998536
800.224299	0.997973
800.545526	0.997642
800.866708	0.997591
801.187845	0.999060
801.508936	0.997745
801.829983	0.998199
802.150984	0.998312
802.471940	0.998599
802.792851	0.998535
803.113717	0.998649
803.434538	0.999224
803.755314	0.999679
804.076045	0.999297
804.396731	0.998296
804.717372	0.996881
805.037967	0.999291
805.358518	0.999870
805.679024	0.998025
805.999485	0.999121
806.319901	0.999035
806.640272	0.999582
806.960598	1.000273
807.280879	0.999025
807.601115	0.997964
807.921306	0.999358
808.241453	0.999087
808.561554	0.998740
808.881611	0.998184
809.201623	0.997915
809.521590	0.998859
809.841513	0.998885
810.161390	0.998165
810.481223	0.997605
810.801011	1.000113
811.120755	0.999830
811.440453	0.998110
811.760107	0.998994
812.079716	0.998508
812.399281	0.998828
812.718801	0.998727
813.038276	0.998601
813.357707	0.999061
813.677093	0.999391
813.996434	0.998436
814.315731	0.999502
814.634983	0.999147
814.954191	0.999571
815.273354	0.997111
815.592473	0.997800
815.911547	0.999694
816.230577	0.998912
816.549562	0.998985
816.868502	0.997964
817.187399	0.998463
817.506250	0.998694
817.825058	0.996881
818.143821	0.998374
818.462539	0.997867
818.781213	0.998484
819.099843	0.997538
819.418429	0.997949
819.736970	0.997528
820.055466	0.995500
820.373919	0.995114
820.692327	0.994433
821.010691	0.993015
821.329011	0.990353
821.647286	0.988081
821.965517	0.984622
822.283704	0.982234
822.601847	0.980474
822.919945	0.981477
823.237999	0.983594
823.556010	0.985203
823.873976	0.986942
824.191897	0.988590
824.509775	0.990789
824.827609	0.990810
825.145398	0.993193
825.463144	0.991767
825.780845	0.990713
826.098502	0.991965
826.416116	0.991809
826.733685	0.989223
827.051210	0.986876
827.368692	0.987889
827.686129	0.989086
828.003522	0.991448
828.320872	0.992184
828.638177	0.993731
828.955439	0.994852
829.272656	0.995406
829.589830	0.995553
829.906960	0.997268
830.224046	0.997038
830.541088	0.997274
830.858086	0.997136
831.175041	0.998662
831.491952	0.996921
831.808819	0.997690
832.125642	0.996894
832.442421	0.998193
832.759157	0.996501
833.075849	0.995332
833.392497	0.992778
833.709101	0.991148
834.025662	0.992178
834.342179	0.993161
834.658653	0.994215
834.975083	0.995640
835.291469	0.995270
835.607811	0.995179
835.924110	0.996088
836.240366	0.998766
836.556578	0.998481
836.872746	0.998446
837.188871	0.997542
837.504952	0.997837
837.820990	0.998923
838.136984	0.997922
838.452935	0.999481
838.768842	0.999636
839.084706	0.998511
839.400526	0.998663
839.716303	0.996446
840.032037	0.996217
840.347727	0.995250
840.663373	0.996610
840.978977	0.997002
841.294537	0.997842
841.610054	0.998967
841.925527	0.999396
842.240957	0.999255
842.556344	0.998698
842.871687	0.998776
843.186987	0.999080
843.502244	0.999973
843.817458	0.999303
844.132629	0.999447
844.447756	0.999403
844.762840	1.000400
845.077881	1.001012
845.392879	0.999046
845.707833	0.999689
846.022745	1.000564
846.337613	0.999757
846.652438	0.999822
846.967221	1.000321
847.281960	1.000859
847.596656	1.000275
847.911309	1.000017
848.225919	0.999174
848.540485	1.000633
848.855009	1.001140
849.169490	1.000260
849.483928	1.000251
849.798323	0.998627
850.112675	1.001058
850.426984	0.999592
850.741251	1.000687
851.055474	0.999828
851.369654	1.001226
851.683792	1.000022
851.997887	1.000004
852.311938	1.000704
852.625947	0.999467
852.939914	0.999323
853.253837	1.001207
853.567718	1.001398
853.881555	0.999762
854.195350	0.999820
854.509103	1.000668
854.822812	1.000328
855.136479	1.000148
855.450103	1.000016
855.763685	1.000064
856.077224	1.000672
856.390720	1.000251
856.704173	1.001326
857.017584	1.001114
857.330953	1.001369
857.644278	1.000935
857.957561	0.998932
858.270802	1.000715
858.584000	1.000746
858.897155	0.999665
859.210268	0.999644
859.523339	1.001346
859.836367	1.000374
860.149352	1.000203
860.462295	1.000367
860.775195	1.000659
861.088054	1.000219
861.400869	1.001131
861.713642	0.999643
862.026373	1.000870
862.339062	1.000524
862.651708	1.000973
862.964312	0.999538
863.276873	0.999650
863.589392	1.000237
863.901869	0.999657
864.214303	0.999234
864.526696	1.000146
864.839045	0.999843
865.151353	0.999292
865.463619	0.999421
865.775842	1.001252
866.088023	1.000623
866.400162	1.000141
866.712258	1.000635
867.024313	0.999896
867.336325	1.000465
867.648296	0.999966
867.960224	1.000069
868.272110	1.000477
868.583954	0.999711
868.895755	1.001250
869.207515	0.999789
869.519233	1.000333
869.830909	0.998503
870.142542	0.998486
870.454134	0.999935
870.765684	1.000003
871.077191	1.000073
871.388657	1.000804
871.700081	1.000676
872.011463	1.000719
872.322803	1.001015
872.634101	0.998823
872.945357	0.999031
873.256571	0.998454
873.567744	0.998680
873.878874	0.999426
874.189963	0.999306
874.501010	1.001118
874.812015	0.999266
875.122979	0.999128
875.433900	0.999739
875.744780	0.999309
876.055618	0.997967
876.366415	0.998615
876.677169	0.998972
876.987882	0.998613
877.298554	0.999150
877.609183	0.998304
877.919771	0.998313
878.230317	0.999306
878.540822	0.998320
878.851285	0.997885
879.161707	0.997394
879.472087	0.998176
879.782425	0.994287
880.092722	0.994428
880.402977	0.991814
880.713191	0.989227
881.023363	0.984883
881.333494	0.982669
881.643583	0.982721
881.953631	0.982703
882.263637	0.981974
882.573602	0.984678
882.883526	0.985116
883.193408	0.988387
883.503248	0.989366
883.813048	0.989818
884.122806	0.991895
884.432522	0.991887
884.742197	0.995213
885.051831	0.994640
885.361424	0.995149
885.670975	0.996331
885.980485	0.996584
886.289954	0.996726
886.599382	0.997097
886.908768	0.998355
887.218113	0.997800
887.527417	0.997035
887.836680	0.998605
888.145901	0.998876
888.455082	1.000146
888.764221	0.998438
889.073319	0.998766
889.382376	0.999224
889.691392	0.997366
890.000366	0.999416
890.309300	0.999573
890.618193	0.998324
890.927044	0.998652
891.235855	0.998258
891.544625	0.999007
891.853353	0.998125
892.162041	0.998346
892.470687	0.999532
892.779293	0.997424
893.087858	0.996638
893.396381	0.997303
893.704864	0.995672
894.013306	0.995458
894.321707	0.994076
894.630068	0.992678
894.938387	0.991741
895.246665	0.991338
895.554903	0.991758
895.863100	0.994366
896.171256	0.993845
896.479371	0.994764
896.787446	0.995338
897.095480	0.995915
897.403473	0.997218
897.711425	0.997877
898.019336	0.998128
898.327207	0.998194
898.635038	0.997589
898.942827	0.998531
899.250576	0.997785
899.558284	0.998778
899.865952	0.998241
900.173579	0.998341
900.481165	0.998849
900.788711	0.998326
901.096216	0.999788
901.403681	0.999110
901.711105	0.999768
902.018489	0.999148
902.325832	1.000148
902.633135	0.999034
902.940397	0.999554
903.247619	0.997923
903.554800	0.995999
903.861941	0.994244
904.169041	0.991200
904.476101	0.990829
904.783121	0.990701
905.090100	0.991014
905.397039	0.992642
905.703938	0.993272
906.010796	0.995607
906.317614	0.995040
906.624391	0.996814
906.931129	0.998239
907.237826	0.997877
907.544483	0.999259
907.851099	0.998740
908.157675	0.998872
908.464211	0.999718
908.770707	0.998726
909.077163	1.000467
909.383578	1.000738
909.689954	0.999510
909.996289	0.999524
910.302584	1.000787
910.608839	1.001482
910.915054	1.000389
911.221229	1.001214
911.527363	0.998206
911.833458	1.000068
912.139513	1.000303
912.445527	1.001140
912.751502	0.999796
913.057436	0.999057
913.363331	1.000457
913.669186	1.001372
913.975000	0.999532
914.280775	0.998729
914.586510	0.996432
914.892205	0.994801
915.197859	0.994342
915.503475	0.994406
915.809050	0.992564
916.114585	0.989303
916.420081	0.989329
916.725536	0.989814
917.030952	0.991198
917.336328	0.992602
917.641665	0.993734
917.946961	0.993583
918.252218	0.994445
918.557435	0.995027
918.862612	0.996814
919.167750	0.995970
919.472848	0.997063
919.777906	0.998022
920.082925	0.998133
920.387904	0.998425
920.692843	0.997767
920.997743	0.998295
921.302603	0.999645
921.607423	0.999298
921.912204	0.999803
922.216946	1.000152
922.521647	0.998675
922.826310	0.999517
923.130932	0.999837
923.435516	1.001189
923.740059	0.999062
924.044564	0.999064
924.349028	0.999465
924.653454	1.000104
924.957840	0.999965
925.262186	1.000244
925.566493	1.000444
925.870761	0.999958
926.174989	1.000785
926.479178	1.001342
926.783328	1.000246
927.087438	1.001175
927.391509	1.000053
927.695541	0.999910
927.999533	1.000834
928.303486	1.000969
928.607400	0.999873
928.911275	1.001089
929.215110	1.001441
929.518906	1.000843
929.822663	1.000972
930.126381	1.001854
930.430060	1.000926
930.733699	1.000525
931.037299	1.001052
931.340861	1.001157
931.644383	1.000112
931.947866	1.000528
932.251309	1.000910
932.554714	1.001298
932.858080	1.000449
933.161407	1.000926
933.464694	1.001096
933.767943	1.001554
934.071153	1.000893
934.374323	1.002083
934.677455	1.001035
934.980548	1.000696
935.283602	1.001355
935.586617	1.001398
935.889593	1.002683
936.192530	1.002522
936.495428	1.001195
936.798287	0.999390
937.101108	1.000762
937.403890	0.999103
937.706632	1.001421
938.009336	1.000596
938.312002	0.999953
938.614628	1.000971
938.917216	1.000806
939.219765	0.998800
939.522275	1.000766
939.824747	0.999909
940.127179	0.999249
940.429573	1.001045
940.731929	1.000162
941.034246	0.999513
941.336524	0.998866
941.638763	1.001019
941.940964	0.999520
942.243126	1.000280
942.545250	1.001927
942.847335	1.000762
943.149381	1.002011
943.451389	0.999637
943.753359	1.001056
944.055290	1.002071
944.357182	1.000681
944.659036	1.000900
944.960851	1.000506
945.262628	1.001051
945.564367	1.001193
945.866067	1.001221
946.167729	1.001597
946.469352	1.000993
946.770937	0.998372
947.072484	1.000755
947.373992	1.000101
947.675462	0.999728
947.976893	1.000988
948.278286	1.001886
948.579641	1.001265
948.880958	1.000739
949.182236	1.001502
949.483476	1.000674
949.784678	1.001692
950.085841	0.999928
950.386967	1.000936
950.688054	1.001255
950.989103	0.999356
951.290114	1.000553
951.591087	1.001639
951.892021	1.000107
952.192917	1.001021
952.493776	1.000670
952.794596	1.000276
953.095378	1.000125
953.396122	0.999215
953.696828	1.000269
953.997496	1.001280
954.298126	1.002132
954.598718	1.000226
954.899272	1.001152
955.199788	1.000435
955.500266	1.001648
955.800706	1.001014
956.101108	1.000805
956.401472	1.002696
956.701798	1.001386
957.002087	1.001178
957.302337	1.000179
957.602550	1.001334
957.902724	1.001578
958.202861	1.001627
958.502960	1.000728
958.803022	1.003020
959.103045	1.001429
959.403031	1.002871
959.702979	1.002349
960.002889	1.001016
960.302762	0.999868
960.602596	1.001638
960.902393	1.001419
961.202153	1.001058
961.501875	1.001788
961.801559	1.001585
962.101205	1.000159
962.400814	1.001800
962.700385	1.002540
962.999918	1.001668
963.299414	1.000772
963.598873	1.001808
963.898293	1.001349
964.197677	1.001124
964.497022	1.002216
964.796331	1.000869
965.095601	1.002551
965.394835	1.001914
965.694030	1.001869
965.993189	1.001052
966.292309	1.000952
966.591393	1.000664
966.890439	1.001623
967.189447	1.000886
967.488419	1.000665
967.787353	1.002210
968.086249	1.001894
968.385108	1.001087
968.683930	1.002647
968.982714	1.001464
969.281462	1.000978
969.580172	1.003004
969.878844	1.003074
970.177480	1.001882
970.476078	1.002695
970.774639	1.002406
971.073162	1.001395
971.371649	1.000345
971.670098	1.000905
971.968510	1.001969
972.266885	0.999839
972.565223	1.000510
972.863524	1.000728
973.161788	1.001709
973.460014	1.002763
973.758204	1.001167
974.056356	1.000431
974.354471	1.001420
974.652550	1.002323
974.950591	1.000923
975.248595	1.000217
975.546563	1.001986
975.844493	1.002563
976.142386	1.000405
976.440243	1.002354
976.738062	1.001530
977.035845	1.000745
977.333590	1.001760
977.631299	1.001388
977.928971	1.001028
978.226606	1.000602
978.524204	1.001508
978.821765	1.001801
979.119290	1.002604
979.416777	1.002130
979.714228	1.001753
980.011642	1.001056
980.309020	1.001239
980.606360	1.001164
980.903664	1.000865
981.200931	1.000727
981.498162	1.001154
981.795356	1.000635
982.092513	1.000220
982.389633	1.001531
982.686717	1.000530
982.983764	1.000713
983.280775	1.002220
983.577749	1.001664
983.874686	1.000888
984.171587	1.000222
984.468451	1.001834
984.765279	1.000466
985.062070	1.002074
985.358824	1.001269
985.655543	1.001001
985.952224	1.001471
986.248869	1.001159
986.545478	1.002059
986.842050	1.001495
987.138586	1.000774
987.435086	1.001302
987.731549	1.002569
988.027975	1.002882
988.324366	1.000986
988.620719	1.003022
988.917037	1.001185
989.213318	1.002686
989.509563	1.001740
989.805772	1.001387
990.101944	1.001992
990.398080	1.001164
990.694180	1.003030
990.990244	1.001316
991.286271	1.001226
991.582262	1.001408
991.878217	1.001523
992.174136	1.002798
992.470019	1.001760
992.765865	1.003462
993.061676	1.002085
993.357450	1.002721
993.653188	1.002929
993.948890	1.000819
994.244556	1.000997
994.540186	1.002621
994.835780	1.001778
995.131337	1.002927
995.426859	1.002314
995.722345	1.001629
996.017795	1.000656
996.313208	1.001729
996.608586	1.001428
996.903928	1.001594
997.199234	1.001119
997.494504	1.001821
997.789738	1.001011
998.084936	1.001499
998.380099	1.000427
998.675225	1.002489
998.970316	1.001082
999.265371	1.002081
999.560390	1.001852
999.855373	1.002083
1000.150320	1.001779
1000.445232	1.001191
1000.740108	1.002021
1001.034948	1.001495
1001.329752	1.002474
1001.624521	1.001074
1001.919254	1.001462
1002.213951	1.001395
1002.508613	1.000191
1002.803239	1.001659
1003.097829	1.002103
1003.392384	1.002349
1003.686903	1.001429
1003.981386	1.001975
1004.275834	1.003968
1004.570246	1.000531
1004.864623	1.002431
1005.158964	1.001880
1005.453270	1.001677
1005.747540	1.001190
1006.041775	1.002174
1006.335974	1.002181
1006.630138	1.002319
1006.924266	1.000329
1007.218359	1.000349
1007.512416	1.002760
1007.806438	1.002190
1008.100425	1.001962
1008.394376	1.002350
1008.688292	1.001755
1008.982172	1.002024
1009.276017	1.002241
1009.569827	1.002353
1009.863602	1.000336
1010.157341	1.003111
1010.451045	1.000643
1010.744714	1.002402
1011.038347	1.002532
1011.331945	1.001103
1011.625508	1.002240
1011.919036	1.001275
1012.212528	1.002433
1012.505986	1.001685
1012.799408	1.002758
1013.092795	1.002445
1013.386147	1.000897
1013.679464	1.002356
1013.972745	1.002485
1014.265992	1.001122
1014.559204	1.001088
1014.852380	1.002413
1015.145521	1.002124
1015.438628	1.003464
1015.731699	1.000770
1016.024736	1.001694
1016.317737	1.002427
1016.610703	1.002648
1016.903635	1.002124
1017.196531	1.001817
1017.489393	1.002324
1017.782219	1.001183
1018.075011	1.001397
1018.367768	1.000812
1018.660490	1.001863
1018.953177	1.001863
1019.245829	1.001863
