Dividing Wavelength (nm)	Counts (n)	Blue Motor Position (mm): 12.900000	Red Motor Position (mm): 0.000000	
326.493990	1.003086
326.888308	1.003086
327.282561	1.003086
327.676750	1.004877
328.070874	1.005154
328.464933	1.003524
328.858929	1.004250
329.252859	1.004257
329.646726	1.002969
330.040528	1.003721
330.434265	1.004186
330.827938	1.002054
331.221547	1.003315
331.615091	1.003700
332.008571	1.005508
332.401986	1.004534
332.795338	1.003598
333.188625	1.004409
333.581847	1.003991
333.975006	1.004286
334.368100	1.004187
334.761129	1.002713
335.154095	1.004424
335.546996	1.003545
335.939833	0.999016
336.332606	0.999943
336.725315	0.997427
337.117960	1.000475
337.510540	0.999830
337.903056	0.999601
338.295508	0.999718
338.687896	1.000430
339.080220	0.998408
339.472480	0.999063
339.864676	0.998939
340.256807	0.998078
340.648875	1.000454
341.040879	0.999760
341.432818	0.999818
341.824694	0.999590
342.216506	0.999458
342.608253	0.999680
342.999937	0.998981
343.391557	0.999591
343.783113	1.000786
344.174605	0.999256
344.566033	0.999139
344.957397	1.000209
345.348697	1.000263
345.739934	0.998833
346.131106	0.998772
346.522215	0.999009
346.913260	0.998371
347.304241	0.998555
347.695159	0.999009
348.086012	0.998838
348.476802	0.998707
348.867528	0.998292
349.258191	0.999487
349.648789	0.999058
350.039324	0.998608
350.429796	0.999316
350.820203	0.997849
351.210548	0.999699
351.600828	0.998648
351.991045	0.998251
352.381198	0.999299
352.771288	0.998157
353.161314	0.999253
353.551276	0.998513
353.941175	0.996793
354.331010	0.998256
354.720782	0.997525
355.110490	0.997714
355.500135	0.998707
355.889717	0.997705
356.279235	0.997545
356.668689	0.998477
357.058080	0.998524
357.447408	0.997380
357.836672	0.997965
358.225873	0.996562
358.615010	0.998917
359.004084	0.997529
359.393095	0.997599
359.782043	0.997336
360.170927	0.998003
360.559748	0.997681
360.948505	0.996766
361.337199	0.997149
361.725830	0.998430
362.114398	0.997250
362.502903	0.997266
362.891344	0.997481
363.279722	0.996246
363.668037	0.997160
364.056289	0.997706
364.444478	0.997755
364.832603	0.996758
365.220665	0.996938
365.608665	0.996663
365.996601	0.996224
366.384474	0.995571
366.772284	0.996420
367.160031	0.994689
367.547715	0.996545
367.935336	0.993791
368.322893	0.995010
368.710388	0.992223
369.097820	0.990375
369.485189	0.988046
369.872495	0.985690
370.259738	0.983845
370.646918	0.982835
371.034035	0.979535
371.421090	0.976851
371.808081	0.971407
372.195010	0.968987
372.581875	0.964482
372.968678	0.959852
373.355418	0.955105
373.742096	0.948606
374.128710	0.943808
374.515262	0.939633
374.901751	0.933823
375.288177	0.928015
375.674540	0.922269
376.060841	0.915724
376.447079	0.909092
376.833254	0.902538
377.219367	0.897367
377.605417	0.886408
377.991404	0.883758
378.377329	0.876908
378.763191	0.870272
379.148991	0.861592
379.534727	0.853533
379.920402	0.846192
380.306013	0.841551
380.691563	0.828444
381.077049	0.823622
381.462474	0.818613
381.847835	0.807810
382.233134	0.802327
382.618371	0.802853
383.003545	0.785686
383.388657	0.783836
383.773706	0.775949
384.158693	0.772216
384.543618	0.766915
384.928480	0.757177
385.313280	0.747752
385.698017	0.746470
386.082692	0.736280
386.467305	0.733915
386.851856	0.728908
387.236344	0.722664
387.620770	0.717691
388.005133	0.711802
388.389435	0.706167
388.773674	0.703806
389.157851	0.695601
389.541965	0.694030
389.926018	0.699811
390.310008	0.686510
390.693936	0.683587
391.077802	0.675147
391.461606	0.677034
391.845348	0.665957
392.229027	0.665319
392.612645	0.664154
392.996200	0.650992
393.379694	0.644478
393.763125	0.634087
394.146494	0.639018
394.529801	0.629583
394.913047	0.621260
395.296230	0.627921
395.679351	0.618322
396.062410	0.615574
396.445408	0.618046
396.828343	0.614223
397.211217	0.609442
397.594028	0.621101
397.976778	0.611288
398.359466	0.607520
398.742092	0.603312
399.124656	0.615187
399.507158	0.602817
399.889598	0.600486
400.271977	0.591341
400.654294	0.596308
401.036549	0.594582
401.418742	0.598561
401.800874	0.584591
402.182944	0.581811
402.564952	0.573072
402.946898	0.575120
403.328783	0.575600
403.710606	0.587117
404.092367	0.562123
404.474067	0.567147
404.855705	0.566260
405.237282	0.574857
405.618797	0.560901
406.000250	0.556387
406.381642	0.546627
406.762972	0.552016
407.144240	0.550494
407.525447	0.549886
407.906593	0.543341
408.287677	0.538593
408.668700	0.547397
409.049661	0.540631
409.430560	0.536086
409.811399	0.544488
410.192176	0.526323
410.572891	0.533541
410.953545	0.521288
411.334138	0.535313
411.714669	0.526710
412.095139	0.540158
412.475547	0.523418
412.855894	0.525947
413.236180	0.524770
413.616405	0.529925
413.996568	0.520511
414.376670	0.526814
414.756711	0.531569
415.136691	0.528089
415.516609	0.519472
415.896466	0.516260
416.276262	0.511773
416.655997	0.514506
417.035670	0.495475
417.415283	0.487380
417.794834	0.492044
418.174324	0.497300
418.553753	0.506672
418.933121	0.488240
419.312428	0.482390
419.691674	0.488519
420.070859	0.476942
420.449983	0.484256
420.829045	0.474306
421.208047	0.482953
421.586988	0.475614
421.965867	0.474702
422.344686	0.463220
422.723444	0.475890
423.102141	0.493218
423.480777	0.465791
423.859352	0.486808
424.237866	0.463602
424.616319	0.464346
424.994712	0.455470
425.373044	0.465396
425.751314	0.453977
426.129524	0.470696
426.507673	0.453834
426.885762	0.448036
427.263789	0.452948
427.641756	0.462426
428.019662	0.452701
428.397508	0.451919
428.775292	0.456488
429.153016	0.448031
429.530679	0.455143
429.908282	0.448089
430.285824	0.458055
430.663305	0.436882
431.040726	0.457560
431.418086	0.457032
431.795385	0.449225
432.172624	0.448058
432.549802	0.448704
432.926920	0.447531
433.303977	0.447071
433.680974	0.444208
434.057910	0.442576
434.434786	0.441704
434.811601	0.444183
435.188355	0.427118
435.565050	0.436349
435.941683	0.437531
436.318257	0.421007
436.694770	0.422092
437.071222	0.420715
437.447614	0.425432
437.823946	0.431914
438.200218	0.420593
438.576429	0.430688
438.952580	0.423351
439.328670	0.420160
439.704700	0.426800
440.080670	0.427948
440.456580	0.409515
440.832429	0.417092
441.208218	0.428330
441.583947	0.417021
441.959616	0.416583
442.335224	0.422113
442.710773	0.412590
443.086261	0.410802
443.461689	0.424878
443.837057	0.414538
444.212365	0.404561
444.587612	0.411779
444.962800	0.401708
445.337927	0.402891
445.712995	0.429162
446.088002	0.391157
446.462949	0.401403
446.837837	0.406988
447.212664	0.395467
447.587431	0.386728
447.962139	0.356966
448.336786	0.315960
448.711374	0.326572
449.085901	0.370557
449.460369	0.375157
449.834776	0.378529
450.209124	0.357913
450.583412	0.350697
450.957640	0.343334
451.331808	0.355052
451.705917	0.378540
452.079965	0.383185
452.453954	0.371197
452.827883	0.378327
453.201752	0.372794
453.575562	0.383765
453.949311	0.372641
454.323001	0.378627
454.696632	0.374670
455.070202	0.366852
455.443713	0.358982
455.817164	0.353668
456.190556	0.349500
456.563888	0.346398
456.937160	0.344073
457.310373	0.361219
457.683526	0.359998
458.056619	0.366179
458.429653	0.365920
458.802628	0.370231
459.175542	0.363924
459.548398	0.346621
459.921194	0.339154
460.293930	0.339052
460.666607	0.316835
461.039224	0.304896
461.411782	0.300597
461.784280	0.299877
462.156719	0.304099
462.529099	0.308651
462.901419	0.324562
463.273680	0.328856
463.645882	0.328542
464.018024	0.334092
464.390106	0.326871
464.762130	0.311937
465.134094	0.294380
465.505999	0.263908
465.877845	0.233686
466.249631	0.220779
466.621358	0.228299
466.993026	0.242422
467.364634	0.248115
467.736184	0.257272
468.107674	0.266110
468.479105	0.265122
468.850477	0.271940
469.221790	0.278783
469.593043	0.288764
469.964238	0.293870
470.335373	0.293208
470.706449	0.291221
471.077467	0.292198
471.448425	0.254007
471.819324	0.229627
472.190164	0.229195
472.560945	0.257532
472.931667	0.280247
473.302330	0.284528
473.672934	0.296576
474.043479	0.284504
474.413965	0.286215
474.784393	0.289802
475.154761	0.284972
475.525070	0.281885
475.895321	0.287342
476.265513	0.281780
476.635645	0.277114
477.005719	0.276907
477.375734	0.273569
477.745691	0.266588
478.115588	0.263152
478.485427	0.256588
478.855207	0.243418
479.224928	0.225845
479.594591	0.213984
479.964194	0.217420
480.333739	0.218568
480.703226	0.219944
481.072653	0.218401
481.442022	0.214144
481.811333	0.210759
482.180584	0.214223
482.549777	0.219683
482.918912	0.223140
483.287988	0.222615
483.657005	0.222467
484.025964	0.228885
484.394864	0.226089
484.763706	0.226468
485.132489	0.231846
485.501213	0.232564
485.869879	0.230865
486.238487	0.233908
486.607036	0.232393
486.975527	0.236498
487.343959	0.232415
487.712333	0.231358
488.080648	0.232838
488.448905	0.232066
488.817104	0.233132
489.185244	0.227783
489.553326	0.224751
489.921350	0.214547
490.289315	0.196950
490.657222	0.191771
491.025070	0.193424
491.392861	0.195183
491.760593	0.200936
492.128267	0.206666
492.495883	0.212075
492.863440	0.218626
493.230939	0.224911
493.598380	0.226299
493.965763	0.228530
494.333088	0.230642
494.700354	0.232337
495.067563	0.231285
495.434713	0.234622
495.801805	0.232399
496.168839	0.234021
496.535815	0.235438
496.902733	0.235392
497.269593	0.236668
497.636395	0.234450
498.003139	0.234971
498.369825	0.237895
498.736453	0.234410
499.103023	0.236052
499.469535	0.235365
499.835989	0.235513
500.202385	0.236289
500.568723	0.239667
500.935003	0.234696
501.301226	0.239133
501.667390	0.233132
502.033497	0.231227
502.399546	0.234223
502.765537	0.236410
503.131470	0.234732
503.497345	0.231083
503.863163	0.239860
504.228923	0.232557
504.594625	0.231286
504.960269	0.236703
505.325856	0.232530
505.691385	0.236407
506.056856	0.233241
506.422270	0.232507
506.787625	0.235111
507.152924	0.232725
507.518164	0.232823
507.883347	0.234630
508.248472	0.236466
508.613540	0.231208
508.978550	0.234089
509.343503	0.234461
509.708398	0.232266
510.073236	0.229907
510.438016	0.229248
510.802738	0.230309
511.167403	0.229377
511.532010	0.231928
511.896561	0.227027
512.261053	0.225832
512.625488	0.227674
512.989866	0.228139
513.354186	0.228206
513.718449	0.230390
514.082655	0.226891
514.446803	0.228867
514.810894	0.226411
515.174927	0.229497
515.538904	0.228995
515.902822	0.225956
516.266684	0.228154
516.630488	0.229373
516.994235	0.228244
517.357925	0.227107
517.721558	0.225144
518.085133	0.224824
518.448651	0.225006
518.812112	0.227027
519.175516	0.227040
519.538863	0.224224
519.902152	0.226301
520.265385	0.223144
520.628560	0.224659
520.991678	0.225113
521.354739	0.224203
521.717743	0.225128
522.080690	0.225822
522.443580	0.223182
522.806413	0.224148
523.169189	0.223564
523.531908	0.222374
523.894569	0.225668
524.257174	0.225734
524.619722	0.223662
524.982213	0.224659
525.344647	0.223557
525.707025	0.224574
526.069345	0.222419
526.431608	0.224494
526.793815	0.222427
527.155964	0.226730
527.518057	0.225465
527.880093	0.226624
528.242072	0.225150
528.603995	0.227055
528.965860	0.228958
529.327669	0.227840
529.689421	0.228653
530.051117	0.229308
530.412755	0.227325
530.774337	0.229614
531.135862	0.230367
531.497331	0.229379
531.858743	0.232228
532.220098	0.228821
532.581396	0.231743
532.942638	0.231889
533.303824	0.233222
533.664953	0.232881
534.026025	0.234905
534.387040	0.232633
534.747999	0.232174
535.108902	0.231588
535.469748	0.236734
535.830537	0.234241
536.191270	0.234729
536.551947	0.234297
536.912567	0.234484
537.273131	0.236258
537.633638	0.236546
537.994089	0.236833
538.354483	0.237722
538.714821	0.234625
539.075103	0.234757
539.435328	0.235284
539.795497	0.239283
540.155609	0.235816
540.515665	0.233758
540.875665	0.239380
541.235609	0.238139
541.595496	0.238253
541.955328	0.234926
542.315102	0.237456
542.674821	0.238565
543.034483	0.238849
543.394090	0.238184
543.753640	0.240124
544.113134	0.235071
544.472571	0.238810
544.831953	0.235565
545.191278	0.239617
545.550548	0.238938
545.909761	0.235886
546.268918	0.236732
546.628019	0.234945
546.987064	0.237694
547.346053	0.239344
547.704986	0.237019
548.063863	0.237537
548.422684	0.237686
548.781449	0.239674
549.140158	0.237412
549.498811	0.240077
549.857408	0.243235
550.215949	0.237849
550.574434	0.241022
550.932864	0.239165
551.291237	0.237811
551.649555	0.239189
552.007817	0.238688
552.366022	0.240132
552.724173	0.240149
553.082267	0.240553
553.440305	0.237313
553.798288	0.241393
554.156215	0.238061
554.514086	0.239059
554.871902	0.242128
555.229661	0.241287
555.587365	0.242078
555.945014	0.244267
556.302606	0.241619
556.660143	0.244282
557.017625	0.240904
557.375050	0.242818
557.732421	0.239933
558.089735	0.241848
558.446994	0.242051
558.804197	0.241231
559.161345	0.241241
559.518437	0.244578
559.875474	0.242547
560.232455	0.242103
560.589381	0.243226
560.946251	0.243472
561.303065	0.240780
561.659825	0.242141
562.016528	0.244120
562.373177	0.246530
562.729770	0.244107
563.086307	0.245855
563.442789	0.243984
563.799216	0.246779
564.155587	0.245626
564.511904	0.247381
564.868164	0.247258
565.224370	0.246950
565.580520	0.248837
565.936615	0.248568
566.292654	0.251742
566.648638	0.248867
567.004567	0.249784
567.360441	0.250400
567.716260	0.252995
568.072023	0.250206
568.427732	0.251172
568.783385	0.253730
569.138982	0.252003
569.494525	0.252030
569.850013	0.254878
570.205445	0.253736
570.560823	0.255779
570.916145	0.258284
571.271412	0.256408
571.626625	0.258276
571.981782	0.258876
572.336884	0.259649
572.691931	0.259819
573.046923	0.261525
573.401860	0.262347
573.756743	0.264385
574.111570	0.263197
574.466342	0.264171
574.821059	0.263371
575.175722	0.266610
575.530330	0.266233
575.884882	0.266507
576.239380	0.268536
576.593823	0.269490
576.948211	0.269498
577.302544	0.272685
577.656823	0.272825
578.011047	0.272734
578.365216	0.274027
578.719330	0.275942
579.073389	0.276136
579.427394	0.277511
579.781344	0.278677
580.135239	0.280498
580.489080	0.280186
580.842866	0.283658
581.196597	0.283729
581.550273	0.282905
581.903895	0.284309
582.257463	0.282630
582.610975	0.286516
582.964434	0.286263
583.317837	0.289231
583.671186	0.289641
584.024481	0.290329
584.377721	0.293023
584.730906	0.294186
585.084037	0.293947
585.437113	0.296042
585.790135	0.295849
586.143103	0.299613
586.496016	0.300930
586.848874	0.299034
587.201679	0.299956
587.554428	0.303895
587.907124	0.303658
588.259765	0.304647
588.612352	0.305982
588.964884	0.309974
589.317362	0.310061
589.669786	0.310829
590.022155	0.309539
590.374470	0.309894
590.726731	0.312327
591.078937	0.317999
591.431090	0.314924
591.783188	0.319658
592.135232	0.321275
592.487222	0.321300
592.839157	0.320357
593.191038	0.323319
593.542866	0.325685
593.894639	0.329794
594.246358	0.328927
594.598022	0.329334
594.949633	0.333452
595.301190	0.335151
595.652692	0.334874
596.004141	0.332351
596.355535	0.340381
596.706876	0.342486
597.058162	0.345534
597.409395	0.343727
597.760573	0.342752
598.111698	0.346476
598.462768	0.347998
598.813785	0.349906
599.164748	0.352322
599.515657	0.352875
599.866511	0.358776
600.217312	0.354742
600.568060	0.360993
600.918753	0.358399
601.269392	0.360565
601.619978	0.364991
601.970510	0.363880
602.320988	0.365021
602.671412	0.364794
603.021783	0.368092
603.372100	0.370291
603.722363	0.371809
604.072572	0.373225
604.422728	0.374079
604.772830	0.377791
605.122878	0.379027
605.472872	0.380435
605.822813	0.380694
606.172701	0.384532
606.522534	0.383179
606.872314	0.385059
607.222041	0.387846
607.571714	0.387176
607.921333	0.389832
608.270899	0.391460
608.620411	0.389831
608.969870	0.395345
609.319276	0.396985
609.668627	0.398886
610.017926	0.398914
610.367171	0.400106
610.716362	0.401521
611.065500	0.403985
611.414585	0.405156
611.763616	0.406433
612.112594	0.408810
612.461518	0.410556
612.810389	0.410195
613.159207	0.414304
613.507971	0.417891
613.856682	0.416569
614.205340	0.418833
614.553945	0.419229
614.902496	0.424196
615.250994	0.424227
615.599439	0.427313
615.947830	0.428704
616.296169	0.431817
616.644454	0.433931
616.992686	0.435822
617.340864	0.436786
617.688990	0.441564
618.037063	0.440747
618.385082	0.444415
618.733048	0.444199
619.080961	0.448249
619.428821	0.450448
619.776628	0.452204
620.124382	0.456005
620.472083	0.458698
620.819731	0.460490
621.167326	0.465678
621.514868	0.467061
621.862357	0.472301
622.209793	0.473238
622.557176	0.477469
622.904506	0.480446
623.251783	0.484553
623.599007	0.488970
623.946179	0.489557
624.293297	0.494050
624.640363	0.499023
624.987376	0.501639
625.334336	0.505368
625.681243	0.510214
626.028097	0.512290
626.374899	0.514950
626.721647	0.518430
627.068343	0.522040
627.414987	0.525489
627.761577	0.528898
628.108115	0.529305
628.454600	0.536624
628.801032	0.537748
629.147412	0.540113
629.493739	0.544022
629.840014	0.547891
630.186236	0.548390
630.532405	0.554718
630.878521	0.554847
631.224585	0.558640
631.570597	0.563146
631.916556	0.565498
632.262462	0.566589
632.608316	0.571108
632.954117	0.573741
633.299866	0.575300
633.645562	0.578967
633.991206	0.583546
634.336797	0.587681
634.682336	0.591102
635.027823	0.595010
635.373257	0.596663
635.718639	0.602000
636.063968	0.603267
636.409245	0.609128
636.754470	0.612061
637.099642	0.615361
637.444762	0.619958
637.789829	0.621794
638.134845	0.625521
638.479808	0.629287
638.824719	0.630942
639.169577	0.635065
639.514383	0.636770
639.859137	0.642030
640.203839	0.643352
640.548489	0.646697
640.893086	0.649159
641.237632	0.652611
641.582125	0.653109
641.926566	0.657121
642.270955	0.659199
642.615292	0.660889
642.959576	0.662672
643.303809	0.664696
643.647990	0.667547
643.992118	0.669060
644.336195	0.672719
644.680219	0.675301
645.024192	0.676811
645.368112	0.675859
645.711981	0.677998
646.055797	0.676397
646.399562	0.680387
646.743274	0.679450
647.086935	0.678001
647.430544	0.681850
647.774101	0.683086
648.117606	0.684409
648.461059	0.687515
648.804460	0.690631
649.147810	0.694639
649.491108	0.698469
649.834354	0.701183
650.177548	0.705640
650.520690	0.710567
650.863781	0.712983
651.206820	0.715600
651.549807	0.719250
651.892742	0.723876
652.235626	0.725146
652.578458	0.727813
652.921238	0.732945
653.263967	0.733106
653.606644	0.736343
653.949269	0.739232
654.291843	0.741345
654.634365	0.742786
654.976836	0.746237
655.319255	0.747899
655.661622	0.751010
656.003938	0.753492
656.346203	0.754951
656.688416	0.757507
657.030577	0.759226
657.372687	0.762613
657.714746	0.764275
658.056753	0.765231
658.398708	0.768792
658.740612	0.771032
659.082465	0.771363
659.424266	0.772963
659.766016	0.773841
660.107715	0.778654
660.449362	0.778073
660.790958	0.780883
661.132503	0.783440
661.473996	0.783696
661.815438	0.785979
662.156829	0.787834
662.498168	0.789520
662.839456	0.790334
663.180693	0.792860
663.521879	0.794021
663.863013	0.795849
664.204097	0.797361
664.545129	0.796694
664.886110	0.799859
665.227040	0.800743
665.567918	0.801604
665.908746	0.803806
666.249522	0.804232
666.590248	0.806272
666.930922	0.807570
667.271545	0.809196
667.612118	0.809738
667.952639	0.812943
668.293109	0.813782
668.633528	0.816332
668.973896	0.817839
669.314213	0.819693
669.654480	0.822132
669.994695	0.823736
670.334859	0.825955
670.674973	0.828351
671.015035	0.829516
671.355047	0.831119
671.695008	0.832574
672.034918	0.834117
672.374777	0.835615
672.714585	0.836932
673.054342	0.838464
673.394049	0.839548
673.733705	0.840369
674.073310	0.844279
674.412864	0.843640
674.752368	0.846817
675.091820	0.848773
675.431223	0.850926
675.770574	0.851754
676.109875	0.854252
676.449125	0.855708
676.788324	0.857486
677.127473	0.861245
677.466571	0.862359
677.805619	0.864205
678.144616	0.867270
678.483562	0.868878
678.822458	0.871626
679.161303	0.871206
679.500098	0.873711
679.838842	0.874825
680.177535	0.875775
680.516179	0.875954
680.854771	0.877625
681.193314	0.877148
681.531805	0.874542
681.870247	0.873439
682.208638	0.871438
682.546978	0.871590
682.885268	0.874001
683.223508	0.876884
683.561697	0.879093
683.899836	0.880724
684.237925	0.881921
684.575963	0.883018
684.913951	0.885523
685.251889	0.885876
685.589776	0.885947
685.927614	0.886565
686.265401	0.887790
686.603137	0.887502
686.940824	0.887753
687.278460	0.887352
687.616046	0.886835
687.953582	0.885802
688.291068	0.887738
688.628504	0.887101
688.965889	0.887664
689.303224	0.889136
689.640510	0.891609
689.977745	0.894612
690.314930	0.897830
690.652065	0.900516
690.989150	0.902157
691.326185	0.905737
691.663170	0.908615
692.000105	0.912033
692.336990	0.913365
692.673825	0.914825
693.010610	0.917114
693.347345	0.919401
693.684030	0.920754
694.020665	0.922675
694.357251	0.923957
694.693786	0.926360
695.030272	0.925935
695.366707	0.928396
695.703093	0.929250
696.039429	0.929199
696.375716	0.931557
696.711952	0.932309
697.048139	0.932973
697.384276	0.933753
697.720363	0.934229
698.056400	0.934249
698.392388	0.935468
698.728326	0.935887
699.064214	0.938120
699.400053	0.937995
699.735842	0.940493
700.071581	0.941094
700.407270	0.942673
700.742910	0.943490
701.078501	0.944943
701.414042	0.946409
701.749533	0.946281
702.084974	0.948161
702.420366	0.949014
702.755709	0.949739
703.091002	0.952110
703.426246	0.952078
703.761440	0.952375
704.096584	0.952831
704.431679	0.953510
704.766725	0.954977
705.101721	0.955272
705.436668	0.955458
705.771565	0.955740
706.106413	0.956859
706.441212	0.956615
706.775961	0.957250
707.110661	0.956876
707.445311	0.957996
707.779913	0.958879
708.114465	0.958719
708.448967	0.958084
708.783421	0.957390
709.117825	0.957432
709.452180	0.957957
709.786485	0.956041
710.120742	0.955401
710.454949	0.954482
710.789107	0.954394
711.123216	0.952139
711.457275	0.952457
711.791286	0.951995
712.125247	0.953323
712.459159	0.952708
712.793023	0.952800
713.126837	0.954914
713.460602	0.953779
713.794318	0.954920
714.127985	0.957229
714.461602	0.958902
714.795171	0.959827
715.128691	0.961306
715.462162	0.962651
715.795584	0.964238
716.128957	0.964996
716.462281	0.966287
716.795556	0.965745
717.128782	0.968204
717.461960	0.969138
717.795088	0.969297
718.128167	0.971001
718.461198	0.971981
718.794180	0.971062
719.127113	0.971664
719.459997	0.972108
719.792833	0.972590
720.125619	0.972317
720.458357	0.974433
720.791046	0.974101
721.123686	0.974811
721.456278	0.974566
721.788821	0.975927
722.121315	0.976209
722.453761	0.976218
722.786158	0.976594
723.118506	0.976640
723.450805	0.975785
723.783056	0.977080
724.115259	0.976136
724.447412	0.977687
724.779518	0.977144
725.111574	0.977564
725.443582	0.977806
725.775542	0.977623
726.107453	0.976907
726.439315	0.977108
726.771129	0.976914
727.102895	0.976531
727.434612	0.976822
727.766281	0.976705
728.097901	0.975806
728.429473	0.976664
728.760996	0.975468
729.092471	0.976741
729.423897	0.977516
729.755276	0.977597
730.086606	0.977173
730.417887	0.977560
730.749120	0.977529
731.080305	0.976555
731.411442	0.975490
731.742530	0.975892
732.073570	0.976926
732.404562	0.976884
732.735506	0.977230
733.066401	0.976393
733.397249	0.977588
733.728048	0.978570
734.058798	0.979973
734.389501	0.981392
734.720156	0.982015
735.050762	0.983347
735.381320	0.981888
735.711831	0.983023
736.042293	0.983813
736.372707	0.983480
736.703073	0.982530
737.033391	0.984108
737.363661	0.985445
737.693883	0.983533
738.024056	0.982919
738.354182	0.983329
738.684260	0.983765
739.014290	0.982517
739.344272	0.982360
739.674207	0.982240
740.004093	0.981836
740.333931	0.981930
740.663722	0.981478
740.993464	0.982714
741.323159	0.983112
741.652806	0.983469
741.982405	0.983245
742.311956	0.984716
742.641460	0.983451
742.970915	0.984770
743.300323	0.983551
743.629683	0.985297
743.958996	0.986958
744.288260	0.985228
744.617477	0.986804
744.946647	0.986232
745.275768	0.988104
745.604842	0.986645
745.933869	0.987726
746.262847	0.988051
746.591778	0.987020
746.920662	0.988824
747.249498	0.988482
747.578286	0.989624
747.907027	0.987552
748.235720	0.987121
748.564365	0.988552
748.892963	0.988040
749.221514	0.987856
749.550017	0.987298
749.878473	0.988414
750.206881	0.989002
750.535242	0.987755
750.863555	0.987750
751.191821	0.987419
751.520039	0.988200
751.848210	0.987307
752.176334	0.988878
752.504411	0.988575
752.832440	0.987691
753.160421	0.989018
753.488356	0.988879
753.816243	0.987267
754.144082	0.987469
754.471875	0.989210
754.799620	0.988655
755.127318	0.989592
755.454969	0.989736
755.782572	0.991023
756.110129	0.988767
756.437638	0.991376
756.765100	0.990382
757.092515	0.989521
757.419882	0.989591
757.747203	0.989146
758.074477	0.990766
758.401703	0.989554
758.728882	0.991006
759.056014	0.989909
759.383099	0.989863
759.710138	0.989412
760.037129	0.988887
760.364073	0.989738
760.690970	0.989087
761.017820	0.988358
761.344623	0.990064
761.671379	0.990363
761.998088	0.989067
762.324751	0.988565
762.651366	0.986541
762.977935	0.983981
763.304456	0.982839
763.630931	0.979203
763.957359	0.979664
764.283740	0.982654
764.610074	0.985007
764.936362	0.986038
765.262602	0.987305
765.588796	0.988589
765.914943	0.988430
766.241044	0.989309
766.567097	0.989826
766.893104	0.990035
767.219064	0.990049
767.544978	0.990957
767.870845	0.992005
768.196665	0.991467
768.522438	0.993042
768.848165	0.992601
769.173846	0.992108
769.499479	0.993636
769.825066	0.992542
770.150607	0.994070
770.476101	0.992983
770.801548	0.993129
771.126949	0.993576
771.452303	0.993493
771.777611	0.993992
772.102872	0.993243
772.428087	0.992724
772.753256	0.994003
773.078378	0.994138
773.403453	0.993427
773.728482	0.995486
774.053465	0.993213
774.378401	0.994182
774.703291	0.994111
775.028135	0.995911
775.352932	0.993818
775.677683	0.995931
776.002388	0.994243
776.327046	0.993845
776.651658	0.995767
776.976224	0.994922
777.300743	0.994133
777.625216	0.994817
777.949643	0.994567
778.274024	0.995479
778.598359	0.994610
778.922647	0.995612
779.246889	0.995384
779.571086	0.994383
779.895236	0.995079
780.219339	0.995183
780.543397	0.994655
780.867409	0.994507
781.191374	0.995154
781.515294	0.996849
781.839167	0.995654
782.162995	0.994851
782.486776	0.995300
782.810511	0.995375
783.134201	0.995843
783.457844	0.995042
783.781441	0.995098
784.104993	0.994860
784.428498	0.995784
784.751958	0.996530
785.075372	0.996724
785.398739	0.994559
785.722061	0.995485
786.045337	0.995156
786.368568	0.994394
786.691752	0.995765
787.014891	0.995646
787.337983	0.994460
787.661030	0.993835
787.984031	0.994566
788.306987	0.993137
788.629897	0.991752
788.952760	0.993849
789.275579	0.993681
789.598351	0.993834
789.921078	0.994848
790.243759	0.994446
790.566395	0.994413
790.888984	0.996054
791.211529	0.996191
791.534027	0.995188
791.856480	0.995313
792.178888	0.995261
792.501249	0.995855
792.823566	0.997892
793.145836	0.995896
793.468062	0.996585
793.790241	0.996739
794.112375	0.995349
794.434464	0.995928
794.756507	0.995981
795.078505	0.996271
795.400457	0.995807
795.722364	0.994955
796.044226	0.995641
796.366042	0.994985
796.687812	0.993531
797.009538	0.994289
797.331218	0.995463
797.652852	0.995188
797.974442	0.994634
798.295986	0.994812
798.617484	0.995282
798.938938	0.995190
799.260346	0.995345
799.581709	0.994528
799.903026	0.995302
800.224299	0.994355
800.545526	0.995438
800.866708	0.995200
801.187845	0.996095
801.508936	0.996552
801.829983	0.995801
802.150984	0.995908
802.471940	0.996782
802.792851	0.996124
803.113717	0.997672
803.434538	0.996353
803.755314	0.996715
804.076045	0.996353
804.396731	0.997066
804.717372	0.994889
805.037967	0.997130
805.358518	0.997074
805.679024	0.995934
805.999485	0.997004
806.319901	0.996153
806.640272	0.997851
806.960598	0.995862
807.280879	0.996289
807.601115	0.996249
807.921306	0.997038
808.241453	0.995292
808.561554	0.996630
808.881611	0.995850
809.201623	0.995863
809.521590	0.995668
809.841513	0.997123
810.161390	0.996079
810.481223	0.995972
810.801011	0.997236
811.120755	0.998390
811.440453	0.996750
811.760107	0.996706
812.079716	0.996054
812.399281	0.995805
812.718801	0.996096
813.038276	0.995137
813.357707	0.996448
813.677093	0.997470
813.996434	0.996827
814.315731	0.997933
814.634983	0.997665
814.954191	0.996807
815.273354	0.996591
815.592473	0.995949
815.911547	0.996412
816.230577	0.997050
816.549562	0.996136
816.868502	0.995126
817.187399	0.997246
817.506250	0.995352
817.825058	0.994188
818.143821	0.996188
818.462539	0.995160
818.781213	0.994544
819.099843	0.994568
819.418429	0.993136
819.736970	0.992727
820.055466	0.990978
820.373919	0.990956
820.692327	0.988656
821.010691	0.987144
821.329011	0.982420
821.647286	0.978310
821.965517	0.972524
822.283704	0.966935
822.601847	0.964412
822.919945	0.965527
823.237999	0.968988
823.556010	0.970490
823.873976	0.973754
824.191897	0.977069
824.509775	0.981193
824.827609	0.981857
825.145398	0.983830
825.463144	0.983241
825.780845	0.982838
826.098502	0.984114
826.416116	0.983489
826.733685	0.979041
827.051210	0.976579
827.368692	0.976868
827.686129	0.979104
828.003522	0.982961
828.320872	0.985058
828.638177	0.986551
828.955439	0.989587
829.272656	0.990765
829.589830	0.991414
829.906960	0.993207
830.224046	0.992759
830.541088	0.993343
830.858086	0.993509
831.175041	0.995738
831.491952	0.994738
831.808819	0.993752
832.125642	0.994562
832.442421	0.993737
832.759157	0.993587
833.075849	0.989995
833.392497	0.987272
833.709101	0.984014
834.025662	0.984116
834.342179	0.985264
834.658653	0.987919
834.975083	0.988248
835.291469	0.990362
835.607811	0.992305
835.924110	0.991958
836.240366	0.995075
836.556578	0.994943
836.872746	0.996683
837.188871	0.995607
837.504952	0.995256
837.820990	0.996095
838.136984	0.996163
838.452935	0.997765
838.768842	0.998142
839.084706	0.997187
839.400526	0.995854
839.716303	0.992804
840.032037	0.991625
840.347727	0.991360
840.663373	0.992237
840.978977	0.993556
841.294537	0.994671
841.610054	0.996312
841.925527	0.997135
842.240957	0.997319
842.556344	0.996653
842.871687	0.996919
843.186987	0.997975
843.502244	0.998364
843.817458	0.998332
844.132629	0.998303
844.447756	0.997378
844.762840	0.999012
845.077881	1.000530
845.392879	0.997934
845.707833	0.998243
846.022745	0.998701
846.337613	0.998722
846.652438	0.998486
846.967221	0.998977
847.281960	1.000366
847.596656	0.999542
847.911309	0.997926
848.225919	0.997925
848.540485	0.998686
848.855009	1.001092
849.169490	0.999471
849.483928	0.998983
849.798323	0.998430
850.112675	0.999412
850.426984	0.999810
850.741251	0.999328
851.055474	0.998516
851.369654	0.999029
851.683792	0.998532
851.997887	0.998660
852.311938	1.000016
852.625947	0.998373
852.939914	0.998937
853.253837	0.999395
853.567718	0.999737
853.881555	0.999706
854.195350	0.999768
854.509103	1.000239
854.822812	1.000256
855.136479	1.000074
855.450103	0.999146
855.763685	0.999499
856.077224	0.999949
856.390720	0.999488
856.704173	0.999398
857.017584	0.999859
857.330953	0.999264
857.644278	0.998977
857.957561	0.998324
858.270802	0.998903
858.584000	0.998727
858.897155	0.998333
859.210268	0.999564
859.523339	0.999132
859.836367	0.998594
860.149352	0.999353
860.462295	0.999264
860.775195	1.000191
861.088054	0.998693
861.400869	0.999334
861.713642	0.998463
862.026373	0.998700
862.339062	0.999722
862.651708	1.000296
862.964312	0.999590
863.276873	0.999009
863.589392	1.000042
863.901869	0.998539
864.214303	0.998898
864.526696	0.999293
864.839045	0.999545
865.151353	0.998729
865.463619	0.997258
865.775842	0.999151
866.088023	0.999517
866.400162	0.999441
866.712258	0.999072
867.024313	0.998092
867.336325	0.999356
867.648296	0.999261
867.960224	0.998889
868.272110	0.999143
868.583954	0.999018
868.895755	0.999894
869.207515	0.998403
869.519233	0.999243
869.830909	0.997538
870.142542	0.998405
870.454134	0.998414
870.765684	0.998163
871.077191	0.998785
871.388657	0.998392
871.700081	0.998972
872.011463	0.999614
872.322803	0.997820
872.634101	0.996574
872.945357	0.997610
873.256571	0.996582
873.567744	0.997346
873.878874	0.997292
874.189963	0.997646
874.501010	0.998387
874.812015	0.997565
875.122979	0.997396
875.433900	0.997966
875.744780	0.998330
876.055618	0.997880
876.366415	0.996685
876.677169	0.996939
876.987882	0.996405
877.298554	0.996719
877.609183	0.996223
877.919771	0.996758
878.230317	0.998005
878.540822	0.995244
878.851285	0.995412
879.161707	0.995182
879.472087	0.995222
879.782425	0.991846
880.092722	0.989960
880.402977	0.984618
880.713191	0.980788
881.023363	0.974953
881.333494	0.971272
881.643583	0.971198
881.953631	0.970569
882.263637	0.970698
882.573602	0.972331
882.883526	0.976126
883.193408	0.977835
883.503248	0.979742
883.813048	0.982543
884.122806	0.984142
884.432522	0.986318
884.742197	0.990036
885.051831	0.988822
885.361424	0.991095
885.670975	0.993258
885.980485	0.993079
886.289954	0.993694
886.599382	0.992875
886.908768	0.994355
887.218113	0.994343
887.527417	0.994776
887.836680	0.995956
888.145901	0.996875
888.455082	0.997371
888.764221	0.996628
889.073319	0.996502
889.382376	0.997564
889.691392	0.996400
890.000366	0.997325
890.309300	0.997070
890.618193	0.996764
890.927044	0.996028
891.235855	0.996319
891.544625	0.996438
891.853353	0.996305
892.162041	0.995899
892.470687	0.996874
892.779293	0.995932
893.087858	0.993891
893.396381	0.994046
893.704864	0.991979
894.013306	0.990460
894.321707	0.988340
894.630068	0.985371
894.938387	0.985014
895.246665	0.985373
895.554903	0.985850
895.863100	0.988949
896.171256	0.988783
896.479371	0.991231
896.787446	0.991416
897.095480	0.993299
897.403473	0.993897
897.711425	0.994241
898.019336	0.995433
898.327207	0.995223
898.635038	0.994727
898.942827	0.995792
899.250576	0.994637
899.558284	0.995909
899.865952	0.995530
900.173579	0.997036
900.481165	0.996234
900.788711	0.996309
901.096216	0.996352
901.403681	0.996881
901.711105	0.997467
902.018489	0.996723
902.325832	0.996885
902.633135	0.997009
902.940397	0.995071
903.247619	0.996053
903.554800	0.992346
903.861941	0.989189
904.169041	0.985595
904.476101	0.982641
904.783121	0.982320
905.090100	0.982338
905.397039	0.985048
905.703938	0.988078
906.010796	0.989962
906.317614	0.992362
906.624391	0.994318
906.931129	0.994591
907.237826	0.995013
907.544483	0.995818
907.851099	0.996778
908.157675	0.996173
908.464211	0.997726
908.770707	0.995861
909.077163	0.996944
909.383578	0.998803
909.689954	0.997598
909.996289	0.997133
910.302584	0.999829
910.608839	0.999211
910.915054	0.998283
911.221229	0.999228
911.527363	0.999367
911.833458	0.997844
912.139513	0.999073
912.445527	0.999479
912.751502	0.998431
913.057436	0.997656
913.363331	0.997684
913.669186	0.998223
913.975000	0.997610
914.280775	0.995901
914.586510	0.992850
914.892205	0.992045
915.197859	0.991114
915.503475	0.989705
915.809050	0.986093
916.114585	0.981392
916.420081	0.982998
916.725536	0.983413
917.030952	0.984883
917.336328	0.985900
917.641665	0.987887
917.946961	0.988792
918.252218	0.989347
918.557435	0.991368
918.862612	0.992923
919.167750	0.993230
919.472848	0.995461
919.777906	0.995758
920.082925	0.995784
920.387904	0.996941
920.692843	0.997121
920.997743	0.996131
921.302603	0.996983
921.607423	0.996291
921.912204	0.997503
922.216946	0.998452
922.521647	0.998477
922.826310	0.998064
923.130932	0.997989
923.435516	0.998564
923.740059	0.998512
924.044564	0.998840
924.349028	0.998753
924.653454	0.999895
924.957840	0.998676
925.262186	0.999352
925.566493	0.998839
925.870761	0.999152
926.174989	0.999387
926.479178	1.000894
926.783328	0.999434
927.087438	0.998592
927.391509	1.000711
927.695541	1.000435
927.999533	1.000329
928.303486	0.999941
928.607400	1.000830
928.911275	1.000743
929.215110	1.001195
929.518906	1.001860
929.822663	1.001261
930.126381	1.000536
930.430060	1.000678
930.733699	1.000992
931.037299	1.000928
931.340861	1.000584
931.644383	0.999406
931.947866	1.001376
932.251309	1.000221
932.554714	1.000574
932.858080	1.000367
933.161407	0.999557
933.464694	1.000269
933.767943	1.000802
934.071153	0.999621
934.374323	1.001290
934.677455	0.999655
934.980548	1.000493
935.283602	1.000085
935.586617	0.999857
935.889593	1.000906
936.192530	1.001588
936.495428	1.000429
936.798287	0.999868
937.101108	1.000060
937.403890	0.999879
937.706632	1.001326
938.009336	1.000083
938.312002	0.998262
938.614628	0.998956
938.917216	0.998330
939.219765	0.998163
939.522275	0.998736
939.824747	0.999771
940.127179	0.999764
940.429573	0.999038
940.731929	0.998237
941.034246	0.997509
941.336524	0.998414
941.638763	0.999628
941.940964	0.999423
942.243126	1.000148
942.545250	0.999674
942.847335	1.000288
943.149381	0.999651
943.451389	0.998551
943.753359	1.000256
944.055290	1.000487
944.357182	1.001272
944.659036	1.000407
944.960851	1.000630
945.262628	1.000863
945.564367	1.000629
945.866067	0.999510
946.167729	1.001275
946.469352	1.000485
946.770937	0.998064
947.072484	1.000711
947.373992	1.000114
947.675462	1.000258
947.976893	0.999464
948.278286	1.001400
948.579641	1.000643
948.880958	1.000263
949.182236	0.999652
949.483476	1.000924
949.784678	0.999808
950.085841	0.999239
950.386967	1.000542
950.688054	1.000656
950.989103	0.999530
951.290114	0.998683
951.591087	1.001028
951.892021	0.999406
952.192917	1.000787
952.493776	0.999896
952.794596	1.000087
953.095378	1.000134
953.396122	0.999519
953.696828	1.000494
953.997496	1.000343
954.298126	1.001097
954.598718	0.998858
954.899272	0.999575
955.199788	0.999048
955.500266	1.001983
955.800706	1.000089
956.101108	1.000881
956.401472	1.002101
956.701798	1.000105
957.002087	1.001215
957.302337	1.001338
957.602550	1.001807
957.902724	1.000369
958.202861	1.000116
958.502960	1.000264
958.803022	1.001605
959.103045	1.001048
959.403031	1.001688
959.702979	1.001612
960.002889	1.001209
960.302762	1.001172
960.602596	1.001741
960.902393	1.001599
961.202153	1.001993
961.501875	1.002432
961.801559	1.002178
962.101205	1.001775
962.400814	1.002700
962.700385	1.002104
962.999918	1.001999
963.299414	1.001632
963.598873	1.002353
963.898293	1.001254
964.197677	1.000534
964.497022	1.000825
964.796331	1.001361
965.095601	1.001967
965.394835	1.000737
965.694030	1.003417
965.993189	1.001937
966.292309	1.002124
966.591393	1.000468
966.890439	1.001631
967.189447	1.000788
967.488419	1.001047
967.787353	1.001098
968.086249	1.001736
968.385108	1.001321
968.683930	1.002500
968.982714	1.000978
969.281462	1.001769
969.580172	1.001484
969.878844	1.002725
970.177480	1.002123
970.476078	1.002483
970.774639	1.002366
971.073162	1.002298
971.371649	1.001451
971.670098	1.001654
971.968510	1.001123
972.266885	1.001320
972.565223	1.001335
972.863524	1.002315
973.161788	1.001094
973.460014	1.002091
973.758204	1.000937
974.056356	1.001251
974.354471	1.002461
974.652550	1.002456
974.950591	1.001449
975.248595	1.001053
975.546563	1.002470
975.844493	1.003037
976.142386	1.000431
976.440243	1.002390
976.738062	1.001666
977.035845	1.000766
977.333590	1.002880
977.631299	1.002069
977.928971	1.002113
978.226606	1.001588
978.524204	1.000123
978.821765	1.002721
979.119290	1.003668
979.416777	1.001810
979.714228	1.001755
980.011642	1.001131
980.309020	1.001899
980.606360	1.000461
980.903664	1.001999
981.200931	1.002073
981.498162	1.001740
981.795356	1.001462
982.092513	1.001305
982.389633	1.002432
982.686717	1.000463
982.983764	1.001519
983.280775	1.000996
983.577749	1.001900
983.874686	1.000574
984.171587	1.000380
984.468451	1.001196
984.765279	1.001131
985.062070	1.001804
985.358824	1.001429
985.655543	1.002976
985.952224	1.001746
986.248869	1.001961
986.545478	1.002954
986.842050	1.001303
987.138586	1.001528
987.435086	1.001521
987.731549	1.003318
988.027975	1.003246
988.324366	1.001592
988.620719	1.003266
988.917037	1.001612
989.213318	1.004330
989.509563	1.002266
989.805772	1.002539
990.101944	1.002959
990.398080	1.002303
990.694180	1.002483
990.990244	1.002209
991.286271	1.001201
991.582262	1.002884
991.878217	1.001344
992.174136	1.002959
992.470019	1.002643
992.765865	1.003874
993.061676	1.001745
993.357450	1.002425
993.653188	1.002637
993.948890	1.002446
994.244556	1.001950
994.540186	1.001939
994.835780	1.001472
995.131337	1.003017
995.426859	1.002328
995.722345	1.002071
996.017795	1.002718
996.313208	1.001675
996.608586	1.001206
996.903928	1.001968
997.199234	1.002551
997.494504	1.003149
997.789738	1.001939
998.084936	1.002861
998.380099	1.000539
998.675225	1.002560
998.970316	1.003501
999.265371	1.001850
999.560390	1.001849
999.855373	1.002764
1000.150320	1.002742
1000.445232	1.002826
1000.740108	1.002311
1001.034948	1.001401
1001.329752	1.003554
1001.624521	1.001900
1001.919254	1.001943
1002.213951	1.002668
1002.508613	1.001919
1002.803239	1.001774
1003.097829	1.002649
1003.392384	1.002078
1003.686903	1.000730
1003.981386	1.002774
1004.275834	1.002977
1004.570246	1.000716
1004.864623	1.002934
1005.158964	1.002637
1005.453270	1.002374
1005.747540	1.001911
1006.041775	1.002490
1006.335974	1.003074
1006.630138	1.002773
1006.924266	1.001493
1007.218359	1.000005
1007.512416	1.002855
1007.806438	1.002283
1008.100425	1.002969
1008.394376	1.003345
1008.688292	1.002367
1008.982172	1.002340
1009.276017	1.002862
1009.569827	1.002873
1009.863602	1.002457
1010.157341	1.003568
1010.451045	1.002467
1010.744714	1.004416
1011.038347	1.003632
1011.331945	1.001350
1011.625508	1.002388
1011.919036	1.002463
1012.212528	1.002528
1012.505986	1.003916
1012.799408	1.003739
1013.092795	1.002853
1013.386147	1.003557
1013.679464	1.004465
1013.972745	1.002775
1014.265992	1.002835
1014.559204	1.001541
1014.852380	1.003414
1015.145521	1.003616
1015.438628	1.001821
1015.731699	1.002022
1016.024736	1.004025
1016.317737	1.003068
1016.610703	1.003263
1016.903635	1.002363
1017.196531	1.001825
1017.489393	1.001783
1017.782219	1.002917
1018.075011	1.002892
1018.367768	1.001129
1018.660490	1.003382
1018.953177	1.003382
1019.245829	1.003382
