Dividing Wavelength (nm)	Counts (n)	Blue Motor Position (mm): 6.300000	Red Motor Position (mm): 0.000000	
326.493990	1.005851
326.888308	1.005851
327.282561	1.005851
327.676750	1.006334
328.070874	1.006742
328.464933	1.006956
328.858929	1.007185
329.252859	1.007261
329.646726	1.005410
330.040528	1.005491
330.434265	1.006270
330.827938	1.006042
331.221547	1.007120
331.615091	1.005705
332.008571	1.006446
332.401986	1.005314
332.795338	1.005966
333.188625	1.007138
333.581847	1.005009
333.975006	1.006437
334.368100	1.006519
334.761129	1.005890
335.154095	1.006233
335.546996	1.004009
335.939833	0.999646
336.332606	0.998740
336.725315	0.998590
337.117960	1.000640
337.510540	0.998883
337.903056	0.999829
338.295508	0.999527
338.687896	1.000846
339.080220	0.999113
339.472480	0.998779
339.864676	0.999950
340.256807	0.998430
340.648875	0.999956
341.040879	0.999361
341.432818	1.000450
341.824694	0.999822
342.216506	0.998986
342.608253	0.999186
342.999937	0.998010
343.391557	0.999140
343.783113	1.000908
344.174605	0.998741
344.566033	0.998048
344.957397	0.999140
345.348697	1.000013
345.739934	0.999206
346.131106	0.999006
346.522215	0.998401
346.913260	0.998976
347.304241	0.998014
347.695159	0.998760
348.086012	0.999717
348.476802	0.999136
348.867528	0.997964
349.258191	0.999474
349.648789	0.998522
350.039324	0.999659
350.429796	0.998276
350.820203	0.997919
351.210548	0.999682
351.600828	0.998940
351.991045	0.998990
352.381198	0.999866
352.771288	0.998449
353.161314	0.999217
353.551276	0.998936
353.941175	0.998024
354.331010	0.999153
354.720782	0.997951
355.110490	0.998376
355.500135	0.997699
355.889717	0.997143
356.279235	0.998047
356.668689	0.998548
357.058080	0.998190
357.447408	0.997857
357.836672	0.997479
358.225873	0.998329
358.615010	0.998190
359.004084	0.997062
359.393095	0.998953
359.782043	0.997863
360.170927	0.998959
360.559748	0.997009
360.948505	0.997913
361.337199	0.997558
361.725830	0.998201
362.114398	0.997683
362.502903	0.996859
362.891344	0.996635
363.279722	0.996863
363.668037	0.998154
364.056289	0.997279
364.444478	0.998388
364.832603	0.996935
365.220665	0.997497
365.608665	0.997025
365.996601	0.995868
366.384474	0.995221
366.772284	0.997561
367.160031	0.995221
367.547715	0.995613
367.935336	0.994915
368.322893	0.992985
368.710388	0.992300
369.097820	0.990928
369.485189	0.988196
369.872495	0.986697
370.259738	0.984786
370.646918	0.982410
371.034035	0.978990
371.421090	0.976769
371.808081	0.970439
372.195010	0.969249
372.581875	0.964501
372.968678	0.959572
373.355418	0.955571
373.742096	0.947960
374.128710	0.944080
374.515262	0.940128
374.901751	0.933418
375.288177	0.928694
375.674540	0.922596
376.060841	0.915427
376.447079	0.909555
376.833254	0.902465
377.219367	0.898320
377.605417	0.886920
377.991404	0.882856
378.377329	0.876965
378.763191	0.869785
379.148991	0.860903
379.534727	0.853565
379.920402	0.845169
380.306013	0.842094
380.691563	0.829750
381.077049	0.822776
381.462474	0.818713
381.847835	0.807422
382.233134	0.802896
382.618371	0.802204
383.003545	0.785570
383.388657	0.784286
383.773706	0.775355
384.158693	0.771886
384.543618	0.766175
384.928480	0.757830
385.313280	0.748120
385.698017	0.747195
386.082692	0.735559
386.467305	0.733722
386.851856	0.728395
387.236344	0.723503
387.620770	0.719052
388.005133	0.711952
388.389435	0.705745
388.773674	0.703781
389.157851	0.695865
389.541965	0.693748
389.926018	0.699494
390.310008	0.686393
390.693936	0.682941
391.077802	0.676432
391.461606	0.677136
391.845348	0.666760
392.229027	0.665903
392.612645	0.664381
392.996200	0.650598
393.379694	0.643707
393.763125	0.634047
394.146494	0.639046
394.529801	0.630050
394.913047	0.621711
395.296230	0.627267
395.679351	0.617841
396.062410	0.616078
396.445408	0.619234
396.828343	0.613454
397.211217	0.608320
397.594028	0.620598
397.976778	0.611650
398.359466	0.607508
398.742092	0.602719
399.124656	0.615351
399.507158	0.602867
399.889598	0.599862
400.271977	0.591621
400.654294	0.594896
401.036549	0.594807
401.418742	0.598683
401.800874	0.585519
402.182944	0.581057
402.564952	0.572953
402.946898	0.575540
403.328783	0.576127
403.710606	0.587209
404.092367	0.562046
404.474067	0.567056
404.855705	0.565420
405.237282	0.574964
405.618797	0.560816
406.000250	0.556309
406.381642	0.546767
406.762972	0.552218
407.144240	0.550379
407.525447	0.550207
407.906593	0.542815
408.287677	0.538644
408.668700	0.546545
409.049661	0.540829
409.430560	0.536216
409.811399	0.544565
410.192176	0.526053
410.572891	0.533708
410.953545	0.521975
411.334138	0.535271
411.714669	0.527473
412.095139	0.539709
412.475547	0.523933
412.855894	0.525832
413.236180	0.524527
413.616405	0.530062
413.996568	0.520295
414.376670	0.526570
414.756711	0.531900
415.136691	0.528615
415.516609	0.519502
415.896466	0.516416
416.276262	0.511916
416.655997	0.513949
417.035670	0.496089
417.415283	0.487328
417.794834	0.492035
418.174324	0.497199
418.553753	0.506270
418.933121	0.488910
419.312428	0.482288
419.691674	0.488247
420.070859	0.476058
420.449983	0.484705
420.829045	0.473755
421.208047	0.482332
421.586988	0.475901
421.965867	0.474410
422.344686	0.463435
422.723444	0.475934
423.102141	0.493065
423.480777	0.466111
423.859352	0.486232
424.237866	0.463782
424.616319	0.464139
424.994712	0.455341
425.373044	0.465874
425.751314	0.453862
426.129524	0.470530
426.507673	0.453386
426.885762	0.447749
427.263789	0.452524
427.641756	0.462460
428.019662	0.452686
428.397508	0.452571
428.775292	0.456275
429.153016	0.448034
429.530679	0.454548
429.908282	0.447666
430.285824	0.457608
430.663305	0.436604
431.040726	0.457896
431.418086	0.457609
431.795385	0.448996
432.172624	0.448086
432.549802	0.448322
432.926920	0.447574
433.303977	0.446802
433.680974	0.444208
434.057910	0.442560
434.434786	0.442037
434.811601	0.444279
435.188355	0.427100
435.565050	0.436268
435.941683	0.437838
436.318257	0.421811
436.694770	0.422410
437.071222	0.420505
437.447614	0.424465
437.823946	0.431362
438.200218	0.420941
438.576429	0.430829
438.952580	0.423917
439.328670	0.420219
439.704700	0.426604
440.080670	0.428244
440.456580	0.409528
440.832429	0.417508
441.208218	0.428295
441.583947	0.417693
441.959616	0.416632
442.335224	0.422269
442.710773	0.413110
443.086261	0.411268
443.461689	0.425203
443.837057	0.414607
444.212365	0.404889
444.587612	0.411861
444.962800	0.401449
445.337927	0.403227
445.712995	0.429530
446.088002	0.390805
446.462949	0.401582
446.837837	0.406496
447.212664	0.394910
447.587431	0.386662
447.962139	0.357243
448.336786	0.315965
448.711374	0.326464
449.085901	0.370818
449.460369	0.375188
449.834776	0.378710
450.209124	0.357933
450.583412	0.350543
450.957640	0.343328
451.331808	0.355054
451.705917	0.378605
452.079965	0.383310
452.453954	0.370934
452.827883	0.378159
453.201752	0.372759
453.575562	0.384230
453.949311	0.372946
454.323001	0.378851
454.696632	0.374809
455.070202	0.366817
455.443713	0.358994
455.817164	0.353367
456.190556	0.349719
456.563888	0.346361
456.937160	0.343940
457.310373	0.361193
457.683526	0.359880
458.056619	0.365616
458.429653	0.366203
458.802628	0.369884
459.175542	0.363992
459.548398	0.346588
459.921194	0.339149
460.293930	0.339227
460.666607	0.316877
461.039224	0.304909
461.411782	0.300429
461.784280	0.299596
462.156719	0.303876
462.529099	0.307995
462.901419	0.324342
463.273680	0.328832
463.645882	0.328105
464.018024	0.334256
464.390106	0.327150
464.762130	0.311639
465.134094	0.294752
465.505999	0.263523
465.877845	0.233699
466.249631	0.220614
466.621358	0.227793
466.993026	0.242205
467.364634	0.248138
467.736184	0.257062
468.107674	0.266030
468.479105	0.264880
468.850477	0.271642
469.221790	0.278604
469.593043	0.289110
469.964238	0.293507
470.335373	0.293208
470.706449	0.291257
471.077467	0.292016
471.448425	0.253812
471.819324	0.229358
472.190164	0.228778
472.560945	0.257840
472.931667	0.279743
473.302330	0.284238
473.672934	0.296240
474.043479	0.284479
474.413965	0.286221
474.784393	0.289265
475.154761	0.284693
475.525070	0.281868
475.895321	0.287444
476.265513	0.281546
476.635645	0.276918
477.005719	0.276752
477.375734	0.273490
477.745691	0.266402
478.115588	0.262716
478.485427	0.256677
478.855207	0.243241
479.224928	0.225702
479.594591	0.213713
479.964194	0.217466
480.333739	0.218486
480.703226	0.219959
481.072653	0.218364
481.442022	0.214194
481.811333	0.210804
482.180584	0.214182
482.549777	0.219508
482.918912	0.222686
483.287988	0.222394
483.657005	0.222304
484.025964	0.228566
484.394864	0.226070
484.763706	0.226522
485.132489	0.231444
485.501213	0.232256
485.869879	0.230665
486.238487	0.233788
486.607036	0.231910
486.975527	0.236348
487.343959	0.232234
487.712333	0.231512
488.080648	0.232780
488.448905	0.231927
488.817104	0.233162
489.185244	0.227560
489.553326	0.224414
489.921350	0.214252
490.289315	0.196597
490.657222	0.191678
491.025070	0.193181
491.392861	0.195083
491.760593	0.200778
492.128267	0.206576
492.495883	0.211899
492.863440	0.218267
493.230939	0.224739
493.598380	0.226131
493.965763	0.228319
494.333088	0.230159
494.700354	0.231971
495.067563	0.231092
495.434713	0.234341
495.801805	0.232121
496.168839	0.233498
496.535815	0.235344
496.902733	0.235254
497.269593	0.236740
497.636395	0.234370
498.003139	0.234412
498.369825	0.237723
498.736453	0.234182
499.103023	0.235610
499.469535	0.235025
499.835989	0.235339
500.202385	0.236148
500.568723	0.239467
500.935003	0.234541
501.301226	0.238941
501.667390	0.233063
502.033497	0.231544
502.399546	0.233967
502.765537	0.235908
503.131470	0.234810
503.497345	0.231036
503.863163	0.239441
504.228923	0.232355
504.594625	0.231192
504.960269	0.236503
505.325856	0.232025
505.691385	0.236375
506.056856	0.233114
506.422270	0.232522
506.787625	0.234744
507.152924	0.232269
507.518164	0.232613
507.883347	0.234426
508.248472	0.235958
508.613540	0.231139
508.978550	0.233546
509.343503	0.234139
509.708398	0.231828
510.073236	0.229463
510.438016	0.229180
510.802738	0.230211
511.167403	0.229258
511.532010	0.231431
511.896561	0.226650
512.261053	0.225129
512.625488	0.227413
512.989866	0.227860
513.354186	0.227956
513.718449	0.230002
514.082655	0.225994
514.446803	0.228410
514.810894	0.226270
515.174927	0.228915
515.538904	0.228699
515.902822	0.225134
516.266684	0.227343
516.630488	0.228654
516.994235	0.227775
517.357925	0.226444
517.721558	0.224734
518.085133	0.224382
518.448651	0.224096
518.812112	0.226406
519.175516	0.225987
519.538863	0.224025
519.902152	0.225395
520.265385	0.222241
520.628560	0.223887
520.991678	0.224310
521.354739	0.223310
521.717743	0.224419
522.080690	0.224537
522.443580	0.222384
522.806413	0.223174
523.169189	0.222529
523.531908	0.221306
523.894569	0.224981
524.257174	0.224892
524.619722	0.222193
524.982213	0.223756
525.344647	0.222313
525.707025	0.223242
526.069345	0.221410
526.431608	0.223085
526.793815	0.221079
527.155964	0.225283
527.518057	0.224229
527.880093	0.225418
528.242072	0.223901
528.603995	0.225768
528.965860	0.227526
529.327669	0.226535
529.689421	0.227140
530.051117	0.228144
530.412755	0.225896
530.774337	0.228148
531.135862	0.228606
531.497331	0.227823
531.858743	0.230782
532.220098	0.227540
532.581396	0.230055
532.942638	0.230264
533.303824	0.231502
533.664953	0.231234
534.026025	0.233070
534.387040	0.231102
534.747999	0.230816
535.108902	0.229553
535.469748	0.235098
535.830537	0.232759
536.191270	0.232962
536.551947	0.232237
536.912567	0.232721
537.273131	0.234182
537.633638	0.234730
537.994089	0.234981
538.354483	0.235841
538.714821	0.232833
539.075103	0.232756
539.435328	0.233502
539.795497	0.237160
540.155609	0.234020
540.515665	0.231754
540.875665	0.237626
541.235609	0.236211
541.595496	0.236083
541.955328	0.233179
542.315102	0.235443
542.674821	0.236455
543.034483	0.236563
543.394090	0.235971
543.753640	0.238002
544.113134	0.232808
544.472571	0.236411
544.831953	0.233180
545.191278	0.237546
545.550548	0.236586
545.909761	0.233507
546.268918	0.234418
546.628019	0.232615
546.987064	0.235423
547.346053	0.237439
547.704986	0.235066
548.063863	0.235261
548.422684	0.235455
548.781449	0.237120
549.140158	0.234942
549.498811	0.237971
549.857408	0.240604
550.215949	0.235671
550.574434	0.238772
550.932864	0.236898
551.291237	0.235112
551.649555	0.236617
552.007817	0.236531
552.366022	0.237543
552.724173	0.237798
553.082267	0.237814
553.440305	0.234862
553.798288	0.239221
554.156215	0.235719
554.514086	0.236267
554.871902	0.239668
555.229661	0.238895
555.587365	0.239353
555.945014	0.241888
556.302606	0.238986
556.660143	0.241679
557.017625	0.237937
557.375050	0.240075
557.732421	0.236989
558.089735	0.238933
558.446994	0.239276
558.804197	0.238346
559.161345	0.238036
559.518437	0.241972
559.875474	0.239853
560.232455	0.239269
560.589381	0.240134
560.946251	0.240411
561.303065	0.237910
561.659825	0.239106
562.016528	0.241039
562.373177	0.243613
562.729770	0.240935
563.086307	0.242957
563.442789	0.240857
563.799216	0.243584
564.155587	0.242282
564.511904	0.243623
564.868164	0.243519
565.224370	0.243240
565.580520	0.245093
565.936615	0.245043
566.292654	0.248014
566.648638	0.245156
567.004567	0.245947
567.360441	0.246422
567.716260	0.248530
568.072023	0.246199
568.427732	0.246877
568.783385	0.249147
569.138982	0.247459
569.494525	0.247402
569.850013	0.250378
570.205445	0.248530
570.560823	0.251202
570.916145	0.253032
571.271412	0.251378
571.626625	0.253110
571.981782	0.253517
572.336884	0.254171
572.691931	0.253930
573.046923	0.255469
573.401860	0.256274
573.756743	0.257878
574.111570	0.256957
574.466342	0.257548
574.821059	0.256600
575.175722	0.259668
575.530330	0.259271
575.884882	0.259488
576.239380	0.261471
576.593823	0.261855
576.948211	0.261691
577.302544	0.264802
577.656823	0.264647
578.011047	0.264125
578.365216	0.265262
578.719330	0.266974
579.073389	0.266489
579.427394	0.267964
579.781344	0.269119
580.135239	0.270257
580.489080	0.270255
580.842866	0.273085
581.196597	0.273117
581.550273	0.271530
581.903895	0.272430
582.257463	0.270628
582.610975	0.274064
582.964434	0.273395
583.317837	0.275789
583.671186	0.276485
584.024481	0.276238
584.377721	0.278788
584.730906	0.279449
585.084037	0.278989
585.437113	0.280774
585.790135	0.279926
586.143103	0.283456
586.496016	0.283969
586.848874	0.281546
587.201679	0.282468
587.554428	0.285843
587.907124	0.284507
588.259765	0.285242
588.612352	0.285455
588.964884	0.289662
589.317362	0.289106
589.669786	0.288750
590.022155	0.287541
590.374470	0.286777
590.726731	0.289183
591.078937	0.293988
591.431090	0.290160
591.783188	0.294032
592.135232	0.294909
592.487222	0.294878
592.839157	0.292928
593.191038	0.295311
593.542866	0.297010
593.894639	0.300229
594.246358	0.298830
594.598022	0.298572
594.949633	0.301492
595.301190	0.302560
595.652692	0.301781
596.004141	0.297451
596.355535	0.305775
596.706876	0.306424
597.058162	0.308671
597.409395	0.306300
597.760573	0.303514
598.111698	0.307283
598.462768	0.307255
598.813785	0.308615
599.164748	0.309618
599.515657	0.310407
599.866511	0.313920
600.217312	0.309362
600.568060	0.314233
600.918753	0.310591
601.269392	0.311382
601.619978	0.314928
601.970510	0.312689
602.320988	0.312835
602.671412	0.310739
603.021783	0.313189
603.372100	0.314085
603.722363	0.313845
604.072572	0.314746
604.422728	0.314741
604.772830	0.316554
605.122878	0.316469
605.472872	0.317122
605.822813	0.315403
606.172701	0.317989
606.522534	0.314958
606.872314	0.315267
607.222041	0.316524
607.571714	0.314531
607.921333	0.315711
608.270899	0.315146
608.620411	0.311949
608.969870	0.316266
609.319276	0.316414
609.668627	0.315959
610.017926	0.314462
610.367171	0.313148
610.716362	0.313961
611.065500	0.314202
611.414585	0.312844
611.763616	0.313201
612.112594	0.313826
612.461518	0.313375
612.810389	0.311186
613.159207	0.313031
613.507971	0.315205
613.856682	0.310917
614.205340	0.312123
614.553945	0.309416
614.902496	0.313240
615.250994	0.311141
615.599439	0.311674
615.947830	0.311294
616.296169	0.312497
616.644454	0.311947
616.992686	0.311760
617.340864	0.309556
617.688990	0.312988
618.037063	0.309790
618.385082	0.311576
618.733048	0.308295
619.080961	0.310771
619.428821	0.310243
619.776628	0.309625
620.124382	0.312201
620.472083	0.312573
620.819731	0.311673
621.167326	0.315717
621.514868	0.315664
621.862357	0.319603
622.209793	0.318838
622.557176	0.321481
622.904506	0.322522
623.251783	0.325079
623.599007	0.327586
623.946179	0.326793
624.293297	0.328601
624.640363	0.332516
624.987376	0.333138
625.334336	0.335617
625.681243	0.337905
626.028097	0.338650
626.374899	0.339673
626.721647	0.340185
627.068343	0.343374
627.414987	0.344396
627.761577	0.346050
628.108115	0.344726
628.454600	0.349826
628.801032	0.347185
629.147412	0.349226
629.493739	0.349851
629.840014	0.352489
630.186236	0.349897
630.532405	0.356107
630.878521	0.353047
631.224585	0.355097
631.570597	0.358737
631.916556	0.357603
632.262462	0.357205
632.608316	0.359632
632.954117	0.360358
633.299866	0.361410
633.645562	0.361675
633.991206	0.366024
634.336797	0.369020
634.682336	0.371692
635.027823	0.372737
635.373257	0.373759
635.718639	0.377117
636.063968	0.376311
636.409245	0.382630
636.754470	0.382601
637.099642	0.385022
637.444762	0.388708
637.789829	0.387914
638.134845	0.390763
638.479808	0.392383
638.824719	0.392441
639.169577	0.396358
639.514383	0.394673
639.859137	0.399355
640.203839	0.398571
640.548489	0.399544
640.893086	0.400496
641.237632	0.402201
641.582125	0.401022
641.926566	0.403176
642.270955	0.402715
642.615292	0.402826
642.959576	0.402020
643.303809	0.402972
643.647990	0.402232
643.992118	0.403053
644.336195	0.405775
644.680219	0.404489
645.024192	0.405263
645.368112	0.398941
645.711981	0.398199
646.055797	0.393046
646.399562	0.395014
646.743274	0.388257
647.086935	0.384539
647.430544	0.385260
647.774101	0.383605
648.117606	0.383761
648.461059	0.384010
648.804460	0.386704
649.147810	0.392003
649.491108	0.393628
649.834354	0.395200
650.177548	0.400220
650.520690	0.405846
650.863781	0.407049
651.206820	0.405845
651.549807	0.410849
651.892742	0.415174
652.235626	0.414750
652.578458	0.415570
652.921238	0.421925
653.263967	0.419274
653.606644	0.423264
653.949269	0.423674
654.291843	0.426741
654.634365	0.424391
654.976836	0.426945
655.319255	0.427840
655.661622	0.428962
656.003938	0.428772
656.346203	0.431166
656.688416	0.429515
657.030577	0.433009
657.372687	0.435478
657.714746	0.436230
658.056753	0.433135
658.398708	0.435788
658.740612	0.438076
659.082465	0.433628
659.424266	0.434590
659.766016	0.433600
660.107715	0.436771
660.449362	0.435788
660.790958	0.436041
661.132503	0.437430
661.473996	0.434495
661.815438	0.435382
662.156829	0.435743
662.498168	0.436533
662.839456	0.437792
663.180693	0.435444
663.521879	0.435842
663.863013	0.436180
664.204097	0.434626
664.545129	0.431912
664.886110	0.432097
665.227040	0.429688
665.567918	0.431972
665.908746	0.429585
666.249522	0.429239
666.590248	0.430450
666.930922	0.428416
667.271545	0.427904
667.612118	0.427839
667.952639	0.429311
668.293109	0.428184
668.633528	0.430740
668.973896	0.430601
669.314213	0.430873
669.654480	0.432962
669.994695	0.432716
670.334859	0.433842
670.674973	0.434091
671.015035	0.434484
671.355047	0.434417
671.695008	0.435157
672.034918	0.437063
672.374777	0.436732
672.714585	0.437727
673.054342	0.437538
673.394049	0.437459
673.733705	0.435724
674.073310	0.436275
674.412864	0.439527
674.752368	0.439804
675.091820	0.440380
675.431223	0.445002
675.770574	0.444466
676.109875	0.447376
676.449125	0.447335
676.788324	0.449432
677.127473	0.455235
677.466571	0.455281
677.805619	0.456710
678.144616	0.458147
678.483562	0.459664
678.822458	0.462233
679.161303	0.462613
679.500098	0.463205
679.838842	0.465307
680.177535	0.464274
680.516179	0.462980
680.854771	0.462078
681.193314	0.455581
681.531805	0.446809
681.870247	0.435597
682.208638	0.428017
682.546978	0.426911
682.885268	0.428452
683.223508	0.435326
683.561697	0.439300
683.899836	0.441064
684.237925	0.444298
684.575963	0.447022
684.913951	0.450964
685.251889	0.446332
685.589776	0.448731
685.927614	0.450549
686.265401	0.445079
686.603137	0.446177
686.940824	0.440008
687.278460	0.438861
687.616046	0.438002
687.953582	0.432824
688.291068	0.434498
688.628504	0.430049
688.965889	0.432067
689.303224	0.436136
689.640510	0.439685
689.977745	0.445776
690.314930	0.453715
690.652065	0.458422
690.989150	0.466065
691.326185	0.472264
691.663170	0.477375
692.000105	0.484742
692.336990	0.491501
692.673825	0.493531
693.010610	0.500886
693.347345	0.506647
693.684030	0.507911
694.020665	0.512305
694.357251	0.522146
694.693786	0.521128
695.030272	0.524568
695.366707	0.528872
695.703093	0.531819
696.039429	0.529799
696.375716	0.532161
696.711952	0.534525
697.048139	0.536769
697.384276	0.538944
697.720363	0.537308
698.056400	0.535355
698.392388	0.541565
698.728326	0.543975
699.064214	0.546688
699.400053	0.547742
699.735842	0.551658
700.071581	0.554966
700.407270	0.557341
700.742910	0.560124
701.078501	0.565395
701.414042	0.566971
701.749533	0.569552
702.084974	0.579086
702.420366	0.572193
702.755709	0.579359
703.091002	0.587335
703.426246	0.580034
703.761440	0.585417
704.096584	0.590994
704.431679	0.587517
704.766725	0.590412
705.101721	0.591980
705.436668	0.588518
705.771565	0.595540
706.106413	0.590956
706.441212	0.586576
706.775961	0.586760
707.110661	0.588258
707.445311	0.585015
707.779913	0.582224
708.114465	0.580514
708.448967	0.577123
708.783421	0.569523
709.117825	0.564302
709.452180	0.564014
709.786485	0.557983
710.120742	0.547348
710.454949	0.549229
710.789107	0.541691
711.123216	0.531946
711.457275	0.533871
711.791286	0.525938
712.125247	0.524982
712.459159	0.535321
712.793023	0.527116
713.126837	0.531770
713.460602	0.531799
713.794318	0.540622
714.127985	0.540003
714.461602	0.550517
714.795171	0.553606
715.128691	0.562147
715.462162	0.569592
715.795584	0.575286
716.128957	0.577865
716.462281	0.584562
716.795556	0.587780
717.128782	0.593756
717.461960	0.602449
717.795088	0.601594
718.128167	0.608327
718.461198	0.615345
718.794180	0.616913
719.127113	0.619426
719.459997	0.622071
719.792833	0.628843
720.125619	0.630205
720.458357	0.636030
720.791046	0.636360
721.123686	0.639920
721.456278	0.646811
721.788821	0.643345
722.121315	0.648715
722.453761	0.652456
722.786158	0.649649
723.118506	0.646365
723.450805	0.654502
723.783056	0.650690
724.115259	0.648396
724.447412	0.647538
724.779518	0.648599
725.111574	0.647737
725.443582	0.643499
725.775542	0.645623
726.107453	0.637447
726.439315	0.637510
726.771129	0.636151
727.102895	0.630040
727.434612	0.623491
727.766281	0.621068
728.097901	0.619685
728.429473	0.619244
728.760996	0.618354
729.092471	0.618526
729.423897	0.622320
729.755276	0.621187
730.086606	0.621037
730.417887	0.615939
730.749120	0.606332
731.080305	0.598022
731.411442	0.593696
731.742530	0.597368
732.073570	0.597149
732.404562	0.590189
732.735506	0.591312
733.066401	0.595913
733.397249	0.605089
733.728048	0.616653
734.058798	0.629003
734.389501	0.639949
734.720156	0.649763
735.050762	0.657663
735.381320	0.658346
735.711831	0.666691
736.042293	0.673227
736.372707	0.669060
736.703073	0.672608
737.033391	0.674658
737.363661	0.672538
737.693883	0.667284
738.024056	0.665880
738.354182	0.667255
738.684260	0.656071
739.014290	0.653509
739.344272	0.653480
739.674207	0.645859
740.004093	0.645981
740.333931	0.646523
740.663722	0.646378
740.993464	0.647349
741.323159	0.651080
741.652806	0.656187
741.982405	0.660580
742.311956	0.666730
742.641460	0.667649
742.970915	0.670808
743.300323	0.678369
743.629683	0.684956
743.958996	0.688103
744.288260	0.691195
744.617477	0.697565
744.946647	0.698980
745.275768	0.705711
745.604842	0.705052
745.933869	0.714556
746.262847	0.715475
746.591778	0.708879
746.920662	0.715864
747.249498	0.722100
747.578286	0.712536
747.907027	0.709300
748.235720	0.709085
748.564365	0.705347
748.892963	0.703990
749.221514	0.707849
749.550017	0.711842
749.878473	0.713095
750.206881	0.719346
750.535242	0.719964
750.863555	0.718990
751.191821	0.720164
751.520039	0.723749
751.848210	0.727479
752.176334	0.721945
752.504411	0.721073
752.832440	0.728149
753.160421	0.732971
753.488356	0.730348
753.816243	0.727726
754.144082	0.736999
754.471875	0.740253
754.799620	0.736144
755.127318	0.737183
755.454969	0.737445
755.782572	0.737757
756.110129	0.740737
756.437638	0.744148
756.765100	0.741191
757.092515	0.738864
757.419882	0.737382
757.747203	0.743601
758.074477	0.743775
758.401703	0.739341
758.728882	0.735341
759.056014	0.733798
759.383099	0.732686
759.710138	0.733430
760.037129	0.730311
760.364073	0.724247
760.690970	0.726360
761.017820	0.731586
761.344623	0.728127
761.671379	0.719325
761.998088	0.707826
762.324751	0.684621
762.651366	0.641838
762.977935	0.575826
763.304456	0.524962
763.630931	0.516441
763.957359	0.554218
764.283740	0.597865
764.610074	0.625772
764.936362	0.657551
765.262602	0.683838
765.588796	0.704639
765.914943	0.721912
766.241044	0.739512
766.567097	0.746401
766.893104	0.756758
767.219064	0.761873
767.544978	0.769104
767.870845	0.782955
768.196665	0.786862
768.522438	0.784639
768.848165	0.785830
769.173846	0.795560
769.499479	0.799172
769.825066	0.803027
770.150607	0.807177
770.476101	0.803098
770.801548	0.806255
771.126949	0.817369
771.452303	0.820935
771.777611	0.819486
772.102872	0.818098
772.428087	0.823309
772.753256	0.827435
773.078378	0.828793
773.403453	0.836988
773.728482	0.842360
774.053465	0.834697
774.378401	0.838507
774.703291	0.847879
775.028135	0.847504
775.352932	0.847184
775.677683	0.851688
776.002388	0.852813
776.327046	0.852220
776.651658	0.856048
776.976224	0.858461
777.300743	0.857867
777.625216	0.861376
777.949643	0.862039
778.274024	0.861955
778.598359	0.864606
778.922647	0.861871
779.246889	0.863365
779.571086	0.866465
779.895236	0.869148
780.219339	0.867798
780.543397	0.862604
780.867409	0.863184
781.191374	0.864516
781.515294	0.866043
781.839167	0.864811
782.162995	0.868243
782.486776	0.864497
782.810511	0.865739
783.134201	0.870988
783.457844	0.868877
783.781441	0.869909
784.104993	0.875429
784.428498	0.875805
784.751958	0.872538
785.075372	0.874977
785.398739	0.878306
785.722061	0.873581
786.045337	0.869948
786.368568	0.874647
786.691752	0.876821
787.014891	0.863586
787.337983	0.854181
787.661030	0.847854
787.984031	0.830110
788.306987	0.818576
788.629897	0.817924
788.952760	0.823279
789.275579	0.827802
789.598351	0.843457
789.921078	0.856069
790.243759	0.857126
790.566395	0.862161
790.888984	0.869924
791.211529	0.875138
791.534027	0.877143
791.856480	0.880060
792.178888	0.884768
792.501249	0.887486
792.823566	0.888976
793.145836	0.888668
793.468062	0.889824
793.790241	0.891126
794.112375	0.888849
794.434464	0.885626
794.756507	0.884517
795.078505	0.881393
795.400457	0.877999
795.722364	0.866453
796.044226	0.859670
796.366042	0.858049
796.687812	0.860588
797.009538	0.857037
797.331218	0.862295
797.652852	0.866172
797.974442	0.870022
798.295986	0.871750
798.617484	0.871185
798.938938	0.876566
799.260346	0.882184
799.581709	0.882645
799.903026	0.886523
800.224299	0.885950
800.545526	0.889459
800.866708	0.893714
801.187845	0.897640
801.508936	0.897688
801.829983	0.896021
802.150984	0.899042
802.471940	0.903463
802.792851	0.903657
803.113717	0.905496
803.434538	0.902367
803.755314	0.905499
804.076045	0.906408
804.396731	0.905453
804.717372	0.904910
805.037967	0.908672
805.358518	0.905565
805.679024	0.901360
805.999485	0.903382
806.319901	0.901236
806.640272	0.904950
806.960598	0.902930
807.280879	0.899790
807.601115	0.898137
807.921306	0.902083
808.241453	0.902379
808.561554	0.901058
808.881611	0.900279
809.201623	0.902746
809.521590	0.901010
809.841513	0.904295
810.161390	0.902245
810.481223	0.903218
810.801011	0.907815
811.120755	0.910241
811.440453	0.907794
811.760107	0.907270
812.079716	0.907324
812.399281	0.909132
812.718801	0.912896
813.038276	0.913920
813.357707	0.913229
813.677093	0.911594
813.996434	0.913220
814.315731	0.915225
814.634983	0.915570
814.954191	0.915479
815.273354	0.910653
815.592473	0.907394
815.911547	0.908116
816.230577	0.905038
816.549562	0.903055
816.868502	0.901763
817.187399	0.900458
817.506250	0.894597
817.825058	0.896489
818.143821	0.892983
818.462539	0.887996
818.781213	0.880638
819.099843	0.869703
819.418429	0.852792
819.736970	0.836811
820.055466	0.816813
820.373919	0.791759
820.692327	0.760354
821.010691	0.725222
821.329011	0.646047
821.647286	0.530951
821.965517	0.417549
822.283704	0.374269
822.601847	0.376712
822.919945	0.413969
823.237999	0.449763
823.556010	0.496434
823.873976	0.551941
824.191897	0.602328
824.509775	0.645274
824.827609	0.689289
825.145398	0.711197
825.463144	0.713105
825.780845	0.696359
826.098502	0.678293
826.416116	0.632812
826.733685	0.588381
827.051210	0.581018
827.368692	0.596003
827.686129	0.633400
828.003522	0.686699
828.320872	0.732951
828.638177	0.776767
828.955439	0.808446
829.272656	0.829190
829.589830	0.846309
829.906960	0.862550
830.224046	0.874084
830.541088	0.884084
830.858086	0.889497
831.175041	0.896052
831.491952	0.893286
831.808819	0.890158
832.125642	0.883575
832.442421	0.871145
832.759157	0.849118
833.075849	0.802622
833.392497	0.738959
833.709101	0.698817
834.025662	0.710292
834.342179	0.741240
834.658653	0.780343
834.975083	0.814910
835.291469	0.841453
835.607811	0.862924
835.924110	0.879497
836.240366	0.895884
836.556578	0.907762
836.872746	0.915788
837.188871	0.921961
837.504952	0.928023
837.820990	0.929509
838.136984	0.933166
838.452935	0.937698
838.768842	0.938095
839.084706	0.931837
839.400526	0.906178
839.716303	0.865631
840.032037	0.844607
840.347727	0.847774
840.663373	0.866481
840.978977	0.887224
841.294537	0.910067
841.610054	0.925392
841.925527	0.933433
842.240957	0.939826
842.556344	0.947162
842.871687	0.952296
843.186987	0.956023
843.502244	0.957712
843.817458	0.958711
844.132629	0.963016
844.447756	0.965775
844.762840	0.967283
845.077881	0.967559
845.392879	0.964872
845.707833	0.968648
846.022745	0.970101
846.337613	0.970710
846.652438	0.971383
846.967221	0.971388
847.281960	0.972159
847.596656	0.972283
847.911309	0.972539
848.225919	0.972845
848.540485	0.975937
848.855009	0.975247
849.169490	0.975530
849.483928	0.973919
849.798323	0.973898
850.112675	0.976156
850.426984	0.974937
850.741251	0.976344
851.055474	0.975685
851.369654	0.975301
851.683792	0.973726
851.997887	0.975235
852.311938	0.975621
852.625947	0.974770
852.939914	0.973885
853.253837	0.975038
853.567718	0.977243
853.881555	0.975422
854.195350	0.975328
854.509103	0.974415
854.822812	0.976011
855.136479	0.977922
855.450103	0.975880
855.763685	0.974981
856.077224	0.975906
856.390720	0.977198
856.704173	0.975675
857.017584	0.975427
857.330953	0.974589
857.644278	0.973144
857.957561	0.974242
858.270802	0.975862
858.584000	0.974357
858.897155	0.973324
859.210268	0.974441
859.523339	0.975133
859.836367	0.976478
860.149352	0.976603
860.462295	0.975783
860.775195	0.976738
861.088054	0.975943
861.400869	0.976510
861.713642	0.976481
862.026373	0.977190
862.339062	0.977480
862.651708	0.975340
862.964312	0.975348
863.276873	0.976026
863.589392	0.974850
863.901869	0.972613
864.214303	0.971060
864.526696	0.970731
864.839045	0.969491
865.151353	0.969640
865.463619	0.967586
865.775842	0.969538
866.088023	0.970583
866.400162	0.968469
866.712258	0.969736
867.024313	0.969242
867.336325	0.972086
867.648296	0.970076
867.960224	0.968676
868.272110	0.968456
868.583954	0.972045
868.895755	0.971457
869.207515	0.968646
869.519233	0.967598
869.830909	0.967665
870.142542	0.969004
870.454134	0.968782
870.765684	0.966143
871.077191	0.966801
871.388657	0.964630
871.700081	0.965964
872.011463	0.966435
872.322803	0.964498
872.634101	0.963124
872.945357	0.960875
873.256571	0.958906
873.567744	0.960668
873.878874	0.961021
874.189963	0.960373
874.501010	0.960727
874.812015	0.957136
875.122979	0.959156
875.433900	0.960210
875.744780	0.962638
876.055618	0.957780
876.366415	0.956489
876.677169	0.957616
876.987882	0.957354
877.298554	0.958135
877.609183	0.955488
877.919771	0.953965
878.230317	0.950881
878.540822	0.948251
878.851285	0.942967
879.161707	0.936577
879.472087	0.924033
879.782425	0.908281
880.092722	0.874713
880.402977	0.822522
880.713191	0.760905
881.023363	0.700872
881.333494	0.667493
881.643583	0.640714
881.953631	0.640876
882.263637	0.670979
882.573602	0.710585
882.883526	0.735421
883.193408	0.760077
883.503248	0.782589
883.813048	0.809672
884.122806	0.838655
884.432522	0.860789
884.742197	0.880303
885.051831	0.891580
885.361424	0.901328
885.670975	0.913085
885.980485	0.922019
886.289954	0.927436
886.599382	0.932086
886.908768	0.937446
887.218113	0.942410
887.527417	0.946612
887.836680	0.949798
888.145901	0.950738
888.455082	0.955694
888.764221	0.958523
889.073319	0.959940
889.382376	0.961212
889.691392	0.958420
890.000366	0.960250
890.309300	0.960518
890.618193	0.960452
890.927044	0.958656
891.235855	0.958795
891.544625	0.958993
891.853353	0.958814
892.162041	0.956449
892.470687	0.950088
892.779293	0.945000
893.087858	0.941165
893.396381	0.932736
893.704864	0.920352
894.013306	0.897992
894.321707	0.871724
894.630068	0.856395
894.938387	0.851953
895.246665	0.854412
895.554903	0.866272
895.863100	0.880519
896.171256	0.896057
896.479371	0.916098
896.787446	0.927164
897.095480	0.933716
897.403473	0.936455
897.711425	0.940692
898.019336	0.948390
898.327207	0.952703
898.635038	0.951739
898.942827	0.953183
899.250576	0.955450
899.558284	0.959567
899.865952	0.960386
900.173579	0.962719
900.481165	0.963326
900.788711	0.965475
901.096216	0.967245
901.403681	0.970145
901.711105	0.969256
902.018489	0.969781
902.325832	0.969094
902.633135	0.968557
902.940397	0.963054
903.247619	0.950143
903.554800	0.925772
903.861941	0.886774
904.169041	0.850122
904.476101	0.833797
904.783121	0.835683
905.090100	0.852035
905.397039	0.873494
905.703938	0.895449
906.010796	0.914743
906.317614	0.930034
906.624391	0.942392
906.931129	0.952675
907.237826	0.959728
907.544483	0.965990
907.851099	0.969218
908.157675	0.972385
908.464211	0.976884
908.770707	0.976966
909.077163	0.980940
909.383578	0.981007
909.689954	0.981515
909.996289	0.982772
910.302584	0.984005
910.608839	0.986251
910.915054	0.985232
911.221229	0.985151
911.527363	0.983107
911.833458	0.984715
912.139513	0.983739
912.445527	0.982935
912.751502	0.981448
913.057436	0.979916
913.363331	0.977295
913.669186	0.973304
913.975000	0.969131
914.280775	0.961503
914.586510	0.956485
914.892205	0.941982
915.197859	0.921983
915.503475	0.895328
915.809050	0.874847
916.114585	0.869073
916.420081	0.866866
916.725536	0.866047
917.030952	0.873102
917.336328	0.886301
917.641665	0.899872
917.946961	0.916173
918.252218	0.926282
918.557435	0.934399
918.862612	0.943790
919.167750	0.948515
919.472848	0.954409
919.777906	0.960655
920.082925	0.964447
920.387904	0.967960
920.692843	0.968792
920.997743	0.971062
921.302603	0.974431
921.607423	0.975162
921.912204	0.977953
922.216946	0.979582
922.521647	0.980987
922.826310	0.980752
923.130932	0.982666
923.435516	0.985029
923.740059	0.985653
924.044564	0.985413
924.349028	0.985930
924.653454	0.988836
924.957840	0.988498
925.262186	0.989588
925.566493	0.990039
925.870761	0.990853
926.174989	0.991985
926.479178	0.993850
926.783328	0.993982
927.087438	0.992987
927.391509	0.992269
927.695541	0.994991
927.999533	0.995866
928.303486	0.996700
928.607400	0.995471
928.911275	0.995676
929.215110	0.997000
929.518906	0.996167
929.822663	0.997078
930.126381	0.997509
930.430060	0.996850
930.733699	0.997196
931.037299	0.996286
931.340861	0.996324
931.644383	0.993608
931.947866	0.994852
932.251309	0.996177
932.554714	0.995915
932.858080	0.996352
933.161407	0.995118
933.464694	0.995567
933.767943	0.997382
934.071153	0.996478
934.374323	0.997653
934.677455	0.996863
934.980548	0.996901
935.283602	0.997911
935.586617	0.995970
935.889593	0.996835
936.192530	0.996942
936.495428	0.995799
936.798287	0.996618
937.101108	0.996834
937.403890	0.995402
937.706632	0.995577
938.009336	0.993509
938.312002	0.991256
938.614628	0.989722
938.917216	0.987872
939.219765	0.987089
939.522275	0.988656
939.824747	0.988650
940.127179	0.988588
940.429573	0.990752
940.731929	0.989848
941.034246	0.990776
941.336524	0.990449
941.638763	0.991658
941.940964	0.991597
942.243126	0.991741
942.545250	0.992751
942.847335	0.992327
943.149381	0.993559
943.451389	0.992437
943.753359	0.994600
944.055290	0.996289
944.357182	0.996142
944.659036	0.995635
944.960851	0.996212
945.262628	0.996152
945.564367	0.995588
945.866067	0.994565
946.167729	0.995827
946.469352	0.996194
946.770937	0.993558
947.072484	0.996813
947.373992	0.996094
947.675462	0.995385
947.976893	0.995878
948.278286	0.998227
948.579641	0.998105
948.880958	0.996305
949.182236	0.997410
949.483476	0.997832
949.784678	0.997685
950.085841	0.995773
950.386967	0.996777
950.688054	0.996414
950.989103	0.995792
951.290114	0.995358
951.591087	0.995049
951.892021	0.995296
952.192917	0.994881
952.493776	0.995179
952.794596	0.994209
953.095378	0.992852
953.396122	0.993348
953.696828	0.994561
953.997496	0.994869
954.298126	0.996301
954.598718	0.994952
954.899272	0.995907
955.199788	0.996239
955.500266	0.997223
955.800706	0.998528
956.101108	0.998616
956.401472	1.000225
956.701798	0.997948
957.002087	0.999245
957.302337	0.998658
957.602550	1.000183
957.902724	0.999724
958.202861	1.000437
958.502960	1.000737
958.803022	1.002684
959.103045	1.000961
959.403031	1.001984
959.702979	1.001977
960.002889	1.000941
960.302762	1.000762
960.602596	1.001370
960.902393	1.000623
961.202153	1.001862
961.501875	1.000779
961.801559	1.001841
962.101205	1.000814
962.400814	1.001234
962.700385	1.002326
962.999918	1.002384
963.299414	1.001958
963.598873	1.001844
963.898293	1.001979
964.197677	1.001437
964.497022	1.002083
964.796331	1.002163
965.095601	1.003644
965.394835	1.000894
965.694030	1.004097
965.993189	1.001901
966.292309	1.003585
966.591393	1.000816
966.890439	1.003626
967.189447	1.001916
967.488419	1.001919
967.787353	1.002538
968.086249	1.002337
968.385108	1.001921
968.683930	1.003199
968.982714	1.002716
969.281462	1.001883
969.580172	1.002437
969.878844	1.003664
970.177480	1.002338
970.476078	1.003748
970.774639	1.002800
971.073162	1.002543
971.371649	1.002199
971.670098	1.001275
971.968510	1.002671
972.266885	1.000793
972.565223	1.000991
972.863524	1.001070
973.161788	1.002126
973.460014	1.002401
973.758204	1.001996
974.056356	1.001336
974.354471	1.002104
974.652550	1.003495
974.950591	1.001801
975.248595	1.001248
975.546563	1.003391
975.844493	1.003287
976.142386	1.001602
976.440243	1.001834
976.738062	1.002003
977.035845	1.001362
977.333590	1.002967
977.631299	1.002322
977.928971	1.001750
978.226606	1.002488
978.524204	1.001470
978.821765	1.004047
979.119290	1.004199
979.416777	1.003571
979.714228	1.001697
980.011642	1.002703
980.309020	1.002850
980.606360	1.001457
980.903664	1.001826
981.200931	1.001376
981.498162	1.001640
981.795356	1.001429
982.092513	0.999928
982.389633	0.999948
982.686717	0.997001
982.983764	0.997755
983.280775	0.996354
983.577749	0.998561
983.874686	0.996151
984.171587	0.997564
984.468451	0.998633
984.765279	1.000143
985.062070	1.000908
985.358824	1.000618
985.655543	1.002531
985.952224	1.002042
986.248869	1.001514
986.545478	1.004513
986.842050	1.001629
987.138586	1.002530
987.435086	1.002173
987.731549	1.004473
988.027975	1.003641
988.324366	1.002834
988.620719	1.004142
988.917037	1.003691
989.213318	1.004632
989.509563	1.004100
989.805772	1.004679
990.101944	1.004429
990.398080	1.003338
990.694180	1.004933
990.990244	1.003833
991.286271	1.003579
991.582262	1.003428
991.878217	1.003458
992.174136	1.004756
992.470019	1.003994
992.765865	1.005634
993.061676	1.004480
993.357450	1.004363
993.653188	1.004929
993.948890	1.003721
994.244556	1.002883
994.540186	1.003074
994.835780	1.002402
995.131337	1.004189
995.426859	1.002656
995.722345	1.001724
996.017795	1.001354
996.313208	1.002033
996.608586	1.002334
996.903928	1.001580
997.199234	1.002001
997.494504	1.003002
997.789738	1.000952
998.084936	1.002787
998.380099	1.002161
998.675225	1.003910
998.970316	1.003145
999.265371	1.003534
999.560390	1.001821
999.855373	1.003185
1000.150320	1.003437
1000.445232	1.004292
1000.740108	1.003229
1001.034948	1.003902
1001.329752	1.004104
1001.624521	1.003838
1001.919254	1.003687
1002.213951	1.003775
1002.508613	1.004377
1002.803239	1.003689
1003.097829	1.005105
1003.392384	1.002954
1003.686903	1.003264
1003.981386	1.004243
1004.275834	1.004838
1004.570246	1.004227
1004.864623	1.005484
1005.158964	1.003837
1005.453270	1.003624
1005.747540	1.004517
1006.041775	1.004579
1006.335974	1.004419
1006.630138	1.005021
1006.924266	1.002829
1007.218359	1.002790
1007.512416	1.005897
1007.806438	1.003461
1008.100425	1.004997
1008.394376	1.004160
1008.688292	1.004697
1008.982172	1.003387
1009.276017	1.004279
1009.569827	1.006093
1009.863602	1.003079
1010.157341	1.004918
1010.451045	1.004611
1010.744714	1.005653
1011.038347	1.005811
1011.331945	1.002707
1011.625508	1.003256
1011.919036	1.002421
1012.212528	1.004436
1012.505986	1.003422
1012.799408	1.005098
1013.092795	1.004912
1013.386147	1.004617
1013.679464	1.004816
1013.972745	1.004498
1014.265992	1.004321
1014.559204	1.003017
1014.852380	1.004688
1015.145521	1.005359
1015.438628	1.004271
1015.731699	1.004043
1016.024736	1.005609
1016.317737	1.003462
1016.610703	1.005390
1016.903635	1.004131
1017.196531	1.003842
1017.489393	1.004813
1017.782219	1.004455
1018.075011	1.004959
1018.367768	1.004189
1018.660490	1.006190
1018.953177	1.006190
1019.245829	1.006190
