Dividing Wavelength (nm)	Counts (n)	Blue Motor Position (mm): 41.500000	Red Motor Position (mm): 0.000000	
326.493990	0.999133
326.888308	0.999133
327.282561	0.999133
327.676750	0.999538
328.070874	1.001483
328.464933	1.000659
328.858929	1.001943
329.252859	0.999386
329.646726	0.999162
330.040528	0.999492
330.434265	1.000418
330.827938	0.999142
331.221547	1.000833
331.615091	1.000728
332.008571	0.999878
332.401986	0.999466
332.795338	1.000363
333.188625	1.001435
333.581847	1.000487
333.975006	1.000697
334.368100	1.000555
334.761129	1.000022
335.154095	1.000442
335.546996	1.000209
335.939833	1.000081
336.332606	1.000228
336.725315	0.999323
337.117960	1.000545
337.510540	0.998199
337.903056	0.998534
338.295508	1.001124
338.687896	0.999951
339.080220	1.001001
339.472480	1.000103
339.864676	1.001063
340.256807	0.998194
340.648875	1.000510
341.040879	1.000558
341.432818	1.001210
341.824694	0.999512
342.216506	1.000848
342.608253	0.999721
342.999937	0.999173
343.391557	0.999838
343.783113	1.002048
344.174605	1.001581
344.566033	0.999167
344.957397	1.000509
345.348697	1.000618
345.739934	0.999468
346.131106	1.000931
346.522215	0.998424
346.913260	0.999175
347.304241	0.999256
347.695159	1.000082
348.086012	0.999643
348.476802	0.999898
348.867528	0.998772
349.258191	1.000015
349.648789	1.000366
350.039324	0.998948
350.429796	1.000626
350.820203	0.998690
351.210548	0.999920
351.600828	0.999671
351.991045	0.998988
352.381198	1.000361
352.771288	1.000338
353.161314	0.999748
353.551276	0.999089
353.941175	0.998115
354.331010	0.999363
354.720782	0.999319
355.110490	0.999675
355.500135	1.000851
355.889717	0.998750
356.279235	0.998998
356.668689	0.999337
357.058080	0.999580
357.447408	0.998043
357.836672	0.997855
358.225873	0.999421
358.615010	0.998563
359.004084	0.997725
359.393095	1.000204
359.782043	0.998670
360.170927	1.000302
360.559748	0.999104
360.948505	0.997744
361.337199	0.998222
361.725830	0.999871
362.114398	0.998281
362.502903	0.997863
362.891344	0.997281
363.279722	0.997732
363.668037	0.999099
364.056289	0.997639
364.444478	0.999597
364.832603	0.999017
365.220665	0.998019
365.608665	0.999299
365.996601	0.998355
366.384474	0.997484
366.772284	0.998919
367.160031	0.997901
367.547715	0.996763
367.935336	0.997550
368.322893	0.995825
368.710388	0.994312
369.097820	0.993880
369.485189	0.990945
369.872495	0.990039
370.259738	0.987141
370.646918	0.983864
371.034035	0.981890
371.421090	0.978338
371.808081	0.973073
372.195010	0.971344
372.581875	0.966865
372.968678	0.961612
373.355418	0.958344
373.742096	0.950679
374.128710	0.947148
374.515262	0.941767
374.901751	0.936362
375.288177	0.931534
375.674540	0.924490
376.060841	0.918060
376.447079	0.912020
376.833254	0.906136
377.219367	0.900600
377.605417	0.889483
377.991404	0.885904
378.377329	0.880389
378.763191	0.873541
379.148991	0.864641
379.534727	0.857383
379.920402	0.849712
380.306013	0.845611
380.691563	0.832058
381.077049	0.826643
381.462474	0.823043
381.847835	0.811245
382.233134	0.807059
382.618371	0.807028
383.003545	0.790231
383.388657	0.789643
383.773706	0.782280
384.158693	0.779681
384.543618	0.775947
384.928480	0.769216
385.313280	0.760641
385.698017	0.762416
386.082692	0.754326
386.467305	0.755071
386.851856	0.754427
387.236344	0.752131
387.620770	0.751268
388.005133	0.749994
388.389435	0.748874
388.773674	0.750188
389.157851	0.748461
389.541965	0.750799
389.926018	0.761419
390.310008	0.755939
390.693936	0.758730
391.077802	0.758726
391.461606	0.765728
391.845348	0.765485
392.229027	0.771145
392.612645	0.775504
392.996200	0.774534
393.379694	0.777613
393.763125	0.779707
394.146494	0.790113
394.529801	0.792118
394.913047	0.796047
395.296230	0.807381
395.679351	0.810148
396.062410	0.818266
396.445408	0.827443
396.828343	0.834023
397.211217	0.840154
397.594028	0.852237
397.976778	0.858667
398.359466	0.864395
398.742092	0.871114
399.124656	0.880400
399.507158	0.884904
399.889598	0.892191
400.271977	0.897847
400.654294	0.904884
401.036549	0.911966
401.418742	0.918868
401.800874	0.922571
402.182944	0.927220
402.564952	0.931457
402.946898	0.938064
403.328783	0.943682
403.710606	0.949857
404.092367	0.951093
404.474067	0.957095
404.855705	0.961211
405.237282	0.964336
405.618797	0.967169
406.000250	0.969057
406.381642	0.973022
406.762972	0.976054
407.144240	0.979070
407.525447	0.979321
407.906593	0.982871
408.287677	0.984742
408.668700	0.987074
409.049661	0.988505
409.430560	0.988699
409.811399	0.991044
410.192176	0.991162
410.572891	0.993531
410.953545	0.992863
411.334138	0.995168
411.714669	0.995064
412.095139	0.996522
412.475547	0.996261
412.855894	0.996493
413.236180	0.996915
413.616405	0.997227
413.996568	0.997323
414.376670	0.997731
414.756711	0.997836
415.136691	0.998438
415.516609	0.997473
415.896466	0.998147
416.276262	0.997850
416.655997	0.998552
417.035670	0.999114
417.415283	0.998602
417.794834	0.998611
418.174324	0.999555
418.553753	0.999017
418.933121	0.998671
419.312428	0.999137
419.691674	0.999360
420.070859	0.998863
420.449983	1.000423
420.829045	0.998771
421.208047	0.999388
421.586988	0.998735
421.965867	0.997823
422.344686	0.999237
422.723444	0.998814
423.102141	0.998623
423.480777	0.998092
423.859352	0.999042
424.237866	0.999556
424.616319	0.999333
424.994712	1.000001
425.373044	0.998988
425.751314	0.999309
426.129524	1.000497
426.507673	0.998738
426.885762	0.999337
427.263789	0.999514
427.641756	0.998697
428.019662	0.999147
428.397508	0.999891
428.775292	0.999143
429.153016	0.998452
429.530679	0.999385
429.908282	0.999866
430.285824	0.999083
430.663305	0.999212
431.040726	0.999506
431.418086	1.000055
431.795385	0.999697
432.172624	0.999837
432.549802	0.999370
432.926920	0.999102
433.303977	0.999948
433.680974	1.000078
434.057910	0.999460
434.434786	0.999247
434.811601	0.999815
435.188355	0.999762
435.565050	1.000080
435.941683	0.998910
436.318257	0.998569
436.694770	0.999547
437.071222	1.000111
437.447614	0.999355
437.823946	0.999418
438.200218	0.999469
438.576429	0.999191
438.952580	1.000217
439.328670	0.998966
439.704700	0.999233
440.080670	0.999904
440.456580	1.000009
440.832429	0.999313
441.208218	0.999872
441.583947	1.000168
441.959616	0.998579
442.335224	1.000457
442.710773	0.999925
443.086261	1.000000
443.461689	0.999106
443.837057	0.998763
444.212365	0.999677
444.587612	1.000456
444.962800	0.999240
445.337927	0.999181
445.712995	0.999624
446.088002	0.999127
446.462949	0.999643
446.837837	1.001388
447.212664	0.999414
447.587431	1.000081
447.962139	0.999841
448.336786	0.998804
448.711374	0.999432
449.085901	0.999864
449.460369	0.999477
449.834776	0.999213
450.209124	0.999605
450.583412	1.000098
450.957640	0.998673
451.331808	1.000228
451.705917	0.999067
452.079965	0.999298
452.453954	0.999655
452.827883	0.999973
453.201752	0.999649
453.575562	0.999946
453.949311	0.999703
454.323001	0.999449
454.696632	0.999501
455.070202	0.998932
455.443713	0.999237
455.817164	0.999974
456.190556	0.999314
456.563888	1.000030
456.937160	0.999649
457.310373	0.999723
457.683526	0.999094
458.056619	0.999036
458.429653	0.999414
458.802628	0.999559
459.175542	0.999863
459.548398	0.999736
459.921194	0.999394
460.293930	1.000160
460.666607	0.999946
461.039224	0.999874
461.411782	0.999576
461.784280	0.999643
462.156719	1.000211
462.529099	0.999799
462.901419	0.999760
463.273680	0.998251
463.645882	0.999130
464.018024	0.999879
464.390106	0.998599
464.762130	0.999408
465.134094	1.000043
465.505999	1.000465
465.877845	0.999895
466.249631	0.999379
466.621358	0.998599
466.993026	0.999063
467.364634	0.999175
467.736184	0.999071
468.107674	0.999139
468.479105	0.999333
468.850477	0.999714
469.221790	0.999539
469.593043	0.999058
469.964238	0.999090
470.335373	0.998658
470.706449	0.999270
471.077467	0.998998
471.448425	0.999610
471.819324	0.999453
472.190164	0.999143
472.560945	0.998956
472.931667	0.998813
473.302330	0.999087
473.672934	0.998959
474.043479	0.998653
474.413965	0.998673
474.784393	0.999209
475.154761	0.998770
475.525070	0.998758
475.895321	0.999386
476.265513	0.999556
476.635645	0.999806
477.005719	0.999339
477.375734	0.999438
477.745691	0.998982
478.115588	0.999188
478.485427	0.999862
478.855207	0.999735
479.224928	0.999550
479.594591	0.999802
479.964194	0.999246
480.333739	0.999050
480.703226	0.998558
481.072653	0.999235
481.442022	0.999407
481.811333	0.999571
482.180584	0.998693
482.549777	0.999204
482.918912	0.999650
483.287988	0.999531
483.657005	0.998834
484.025964	0.999048
484.394864	0.998817
484.763706	0.999271
485.132489	0.999564
485.501213	0.999834
485.869879	0.999595
486.238487	0.998668
486.607036	0.999894
486.975527	0.999810
487.343959	0.998221
487.712333	0.999174
488.080648	0.998564
488.448905	0.999591
488.817104	0.999051
489.185244	0.999555
489.553326	0.999244
489.921350	0.999309
490.289315	0.999300
490.657222	0.998835
491.025070	0.999678
491.392861	0.999143
491.760593	0.999212
492.128267	0.999267
492.495883	0.998150
492.863440	0.999402
493.230939	0.999262
493.598380	0.999437
493.965763	0.999497
494.333088	0.998600
494.700354	0.998621
495.067563	0.999299
495.434713	0.999471
495.801805	0.999605
496.168839	0.999148
496.535815	0.999201
496.902733	0.999857
497.269593	0.999091
497.636395	0.999081
498.003139	0.998612
498.369825	1.000027
498.736453	0.998696
499.103023	0.999524
499.469535	0.999295
499.835989	0.999688
500.202385	0.999246
500.568723	0.999309
500.935003	0.999677
501.301226	0.999535
501.667390	0.999018
502.033497	0.999939
502.399546	0.998581
502.765537	0.999487
503.131470	0.999453
503.497345	0.999268
503.863163	0.999376
504.228923	0.999244
504.594625	0.998953
504.960269	0.998938
505.325856	0.999761
505.691385	0.998999
506.056856	0.998998
506.422270	0.999675
506.787625	0.999352
507.152924	0.999572
507.518164	0.998919
507.883347	0.999059
508.248472	0.998740
508.613540	0.999601
508.978550	0.999201
509.343503	0.999638
509.708398	1.000050
510.073236	0.999553
510.438016	0.999304
510.802738	0.999335
511.167403	0.998651
511.532010	0.999794
511.896561	0.999896
512.261053	0.998979
512.625488	0.999608
512.989866	0.999405
513.354186	0.999120
513.718449	0.999196
514.082655	0.999489
514.446803	0.999556
514.810894	0.999526
515.174927	0.999401
515.538904	0.999455
515.902822	0.998732
516.266684	0.999844
516.630488	0.999102
516.994235	0.999846
517.357925	1.000098
517.721558	0.999485
518.085133	0.999481
518.448651	0.999466
518.812112	0.999683
519.175516	0.999939
519.538863	0.999272
519.902152	0.999633
520.265385	0.999477
520.628560	0.999061
520.991678	0.999631
521.354739	1.000165
521.717743	0.999238
522.080690	0.999155
522.443580	0.999675
522.806413	0.998205
523.169189	1.000259
523.531908	0.998334
523.894569	0.999606
524.257174	0.999225
524.619722	0.999382
524.982213	0.999115
525.344647	0.999774
525.707025	0.998638
526.069345	0.999179
526.431608	0.999496
526.793815	0.999722
527.155964	0.999871
527.518057	0.999946
527.880093	0.998923
528.242072	0.999038
528.603995	0.998342
528.965860	0.999769
529.327669	0.999847
529.689421	0.999050
530.051117	0.999104
530.412755	0.999982
530.774337	0.999220
531.135862	0.999903
531.497331	0.999091
531.858743	0.999792
532.220098	0.999272
532.581396	0.999939
532.942638	0.999605
533.303824	1.000611
533.664953	0.999211
534.026025	0.999767
534.387040	0.999891
534.747999	0.998890
535.108902	0.999235
535.469748	0.999771
535.830537	0.999543
536.191270	0.999411
536.551947	0.999337
536.912567	0.999420
537.273131	1.000390
537.633638	0.998912
537.994089	0.999844
538.354483	0.999443
538.714821	0.999875
539.075103	0.999335
539.435328	0.999628
539.795497	0.999945
540.155609	0.999593
540.515665	1.000112
540.875665	0.999363
541.235609	0.999745
541.595496	0.999275
541.955328	0.999671
542.315102	0.999671
542.674821	1.000048
543.034483	1.000509
543.394090	0.998948
543.753640	0.999221
544.113134	0.999157
544.472571	0.999971
544.831953	1.000114
545.191278	0.999800
545.550548	0.998865
545.909761	0.998898
546.268918	1.000162
546.628019	1.000275
546.987064	0.998946
547.346053	0.999061
547.704986	0.999832
548.063863	0.998733
548.422684	0.999608
548.781449	0.999231
549.140158	0.999039
549.498811	0.998724
549.857408	0.998674
550.215949	0.998725
550.574434	0.999009
550.932864	0.999419
551.291237	0.999221
551.649555	0.999731
552.007817	0.999390
552.366022	0.999657
552.724173	0.999536
553.082267	0.999617
553.440305	0.999024
553.798288	0.998648
554.156215	0.999406
554.514086	0.999707
554.871902	0.999567
555.229661	0.998569
555.587365	1.000000
555.945014	0.999998
556.302606	0.998756
556.660143	0.999909
557.017625	0.999501
557.375050	0.999191
557.732421	0.999513
558.089735	0.998895
558.446994	0.998910
558.804197	0.999395
559.161345	0.999242
559.518437	0.998922
559.875474	0.999325
560.232455	0.999887
560.589381	0.999551
560.946251	0.999429
561.303065	0.998956
561.659825	0.999121
562.016528	0.999887
562.373177	0.998925
562.729770	0.998970
563.086307	0.998626
563.442789	0.998913
563.799216	0.998862
564.155587	0.999033
564.511904	1.000113
564.868164	0.998511
565.224370	0.998599
565.580520	0.999347
565.936615	0.999101
566.292654	0.999340
566.648638	1.000088
567.004567	0.998898
567.360441	0.999912
567.716260	0.998667
568.072023	0.998858
568.427732	0.999361
568.783385	0.999312
569.138982	0.999173
569.494525	0.998880
569.850013	0.999788
570.205445	0.999446
570.560823	0.999458
570.916145	0.998681
571.271412	0.999812
571.626625	0.999412
571.981782	0.999408
572.336884	0.999452
572.691931	0.998953
573.046923	0.999998
573.401860	0.999003
573.756743	0.999093
574.111570	0.999167
574.466342	1.000131
574.821059	0.998868
575.175722	0.999805
575.530330	0.999246
575.884882	0.999634
576.239380	1.000114
576.593823	0.999230
576.948211	0.999264
577.302544	0.999195
577.656823	0.998929
578.011047	0.998900
578.365216	1.000276
578.719330	0.998958
579.073389	0.998257
579.427394	0.999223
579.781344	0.999177
580.135239	0.998365
580.489080	0.999011
580.842866	0.999080
581.196597	0.998739
581.550273	0.998976
581.903895	0.999534
582.257463	0.998927
582.610975	0.998985
582.964434	0.999735
583.317837	0.999600
583.671186	0.999466
584.024481	0.999235
584.377721	0.998816
584.730906	1.000023
585.084037	0.999835
585.437113	0.999966
585.790135	0.998749
586.143103	0.999048
586.496016	0.999293
586.848874	0.999109
587.201679	0.999152
587.554428	0.998859
587.907124	0.999684
588.259765	0.999618
588.612352	0.999259
588.964884	0.999850
589.317362	0.998966
589.669786	0.999103
590.022155	0.998173
590.374470	0.998511
590.726731	0.998755
591.078937	0.998438
591.431090	0.998508
591.783188	0.998681
592.135232	0.999837
592.487222	0.999098
592.839157	0.999168
593.191038	0.999714
593.542866	0.999783
593.894639	0.998838
594.246358	0.998443
594.598022	0.999403
594.949633	0.998975
595.301190	0.999420
595.652692	0.998896
596.004141	0.998797
596.355535	0.999099
596.706876	0.999042
597.058162	0.999321
597.409395	0.999463
597.760573	0.999287
598.111698	0.998930
598.462768	0.997588
598.813785	0.998398
599.164748	0.998683
599.515657	0.998647
599.866511	0.998171
600.217312	0.999821
600.568060	0.998975
600.918753	0.999155
601.269392	0.998487
601.619978	0.999127
601.970510	0.998955
602.320988	0.998929
602.671412	0.998700
603.021783	0.999220
603.372100	0.999628
603.722363	0.999258
604.072572	0.998455
604.422728	0.998288
604.772830	0.998127
605.122878	0.998955
605.472872	0.999418
605.822813	0.998721
606.172701	0.999553
606.522534	0.998510
606.872314	0.999338
607.222041	0.998882
607.571714	0.999067
607.921333	0.999013
608.270899	0.998474
608.620411	0.999274
608.969870	0.999370
609.319276	0.998516
609.668627	0.999544
610.017926	0.998461
610.367171	0.998799
610.716362	0.998609
611.065500	0.998445
611.414585	0.998654
611.763616	0.998374
612.112594	0.998710
612.461518	0.998960
612.810389	0.998557
613.159207	0.998231
613.507971	0.998216
613.856682	0.999114
614.205340	0.998059
614.553945	0.998559
614.902496	0.998212
615.250994	0.999622
615.599439	0.999169
615.947830	0.999114
616.296169	0.998559
616.644454	0.999231
616.992686	0.999058
617.340864	0.999480
617.688990	0.999029
618.037063	0.999096
618.385082	0.998007
618.733048	0.997863
619.080961	0.998609
619.428821	0.999515
619.776628	0.997517
620.124382	0.999055
620.472083	0.999244
620.819731	0.999516
621.167326	0.998915
621.514868	0.998712
621.862357	0.998791
622.209793	0.999062
622.557176	0.998516
622.904506	0.998038
623.251783	0.998807
623.599007	0.999104
623.946179	0.998246
624.293297	0.999193
624.640363	0.999340
624.987376	0.997622
625.334336	0.998802
625.681243	0.997952
626.028097	0.998646
626.374899	0.998410
626.721647	0.999464
627.068343	0.997746
627.414987	0.999066
627.761577	0.998420
628.108115	0.998321
628.454600	0.999512
628.801032	0.998812
629.147412	0.998080
629.493739	0.999125
629.840014	0.999011
630.186236	0.997829
630.532405	0.998337
630.878521	0.998317
631.224585	0.998340
631.570597	0.997995
631.916556	0.998460
632.262462	0.997446
632.608316	0.998955
632.954117	0.998122
633.299866	0.998392
633.645562	0.998624
633.991206	0.999711
634.336797	0.998641
634.682336	0.998986
635.027823	0.998921
635.373257	0.998076
635.718639	0.998450
636.063968	0.998146
636.409245	0.998144
636.754470	0.999165
637.099642	0.998660
637.444762	0.999125
637.789829	0.998863
638.134845	0.997690
638.479808	0.998767
638.824719	0.997743
639.169577	0.997656
639.514383	0.998345
639.859137	0.998790
640.203839	0.998449
640.548489	0.998592
640.893086	0.997179
641.237632	0.998638
641.582125	0.998118
641.926566	0.998401
642.270955	0.998777
642.615292	0.998110
642.959576	0.998871
643.303809	0.999106
643.647990	0.998563
643.992118	0.998887
644.336195	0.997609
644.680219	0.999014
645.024192	0.998813
645.368112	0.998208
645.711981	0.998015
646.055797	0.998268
646.399562	0.997511
646.743274	0.998436
647.086935	0.997699
647.430544	0.998453
647.774101	0.998357
648.117606	0.998706
648.461059	0.998827
648.804460	0.998248
649.147810	0.998309
649.491108	0.998100
649.834354	0.997845
650.177548	0.998683
650.520690	0.998052
650.863781	0.997702
651.206820	0.998645
651.549807	0.998867
651.892742	0.998606
652.235626	0.998262
652.578458	0.999467
652.921238	0.999570
653.263967	0.998924
653.606644	0.997938
653.949269	0.999025
654.291843	0.997607
654.634365	0.998537
654.976836	0.997760
655.319255	0.999440
655.661622	0.999191
656.003938	0.997688
656.346203	0.998162
656.688416	0.998806
657.030577	0.998514
657.372687	0.998805
657.714746	0.998467
658.056753	0.998814
658.398708	0.998000
658.740612	0.998883
659.082465	0.998734
659.424266	0.998796
659.766016	0.997519
660.107715	0.998544
660.449362	0.997740
660.790958	0.997752
661.132503	0.998585
661.473996	0.998169
661.815438	0.999467
662.156829	0.998464
662.498168	0.998611
662.839456	0.997972
663.180693	0.998525
663.521879	0.998321
663.863013	0.998604
664.204097	0.998312
664.545129	0.997908
664.886110	0.997947
665.227040	0.998717
665.567918	0.998071
665.908746	0.997762
666.249522	0.997720
666.590248	0.998726
666.930922	0.997358
667.271545	0.998753
667.612118	0.998514
667.952639	0.998359
668.293109	0.998011
668.633528	0.997397
668.973896	0.998474
669.314213	0.997805
669.654480	0.998465
669.994695	0.996866
670.334859	0.997052
670.674973	0.997821
671.015035	0.998172
671.355047	0.998155
671.695008	0.997329
672.034918	0.997977
672.374777	0.998362
672.714585	0.998725
673.054342	0.998374
673.394049	0.997988
673.733705	0.997783
674.073310	0.998110
674.412864	0.998291
674.752368	0.997582
675.091820	0.999036
675.431223	0.998716
675.770574	0.997464
676.109875	0.998075
676.449125	0.998693
676.788324	0.997393
677.127473	0.998765
677.466571	0.998395
677.805619	0.998081
678.144616	0.998533
678.483562	0.998833
678.822458	0.998341
679.161303	0.998715
679.500098	0.999208
679.838842	0.998617
680.177535	0.998513
680.516179	0.998025
680.854771	0.997697
681.193314	0.997794
681.531805	0.997975
681.870247	0.998375
682.208638	0.998188
682.546978	0.997126
682.885268	0.997318
683.223508	0.998072
683.561697	0.997890
683.899836	0.997830
684.237925	0.998363
684.575963	0.997873
684.913951	0.997668
685.251889	0.997265
685.589776	0.998080
685.927614	0.997303
686.265401	0.997518
686.603137	0.997681
686.940824	0.998311
687.278460	0.998449
687.616046	0.998325
687.953582	0.998504
688.291068	0.999261
688.628504	0.998203
688.965889	0.997803
689.303224	0.997330
689.640510	0.997869
689.977745	0.997432
690.314930	0.997248
690.652065	0.997407
690.989150	0.997007
691.326185	0.998081
691.663170	0.997890
692.000105	0.997686
692.336990	0.998540
692.673825	0.997856
693.010610	0.997365
693.347345	0.997018
693.684030	0.998401
694.020665	0.997831
694.357251	0.998206
694.693786	0.998176
695.030272	0.996336
695.366707	0.997880
695.703093	0.998298
696.039429	0.997308
696.375716	0.998395
696.711952	0.998377
697.048139	0.997884
697.384276	0.998069
697.720363	0.997609
698.056400	0.997219
698.392388	0.997566
698.728326	0.997778
699.064214	0.998771
699.400053	0.997505
699.735842	0.999186
700.071581	0.998366
700.407270	0.997335
700.742910	0.998866
701.078501	0.997782
701.414042	0.998803
701.749533	0.996574
702.084974	0.998245
702.420366	0.998504
702.755709	0.997623
703.091002	0.999147
703.426246	0.998794
703.761440	0.998346
704.096584	0.998050
704.431679	0.998100
704.766725	0.997803
705.101721	0.998827
705.436668	0.998225
705.771565	0.997757
706.106413	0.997612
706.441212	0.998490
706.775961	0.997695
707.110661	0.997418
707.445311	0.999365
707.779913	0.999161
708.114465	0.999779
708.448967	0.999245
708.783421	0.999106
709.117825	0.998696
709.452180	0.998188
709.786485	0.998065
710.120742	0.998075
710.454949	0.998212
710.789107	0.999062
711.123216	0.997306
711.457275	0.997643
711.791286	0.998266
712.125247	1.000017
712.459159	0.997563
712.793023	0.998072
713.126837	0.998108
713.460602	0.997624
713.794318	0.997616
714.127985	0.997617
714.461602	0.998223
714.795171	0.997320
715.128691	0.997599
715.462162	0.997957
715.795584	0.997173
716.128957	0.998031
716.462281	0.998335
716.795556	0.997652
717.128782	0.997632
717.461960	0.998012
717.795088	0.997784
718.128167	0.999426
718.461198	0.997625
718.794180	0.998302
719.127113	0.998113
719.459997	0.998203
719.792833	0.997321
720.125619	0.997132
720.458357	0.998602
720.791046	0.998655
721.123686	0.997959
721.456278	0.999210
721.788821	0.997905
722.121315	0.999368
722.453761	0.998581
722.786158	0.997482
723.118506	0.997529
723.450805	0.998312
723.783056	0.999555
724.115259	0.997465
724.447412	0.998619
724.779518	0.998115
725.111574	0.997554
725.443582	0.998437
725.775542	0.999115
726.107453	0.998262
726.439315	0.998113
726.771129	0.998373
727.102895	0.998244
727.434612	0.997873
727.766281	0.998239
728.097901	0.998396
728.429473	0.998596
728.760996	0.998571
729.092471	0.998462
729.423897	0.998165
729.755276	0.998099
730.086606	0.997837
730.417887	0.998558
730.749120	0.998272
731.080305	0.997817
731.411442	0.997299
731.742530	0.997931
732.073570	0.997552
732.404562	0.998062
732.735506	0.997932
733.066401	0.997880
733.397249	0.998021
733.728048	0.998154
734.058798	0.998924
734.389501	0.998981
734.720156	0.998706
735.050762	0.999147
735.381320	0.998262
735.711831	0.998397
736.042293	0.997760
736.372707	0.998643
736.703073	0.997071
737.033391	0.998547
737.363661	0.997900
737.693883	0.999072
738.024056	0.998560
738.354182	0.999084
738.684260	0.998372
739.014290	0.999102
739.344272	0.998174
739.674207	0.998774
740.004093	0.999506
740.333931	0.997540
740.663722	0.998386
740.993464	0.998458
741.323159	0.997799
741.652806	0.999605
741.982405	0.997924
742.311956	0.998783
742.641460	0.998607
742.970915	0.997840
743.300323	0.997369
743.629683	0.997897
743.958996	0.999541
744.288260	0.998116
744.617477	0.998380
744.946647	0.998355
745.275768	0.998582
745.604842	0.998064
745.933869	0.998682
746.262847	0.998798
746.591778	0.997736
746.920662	0.998790
747.249498	0.999171
747.578286	0.998383
747.907027	0.998013
748.235720	0.999537
748.564365	0.998789
748.892963	0.997641
749.221514	0.998415
749.550017	0.998677
749.878473	0.999349
750.206881	1.000212
750.535242	0.998754
750.863555	0.998637
751.191821	0.999334
751.520039	0.997842
751.848210	0.997024
752.176334	0.998395
752.504411	0.997576
752.832440	0.998194
753.160421	0.998220
753.488356	0.998669
753.816243	0.997459
754.144082	0.997901
754.471875	0.998789
754.799620	0.998697
755.127318	0.998515
755.454969	0.999148
755.782572	0.999802
756.110129	0.998304
756.437638	0.999332
756.765100	0.998576
757.092515	0.998873
757.419882	0.998408
757.747203	0.998165
758.074477	0.999756
758.401703	0.998653
758.728882	0.999484
759.056014	0.998932
759.383099	0.999203
759.710138	0.998708
760.037129	0.998206
760.364073	0.998849
760.690970	0.998684
761.017820	0.997917
761.344623	0.998708
761.671379	0.999922
761.998088	0.999353
762.324751	0.998387
762.651366	0.998932
762.977935	0.998300
763.304456	0.998907
763.630931	0.997668
763.957359	0.996050
764.283740	0.997194
764.610074	0.998105
764.936362	0.996674
765.262602	0.998825
765.588796	0.998625
765.914943	0.997807
766.241044	0.997950
766.567097	0.998937
766.893104	0.998277
767.219064	0.997715
767.544978	0.998292
767.870845	0.998290
768.196665	0.997880
768.522438	0.998632
768.848165	0.998895
769.173846	0.999030
769.499479	0.999120
769.825066	0.999286
770.150607	0.999555
770.476101	0.998601
770.801548	0.998931
771.126949	1.000518
771.452303	0.999188
771.777611	0.998888
772.102872	0.999249
772.428087	0.998937
772.753256	1.000089
773.078378	0.999403
773.403453	0.998425
773.728482	1.000032
774.053465	0.998775
774.378401	0.999717
774.703291	0.999572
775.028135	0.999542
775.352932	0.997796
775.677683	0.999940
776.002388	0.999037
776.327046	0.998654
776.651658	0.999736
776.976224	0.999455
777.300743	0.999714
777.625216	0.999030
777.949643	0.998892
778.274024	0.999783
778.598359	1.000020
778.922647	0.998438
779.246889	0.999425
779.571086	0.999636
779.895236	0.998113
780.219339	0.998610
780.543397	0.998662
780.867409	0.999851
781.191374	0.999291
781.515294	1.000056
781.839167	0.999260
782.162995	0.998966
782.486776	0.998653
782.810511	0.999607
783.134201	0.999921
783.457844	0.999898
783.781441	0.999000
784.104993	0.998429
784.428498	0.999290
784.751958	0.999175
785.075372	0.999004
785.398739	0.999219
785.722061	0.998837
786.045337	0.998627
786.368568	0.999203
786.691752	0.998591
787.014891	0.998280
787.337983	0.997695
787.661030	0.998331
787.984031	1.000087
788.306987	0.999939
788.629897	0.997922
788.952760	0.998581
789.275579	0.998804
789.598351	0.999672
789.921078	0.999201
790.243759	0.998705
790.566395	0.998362
790.888984	1.000053
791.211529	0.999436
791.534027	0.998616
791.856480	0.999267
792.178888	0.998811
792.501249	0.998008
792.823566	1.000585
793.145836	0.998364
793.468062	0.999012
793.790241	1.000240
794.112375	0.997674
794.434464	0.999178
794.756507	0.999569
795.078505	0.999487
795.400457	0.999873
795.722364	0.999042
796.044226	0.999335
796.366042	0.999337
796.687812	0.997369
797.009538	0.997940
797.331218	0.999464
797.652852	1.000894
797.974442	0.998240
798.295986	0.999165
798.617484	0.998527
798.938938	0.999097
799.260346	0.998716
799.581709	0.999432
799.903026	0.999165
800.224299	0.998694
800.545526	0.999059
800.866708	0.998308
801.187845	0.999558
801.508936	0.999031
801.829983	0.999421
802.150984	0.999959
802.471940	0.999743
802.792851	0.997943
803.113717	0.999864
803.434538	0.999157
803.755314	1.001205
804.076045	0.999345
804.396731	0.999349
804.717372	0.997229
805.037967	1.000082
805.358518	0.999310
805.679024	0.998631
805.999485	0.998974
806.319901	0.999363
806.640272	1.000721
806.960598	0.999639
807.280879	0.999071
807.601115	1.000551
807.921306	1.000475
808.241453	0.998842
808.561554	0.999606
808.881611	0.999172
809.201623	0.999261
809.521590	0.999344
809.841513	1.000098
810.161390	0.999069
810.481223	0.997709
810.801011	0.999538
811.120755	0.999737
811.440453	0.999443
811.760107	0.998838
812.079716	0.999494
812.399281	0.999984
812.718801	0.999433
813.038276	0.999253
813.357707	0.999525
813.677093	0.999644
813.996434	0.999942
814.315731	1.001712
814.634983	0.999287
814.954191	0.999736
815.273354	0.998815
815.592473	0.998470
815.911547	0.999424
816.230577	0.999181
816.549562	0.999424
816.868502	0.998476
817.187399	0.999463
817.506250	0.999572
817.825058	0.998675
818.143821	0.999471
818.462539	0.998475
818.781213	0.999070
819.099843	0.999825
819.418429	0.998592
819.736970	0.999837
820.055466	0.998618
820.373919	0.997765
820.692327	0.997672
821.010691	0.998000
821.329011	0.997001
821.647286	0.995452
821.965517	0.995304
822.283704	0.994255
822.601847	0.993830
822.919945	0.993372
823.237999	0.993958
823.556010	0.994056
823.873976	0.994726
824.191897	0.995029
824.509775	0.996652
824.827609	0.996694
825.145398	0.997199
825.463144	0.996048
825.780845	0.995219
826.098502	0.997419
826.416116	0.996642
826.733685	0.996832
827.051210	0.996173
827.368692	0.995844
827.686129	0.996007
828.003522	0.997927
828.320872	0.997139
828.638177	0.997690
828.955439	0.998758
829.272656	0.998247
829.589830	0.997958
829.906960	0.999740
830.224046	0.998472
830.541088	0.999409
830.858086	0.999067
831.175041	1.000660
831.491952	0.998224
831.808819	0.998069
832.125642	0.998295
832.442421	0.999310
832.759157	0.999703
833.075849	0.998238
833.392497	0.998058
833.709101	0.996715
834.025662	0.997974
834.342179	0.998043
834.658653	0.998396
834.975083	0.999284
835.291469	0.998911
835.607811	0.998353
835.924110	0.997594
836.240366	1.000619
836.556578	0.999068
836.872746	0.999907
837.188871	0.999161
837.504952	0.998611
837.820990	0.999688
838.136984	0.998817
838.452935	0.998737
838.768842	0.999382
839.084706	0.999050
839.400526	0.999899
839.716303	0.998029
840.032037	1.000002
840.347727	0.999564
840.663373	0.999387
840.978977	0.998610
841.294537	0.999357
841.610054	0.999096
841.925527	0.999345
842.240957	0.999398
842.556344	0.999320
842.871687	0.998349
843.186987	1.000080
843.502244	1.000489
843.817458	0.999752
844.132629	0.999593
844.447756	0.999199
844.762840	0.999102
845.077881	1.000723
845.392879	0.998914
845.707833	0.999820
846.022745	0.999239
846.337613	0.999472
846.652438	0.998962
846.967221	0.999823
847.281960	0.999582
847.596656	1.000362
847.911309	0.999428
848.225919	0.998657
848.540485	0.999186
848.855009	1.000535
849.169490	0.999009
849.483928	1.001060
849.798323	0.997983
850.112675	0.999876
850.426984	0.999834
850.741251	0.999974
851.055474	0.998950
851.369654	1.000516
851.683792	0.999269
851.997887	0.999757
852.311938	0.999895
852.625947	0.999463
852.939914	0.999290
853.253837	1.000483
853.567718	1.001359
853.881555	0.999278
854.195350	0.999556
854.509103	0.999640
854.822812	1.000188
855.136479	0.999369
855.450103	1.000191
855.763685	1.000021
856.077224	1.000557
856.390720	0.999377
856.704173	1.000104
857.017584	1.000143
857.330953	0.999284
857.644278	1.000383
857.957561	1.000571
858.270802	0.999744
858.584000	0.999461
858.897155	0.999393
859.210268	0.999307
859.523339	1.001095
859.836367	0.999683
860.149352	0.999695
860.462295	0.999677
860.775195	0.999954
861.088054	0.999413
861.400869	0.999798
861.713642	0.998474
862.026373	0.999951
862.339062	1.000891
862.651708	1.000515
862.964312	0.999740
863.276873	0.998723
863.589392	0.999276
863.901869	0.998532
864.214303	0.999702
864.526696	1.000424
864.839045	0.999341
865.151353	1.000145
865.463619	0.999409
865.775842	0.998517
866.088023	0.999710
866.400162	1.000101
866.712258	1.000489
867.024313	1.000304
867.336325	1.000193
867.648296	1.000678
867.960224	1.000511
868.272110	1.000741
868.583954	0.999268
868.895755	1.001480
869.207515	1.000096
869.519233	1.000846
869.830909	0.998624
870.142542	0.998380
870.454134	1.000590
870.765684	0.999573
871.077191	1.000233
871.388657	1.000754
871.700081	1.000816
872.011463	1.000737
872.322803	0.999265
872.634101	0.999018
872.945357	0.999967
873.256571	0.998444
873.567744	0.999786
873.878874	0.999615
874.189963	0.999721
874.501010	1.000416
874.812015	0.999198
875.122979	0.999625
875.433900	0.999012
875.744780	1.000003
876.055618	0.998855
876.366415	0.999210
876.677169	0.999424
876.987882	0.999921
877.298554	1.000262
877.609183	0.998913
877.919771	0.999725
878.230317	0.999930
878.540822	0.998764
878.851285	0.999746
879.161707	0.999037
879.472087	1.000426
879.782425	0.999444
880.092722	0.998349
880.402977	0.997748
880.713191	0.996758
881.023363	0.995766
881.333494	0.994868
881.643583	0.995926
881.953631	0.994529
882.263637	0.995500
882.573602	0.995352
882.883526	0.995137
883.193408	0.997005
883.503248	0.996440
883.813048	0.996555
884.122806	0.997519
884.432522	0.997576
884.742197	0.999538
885.051831	0.998395
885.361424	0.998490
885.670975	1.000186
885.980485	0.998274
886.289954	0.998478
886.599382	0.998173
886.908768	0.999723
887.218113	0.998434
887.527417	0.998380
887.836680	0.998749
888.145901	1.000786
888.455082	1.000181
888.764221	0.999823
889.073319	0.999609
889.382376	1.000033
889.691392	0.999248
890.000366	0.999612
890.309300	0.999032
890.618193	0.999853
890.927044	0.999506
891.235855	0.999393
891.544625	0.999932
891.853353	0.999981
892.162041	0.999466
892.470687	1.000456
892.779293	0.998995
893.087858	0.998159
893.396381	0.998864
893.704864	0.998502
894.013306	0.998724
894.321707	0.998248
894.630068	0.997646
894.938387	0.998002
895.246665	0.997747
895.554903	0.997336
895.863100	0.998880
896.171256	0.997488
896.479371	0.998650
896.787446	0.998484
897.095480	0.998723
897.403473	0.998568
897.711425	0.999696
898.019336	0.998241
898.327207	0.999611
898.635038	0.998582
898.942827	0.999228
899.250576	0.998894
899.558284	1.000670
899.865952	0.998443
900.173579	0.999279
900.481165	0.999259
900.788711	0.998118
901.096216	0.999343
901.403681	0.999904
901.711105	0.998767
902.018489	0.999271
902.325832	0.999861
902.633135	0.999090
902.940397	0.998780
903.247619	0.999659
903.554800	0.998791
903.861941	0.998439
904.169041	0.998711
904.476101	0.998201
904.783121	0.997650
905.090100	0.998037
905.397039	0.998142
905.703938	0.998106
906.010796	0.997995
906.317614	0.998359
906.624391	0.999757
906.931129	0.999420
907.237826	0.999868
907.544483	0.998440
907.851099	0.999920
908.157675	0.999700
908.464211	1.000183
908.770707	0.998617
909.077163	1.000065
909.383578	1.000326
909.689954	0.999111
909.996289	1.000044
910.302584	1.000215
910.608839	1.000305
910.915054	0.999149
911.221229	1.000124
911.527363	0.997459
911.833458	0.999154
912.139513	0.999548
912.445527	1.000369
912.751502	0.998808
913.057436	0.999026
913.363331	0.999541
913.669186	1.000298
913.975000	0.999950
914.280775	0.999691
914.586510	0.998714
914.892205	0.998602
915.197859	0.999707
915.503475	0.998668
915.809050	0.998564
916.114585	0.997943
916.420081	0.997012
916.725536	0.997413
917.030952	0.997745
917.336328	0.997246
917.641665	0.997656
917.946961	0.997161
918.252218	0.997913
918.557435	0.997479
918.862612	0.998856
919.167750	0.998827
919.472848	0.998528
919.777906	1.000121
920.082925	1.000742
920.387904	0.999875
920.692843	0.998812
920.997743	0.998409
921.302603	1.000878
921.607423	0.998800
921.912204	1.000257
922.216946	1.001279
922.521647	0.999742
922.826310	0.998975
923.130932	1.000568
923.435516	1.000459
923.740059	1.000541
924.044564	1.000345
924.349028	0.997524
924.653454	1.001453
924.957840	0.999488
925.262186	0.999655
925.566493	0.999151
925.870761	0.998748
926.174989	0.999232
926.479178	1.001056
926.783328	1.000217
927.087438	1.000241
927.391509	0.999574
927.695541	0.999414
927.999533	1.000059
928.303486	0.999844
928.607400	1.000217
928.911275	0.999961
929.215110	1.000427
929.518906	1.000027
929.822663	1.001576
930.126381	0.999845
930.430060	0.999073
930.733699	1.000924
931.037299	1.000176
931.340861	1.000546
931.644383	0.998599
931.947866	1.000084
932.251309	1.000778
932.554714	0.999452
932.858080	1.000395
933.161407	1.000037
933.464694	0.999465
933.767943	1.000941
934.071153	1.000218
934.374323	1.000703
934.677455	0.999148
934.980548	0.999430
935.283602	0.999916
935.586617	0.999886
935.889593	1.001094
936.192530	0.999827
936.495428	0.999709
936.798287	0.999280
937.101108	1.000115
937.403890	0.998975
937.706632	1.000870
938.009336	1.000079
938.312002	0.999448
938.614628	0.999344
938.917216	0.999545
939.219765	1.000535
939.522275	1.000808
939.824747	1.000676
940.127179	0.999077
940.429573	1.001409
940.731929	0.999954
941.034246	0.998900
941.336524	0.999242
941.638763	1.000371
941.940964	0.998884
942.243126	1.000137
942.545250	1.000100
942.847335	0.999809
943.149381	1.000584
943.451389	0.999462
943.753359	0.999709
944.055290	1.001314
944.357182	1.000472
944.659036	1.000042
944.960851	0.999685
945.262628	1.000509
945.564367	0.999678
945.866067	1.000692
946.167729	0.998601
946.469352	1.000363
946.770937	0.998875
947.072484	1.000068
947.373992	0.999844
947.675462	0.999878
947.976893	0.998669
948.278286	1.000973
948.579641	1.000783
948.880958	0.999747
949.182236	1.000199
949.483476	1.000258
949.784678	1.000134
950.085841	1.000816
950.386967	0.999592
950.688054	1.001200
950.989103	0.999184
951.290114	0.998850
951.591087	0.999815
951.892021	0.998904
952.192917	1.000167
952.493776	1.000764
952.794596	0.999720
953.095378	0.999014
953.396122	0.998040
953.696828	1.000676
953.997496	1.000873
954.298126	1.000895
954.598718	0.998883
954.899272	1.000366
955.199788	0.999490
955.500266	1.000575
955.800706	0.999370
956.101108	0.999683
956.401472	1.001426
956.701798	0.999571
957.002087	1.000923
957.302337	0.999904
957.602550	1.000536
957.902724	0.999692
958.202861	0.999791
958.502960	0.999434
958.803022	1.000908
959.103045	1.000391
959.403031	1.000486
959.702979	1.000204
960.002889	0.999620
960.302762	0.999317
960.602596	1.001077
960.902393	1.000475
961.202153	1.000841
961.501875	1.000047
961.801559	1.001627
962.101205	0.999415
962.400814	1.000763
962.700385	1.001116
962.999918	1.000260
963.299414	0.999424
963.598873	1.001416
963.898293	0.999200
964.197677	1.000431
964.497022	0.999575
964.796331	0.999700
965.095601	1.000869
965.394835	0.999130
965.694030	1.000914
965.993189	0.999231
966.292309	1.000678
966.591393	0.999060
966.890439	1.000749
967.189447	0.999748
967.488419	1.001176
967.787353	0.999706
968.086249	1.000576
968.385108	1.000661
968.683930	1.001496
968.982714	0.998970
969.281462	1.000601
969.580172	1.000313
969.878844	1.000636
970.177480	1.000527
970.476078	1.001860
970.774639	1.000177
971.073162	0.999993
971.371649	1.000090
971.670098	0.999730
971.968510	1.000422
972.266885	0.999637
972.565223	0.999667
972.863524	0.998746
973.161788	0.999738
973.460014	1.002179
973.758204	0.999226
974.056356	1.000637
974.354471	0.999245
974.652550	1.000797
974.950591	0.999495
975.248595	0.999180
975.546563	1.000178
975.844493	1.001480
976.142386	0.999594
976.440243	1.000748
976.738062	1.000410
977.035845	0.999597
977.333590	1.000467
977.631299	0.998948
977.928971	0.999760
978.226606	0.999779
978.524204	0.999014
978.821765	1.000738
979.119290	1.000982
979.416777	0.999670
979.714228	0.999661
980.011642	0.999796
980.309020	1.000276
980.606360	0.998544
980.903664	1.001004
981.200931	1.000268
981.498162	0.999848
981.795356	0.999154
982.092513	0.998854
982.389633	1.000694
982.686717	0.998837
982.983764	0.999927
983.280775	0.999441
983.577749	1.000327
983.874686	0.999407
984.171587	0.999004
984.468451	0.999778
984.765279	1.000295
985.062070	1.000365
985.358824	0.999689
985.655543	1.000084
985.952224	1.000392
986.248869	1.000563
986.545478	1.002266
986.842050	1.000207
987.138586	0.999273
987.435086	0.999546
987.731549	1.000696
988.027975	1.000516
988.324366	0.999085
988.620719	1.001454
988.917037	0.999969
989.213318	1.000386
989.509563	1.000403
989.805772	1.000699
990.101944	1.000707
990.398080	1.000331
990.694180	1.000689
990.990244	0.999102
991.286271	1.000407
991.582262	1.001151
991.878217	1.000121
992.174136	1.001216
992.470019	1.000857
992.765865	1.002239
993.061676	1.000491
993.357450	1.000471
993.653188	1.000193
993.948890	1.000985
994.244556	1.000072
994.540186	1.000133
994.835780	0.999551
995.131337	1.001975
995.426859	0.999354
995.722345	0.999547
996.017795	1.000010
996.313208	1.000154
996.608586	1.000300
996.903928	1.001689
997.199234	1.000256
997.494504	1.000440
997.789738	0.998292
998.084936	1.000523
998.380099	0.999820
998.675225	1.000780
998.970316	1.000719
999.265371	1.000787
999.560390	0.999550
999.855373	1.000402
1000.150320	1.000646
1000.445232	0.999185
1000.740108	0.999577
1001.034948	0.999741
1001.329752	1.001742
1001.624521	1.000254
1001.919254	0.998918
1002.213951	1.000014
1002.508613	0.999883
1002.803239	1.000276
1003.097829	1.001609
1003.392384	0.999636
1003.686903	1.001264
1003.981386	1.000296
1004.275834	1.001368
1004.570246	0.999821
1004.864623	1.000221
1005.158964	1.000129
1005.453270	1.000638
1005.747540	0.999980
1006.041775	1.000422
1006.335974	0.999529
1006.630138	0.999556
1006.924266	0.999303
1007.218359	0.998804
1007.512416	1.001179
1007.806438	1.000571
1008.100425	1.000863
1008.394376	1.001513
1008.688292	0.998941
1008.982172	0.999128
1009.276017	1.000370
1009.569827	1.001342
1009.863602	0.998973
1010.157341	1.000108
1010.451045	0.999336
1010.744714	1.002376
1011.038347	1.000681
1011.331945	0.998581
1011.625508	1.000354
1011.919036	0.999389
1012.212528	1.000881
1012.505986	0.999281
1012.799408	1.000610
1013.092795	1.000074
1013.386147	1.001621
1013.679464	1.000961
1013.972745	0.999780
1014.265992	1.000761
1014.559204	1.000083
1014.852380	1.000324
1015.145521	0.999527
1015.438628	0.999777
1015.731699	0.999876
1016.024736	1.000674
1016.317737	1.000497
1016.610703	1.001230
1016.903635	0.999714
1017.196531	1.000027
1017.489393	0.999933
1017.782219	1.000551
1018.075011	1.000478
1018.367768	0.999715
1018.660490	1.000172
1018.953177	1.000172
1019.245829	1.000172
