Dividing Wavelength (nm)	Counts (n)	Blue Motor Position (mm): 26.800000	Red Motor Position (mm): 0.000000	
326.493990	1.000098
326.888308	1.000098
327.282561	1.000098
327.676750	1.000711
328.070874	1.001798
328.464933	1.001873
328.858929	1.001243
329.252859	1.001259
329.646726	1.000530
330.040528	0.999965
330.434265	1.000746
330.827938	1.000357
331.221547	1.000037
331.615091	1.001719
332.008571	1.001896
332.401986	1.000521
332.795338	1.000118
333.188625	1.001642
333.581847	1.000859
333.975006	1.001365
334.368100	1.001427
334.761129	1.000094
335.154095	1.001135
335.546996	1.000329
335.939833	0.999692
336.332606	1.000134
336.725315	0.998713
337.117960	0.999852
337.510540	0.998893
337.903056	1.000605
338.295508	1.000613
338.687896	1.000130
339.080220	0.999867
339.472480	1.000055
339.864676	0.999246
340.256807	0.998181
340.648875	1.001173
341.040879	0.999444
341.432818	1.000773
341.824694	0.999082
342.216506	0.999993
342.608253	0.999399
342.999937	0.999074
343.391557	0.999020
343.783113	1.000552
344.174605	0.999528
344.566033	0.998098
344.957397	0.999836
345.348697	1.000242
345.739934	1.000099
346.131106	0.998434
346.522215	0.998079
346.913260	0.998863
347.304241	0.998150
347.695159	0.999888
348.086012	0.998896
348.476802	0.999796
348.867528	0.998503
349.258191	1.000061
349.648789	0.998567
350.039324	0.999239
350.429796	0.998933
350.820203	0.998219
351.210548	0.999577
351.600828	0.998730
351.991045	0.998001
352.381198	0.998634
352.771288	0.999233
353.161314	0.999876
353.551276	0.998047
353.941175	0.998131
354.331010	0.998706
354.720782	0.999584
355.110490	0.998411
355.500135	0.999213
355.889717	0.996796
356.279235	0.998154
356.668689	0.997905
357.058080	0.997739
357.447408	0.998158
357.836672	0.998624
358.225873	0.997953
358.615010	0.997722
359.004084	0.997101
359.393095	0.997680
359.782043	0.998873
360.170927	0.998413
360.559748	0.998596
360.948505	0.996786
361.337199	0.998013
361.725830	0.997898
362.114398	0.997925
362.502903	0.996999
362.891344	0.997476
363.279722	0.996916
363.668037	0.998141
364.056289	0.996717
364.444478	0.998687
364.832603	0.996488
365.220665	0.998173
365.608665	0.997636
365.996601	0.997034
366.384474	0.995421
366.772284	0.996916
367.160031	0.996523
367.547715	0.995644
367.935336	0.995224
368.322893	0.993949
368.710388	0.993277
369.097820	0.990899
369.485189	0.988379
369.872495	0.987280
370.259738	0.985759
370.646918	0.982167
371.034035	0.978861
371.421090	0.976404
371.808081	0.971153
372.195010	0.969881
372.581875	0.963685
372.968678	0.959522
373.355418	0.956445
373.742096	0.948068
374.128710	0.944976
374.515262	0.940516
374.901751	0.934115
375.288177	0.928859
375.674540	0.924066
376.060841	0.916498
376.447079	0.908984
376.833254	0.902630
377.219367	0.898118
377.605417	0.886731
377.991404	0.882695
378.377329	0.876897
378.763191	0.871375
379.148991	0.862169
379.534727	0.855068
379.920402	0.846028
380.306013	0.842416
380.691563	0.830066
381.077049	0.822752
381.462474	0.817598
381.847835	0.807348
382.233134	0.802849
382.618371	0.803381
383.003545	0.785753
383.388657	0.784091
383.773706	0.776493
384.158693	0.771622
384.543618	0.767418
384.928480	0.757864
385.313280	0.747891
385.698017	0.747432
386.082692	0.735575
386.467305	0.735167
386.851856	0.729063
387.236344	0.724175
387.620770	0.718257
388.005133	0.712736
388.389435	0.707418
388.773674	0.704237
389.157851	0.696448
389.541965	0.694366
389.926018	0.700565
390.310008	0.687281
390.693936	0.683816
391.077802	0.676221
391.461606	0.677843
391.845348	0.667059
392.229027	0.666530
392.612645	0.664230
392.996200	0.651516
393.379694	0.644523
393.763125	0.635480
394.146494	0.639606
394.529801	0.630058
394.913047	0.621407
395.296230	0.628144
395.679351	0.619276
396.062410	0.615811
396.445408	0.618916
396.828343	0.614370
397.211217	0.609514
397.594028	0.621788
397.976778	0.611426
398.359466	0.608230
398.742092	0.603764
399.124656	0.616067
399.507158	0.604263
399.889598	0.601138
400.271977	0.592422
400.654294	0.595645
401.036549	0.595647
401.418742	0.599310
401.800874	0.585292
402.182944	0.582187
402.564952	0.573887
402.946898	0.575942
403.328783	0.576742
403.710606	0.587327
404.092367	0.563205
404.474067	0.567297
404.855705	0.566272
405.237282	0.575116
405.618797	0.561898
406.000250	0.557661
406.381642	0.546987
406.762972	0.553108
407.144240	0.550841
407.525447	0.551132
407.906593	0.544032
408.287677	0.538954
408.668700	0.547919
409.049661	0.541476
409.430560	0.536889
409.811399	0.545465
410.192176	0.527487
410.572891	0.534233
410.953545	0.522404
411.334138	0.535903
411.714669	0.528316
412.095139	0.540729
412.475547	0.524606
412.855894	0.526264
413.236180	0.525490
413.616405	0.530753
413.996568	0.520835
414.376670	0.527849
414.756711	0.532532
415.136691	0.529287
415.516609	0.520668
415.896466	0.516749
416.276262	0.513356
416.655997	0.515026
417.035670	0.496815
417.415283	0.488031
417.794834	0.493000
418.174324	0.498531
418.553753	0.506974
418.933121	0.489718
419.312428	0.483637
419.691674	0.489670
420.070859	0.477777
420.449983	0.485397
420.829045	0.474592
421.208047	0.483718
421.586988	0.476629
421.965867	0.475955
422.344686	0.464374
422.723444	0.477139
423.102141	0.494235
423.480777	0.466604
423.859352	0.487633
424.237866	0.465020
424.616319	0.465701
424.994712	0.456626
425.373044	0.466961
425.751314	0.455193
426.129524	0.472089
426.507673	0.454704
426.885762	0.448569
427.263789	0.453826
427.641756	0.464055
428.019662	0.454465
428.397508	0.453480
428.775292	0.457622
429.153016	0.449793
429.530679	0.456516
429.908282	0.448849
430.285824	0.459508
430.663305	0.437920
431.040726	0.459340
431.418086	0.459249
431.795385	0.450690
432.172624	0.449789
432.549802	0.450174
432.926920	0.448886
433.303977	0.448839
433.680974	0.445783
434.057910	0.444439
434.434786	0.444134
434.811601	0.446162
435.188355	0.429067
435.565050	0.438421
435.941683	0.439783
436.318257	0.423322
436.694770	0.424420
437.071222	0.423344
437.447614	0.427387
437.823946	0.433959
438.200218	0.423841
438.576429	0.433411
438.952580	0.426834
439.328670	0.423846
439.704700	0.430672
440.080670	0.432365
440.456580	0.414342
440.832429	0.422149
441.208218	0.433779
441.583947	0.422909
441.959616	0.422953
442.335224	0.429391
442.710773	0.420961
443.086261	0.419667
443.461689	0.434456
443.837057	0.425367
444.212365	0.416216
444.587612	0.424222
444.962800	0.415008
445.337927	0.417672
445.712995	0.444695
446.088002	0.408630
446.462949	0.420552
446.837837	0.427000
447.212664	0.416845
447.587431	0.410964
447.962139	0.384225
448.336786	0.346545
448.711374	0.358482
449.085901	0.403423
449.460369	0.409433
449.834776	0.415092
450.209124	0.398177
450.583412	0.394564
450.957640	0.389788
451.331808	0.403717
451.705917	0.428861
452.079965	0.436298
452.453954	0.428267
452.827883	0.437361
453.201752	0.436322
453.575562	0.450063
453.949311	0.444341
454.323001	0.453547
454.696632	0.453292
455.070202	0.451582
455.443713	0.448249
455.817164	0.448435
456.190556	0.449784
456.563888	0.451992
456.937160	0.454708
457.310373	0.473883
457.683526	0.478403
458.056619	0.488566
458.429653	0.494555
458.802628	0.503183
459.175542	0.503604
459.548398	0.496426
459.921194	0.496920
460.293930	0.503778
460.666607	0.494425
461.039224	0.492657
461.411782	0.496380
461.784280	0.501676
462.156719	0.511883
462.529099	0.521351
462.901419	0.540423
463.273680	0.549782
463.645882	0.556392
464.018024	0.569947
464.390106	0.571432
464.762130	0.568952
465.134094	0.566760
465.505999	0.556329
465.877845	0.546092
466.249631	0.544817
466.621358	0.556874
466.993026	0.575650
467.364634	0.586813
467.736184	0.601433
468.107674	0.615523
468.479105	0.624828
468.850477	0.635068
469.221790	0.647718
469.593043	0.662329
469.964238	0.673801
470.335373	0.681314
470.706449	0.689326
471.077467	0.697331
471.448425	0.687973
471.819324	0.685495
472.190164	0.692248
472.560945	0.713799
472.931667	0.732527
473.302330	0.741247
473.672934	0.753580
474.043479	0.756289
474.413965	0.765277
474.784393	0.773960
475.154761	0.779161
475.525070	0.786620
475.895321	0.794864
476.265513	0.800148
476.635645	0.805507
477.005719	0.812648
477.375734	0.818540
477.745691	0.823263
478.115588	0.828792
478.485427	0.834096
478.855207	0.835969
479.224928	0.837090
479.594591	0.839813
479.964194	0.847961
480.333739	0.854911
480.703226	0.862464
481.072653	0.866844
481.442022	0.871839
481.811333	0.875892
482.180584	0.881684
482.549777	0.889284
482.918912	0.893742
483.287988	0.898415
483.657005	0.902577
484.025964	0.909281
484.394864	0.913128
484.763706	0.918009
485.132489	0.923054
485.501213	0.927242
485.869879	0.930196
486.238487	0.933714
486.607036	0.937445
486.975527	0.941701
487.343959	0.943400
487.712333	0.946978
488.080648	0.949448
488.448905	0.952554
488.817104	0.954949
489.185244	0.957716
489.553326	0.959328
489.921350	0.960924
490.289315	0.960285
490.657222	0.961438
491.025070	0.963983
491.392861	0.966257
491.760593	0.968517
492.128267	0.971500
492.495883	0.972446
492.863440	0.975574
493.230939	0.977634
493.598380	0.978745
493.965763	0.979936
494.333088	0.979870
494.700354	0.981379
495.067563	0.982193
495.434713	0.983553
495.801805	0.984307
496.168839	0.985616
496.535815	0.986018
496.902733	0.985645
497.269593	0.986364
497.636395	0.986651
498.003139	0.987664
498.369825	0.988923
498.736453	0.988724
499.103023	0.989570
499.469535	0.989552
499.835989	0.990265
500.202385	0.989707
500.568723	0.990640
500.935003	0.990858
501.301226	0.991443
501.667390	0.990733
502.033497	0.991707
502.399546	0.991045
502.765537	0.991665
503.131470	0.992400
503.497345	0.991595
503.863163	0.992534
504.228923	0.992844
504.594625	0.992098
504.960269	0.992697
505.325856	0.993332
505.691385	0.993089
506.056856	0.993315
506.422270	0.993043
506.787625	0.992885
507.152924	0.993300
507.518164	0.993146
507.883347	0.993355
508.248472	0.993864
508.613540	0.993608
508.978550	0.993685
509.343503	0.994092
509.708398	0.994990
510.073236	0.994293
510.438016	0.993469
510.802738	0.993625
511.167403	0.993755
511.532010	0.994720
511.896561	0.993919
512.261053	0.994160
512.625488	0.993487
512.989866	0.994234
513.354186	0.994048
513.718449	0.994584
514.082655	0.994118
514.446803	0.994877
514.810894	0.995059
515.174927	0.994562
515.538904	0.995397
515.902822	0.994579
516.266684	0.995058
516.630488	0.995203
516.994235	0.995175
517.357925	0.995286
517.721558	0.994879
518.085133	0.994016
518.448651	0.994906
518.812112	0.995981
519.175516	0.994672
519.538863	0.994490
519.902152	0.995541
520.265385	0.995162
520.628560	0.994665
520.991678	0.994798
521.354739	0.996069
521.717743	0.995087
522.080690	0.994958
522.443580	0.994758
522.806413	0.994241
523.169189	0.995462
523.531908	0.994326
523.894569	0.995301
524.257174	0.995540
524.619722	0.995069
524.982213	0.995142
525.344647	0.994708
525.707025	0.994778
526.069345	0.994471
526.431608	0.995728
526.793815	0.995431
527.155964	0.995625
527.518057	0.995524
527.880093	0.995178
528.242072	0.995103
528.603995	0.994892
528.965860	0.995073
529.327669	0.995911
529.689421	0.994578
530.051117	0.995274
530.412755	0.995900
530.774337	0.995790
531.135862	0.995467
531.497331	0.995042
531.858743	0.996106
532.220098	0.994949
532.581396	0.995051
532.942638	0.995905
533.303824	0.996211
533.664953	0.995448
534.026025	0.996352
534.387040	0.995491
534.747999	0.995733
535.108902	0.995512
535.469748	0.996381
535.830537	0.996080
536.191270	0.995597
536.551947	0.995481
536.912567	0.995349
537.273131	0.995769
537.633638	0.995634
537.994089	0.995796
538.354483	0.995883
538.714821	0.995893
539.075103	0.995445
539.435328	0.995786
539.795497	0.996175
540.155609	0.995653
540.515665	0.996140
540.875665	0.995453
541.235609	0.995906
541.595496	0.995291
541.955328	0.995675
542.315102	0.996115
542.674821	0.995720
543.034483	0.995634
543.394090	0.995041
543.753640	0.995712
544.113134	0.995328
544.472571	0.996390
544.831953	0.996271
545.191278	0.995888
545.550548	0.995122
545.909761	0.995582
546.268918	0.996141
546.628019	0.995928
546.987064	0.996241
547.346053	0.995476
547.704986	0.995779
548.063863	0.995478
548.422684	0.996331
548.781449	0.995692
549.140158	0.996319
549.498811	0.995388
549.857408	0.994629
550.215949	0.994672
550.574434	0.995443
550.932864	0.995377
551.291237	0.995250
551.649555	0.996054
552.007817	0.995894
552.366022	0.996061
552.724173	0.996200
553.082267	0.995159
553.440305	0.994886
553.798288	0.994321
554.156215	0.995070
554.514086	0.995835
554.871902	0.995645
555.229661	0.994637
555.587365	0.995196
555.945014	0.995917
556.302606	0.995131
556.660143	0.996085
557.017625	0.996164
557.375050	0.995100
557.732421	0.995380
558.089735	0.995597
558.446994	0.995795
558.804197	0.996289
559.161345	0.995120
559.518437	0.995417
559.875474	0.996122
560.232455	0.996215
560.589381	0.995334
560.946251	0.995749
561.303065	0.995350
561.659825	0.994963
562.016528	0.996099
562.373177	0.995712
562.729770	0.994689
563.086307	0.994934
563.442789	0.995361
563.799216	0.995177
564.155587	0.995690
564.511904	0.995882
564.868164	0.994950
565.224370	0.995161
565.580520	0.995321
565.936615	0.995370
566.292654	0.995125
566.648638	0.995669
567.004567	0.995427
567.360441	0.995458
567.716260	0.994876
568.072023	0.995518
568.427732	0.995591
568.783385	0.995701
569.138982	0.995596
569.494525	0.995309
569.850013	0.995836
570.205445	0.996596
570.560823	0.995581
570.916145	0.995917
571.271412	0.995795
571.626625	0.995821
571.981782	0.995390
572.336884	0.995304
572.691931	0.995243
573.046923	0.995791
573.401860	0.995360
573.756743	0.995299
574.111570	0.995515
574.466342	0.996352
574.821059	0.995736
575.175722	0.996113
575.530330	0.996083
575.884882	0.995336
576.239380	0.996316
576.593823	0.995205
576.948211	0.995937
577.302544	0.995253
577.656823	0.995797
578.011047	0.995410
578.365216	0.995655
578.719330	0.995339
579.073389	0.994921
579.427394	0.995172
579.781344	0.995320
580.135239	0.995026
580.489080	0.995654
580.842866	0.994879
581.196597	0.995377
581.550273	0.995232
581.903895	0.995443
582.257463	0.995067
582.610975	0.995383
582.964434	0.996132
583.317837	0.996220
583.671186	0.995675
584.024481	0.995335
584.377721	0.994860
584.730906	0.995997
585.084037	0.995908
585.437113	0.996642
585.790135	0.995552
586.143103	0.995668
586.496016	0.995339
586.848874	0.996118
587.201679	0.995873
587.554428	0.995647
587.907124	0.996341
588.259765	0.995968
588.612352	0.996198
588.964884	0.995755
589.317362	0.996047
589.669786	0.995164
590.022155	0.994582
590.374470	0.995646
590.726731	0.995234
591.078937	0.996111
591.431090	0.995743
591.783188	0.995065
592.135232	0.996328
592.487222	0.995758
592.839157	0.995747
593.191038	0.995980
593.542866	0.996166
593.894639	0.995656
594.246358	0.996170
594.598022	0.995984
594.949633	0.996228
595.301190	0.995259
595.652692	0.995678
596.004141	0.995698
596.355535	0.995338
596.706876	0.995956
597.058162	0.995839
597.409395	0.995897
597.760573	0.995624
598.111698	0.995961
598.462768	0.995446
598.813785	0.994740
599.164748	0.995168
599.515657	0.994953
599.866511	0.995919
600.217312	0.996073
600.568060	0.995583
600.918753	0.996011
601.269392	0.995579
601.619978	0.995557
601.970510	0.995690
602.320988	0.995784
602.671412	0.995245
603.021783	0.996344
603.372100	0.996500
603.722363	0.996073
604.072572	0.995910
604.422728	0.995731
604.772830	0.995093
605.122878	0.995708
605.472872	0.996109
605.822813	0.995610
606.172701	0.995753
606.522534	0.996098
606.872314	0.996697
607.222041	0.996057
607.571714	0.996280
607.921333	0.995422
608.270899	0.995826
608.620411	0.995841
608.969870	0.996412
609.319276	0.996161
609.668627	0.996155
610.017926	0.995969
610.367171	0.995882
610.716362	0.996191
611.065500	0.995271
611.414585	0.995566
611.763616	0.994808
612.112594	0.995326
612.461518	0.995500
612.810389	0.995496
613.159207	0.995591
613.507971	0.995468
613.856682	0.996890
614.205340	0.994706
614.553945	0.995990
614.902496	0.995565
615.250994	0.995388
615.599439	0.996273
615.947830	0.995223
616.296169	0.995715
616.644454	0.995782
616.992686	0.995872
617.340864	0.996545
617.688990	0.995393
618.037063	0.995401
618.385082	0.995458
618.733048	0.995264
619.080961	0.995056
619.428821	0.995844
619.776628	0.996109
620.124382	0.996421
620.472083	0.996070
620.819731	0.996744
621.167326	0.996342
621.514868	0.996124
621.862357	0.995986
622.209793	0.995604
622.557176	0.995846
622.904506	0.994975
623.251783	0.995697
623.599007	0.995766
623.946179	0.994892
624.293297	0.996297
624.640363	0.995975
624.987376	0.995047
625.334336	0.995977
625.681243	0.995670
626.028097	0.996421
626.374899	0.995924
626.721647	0.996626
627.068343	0.996123
627.414987	0.996084
627.761577	0.995213
628.108115	0.995588
628.454600	0.996264
628.801032	0.996338
629.147412	0.995895
629.493739	0.996513
629.840014	0.995624
630.186236	0.994776
630.532405	0.996236
630.878521	0.995539
631.224585	0.996061
631.570597	0.995640
631.916556	0.996207
632.262462	0.994540
632.608316	0.996121
632.954117	0.995661
633.299866	0.995763
633.645562	0.995420
633.991206	0.995985
634.336797	0.995252
634.682336	0.996429
635.027823	0.995781
635.373257	0.995562
635.718639	0.996341
636.063968	0.995795
636.409245	0.995525
636.754470	0.996481
637.099642	0.996302
637.444762	0.996427
637.789829	0.995966
638.134845	0.995811
638.479808	0.996305
638.824719	0.996095
639.169577	0.996495
639.514383	0.996450
639.859137	0.996419
640.203839	0.995717
640.548489	0.995974
640.893086	0.995674
641.237632	0.996728
641.582125	0.995853
641.926566	0.996575
642.270955	0.997403
642.615292	0.996110
642.959576	0.996535
643.303809	0.996660
643.647990	0.995929
643.992118	0.996708
644.336195	0.995627
644.680219	0.996241
645.024192	0.995744
645.368112	0.995450
645.711981	0.996181
646.055797	0.996720
646.399562	0.995157
646.743274	0.997030
647.086935	0.995648
647.430544	0.995746
647.774101	0.995751
648.117606	0.995781
648.461059	0.996893
648.804460	0.995653
649.147810	0.995002
649.491108	0.995823
649.834354	0.995819
650.177548	0.996615
650.520690	0.995721
650.863781	0.996014
651.206820	0.996212
651.549807	0.995683
651.892742	0.995706
652.235626	0.995985
652.578458	0.996900
652.921238	0.996425
653.263967	0.996356
653.606644	0.995409
653.949269	0.995679
654.291843	0.994541
654.634365	0.996312
654.976836	0.995109
655.319255	0.996057
655.661622	0.995777
656.003938	0.996000
656.346203	0.995318
656.688416	0.996732
657.030577	0.995404
657.372687	0.996349
657.714746	0.995690
658.056753	0.996031
658.398708	0.995685
658.740612	0.996902
659.082465	0.996033
659.424266	0.995985
659.766016	0.994917
660.107715	0.995843
660.449362	0.996771
660.790958	0.995327
661.132503	0.996554
661.473996	0.995638
661.815438	0.996292
662.156829	0.996341
662.498168	0.997328
662.839456	0.995870
663.180693	0.996550
663.521879	0.996795
663.863013	0.996063
664.204097	0.995212
664.545129	0.996003
664.886110	0.996171
665.227040	0.995580
665.567918	0.995876
665.908746	0.996227
666.249522	0.995232
666.590248	0.995544
666.930922	0.994687
667.271545	0.996129
667.612118	0.994594
667.952639	0.996281
668.293109	0.995865
668.633528	0.995886
668.973896	0.995182
669.314213	0.995033
669.654480	0.995586
669.994695	0.995572
670.334859	0.995583
670.674973	0.995226
671.015035	0.995695
671.355047	0.995621
671.695008	0.995071
672.034918	0.994989
672.374777	0.996244
672.714585	0.995766
673.054342	0.995752
673.394049	0.995484
673.733705	0.995527
674.073310	0.995728
674.412864	0.995838
674.752368	0.995972
675.091820	0.996622
675.431223	0.995629
675.770574	0.995477
676.109875	0.995595
676.449125	0.995254
676.788324	0.994532
677.127473	0.996316
677.466571	0.996127
677.805619	0.996071
678.144616	0.996531
678.483562	0.996630
678.822458	0.996210
679.161303	0.995450
679.500098	0.996126
679.838842	0.996267
680.177535	0.995824
680.516179	0.994773
680.854771	0.996416
681.193314	0.995394
681.531805	0.994757
681.870247	0.995217
682.208638	0.995933
682.546978	0.995211
682.885268	0.995595
683.223508	0.995424
683.561697	0.995478
683.899836	0.995657
684.237925	0.994814
684.575963	0.994892
684.913951	0.995786
685.251889	0.995472
685.589776	0.995882
685.927614	0.995307
686.265401	0.994787
686.603137	0.994778
686.940824	0.995068
687.278460	0.995749
687.616046	0.995137
687.953582	0.994610
688.291068	0.995048
688.628504	0.995576
688.965889	0.994563
689.303224	0.993631
689.640510	0.995090
689.977745	0.994930
690.314930	0.994853
690.652065	0.995193
690.989150	0.994845
691.326185	0.995674
691.663170	0.996102
692.000105	0.995565
692.336990	0.994993
692.673825	0.995201
693.010610	0.995071
693.347345	0.995797
693.684030	0.994732
694.020665	0.995057
694.357251	0.995183
694.693786	0.994759
695.030272	0.994512
695.366707	0.995951
695.703093	0.994554
696.039429	0.995388
696.375716	0.996168
696.711952	0.995263
697.048139	0.996129
697.384276	0.995625
697.720363	0.995404
698.056400	0.994873
698.392388	0.994643
698.728326	0.995247
699.064214	0.996440
699.400053	0.995308
699.735842	0.996748
700.071581	0.995992
700.407270	0.994839
700.742910	0.996166
701.078501	0.995724
701.414042	0.996614
701.749533	0.995561
702.084974	0.997176
702.420366	0.995917
702.755709	0.995059
703.091002	0.996085
703.426246	0.996003
703.761440	0.995032
704.096584	0.994620
704.431679	0.996120
704.766725	0.995873
705.101721	0.996531
705.436668	0.996055
705.771565	0.996211
706.106413	0.994370
706.441212	0.995507
706.775961	0.995759
707.110661	0.995145
707.445311	0.996471
707.779913	0.996526
708.114465	0.997135
708.448967	0.996851
708.783421	0.996140
709.117825	0.995403
709.452180	0.996176
709.786485	0.995805
710.120742	0.995496
710.454949	0.994593
710.789107	0.994947
711.123216	0.994677
711.457275	0.994216
711.791286	0.995365
712.125247	0.995447
712.459159	0.994893
712.793023	0.994910
713.126837	0.995478
713.460602	0.994782
713.794318	0.994175
714.127985	0.994989
714.461602	0.995686
714.795171	0.994803
715.128691	0.994411
715.462162	0.994850
715.795584	0.995273
716.128957	0.996107
716.462281	0.995285
716.795556	0.995275
717.128782	0.996001
717.461960	0.995021
717.795088	0.995584
718.128167	0.996325
718.461198	0.995400
718.794180	0.995630
719.127113	0.995478
719.459997	0.995362
719.792833	0.994807
720.125619	0.994888
720.458357	0.996073
720.791046	0.995916
721.123686	0.996331
721.456278	0.995793
721.788821	0.995726
722.121315	0.997291
722.453761	0.996845
722.786158	0.995617
723.118506	0.995445
723.450805	0.994815
723.783056	0.996365
724.115259	0.995779
724.447412	0.995502
724.779518	0.995352
725.111574	0.995735
725.443582	0.995249
725.775542	0.996500
726.107453	0.996998
726.439315	0.995935
726.771129	0.996169
727.102895	0.994695
727.434612	0.996025
727.766281	0.995790
728.097901	0.996106
728.429473	0.995713
728.760996	0.994784
729.092471	0.995107
729.423897	0.996127
729.755276	0.995459
730.086606	0.995372
730.417887	0.995709
730.749120	0.995317
731.080305	0.995641
731.411442	0.995055
731.742530	0.994274
732.073570	0.994371
732.404562	0.994668
732.735506	0.995309
733.066401	0.995227
733.397249	0.995044
733.728048	0.995860
734.058798	0.995917
734.389501	0.995760
734.720156	0.996571
735.050762	0.996261
735.381320	0.995334
735.711831	0.994635
736.042293	0.995551
736.372707	0.996359
736.703073	0.994533
737.033391	0.995695
737.363661	0.995372
737.693883	0.996022
738.024056	0.995003
738.354182	0.995773
738.684260	0.995421
739.014290	0.995846
739.344272	0.994800
739.674207	0.995517
740.004093	0.996024
740.333931	0.995456
740.663722	0.995399
740.993464	0.995530
741.323159	0.995354
741.652806	0.995077
741.982405	0.995451
742.311956	0.996540
742.641460	0.996077
742.970915	0.994708
743.300323	0.995350
743.629683	0.995381
743.958996	0.997127
744.288260	0.995085
744.617477	0.995648
744.946647	0.995682
745.275768	0.996218
745.604842	0.996249
745.933869	0.995884
746.262847	0.996341
746.591778	0.994803
746.920662	0.996625
747.249498	0.996514
747.578286	0.997537
747.907027	0.995470
748.235720	0.996145
748.564365	0.997241
748.892963	0.995906
749.221514	0.995997
749.550017	0.995748
749.878473	0.995690
750.206881	0.996593
750.535242	0.995404
750.863555	0.994993
751.191821	0.995115
751.520039	0.995445
751.848210	0.993930
752.176334	0.995889
752.504411	0.995844
752.832440	0.995844
753.160421	0.995952
753.488356	0.996136
753.816243	0.995873
754.144082	0.995869
754.471875	0.996182
754.799620	0.996339
755.127318	0.996067
755.454969	0.996334
755.782572	0.996829
756.110129	0.996483
756.437638	0.997612
756.765100	0.995891
757.092515	0.996726
757.419882	0.996038
757.747203	0.995288
758.074477	0.996401
758.401703	0.996694
758.728882	0.996433
759.056014	0.995481
759.383099	0.996262
759.710138	0.995493
760.037129	0.995096
760.364073	0.996052
760.690970	0.995999
761.017820	0.995448
761.344623	0.995853
761.671379	0.996460
761.998088	0.996277
762.324751	0.995490
762.651366	0.995198
762.977935	0.994634
763.304456	0.992952
763.630931	0.991633
763.957359	0.991544
764.283740	0.992206
764.610074	0.992923
764.936362	0.993553
765.262602	0.994497
765.588796	0.995069
765.914943	0.995011
766.241044	0.995415
766.567097	0.996635
766.893104	0.996847
767.219064	0.996184
767.544978	0.995843
767.870845	0.995386
768.196665	0.995770
768.522438	0.996301
768.848165	0.996445
769.173846	0.997316
769.499479	0.998185
769.825066	0.997734
770.150607	0.996948
770.476101	0.997350
770.801548	0.997091
771.126949	0.998117
771.452303	0.996424
771.777611	0.998193
772.102872	0.996515
772.428087	0.996444
772.753256	0.997320
773.078378	0.997249
773.403453	0.996374
773.728482	0.997901
774.053465	0.996801
774.378401	0.997137
774.703291	0.997423
775.028135	0.998313
775.352932	0.996223
775.677683	0.997516
776.002388	0.997365
776.327046	0.997441
776.651658	0.998861
776.976224	0.997423
777.300743	0.996812
777.625216	0.997548
777.949643	0.998144
778.274024	0.996976
778.598359	0.997941
778.922647	0.996692
779.246889	0.997766
779.571086	0.997167
779.895236	0.997739
780.219339	0.998978
780.543397	0.996598
780.867409	0.998188
781.191374	0.997369
781.515294	0.997702
781.839167	0.996928
782.162995	0.998088
782.486776	0.997278
782.810511	0.996998
783.134201	0.998399
783.457844	0.998422
783.781441	0.997176
784.104993	0.996017
784.428498	0.997878
784.751958	0.997866
785.075372	0.997912
785.398739	0.997533
785.722061	0.996695
786.045337	0.997212
786.368568	0.996712
786.691752	0.997216
787.014891	0.996976
787.337983	0.996744
787.661030	0.996841
787.984031	0.996968
788.306987	0.996665
788.629897	0.995407
788.952760	0.996118
789.275579	0.997126
789.598351	0.996797
789.921078	0.998018
790.243759	0.997685
790.566395	0.995868
790.888984	0.998473
791.211529	0.997522
791.534027	0.996937
791.856480	0.997581
792.178888	0.997578
792.501249	0.996965
792.823566	0.998850
793.145836	0.999182
793.468062	0.998163
793.790241	0.998727
794.112375	0.997522
794.434464	0.997192
794.756507	0.998170
795.078505	0.997678
795.400457	0.997910
795.722364	0.997897
796.044226	0.996735
796.366042	0.996096
796.687812	0.995121
797.009538	0.996788
797.331218	0.997979
797.652852	0.997671
797.974442	0.996081
798.295986	0.997187
798.617484	0.996513
798.938938	0.997542
799.260346	0.996700
799.581709	0.996255
799.903026	0.998001
800.224299	0.996895
800.545526	0.997751
800.866708	0.997382
801.187845	0.998389
801.508936	0.997237
801.829983	0.997160
802.150984	0.997113
802.471940	0.997686
802.792851	0.997631
803.113717	0.999649
803.434538	0.997801
803.755314	0.998695
804.076045	0.998229
804.396731	0.997393
804.717372	0.996588
805.037967	0.998797
805.358518	0.997911
805.679024	0.998064
805.999485	0.997841
806.319901	0.997879
806.640272	0.998991
806.960598	0.997642
807.280879	0.998140
807.601115	0.998074
807.921306	0.998199
808.241453	0.997189
808.561554	0.998039
808.881611	0.998135
809.201623	0.997900
809.521590	0.997821
809.841513	0.998023
810.161390	0.996306
810.481223	0.996938
810.801011	0.998318
811.120755	0.999181
811.440453	0.997276
811.760107	0.998800
812.079716	0.997611
812.399281	0.998055
812.718801	0.998073
813.038276	0.997740
813.357707	0.997947
813.677093	0.997261
813.996434	0.997284
814.315731	1.000032
814.634983	0.998499
814.954191	0.998163
815.273354	0.997433
815.592473	0.997281
815.911547	0.998408
816.230577	0.998454
816.549562	0.998145
816.868502	0.997071
817.187399	0.998630
817.506250	0.997803
817.825058	0.996866
818.143821	0.997663
818.462539	0.997116
818.781213	0.996541
819.099843	0.996677
819.418429	0.995969
819.736970	0.997080
820.055466	0.994329
820.373919	0.994385
820.692327	0.993555
821.010691	0.992845
821.329011	0.989356
821.647286	0.986832
821.965517	0.984777
822.283704	0.981335
822.601847	0.979471
822.919945	0.980848
823.237999	0.982461
823.556010	0.984366
823.873976	0.986086
824.191897	0.987646
824.509775	0.989469
824.827609	0.990536
825.145398	0.991553
825.463144	0.990370
825.780845	0.990345
826.098502	0.990770
826.416116	0.989976
826.733685	0.988651
827.051210	0.985755
827.368692	0.987784
827.686129	0.989144
828.003522	0.990625
828.320872	0.991653
828.638177	0.992623
828.955439	0.995340
829.272656	0.995820
829.589830	0.994388
829.906960	0.996269
830.224046	0.996117
830.541088	0.995726
830.858086	0.996976
831.175041	0.997076
831.491952	0.996883
831.808819	0.996343
832.125642	0.996017
832.442421	0.996888
832.759157	0.996998
833.075849	0.993874
833.392497	0.992632
833.709101	0.990717
834.025662	0.991157
834.342179	0.990828
834.658653	0.994127
834.975083	0.994216
835.291469	0.995150
835.607811	0.995345
835.924110	0.996229
836.240366	0.997716
836.556578	0.997271
836.872746	0.997905
837.188871	0.997184
837.504952	0.997707
837.820990	0.998399
838.136984	0.997363
838.452935	0.997526
838.768842	0.998017
839.084706	0.998118
839.400526	0.998106
839.716303	0.996194
840.032037	0.994941
840.347727	0.994053
840.663373	0.996662
840.978977	0.995613
841.294537	0.996806
841.610054	0.997672
841.925527	0.997568
842.240957	0.998860
842.556344	0.998384
842.871687	0.998033
843.186987	0.999263
843.502244	0.998582
843.817458	0.997938
844.132629	0.999016
844.447756	0.998911
844.762840	0.998940
845.077881	1.000709
845.392879	0.998579
845.707833	0.999136
846.022745	0.999236
846.337613	0.998621
846.652438	0.998972
846.967221	0.999682
847.281960	0.999763
847.596656	1.000099
847.911309	0.999839
848.225919	0.999129
848.540485	0.999190
848.855009	1.000457
849.169490	0.998838
849.483928	0.998341
849.798323	0.999143
850.112675	0.999956
850.426984	0.999108
850.741251	0.999677
851.055474	0.999034
851.369654	0.999635
851.683792	0.998487
851.997887	0.998549
852.311938	0.999099
852.625947	0.999092
852.939914	0.998914
853.253837	1.000675
853.567718	1.000687
853.881555	0.999825
854.195350	0.999868
854.509103	0.999454
854.822812	0.999763
855.136479	0.999856
855.450103	0.999582
855.763685	0.999226
856.077224	0.998748
856.390720	0.998810
856.704173	0.999440
857.017584	0.999780
857.330953	0.999448
857.644278	0.999609
857.957561	0.998972
858.270802	0.999597
858.584000	0.999573
858.897155	0.999517
859.210268	0.999930
859.523339	0.999318
859.836367	0.999047
860.149352	0.998721
860.462295	0.998472
860.775195	0.999089
861.088054	0.998129
861.400869	0.998940
861.713642	0.998513
862.026373	0.999892
862.339062	0.999704
862.651708	0.998321
862.964312	0.998989
863.276873	0.998619
863.589392	0.998948
863.901869	0.998198
864.214303	1.000409
864.526696	0.999225
864.839045	0.999175
865.151353	0.998658
865.463619	0.998304
865.775842	0.999011
866.088023	1.000436
866.400162	0.999922
866.712258	1.000238
867.024313	0.999587
867.336325	1.000495
867.648296	0.998787
867.960224	0.999928
868.272110	1.000294
868.583954	0.999461
868.895755	0.999667
869.207515	0.998319
869.519233	0.999141
869.830909	0.998341
870.142542	0.998503
870.454134	0.998604
870.765684	0.999152
871.077191	0.999823
871.388657	0.998364
871.700081	0.998624
872.011463	0.999238
872.322803	0.999286
872.634101	0.998680
872.945357	0.997792
873.256571	0.998355
873.567744	0.997916
873.878874	0.998879
874.189963	0.998333
874.501010	1.000062
874.812015	0.998383
875.122979	0.999375
875.433900	0.998596
875.744780	0.998479
876.055618	0.997973
876.366415	0.997305
876.677169	0.997555
876.987882	0.998287
877.298554	0.999765
877.609183	0.998492
877.919771	0.998217
878.230317	0.998857
878.540822	0.997652
878.851285	0.997487
879.161707	0.995965
879.472087	0.998658
879.782425	0.995139
880.092722	0.993250
880.402977	0.990800
880.713191	0.987932
881.023363	0.983812
881.333494	0.981822
881.643583	0.983656
881.953631	0.983061
882.263637	0.981631
882.573602	0.982906
882.883526	0.984652
883.193408	0.987131
883.503248	0.987901
883.813048	0.989891
884.122806	0.991696
884.432522	0.991916
884.742197	0.993887
885.051831	0.992929
885.361424	0.995401
885.670975	0.996147
885.980485	0.995709
886.289954	0.995852
886.599382	0.995504
886.908768	0.997799
887.218113	0.996419
887.527417	0.997526
887.836680	0.998481
888.145901	0.998804
888.455082	0.998179
888.764221	0.999502
889.073319	0.996707
889.382376	0.999259
889.691392	0.998031
890.000366	0.998369
890.309300	0.997520
890.618193	0.998962
890.927044	0.998016
891.235855	0.996779
891.544625	0.997283
891.853353	0.998098
892.162041	0.998363
892.470687	0.998225
892.779293	0.997295
893.087858	0.996112
893.396381	0.996893
893.704864	0.994864
894.013306	0.993467
894.321707	0.993148
894.630068	0.991637
894.938387	0.991119
895.246665	0.991333
895.554903	0.991704
895.863100	0.993738
896.171256	0.993600
896.479371	0.994180
896.787446	0.993560
897.095480	0.994638
897.403473	0.996325
897.711425	0.996217
898.019336	0.997402
898.327207	0.997163
898.635038	0.995857
898.942827	0.997623
899.250576	0.997828
899.558284	0.998696
899.865952	0.996514
900.173579	0.997885
900.481165	0.998850
900.788711	0.998164
901.096216	0.998667
901.403681	0.999439
901.711105	0.997940
902.018489	0.997948
902.325832	0.999112
902.633135	0.998640
902.940397	0.998120
903.247619	0.997966
903.554800	0.994836
903.861941	0.993306
904.169041	0.990066
904.476101	0.988544
904.783121	0.988973
905.090100	0.990200
905.397039	0.991900
905.703938	0.992711
906.010796	0.994597
906.317614	0.995050
906.624391	0.996479
906.931129	0.998069
907.237826	0.997853
907.544483	0.998222
907.851099	0.998122
908.157675	0.998031
908.464211	0.998838
908.770707	0.997621
909.077163	0.999143
909.383578	0.998901
909.689954	0.999089
909.996289	0.999289
910.302584	0.998931
910.608839	1.000270
910.915054	0.999567
911.221229	1.001177
911.527363	0.999205
911.833458	0.999511
912.139513	1.000046
912.445527	0.999125
912.751502	0.998172
913.057436	0.998701
913.363331	0.998618
913.669186	0.998233
913.975000	0.998065
914.280775	0.997784
914.586510	0.996930
914.892205	0.995631
915.197859	0.994790
915.503475	0.993794
915.809050	0.991136
916.114585	0.988180
916.420081	0.989710
916.725536	0.989386
917.030952	0.990707
917.336328	0.990481
917.641665	0.992259
917.946961	0.992111
918.252218	0.993815
918.557435	0.993814
918.862612	0.995544
919.167750	0.996121
919.472848	0.997210
919.777906	0.997974
920.082925	0.997461
920.387904	0.997719
920.692843	0.997944
920.997743	0.997268
921.302603	0.997481
921.607423	0.998463
921.912204	0.999018
922.216946	0.998416
922.521647	0.997866
922.826310	0.998467
923.130932	0.998786
923.435516	0.999943
923.740059	0.998328
924.044564	0.998479
924.349028	0.998128
924.653454	1.000179
924.957840	0.999749
925.262186	0.999031
925.566493	0.998779
925.870761	0.999812
926.174989	0.999127
926.479178	1.001229
926.783328	0.999787
927.087438	0.999872
927.391509	0.999118
927.695541	0.999485
927.999533	1.000443
928.303486	0.999567
928.607400	1.001424
928.911275	0.998677
929.215110	1.000854
929.518906	0.999958
929.822663	1.001310
930.126381	1.000927
930.430060	1.000478
930.733699	1.000821
931.037299	1.000315
931.340861	1.000506
931.644383	0.998544
931.947866	0.999957
932.251309	0.999399
932.554714	0.999583
932.858080	1.000814
933.161407	0.998985
933.464694	1.000955
933.767943	0.999866
934.071153	1.001250
934.374323	1.000707
934.677455	1.000373
934.980548	0.999266
935.283602	0.999801
935.586617	0.999266
935.889593	1.000976
936.192530	1.001038
936.495428	0.999644
936.798287	1.001002
937.101108	0.999241
937.403890	0.998936
937.706632	1.001105
938.009336	1.000016
938.312002	1.000093
938.614628	1.000554
938.917216	0.999028
939.219765	0.998666
939.522275	0.999908
939.824747	0.999477
940.127179	0.999791
940.429573	1.000964
940.731929	0.998124
941.034246	0.998887
941.336524	0.998653
941.638763	0.998778
941.940964	0.999550
942.243126	0.998200
942.545250	1.000252
942.847335	0.999697
943.149381	1.000521
943.451389	0.999638
943.753359	0.999489
944.055290	1.000955
944.357182	0.999620
944.659036	0.999937
944.960851	0.999894
945.262628	0.999938
945.564367	0.999661
945.866067	1.000789
946.167729	0.999642
946.469352	0.999727
946.770937	0.998442
947.072484	1.000606
947.373992	0.999552
947.675462	1.000569
947.976893	0.999911
948.278286	1.001367
948.579641	1.000307
948.880958	1.000774
949.182236	0.999796
949.483476	1.001415
949.784678	1.000710
950.085841	1.000178
950.386967	0.999847
950.688054	1.000824
950.989103	0.998094
951.290114	0.997956
951.591087	0.998963
951.892021	1.000296
952.192917	1.000743
952.493776	1.000671
952.794596	0.999351
953.095378	0.999175
953.396122	0.999974
953.696828	0.999578
953.997496	0.999483
954.298126	1.001087
954.598718	0.999505
954.899272	1.000105
955.199788	0.999410
955.500266	0.999964
955.800706	0.999510
956.101108	1.000400
956.401472	1.002596
956.701798	0.999385
957.002087	1.000277
957.302337	0.999481
957.602550	1.000444
957.902724	0.999824
958.202861	0.999621
958.502960	0.999345
958.803022	1.001291
959.103045	1.000289
959.403031	1.000982
959.702979	1.001079
960.002889	0.999826
960.302762	0.998718
960.602596	1.001104
960.902393	1.000526
961.202153	0.998945
961.501875	1.000116
961.801559	0.999037
962.101205	1.000548
962.400814	1.001259
962.700385	1.000717
962.999918	1.000768
963.299414	1.000143
963.598873	1.001796
963.898293	1.001165
964.197677	1.000464
964.497022	1.000421
964.796331	0.999663
965.095601	1.001111
965.394835	0.999270
965.694030	0.999974
965.993189	1.001674
966.292309	1.000654
966.591393	0.999337
966.890439	1.000491
967.189447	0.999542
967.488419	1.000349
967.787353	0.999793
968.086249	1.001043
968.385108	0.999623
968.683930	1.001644
968.982714	0.999980
969.281462	0.999477
969.580172	0.999262
969.878844	1.002075
970.177480	1.000240
970.476078	1.000984
970.774639	1.001100
971.073162	1.000564
971.371649	1.001145
971.670098	0.998199
971.968510	1.001093
972.266885	1.000092
972.565223	1.001262
972.863524	0.999394
973.161788	0.999788
973.460014	1.001753
973.758204	0.998957
974.056356	1.000210
974.354471	0.999692
974.652550	1.000213
974.950591	1.000587
975.248595	0.999894
975.546563	1.000526
975.844493	1.001672
976.142386	1.000216
976.440243	1.001174
976.738062	1.001212
977.035845	0.998738
977.333590	1.000953
977.631299	0.999293
977.928971	1.001584
978.226606	0.998934
978.524204	0.998803
978.821765	0.999874
979.119290	1.001270
979.416777	1.001288
979.714228	0.999657
980.011642	1.000683
980.309020	1.000159
980.606360	0.999866
980.903664	1.000081
981.200931	0.999888
981.498162	0.999321
981.795356	1.000239
982.092513	1.000334
982.389633	1.000152
982.686717	0.998715
982.983764	1.000346
983.280775	0.999955
983.577749	1.000424
983.874686	0.999428
984.171587	1.000002
984.468451	0.999427
984.765279	1.001181
985.062070	1.000588
985.358824	1.000921
985.655543	1.000864
985.952224	1.000716
986.248869	1.001182
986.545478	1.001973
986.842050	1.001159
987.138586	1.000806
987.435086	0.999957
987.731549	1.002327
988.027975	1.000885
988.324366	1.000128
988.620719	1.000615
988.917037	1.000506
989.213318	1.000824
989.509563	1.001727
989.805772	1.000954
990.101944	1.001788
990.398080	1.000897
990.694180	1.001181
990.990244	0.999956
991.286271	1.000090
991.582262	1.001347
991.878217	0.999465
992.174136	1.002271
992.470019	1.000772
992.765865	1.000569
993.061676	1.001095
993.357450	1.001317
993.653188	1.001942
993.948890	1.000234
994.244556	1.000305
994.540186	1.000753
994.835780	0.999974
995.131337	1.002134
995.426859	1.000654
995.722345	1.000397
996.017795	1.000527
996.313208	1.000280
996.608586	1.000399
996.903928	1.000779
997.199234	1.000812
997.494504	1.001002
997.789738	1.000497
998.084936	1.001445
998.380099	0.999279
998.675225	1.000498
998.970316	1.001074
999.265371	1.000397
999.560390	1.000492
999.855373	1.000763
1000.150320	1.000990
1000.445232	1.000554
1000.740108	1.000133
1001.034948	0.999738
1001.329752	1.002625
1001.624521	1.000892
1001.919254	1.000846
1002.213951	1.000892
1002.508613	0.999765
1002.803239	1.000006
1003.097829	1.001919
1003.392384	0.999995
1003.686903	1.000443
1003.981386	1.000918
1004.275834	1.002459
1004.570246	1.000105
1004.864623	1.001152
1005.158964	1.000855
1005.453270	1.000299
1005.747540	1.000980
1006.041775	1.001516
1006.335974	1.001709
1006.630138	1.002048
1006.924266	0.999674
1007.218359	0.999605
1007.512416	1.001997
1007.806438	1.000649
1008.100425	1.000781
1008.394376	1.002131
1008.688292	0.998855
1008.982172	0.999801
1009.276017	1.000818
1009.569827	1.000961
1009.863602	1.000349
1010.157341	1.000603
1010.451045	1.000071
1010.744714	1.002745
1011.038347	1.001296
1011.331945	1.001145
1011.625508	1.000443
1011.919036	1.000843
1012.212528	1.001316
1012.505986	1.000034
1012.799408	1.001526
1013.092795	1.001021
1013.386147	1.001120
1013.679464	1.001002
1013.972745	1.001193
1014.265992	1.001542
1014.559204	1.000108
1014.852380	1.001364
1015.145521	1.000163
1015.438628	1.000203
1015.731699	1.000399
1016.024736	1.001445
1016.317737	0.999481
1016.610703	1.000408
1016.903635	0.999482
1017.196531	1.000927
1017.489393	1.000724
1017.782219	1.001240
1018.075011	1.000419
1018.367768	0.999838
1018.660490	1.001625
1018.953177	1.001625
1019.245829	1.001625
