Dividing Wavelength (nm)	Counts (n)	Blue Motor Position (mm): 33.000000	Red Motor Position (mm): 0.000000	
326.493990	0.998953
326.888308	0.998953
327.282561	0.998953
327.676750	0.999946
328.070874	1.000477
328.464933	0.999901
328.858929	1.000243
329.252859	0.999329
329.646726	0.998249
330.040528	1.000682
330.434265	0.998816
330.827938	0.999414
331.221547	0.999557
331.615091	1.000381
332.008571	1.000947
332.401986	0.999346
332.795338	0.999448
333.188625	1.001014
333.581847	0.999600
333.975006	0.999086
334.368100	0.999744
334.761129	0.998975
335.154095	0.999461
335.546996	1.000399
335.939833	0.998473
336.332606	0.999058
336.725315	0.998511
337.117960	1.000881
337.510540	0.998984
337.903056	1.000285
338.295508	0.999700
338.687896	0.999091
339.080220	0.999419
339.472480	0.998088
339.864676	1.000182
340.256807	0.998133
340.648875	0.999649
341.040879	0.999526
341.432818	1.000085
341.824694	0.998595
342.216506	1.000253
342.608253	0.999133
342.999937	0.998781
343.391557	0.998987
343.783113	1.000486
344.174605	0.999860
344.566033	0.997811
344.957397	1.000160
345.348697	1.000034
345.739934	0.999716
346.131106	0.998994
346.522215	0.998879
346.913260	0.998774
347.304241	0.997420
347.695159	0.999467
348.086012	0.999247
348.476802	0.998694
348.867528	0.998408
349.258191	0.998677
349.648789	1.000651
350.039324	0.997624
350.429796	0.998213
350.820203	0.997765
351.210548	0.999997
351.600828	0.998650
351.991045	0.998501
352.381198	0.998514
352.771288	0.998903
353.161314	0.999885
353.551276	0.999182
353.941175	0.998279
354.331010	1.000942
354.720782	0.998093
355.110490	0.997683
355.500135	0.998373
355.889717	0.998186
356.279235	0.998312
356.668689	0.998659
357.058080	0.998371
357.447408	0.997851
357.836672	0.999216
358.225873	0.997558
358.615010	0.997294
359.004084	0.997165
359.393095	0.998654
359.782043	0.997179
360.170927	0.998394
360.559748	0.998180
360.948505	0.996967
361.337199	0.996989
361.725830	0.997535
362.114398	0.997208
362.502903	0.996975
362.891344	0.996870
363.279722	0.997374
363.668037	0.997933
364.056289	0.996945
364.444478	0.999520
364.832603	0.996377
365.220665	0.997429
365.608665	0.996823
365.996601	0.996308
366.384474	0.996043
366.772284	0.995678
367.160031	0.995575
367.547715	0.996319
367.935336	0.994620
368.322893	0.993788
368.710388	0.992645
369.097820	0.990609
369.485189	0.989782
369.872495	0.987698
370.259738	0.985890
370.646918	0.981320
371.034035	0.980402
371.421090	0.977356
371.808081	0.972884
372.195010	0.970003
372.581875	0.964057
372.968678	0.959868
373.355418	0.955801
373.742096	0.949148
374.128710	0.945310
374.515262	0.940021
374.901751	0.934305
375.288177	0.929200
375.674540	0.922456
376.060841	0.916435
376.447079	0.909518
376.833254	0.903302
377.219367	0.898187
377.605417	0.886854
377.991404	0.883736
378.377329	0.878177
378.763191	0.870340
379.148991	0.862450
379.534727	0.854384
379.920402	0.845878
380.306013	0.842347
380.691563	0.829436
381.077049	0.822218
381.462474	0.818541
381.847835	0.807222
382.233134	0.803269
382.618371	0.802779
383.003545	0.785785
383.388657	0.783934
383.773706	0.776320
384.158693	0.771378
384.543618	0.767654
384.928480	0.758711
385.313280	0.748121
385.698017	0.747478
386.082692	0.736131
386.467305	0.734719
386.851856	0.729313
387.236344	0.724046
387.620770	0.718158
388.005133	0.712074
388.389435	0.706914
388.773674	0.704638
389.157851	0.696573
389.541965	0.693913
389.926018	0.700890
390.310008	0.687715
390.693936	0.683911
391.077802	0.676518
391.461606	0.677870
391.845348	0.667425
392.229027	0.666526
392.612645	0.664357
392.996200	0.651471
393.379694	0.645381
393.763125	0.635635
394.146494	0.639352
394.529801	0.630140
394.913047	0.622409
395.296230	0.628817
395.679351	0.620023
396.062410	0.616658
396.445408	0.618613
396.828343	0.615507
397.211217	0.609689
397.594028	0.621967
397.976778	0.612203
398.359466	0.609244
398.742092	0.604766
399.124656	0.616125
399.507158	0.604584
399.889598	0.601924
400.271977	0.592894
400.654294	0.597141
401.036549	0.596290
401.418742	0.600281
401.800874	0.586114
402.182944	0.583333
402.564952	0.575041
402.946898	0.577287
403.328783	0.578086
403.710606	0.589269
404.092367	0.564185
404.474067	0.569348
404.855705	0.567717
405.237282	0.576979
405.618797	0.563444
406.000250	0.558740
406.381642	0.549258
406.762972	0.554236
407.144240	0.552676
407.525447	0.552558
407.906593	0.545744
408.287677	0.540907
408.668700	0.549778
409.049661	0.544486
409.430560	0.538651
409.811399	0.548068
410.192176	0.529998
410.572891	0.537710
410.953545	0.526921
411.334138	0.540650
411.714669	0.534172
412.095139	0.547044
412.475547	0.532116
412.855894	0.535190
413.236180	0.535829
413.616405	0.542616
413.996568	0.534010
414.376670	0.542407
414.756711	0.549398
415.136691	0.548032
415.516609	0.541647
415.896466	0.540806
416.276262	0.539618
416.655997	0.543740
417.035670	0.529516
417.415283	0.524375
417.794834	0.532437
418.174324	0.540529
418.553753	0.552277
418.933121	0.539367
419.312428	0.538424
419.691674	0.547856
420.070859	0.541297
420.449983	0.552633
420.829045	0.548320
421.208047	0.561761
421.586988	0.560514
421.965867	0.564983
422.344686	0.562221
422.723444	0.577559
423.102141	0.597250
423.480777	0.581372
423.859352	0.604685
424.237866	0.594691
424.616319	0.601118
424.994712	0.601160
425.373044	0.616934
425.751314	0.615662
426.129524	0.635523
426.507673	0.631582
426.885762	0.633945
427.263789	0.646976
427.641756	0.660835
428.019662	0.662912
428.397508	0.671020
428.775292	0.683606
429.153016	0.686677
429.530679	0.699171
429.908282	0.703986
430.285824	0.717631
430.663305	0.714948
431.040726	0.735392
431.418086	0.743236
431.795385	0.748630
432.172624	0.757063
432.549802	0.765375
432.926920	0.773561
433.303977	0.781660
433.680974	0.789167
434.057910	0.797896
434.434786	0.805697
434.811601	0.814278
435.188355	0.816336
435.565050	0.827757
435.941683	0.834771
436.318257	0.837611
436.694770	0.846527
437.071222	0.853532
437.447614	0.862043
437.823946	0.870328
438.200218	0.875217
438.576429	0.883099
438.952580	0.888439
439.328670	0.893766
439.704700	0.900984
440.080670	0.907408
440.456580	0.910471
440.832429	0.917498
441.208218	0.924624
441.583947	0.927414
441.959616	0.930855
442.335224	0.938012
442.710773	0.940859
443.086261	0.945516
443.461689	0.949519
443.837057	0.952761
444.212365	0.956350
444.587612	0.959785
444.962800	0.962340
445.337927	0.965408
445.712995	0.969654
446.088002	0.969941
446.462949	0.973393
446.837837	0.976745
447.212664	0.976847
447.587431	0.979351
447.962139	0.979470
448.336786	0.979253
448.711374	0.981051
449.085901	0.984919
449.460369	0.986789
449.834776	0.987330
450.209124	0.989137
450.583412	0.989325
450.957640	0.989720
451.331808	0.991630
451.705917	0.991696
452.079965	0.993357
452.453954	0.993327
452.827883	0.993476
453.201752	0.994030
453.575562	0.994026
453.949311	0.994692
454.323001	0.995378
454.696632	0.995844
455.070202	0.994987
455.443713	0.995120
455.817164	0.996104
456.190556	0.996300
456.563888	0.997111
456.937160	0.996256
457.310373	0.996546
457.683526	0.997311
458.056619	0.997060
458.429653	0.996574
458.802628	0.996965
459.175542	0.997083
459.548398	0.997330
459.921194	0.997004
460.293930	0.998572
460.666607	0.997761
461.039224	0.997360
461.411782	0.997536
461.784280	0.997545
462.156719	0.999059
462.529099	0.998131
462.901419	0.997519
463.273680	0.997699
463.645882	0.998139
464.018024	0.997795
464.390106	0.997769
464.762130	0.998220
465.134094	0.997886
465.505999	0.998127
465.877845	0.997422
466.249631	0.997411
466.621358	0.996458
466.993026	0.998347
467.364634	0.998421
467.736184	0.997902
468.107674	0.998007
468.479105	0.997317
468.850477	0.998149
469.221790	0.998179
469.593043	0.997417
469.964238	0.997702
470.335373	0.997726
470.706449	0.997940
471.077467	0.997988
471.448425	0.998280
471.819324	0.998130
472.190164	0.997296
472.560945	0.997707
472.931667	0.998059
473.302330	0.998076
473.672934	0.998352
474.043479	0.998088
474.413965	0.998005
474.784393	0.997865
475.154761	0.997224
475.525070	0.997821
475.895321	0.997525
476.265513	0.998067
476.635645	0.998189
477.005719	0.996980
477.375734	0.997064
477.745691	0.997694
478.115588	0.997884
478.485427	0.997722
478.855207	0.997565
479.224928	0.997149
479.594591	0.997530
479.964194	0.996954
480.333739	0.997256
480.703226	0.996676
481.072653	0.996659
481.442022	0.997374
481.811333	0.997229
482.180584	0.997004
482.549777	0.997939
482.918912	0.997827
483.287988	0.997220
483.657005	0.997197
484.025964	0.997770
484.394864	0.996953
484.763706	0.996861
485.132489	0.997200
485.501213	0.996933
485.869879	0.997208
486.238487	0.996266
486.607036	0.997751
486.975527	0.997328
487.343959	0.996787
487.712333	0.996852
488.080648	0.996716
488.448905	0.997674
488.817104	0.996705
489.185244	0.997143
489.553326	0.997498
489.921350	0.997816
490.289315	0.996773
490.657222	0.996853
491.025070	0.997332
491.392861	0.997397
491.760593	0.997217
492.128267	0.996994
492.495883	0.996216
492.863440	0.997351
493.230939	0.997360
493.598380	0.997718
493.965763	0.997113
494.333088	0.996772
494.700354	0.997226
495.067563	0.997547
495.434713	0.997537
495.801805	0.997454
496.168839	0.997567
496.535815	0.998043
496.902733	0.997242
497.269593	0.996981
497.636395	0.997071
498.003139	0.996670
498.369825	0.997706
498.736453	0.997080
499.103023	0.997832
499.469535	0.997263
499.835989	0.997637
500.202385	0.997908
500.568723	0.997788
500.935003	0.997512
501.301226	0.998335
501.667390	0.997861
502.033497	0.997029
502.399546	0.996968
502.765537	0.997707
503.131470	0.997625
503.497345	0.997810
503.863163	0.997268
504.228923	0.997608
504.594625	0.997426
504.960269	0.998049
505.325856	0.998204
505.691385	0.997841
506.056856	0.997467
506.422270	0.997650
506.787625	0.997313
507.152924	0.997805
507.518164	0.997634
507.883347	0.997640
508.248472	0.997449
508.613540	0.996992
508.978550	0.998068
509.343503	0.997688
509.708398	0.997439
510.073236	0.997529
510.438016	0.996678
510.802738	0.997184
511.167403	0.997289
511.532010	0.997655
511.896561	0.997424
512.261053	0.997465
512.625488	0.997145
512.989866	0.997233
513.354186	0.997230
513.718449	0.997638
514.082655	0.997219
514.446803	0.996979
514.810894	0.997838
515.174927	0.997582
515.538904	0.998082
515.902822	0.996650
516.266684	0.997520
516.630488	0.997821
516.994235	0.997961
517.357925	0.998163
517.721558	0.996956
518.085133	0.997487
518.448651	0.997748
518.812112	0.998362
519.175516	0.997691
519.538863	0.997907
519.902152	0.997501
520.265385	0.997608
520.628560	0.997339
520.991678	0.997631
521.354739	0.998234
521.717743	0.997271
522.080690	0.996433
522.443580	0.997601
522.806413	0.997336
523.169189	0.997429
523.531908	0.996898
523.894569	0.997893
524.257174	0.997359
524.619722	0.997067
524.982213	0.997877
525.344647	0.996817
525.707025	0.997223
526.069345	0.996214
526.431608	0.997494
526.793815	0.997453
527.155964	0.998052
527.518057	0.997697
527.880093	0.997587
528.242072	0.997819
528.603995	0.997164
528.965860	0.998154
529.327669	0.997689
529.689421	0.996888
530.051117	0.997923
530.412755	0.997704
530.774337	0.997809
531.135862	0.997995
531.497331	0.997200
531.858743	0.997249
532.220098	0.996295
532.581396	0.997757
532.942638	0.997494
533.303824	0.997841
533.664953	0.997315
534.026025	0.998219
534.387040	0.997167
534.747999	0.997671
535.108902	0.997439
535.469748	0.997889
535.830537	0.997478
536.191270	0.997503
536.551947	0.997033
536.912567	0.997706
537.273131	0.997743
537.633638	0.997171
537.994089	0.997376
538.354483	0.997413
538.714821	0.997708
539.075103	0.997738
539.435328	0.998026
539.795497	0.997771
540.155609	0.998004
540.515665	0.997882
540.875665	0.997512
541.235609	0.998156
541.595496	0.996839
541.955328	0.996744
542.315102	0.998182
542.674821	0.998549
543.034483	0.997671
543.394090	0.997052
543.753640	0.997944
544.113134	0.997136
544.472571	0.997552
544.831953	0.997552
545.191278	0.997314
545.550548	0.997308
545.909761	0.997050
546.268918	0.998373
546.628019	0.998174
546.987064	0.997586
547.346053	0.997340
547.704986	0.997261
548.063863	0.997433
548.422684	0.998154
548.781449	0.997880
549.140158	0.997888
549.498811	0.996461
549.857408	0.996852
550.215949	0.996360
550.574434	0.997129
550.932864	0.997745
551.291237	0.997321
551.649555	0.997992
552.007817	0.997798
552.366022	0.997731
552.724173	0.998056
553.082267	0.997624
553.440305	0.996733
553.798288	0.996299
554.156215	0.997897
554.514086	0.997403
554.871902	0.997556
555.229661	0.996765
555.587365	0.997791
555.945014	0.997333
556.302606	0.996875
556.660143	0.998163
557.017625	0.998153
557.375050	0.997371
557.732421	0.997361
558.089735	0.997127
558.446994	0.996856
558.804197	0.998171
559.161345	0.996636
559.518437	0.996672
559.875474	0.998167
560.232455	0.997877
560.589381	0.997773
560.946251	0.997152
561.303065	0.998536
561.659825	0.996708
562.016528	0.998022
562.373177	0.997825
562.729770	0.997714
563.086307	0.996973
563.442789	0.998361
563.799216	0.997201
564.155587	0.997673
564.511904	0.997549
564.868164	0.996673
565.224370	0.997474
565.580520	0.997775
565.936615	0.998030
566.292654	0.997556
566.648638	0.998067
567.004567	0.997410
567.360441	0.998046
567.716260	0.997784
568.072023	0.996690
568.427732	0.997691
568.783385	0.997623
569.138982	0.997671
569.494525	0.997329
569.850013	0.997408
570.205445	0.997685
570.560823	0.997467
570.916145	0.997484
571.271412	0.997756
571.626625	0.997984
571.981782	0.997679
572.336884	0.997961
572.691931	0.997379
573.046923	0.998251
573.401860	0.997873
573.756743	0.998088
574.111570	0.997492
574.466342	0.998540
574.821059	0.998312
575.175722	0.998503
575.530330	0.997794
575.884882	0.997414
576.239380	0.997339
576.593823	0.997415
576.948211	0.998552
577.302544	0.997801
577.656823	0.998067
578.011047	0.997166
578.365216	0.998785
578.719330	0.998022
579.073389	0.996898
579.427394	0.997289
579.781344	0.998441
580.135239	0.996566
580.489080	0.998122
580.842866	0.997538
581.196597	0.997405
581.550273	0.997881
581.903895	0.998365
582.257463	0.997144
582.610975	0.996982
582.964434	0.997322
583.317837	0.997805
583.671186	0.997739
584.024481	0.997675
584.377721	0.997042
584.730906	0.998244
585.084037	0.998405
585.437113	0.998211
585.790135	0.997589
586.143103	0.997599
586.496016	0.997226
586.848874	0.997901
587.201679	0.997665
587.554428	0.997639
587.907124	0.997819
588.259765	0.998193
588.612352	0.998107
588.964884	0.997603
589.317362	0.997607
589.669786	0.997445
590.022155	0.997298
590.374470	0.997008
590.726731	0.997439
591.078937	0.998296
591.431090	0.997545
591.783188	0.997650
592.135232	0.998955
592.487222	0.998279
592.839157	0.997568
593.191038	0.998160
593.542866	0.997791
593.894639	0.997364
594.246358	0.998001
594.598022	0.998108
594.949633	0.997977
595.301190	0.997873
595.652692	0.996926
596.004141	0.997539
596.355535	0.997156
596.706876	0.997714
597.058162	0.997823
597.409395	0.998146
597.760573	0.997263
598.111698	0.997500
598.462768	0.996844
598.813785	0.997093
599.164748	0.998301
599.515657	0.997347
599.866511	0.998212
600.217312	0.998165
600.568060	0.997175
600.918753	0.998204
601.269392	0.998122
601.619978	0.998112
601.970510	0.997621
602.320988	0.997403
602.671412	0.997699
603.021783	0.998444
603.372100	0.998282
603.722363	0.997739
604.072572	0.997426
604.422728	0.997772
604.772830	0.997015
605.122878	0.998311
605.472872	0.998228
605.822813	0.997336
606.172701	0.998237
606.522534	0.998359
606.872314	0.998357
607.222041	0.997817
607.571714	0.997991
607.921333	0.997718
608.270899	0.997564
608.620411	0.997741
608.969870	0.998749
609.319276	0.997415
609.668627	0.998455
610.017926	0.997942
610.367171	0.998173
610.716362	0.998082
611.065500	0.997675
611.414585	0.997192
611.763616	0.996129
612.112594	0.997939
612.461518	0.996613
612.810389	0.997194
613.159207	0.997514
613.507971	0.996719
613.856682	0.999270
614.205340	0.996516
614.553945	0.997564
614.902496	0.997667
615.250994	0.998002
615.599439	0.997818
615.947830	0.997911
616.296169	0.998362
616.644454	0.997690
616.992686	0.997250
617.340864	0.997946
617.688990	0.997107
618.037063	0.997676
618.385082	0.997053
618.733048	0.996848
619.080961	0.997351
619.428821	0.997929
619.776628	0.996778
620.124382	0.998235
620.472083	0.998015
620.819731	0.998262
621.167326	0.997565
621.514868	0.998159
621.862357	0.997242
622.209793	0.997601
622.557176	0.997288
622.904506	0.997177
623.251783	0.997731
623.599007	0.998157
623.946179	0.997033
624.293297	0.998095
624.640363	0.997976
624.987376	0.996640
625.334336	0.996908
625.681243	0.997990
626.028097	0.997924
626.374899	0.997362
626.721647	0.998326
627.068343	0.997002
627.414987	0.997631
627.761577	0.997185
628.108115	0.997077
628.454600	0.997793
628.801032	0.998475
629.147412	0.997925
629.493739	0.998369
629.840014	0.997608
630.186236	0.997857
630.532405	0.998009
630.878521	0.996862
631.224585	0.996807
631.570597	0.997513
631.916556	0.998100
632.262462	0.996715
632.608316	0.996816
632.954117	0.997414
633.299866	0.997215
633.645562	0.997191
633.991206	0.998065
634.336797	0.997799
634.682336	0.997884
635.027823	0.997249
635.373257	0.998005
635.718639	0.998255
636.063968	0.996846
636.409245	0.997422
636.754470	0.998456
637.099642	0.997767
637.444762	0.997617
637.789829	0.997254
638.134845	0.997278
638.479808	0.997286
638.824719	0.997248
639.169577	0.998133
639.514383	0.998113
639.859137	0.997909
640.203839	0.997519
640.548489	0.997982
640.893086	0.996833
641.237632	0.997687
641.582125	0.997805
641.926566	0.998844
642.270955	0.997876
642.615292	0.996773
642.959576	0.997261
643.303809	0.997782
643.647990	0.998282
643.992118	0.997844
644.336195	0.996894
644.680219	0.997852
645.024192	0.997928
645.368112	0.997170
645.711981	0.996720
646.055797	0.997478
646.399562	0.996698
646.743274	0.997865
647.086935	0.996649
647.430544	0.997038
647.774101	0.997385
648.117606	0.997486
648.461059	0.997490
648.804460	0.997616
649.147810	0.996794
649.491108	0.997502
649.834354	0.997889
650.177548	0.997261
650.520690	0.996871
650.863781	0.997273
651.206820	0.997544
651.549807	0.996657
651.892742	0.997328
652.235626	0.997038
652.578458	0.997604
652.921238	0.998029
653.263967	0.997528
653.606644	0.997360
653.949269	0.997672
654.291843	0.996446
654.634365	0.998071
654.976836	0.997238
655.319255	0.997777
655.661622	0.997325
656.003938	0.996811
656.346203	0.996888
656.688416	0.998362
657.030577	0.997280
657.372687	0.998342
657.714746	0.997430
658.056753	0.997539
658.398708	0.996715
658.740612	0.998633
659.082465	0.997307
659.424266	0.997284
659.766016	0.996440
660.107715	0.997524
660.449362	0.997532
660.790958	0.997332
661.132503	0.997290
661.473996	0.997549
661.815438	0.997321
662.156829	0.997106
662.498168	0.997551
662.839456	0.996787
663.180693	0.997948
663.521879	0.997532
663.863013	0.997612
664.204097	0.997340
664.545129	0.997392
664.886110	0.997361
665.227040	0.997337
665.567918	0.996982
665.908746	0.996617
666.249522	0.997806
666.590248	0.997171
666.930922	0.997374
667.271545	0.996963
667.612118	0.997003
667.952639	0.996315
668.293109	0.997283
668.633528	0.996194
668.973896	0.996818
669.314213	0.996875
669.654480	0.997456
669.994695	0.996007
670.334859	0.996752
670.674973	0.996513
671.015035	0.997001
671.355047	0.996355
671.695008	0.996481
672.034918	0.996820
672.374777	0.996997
672.714585	0.996625
673.054342	0.998165
673.394049	0.996920
673.733705	0.996158
674.073310	0.996835
674.412864	0.997088
674.752368	0.996826
675.091820	0.997280
675.431223	0.997848
675.770574	0.996405
676.109875	0.996199
676.449125	0.996778
676.788324	0.996523
677.127473	0.996717
677.466571	0.997139
677.805619	0.997748
678.144616	0.997321
678.483562	0.997440
678.822458	0.997508
679.161303	0.996111
679.500098	0.997869
679.838842	0.997428
680.177535	0.996340
680.516179	0.996475
680.854771	0.996788
681.193314	0.996298
681.531805	0.997083
681.870247	0.997248
682.208638	0.996731
682.546978	0.996763
682.885268	0.996314
683.223508	0.996316
683.561697	0.997027
683.899836	0.996891
684.237925	0.996643
684.575963	0.996933
684.913951	0.996111
685.251889	0.996663
685.589776	0.996362
685.927614	0.996500
686.265401	0.996560
686.603137	0.996267
686.940824	0.996266
687.278460	0.997388
687.616046	0.996086
687.953582	0.995584
688.291068	0.996668
688.628504	0.995799
688.965889	0.996483
689.303224	0.994721
689.640510	0.996170
689.977745	0.996339
690.314930	0.996379
690.652065	0.996286
690.989150	0.996167
691.326185	0.997314
691.663170	0.996361
692.000105	0.996529
692.336990	0.996392
692.673825	0.996147
693.010610	0.996622
693.347345	0.996611
693.684030	0.997228
694.020665	0.996659
694.357251	0.995999
694.693786	0.997502
695.030272	0.995152
695.366707	0.996055
695.703093	0.996134
696.039429	0.996560
696.375716	0.996252
696.711952	0.996355
697.048139	0.997429
697.384276	0.996310
697.720363	0.996710
698.056400	0.996352
698.392388	0.996471
698.728326	0.995871
699.064214	0.997384
699.400053	0.996127
699.735842	0.998181
700.071581	0.996403
700.407270	0.996568
700.742910	0.997435
701.078501	0.996412
701.414042	0.996817
701.749533	0.996255
702.084974	0.996059
702.420366	0.996853
702.755709	0.996712
703.091002	0.996828
703.426246	0.997352
703.761440	0.996879
704.096584	0.996690
704.431679	0.995882
704.766725	0.996994
705.101721	0.996897
705.436668	0.997697
705.771565	0.996423
706.106413	0.995801
706.441212	0.996844
706.775961	0.997055
707.110661	0.996426
707.445311	0.997265
707.779913	0.997948
708.114465	0.996777
708.448967	0.997318
708.783421	0.997519
709.117825	0.995876
709.452180	0.996722
709.786485	0.996344
710.120742	0.996003
710.454949	0.994970
710.789107	0.996459
711.123216	0.995757
711.457275	0.995043
711.791286	0.996180
712.125247	0.997887
712.459159	0.995963
712.793023	0.995386
713.126837	0.996700
713.460602	0.995551
713.794318	0.995839
714.127985	0.995565
714.461602	0.995827
714.795171	0.995230
715.128691	0.996239
715.462162	0.996615
715.795584	0.996049
716.128957	0.996738
716.462281	0.996759
716.795556	0.996354
717.128782	0.997043
717.461960	0.996055
717.795088	0.996831
718.128167	0.997527
718.461198	0.995964
718.794180	0.997074
719.127113	0.996935
719.459997	0.995368
719.792833	0.996598
720.125619	0.995932
720.458357	0.996182
720.791046	0.996673
721.123686	0.996440
721.456278	0.996841
721.788821	0.996133
722.121315	0.996529
722.453761	0.996413
722.786158	0.995698
723.118506	0.996279
723.450805	0.997052
723.783056	0.996751
724.115259	0.996552
724.447412	0.997037
724.779518	0.997343
725.111574	0.995671
725.443582	0.996958
725.775542	0.996449
726.107453	0.997087
726.439315	0.996684
726.771129	0.996751
727.102895	0.997328
727.434612	0.996562
727.766281	0.996218
728.097901	0.996569
728.429473	0.997342
728.760996	0.995888
729.092471	0.995548
729.423897	0.996635
729.755276	0.995937
730.086606	0.996937
730.417887	0.995709
730.749120	0.996895
731.080305	0.996359
731.411442	0.995142
731.742530	0.995418
732.073570	0.996112
732.404562	0.996660
732.735506	0.995502
733.066401	0.995580
733.397249	0.996794
733.728048	0.996190
734.058798	0.996945
734.389501	0.997051
734.720156	0.996831
735.050762	0.997376
735.381320	0.996672
735.711831	0.995774
736.042293	0.996387
736.372707	0.997634
736.703073	0.995676
737.033391	0.996445
737.363661	0.997078
737.693883	0.996906
738.024056	0.995945
738.354182	0.995959
738.684260	0.996695
739.014290	0.996478
739.344272	0.996055
739.674207	0.996030
740.004093	0.996550
740.333931	0.996580
740.663722	0.996276
740.993464	0.995895
741.323159	0.995726
741.652806	0.996314
741.982405	0.996359
742.311956	0.997027
742.641460	0.996536
742.970915	0.996608
743.300323	0.994960
743.629683	0.996213
743.958996	0.997232
744.288260	0.996029
744.617477	0.996334
744.946647	0.996752
745.275768	0.997865
745.604842	0.997282
745.933869	0.996907
746.262847	0.996951
746.591778	0.995321
746.920662	0.997433
747.249498	0.998582
747.578286	0.997715
747.907027	0.997031
748.235720	0.997752
748.564365	0.996624
748.892963	0.996573
749.221514	0.996162
749.550017	0.996117
749.878473	0.996381
750.206881	0.997964
750.535242	0.997046
750.863555	0.995645
751.191821	0.996976
751.520039	0.996070
751.848210	0.995138
752.176334	0.996692
752.504411	0.996612
752.832440	0.996460
753.160421	0.996146
753.488356	0.996482
753.816243	0.996552
754.144082	0.996234
754.471875	0.996700
754.799620	0.996840
755.127318	0.996224
755.454969	0.996861
755.782572	0.998436
756.110129	0.995956
756.437638	0.998561
756.765100	0.997047
757.092515	0.996574
757.419882	0.996771
757.747203	0.996742
758.074477	0.997473
758.401703	0.997424
758.728882	0.996567
759.056014	0.997369
759.383099	0.997136
759.710138	0.996064
760.037129	0.997126
760.364073	0.997123
760.690970	0.996195
761.017820	0.995997
761.344623	0.996358
761.671379	0.996637
761.998088	0.996620
762.324751	0.996606
762.651366	0.995815
762.977935	0.994644
763.304456	0.995454
763.630931	0.992755
763.957359	0.993199
764.283740	0.994823
764.610074	0.995034
764.936362	0.996313
765.262602	0.995931
765.588796	0.996114
765.914943	0.997059
766.241044	0.996066
766.567097	0.996061
766.893104	0.996364
767.219064	0.996294
767.544978	0.996125
767.870845	0.997188
768.196665	0.996839
768.522438	0.997336
768.848165	0.996239
769.173846	0.997996
769.499479	0.997414
769.825066	0.998029
770.150607	0.997898
770.476101	0.997215
770.801548	0.997912
771.126949	0.997609
771.452303	0.996632
771.777611	0.997239
772.102872	0.997411
772.428087	0.997204
772.753256	0.997554
773.078378	0.997736
773.403453	0.996005
773.728482	0.997937
774.053465	0.996792
774.378401	0.997940
774.703291	0.998522
775.028135	0.998298
775.352932	0.997138
775.677683	0.998014
776.002388	0.998590
776.327046	0.997667
776.651658	0.999028
776.976224	0.998702
777.300743	0.996904
777.625216	0.997760
777.949643	0.997461
778.274024	0.997519
778.598359	0.997835
778.922647	0.998053
779.246889	0.998266
779.571086	0.997477
779.895236	0.998577
780.219339	0.998990
780.543397	0.997680
780.867409	0.997550
781.191374	0.997937
781.515294	0.998415
781.839167	0.997488
782.162995	0.996951
782.486776	0.997220
782.810511	0.997889
783.134201	0.998570
783.457844	0.997605
783.781441	0.996951
784.104993	0.997330
784.428498	0.997809
784.751958	0.998083
785.075372	0.999026
785.398739	0.997999
785.722061	0.997285
786.045337	0.997922
786.368568	0.996626
786.691752	0.997786
787.014891	0.997221
787.337983	0.997266
787.661030	0.997086
787.984031	0.998225
788.306987	0.997725
788.629897	0.996434
788.952760	0.997070
789.275579	0.996754
789.598351	0.997252
789.921078	0.997899
790.243759	0.997294
790.566395	0.996989
790.888984	0.997444
791.211529	0.998249
791.534027	0.997057
791.856480	0.997892
792.178888	0.998303
792.501249	0.997707
792.823566	0.999440
793.145836	0.998310
793.468062	0.998198
793.790241	0.998620
794.112375	0.996688
794.434464	0.997752
794.756507	0.998365
795.078505	0.998914
795.400457	0.998454
795.722364	0.998336
796.044226	0.997672
796.366042	0.996462
796.687812	0.996794
797.009538	0.996991
797.331218	0.998304
797.652852	0.997753
797.974442	0.997038
798.295986	0.997188
798.617484	0.996699
798.938938	0.997859
799.260346	0.997206
799.581709	0.996967
799.903026	0.998807
800.224299	0.997627
800.545526	0.997509
800.866708	0.997661
801.187845	0.997576
801.508936	0.997829
801.829983	0.997782
802.150984	0.997863
802.471940	0.997873
802.792851	0.996552
803.113717	0.997997
803.434538	0.997548
803.755314	0.998530
804.076045	0.997954
804.396731	0.997467
804.717372	0.996179
805.037967	0.998701
805.358518	0.998274
805.679024	0.997381
805.999485	0.998166
806.319901	0.998603
806.640272	0.997850
806.960598	0.996937
807.280879	0.996923
807.601115	0.998852
807.921306	0.998747
808.241453	0.998791
808.561554	0.998448
808.881611	0.997486
809.201623	0.998035
809.521590	0.997808
809.841513	0.997985
810.161390	0.996814
810.481223	0.997086
810.801011	0.998673
811.120755	0.998446
811.440453	0.997831
811.760107	0.997781
812.079716	0.998528
812.399281	0.997285
812.718801	0.997376
813.038276	0.997265
813.357707	0.998178
813.677093	0.998057
813.996434	0.997471
814.315731	0.998800
814.634983	0.998093
814.954191	0.998503
815.273354	0.997495
815.592473	0.998357
815.911547	0.997743
816.230577	0.997919
816.549562	0.998421
816.868502	0.996768
817.187399	0.998881
817.506250	0.998081
817.825058	0.996477
818.143821	0.997707
818.462539	0.997002
818.781213	0.998234
819.099843	0.997434
819.418429	0.996451
819.736970	0.997278
820.055466	0.995034
820.373919	0.994999
820.692327	0.994332
821.010691	0.994087
821.329011	0.992232
821.647286	0.989257
821.965517	0.987604
822.283704	0.985982
822.601847	0.985914
822.919945	0.985303
823.237999	0.987145
823.556010	0.987941
823.873976	0.988818
824.191897	0.990089
824.509775	0.992232
824.827609	0.992496
825.145398	0.992629
825.463144	0.991055
825.780845	0.992352
826.098502	0.992441
826.416116	0.992337
826.733685	0.991380
827.051210	0.989195
827.368692	0.989695
827.686129	0.990519
828.003522	0.993332
828.320872	0.993114
828.638177	0.993539
828.955439	0.995682
829.272656	0.995936
829.589830	0.995288
829.906960	0.996308
830.224046	0.996068
830.541088	0.996648
830.858086	0.997194
831.175041	0.997057
831.491952	0.997173
831.808819	0.997407
832.125642	0.996834
832.442421	0.997368
832.759157	0.997921
833.075849	0.995260
833.392497	0.994490
833.709101	0.992097
834.025662	0.992393
834.342179	0.992554
834.658653	0.995284
834.975083	0.995855
835.291469	0.995789
835.607811	0.996537
835.924110	0.996669
836.240366	0.998812
836.556578	0.996821
836.872746	0.997276
837.188871	0.997388
837.504952	0.996831
837.820990	0.998063
838.136984	0.997014
838.452935	0.998875
838.768842	0.998338
839.084706	0.998166
839.400526	0.997232
839.716303	0.995760
840.032037	0.996000
840.347727	0.996758
840.663373	0.996800
840.978977	0.996568
841.294537	0.998271
841.610054	0.997933
841.925527	0.998614
842.240957	0.998023
842.556344	0.997677
842.871687	0.997757
843.186987	0.997824
843.502244	0.998325
843.817458	0.998251
844.132629	0.999032
844.447756	1.000202
844.762840	0.998575
845.077881	0.999666
845.392879	0.997990
845.707833	0.998287
846.022745	0.998500
846.337613	0.999076
846.652438	0.999315
846.967221	0.999256
847.281960	0.998819
847.596656	0.999714
847.911309	0.998980
848.225919	0.998047
848.540485	0.999285
848.855009	1.000815
849.169490	0.998972
849.483928	0.999634
849.798323	0.997811
850.112675	0.999554
850.426984	0.998654
850.741251	0.998657
851.055474	0.998641
851.369654	0.999169
851.683792	0.998948
851.997887	0.999009
852.311938	0.998903
852.625947	0.998278
852.939914	0.998067
853.253837	0.999782
853.567718	1.000154
853.881555	0.999059
854.195350	0.999284
854.509103	0.999049
854.822812	0.999670
855.136479	0.998459
855.450103	0.998863
855.763685	0.998676
856.077224	0.999375
856.390720	0.998826
856.704173	0.999847
857.017584	1.000346
857.330953	0.998292
857.644278	0.998535
857.957561	0.998812
858.270802	0.999321
858.584000	0.998389
858.897155	0.998534
859.210268	0.999379
859.523339	0.999261
859.836367	0.998976
860.149352	0.998948
860.462295	0.998307
860.775195	0.999270
861.088054	0.998048
861.400869	0.999058
861.713642	0.997446
862.026373	1.000048
862.339062	0.999898
862.651708	0.999021
862.964312	0.999013
863.276873	0.999211
863.589392	0.997398
863.901869	0.998687
864.214303	0.999674
864.526696	0.998962
864.839045	0.999462
865.151353	0.999213
865.463619	0.998251
865.775842	0.999386
866.088023	0.999909
866.400162	0.998819
866.712258	0.999757
867.024313	0.999331
867.336325	1.000005
867.648296	0.998119
867.960224	0.998151
868.272110	0.999197
868.583954	0.998764
868.895755	0.999414
869.207515	0.998341
869.519233	0.999485
869.830909	0.997662
870.142542	0.998431
870.454134	0.998385
870.765684	0.998798
871.077191	0.998934
871.388657	0.997785
871.700081	0.998801
872.011463	0.999486
872.322803	0.998114
872.634101	0.998753
872.945357	0.997593
873.256571	0.997300
873.567744	0.998889
873.878874	0.998274
874.189963	0.997145
874.501010	1.000638
874.812015	0.998299
875.122979	0.999044
875.433900	0.998283
875.744780	0.999311
876.055618	0.997910
876.366415	0.997116
876.677169	0.998344
876.987882	0.997391
877.298554	0.998850
877.609183	0.997826
877.919771	0.998809
878.230317	0.998596
878.540822	0.997231
878.851285	0.997416
879.161707	0.996905
879.472087	0.998025
879.782425	0.995704
880.092722	0.994813
880.402977	0.992414
880.713191	0.990807
881.023363	0.988436
881.333494	0.986546
881.643583	0.987299
881.953631	0.986221
882.263637	0.986710
882.573602	0.988190
882.883526	0.989135
883.193408	0.990303
883.503248	0.990257
883.813048	0.991485
884.122806	0.992305
884.432522	0.994230
884.742197	0.995323
885.051831	0.994929
885.361424	0.995914
885.670975	0.996947
885.980485	0.996032
886.289954	0.996596
886.599382	0.996162
886.908768	0.997918
887.218113	0.997495
887.527417	0.997322
887.836680	0.998887
888.145901	0.998598
888.455082	0.998560
888.764221	0.998670
889.073319	0.997101
889.382376	0.998744
889.691392	0.996764
890.000366	0.998286
890.309300	0.999358
890.618193	0.998234
890.927044	0.998373
891.235855	0.996777
891.544625	0.998533
891.853353	0.997452
892.162041	0.997141
892.470687	0.997997
892.779293	0.997117
893.087858	0.996705
893.396381	0.996001
893.704864	0.996708
894.013306	0.996007
894.321707	0.994862
894.630068	0.992974
894.938387	0.992530
895.246665	0.993568
895.554903	0.993143
895.863100	0.994938
896.171256	0.994356
896.479371	0.994935
896.787446	0.994782
897.095480	0.997512
897.403473	0.996846
897.711425	0.996817
898.019336	0.997503
898.327207	0.998204
898.635038	0.996734
898.942827	0.998544
899.250576	0.998009
899.558284	0.997976
899.865952	0.997350
900.173579	0.996602
900.481165	0.998666
900.788711	0.997626
901.096216	0.997635
901.403681	0.998802
901.711105	0.997577
902.018489	0.998323
902.325832	0.998168
902.633135	0.998465
902.940397	0.998603
903.247619	0.996620
903.554800	0.996421
903.861941	0.995445
904.169041	0.993543
904.476101	0.992917
904.783121	0.990932
905.090100	0.992365
905.397039	0.993350
905.703938	0.994553
906.010796	0.995747
906.317614	0.996352
906.624391	0.997215
906.931129	0.998130
907.237826	0.997273
907.544483	0.997118
907.851099	0.996862
908.157675	0.997858
908.464211	0.998323
908.770707	0.997725
909.077163	0.998102
909.383578	0.998432
909.689954	0.998301
909.996289	0.998942
910.302584	0.998520
910.608839	0.999136
910.915054	0.998393
911.221229	1.000707
911.527363	0.997623
911.833458	0.999909
912.139513	0.999924
912.445527	0.999239
912.751502	0.998721
913.057436	0.997977
913.363331	0.998196
913.669186	0.998862
913.975000	0.997685
914.280775	0.998619
914.586510	0.997392
914.892205	0.995673
915.197859	0.995260
915.503475	0.995019
915.809050	0.993000
916.114585	0.991665
916.420081	0.992109
916.725536	0.992568
917.030952	0.992815
917.336328	0.992486
917.641665	0.993852
917.946961	0.993548
918.252218	0.995300
918.557435	0.994567
918.862612	0.996158
919.167750	0.997331
919.472848	0.996595
919.777906	0.997393
920.082925	0.997568
920.387904	0.997682
920.692843	0.997236
920.997743	0.996768
921.302603	0.998699
921.607423	0.997215
921.912204	0.998378
922.216946	0.999194
922.521647	0.998707
922.826310	0.998959
923.130932	0.998843
923.435516	0.998932
923.740059	0.998641
924.044564	0.998726
924.349028	0.998095
924.653454	0.999636
924.957840	0.998441
925.262186	0.998637
925.566493	0.998292
925.870761	0.998651
926.174989	0.999352
926.479178	1.000144
926.783328	0.999584
927.087438	0.999318
927.391509	0.998782
927.695541	0.999144
927.999533	0.999720
928.303486	0.998572
928.607400	1.000213
928.911275	0.998992
929.215110	1.000283
929.518906	0.999556
929.822663	1.000576
930.126381	1.000062
930.430060	0.998974
930.733699	0.999381
931.037299	0.999681
931.340861	1.000251
931.644383	0.998827
931.947866	0.999837
932.251309	0.999595
932.554714	0.998482
932.858080	0.999596
933.161407	0.998375
933.464694	0.999907
933.767943	0.999920
934.071153	0.999067
934.374323	0.999654
934.677455	0.998848
934.980548	0.999096
935.283602	0.999952
935.586617	0.998693
935.889593	1.000565
936.192530	1.001648
936.495428	0.999354
936.798287	0.998745
937.101108	0.999336
937.403890	0.998762
937.706632	0.999397
938.009336	0.999884
938.312002	0.999244
938.614628	0.999547
938.917216	0.998296
939.219765	0.998749
939.522275	0.999217
939.824747	0.999313
940.127179	0.998849
940.429573	1.000396
940.731929	0.997647
941.034246	0.998739
941.336524	0.997827
941.638763	0.997818
941.940964	0.998821
942.243126	0.997793
942.545250	0.998863
942.847335	0.999010
943.149381	0.999919
943.451389	0.997692
943.753359	0.998479
944.055290	1.000640
944.357182	0.999107
944.659036	0.999662
944.960851	0.999980
945.262628	0.999945
945.564367	0.998971
945.866067	0.999372
946.167729	0.999670
946.469352	0.999294
946.770937	0.997788
947.072484	1.000825
947.373992	0.999661
947.675462	0.998878
947.976893	0.999195
948.278286	1.001143
948.579641	0.998711
948.880958	0.999569
949.182236	0.999126
949.483476	0.999512
949.784678	1.000135
950.085841	0.998810
950.386967	0.998743
950.688054	0.998563
950.989103	0.998063
951.290114	0.997832
951.591087	0.998489
951.892021	0.998625
952.192917	0.998709
952.493776	0.999611
952.794596	0.998311
953.095378	0.998910
953.396122	0.998190
953.696828	1.001604
953.997496	0.999399
954.298126	0.999157
954.598718	0.998117
954.899272	0.999707
955.199788	0.999602
955.500266	0.999806
955.800706	0.999187
956.101108	0.998573
956.401472	1.000331
956.701798	0.999141
957.002087	0.999394
957.302337	0.999370
957.602550	0.999487
957.902724	0.999649
958.202861	0.999758
958.502960	0.998926
958.803022	1.001223
959.103045	0.999982
959.403031	1.001520
959.702979	1.001629
960.002889	0.999944
960.302762	0.998901
960.602596	1.000234
960.902393	1.000031
961.202153	0.999587
961.501875	1.000082
961.801559	1.000501
962.101205	0.999658
962.400814	1.000104
962.700385	0.999706
962.999918	1.000644
963.299414	0.999028
963.598873	1.000849
963.898293	0.999543
964.197677	0.999306
964.497022	0.999342
964.796331	1.000461
965.095601	0.999789
965.394835	0.999604
965.694030	1.000925
965.993189	0.999137
966.292309	1.000227
966.591393	0.999313
966.890439	0.999466
967.189447	0.999214
967.488419	1.000500
967.787353	0.998508
968.086249	1.000385
968.385108	0.999784
968.683930	1.001308
968.982714	0.999595
969.281462	1.000279
969.580172	0.999451
969.878844	0.999843
970.177480	0.999902
970.476078	1.001255
970.774639	0.999980
971.073162	0.999649
971.371649	1.000111
971.670098	0.999041
971.968510	1.000088
972.266885	0.998851
972.565223	0.999685
972.863524	0.998499
973.161788	0.999651
973.460014	1.001153
973.758204	0.999842
974.056356	0.998075
974.354471	0.999350
974.652550	1.000336
974.950591	0.999556
975.248595	0.998588
975.546563	1.000418
975.844493	1.000649
976.142386	0.999760
976.440243	0.999704
976.738062	0.999736
977.035845	0.998510
977.333590	1.000608
977.631299	0.999350
977.928971	0.999301
978.226606	0.998705
978.524204	0.999112
978.821765	0.999775
979.119290	1.000641
979.416777	0.999064
979.714228	0.999310
980.011642	0.999496
980.309020	0.998539
980.606360	0.999723
980.903664	0.998543
981.200931	0.999852
981.498162	0.998961
981.795356	0.999871
982.092513	0.998759
982.389633	0.999897
982.686717	0.999390
982.983764	1.000070
983.280775	0.999480
983.577749	1.000044
983.874686	0.998869
984.171587	0.998998
984.468451	0.998869
984.765279	1.000402
985.062070	0.998877
985.358824	0.999464
985.655543	0.999870
985.952224	0.999764
986.248869	0.999366
986.545478	1.001914
986.842050	1.000638
987.138586	0.999607
987.435086	0.998959
987.731549	1.001449
988.027975	1.000622
988.324366	0.999404
988.620719	1.000127
988.917037	1.000018
989.213318	1.001367
989.509563	0.999723
989.805772	0.999625
990.101944	1.000665
990.398080	0.998904
990.694180	1.000531
990.990244	0.998719
991.286271	0.999708
991.582262	1.001169
991.878217	0.999689
992.174136	1.000735
992.470019	0.999333
992.765865	1.001907
993.061676	0.999737
993.357450	1.000850
993.653188	1.000525
993.948890	0.999338
994.244556	1.000023
994.540186	0.999469
994.835780	0.999339
995.131337	1.000867
995.426859	0.999772
995.722345	1.000046
996.017795	0.999406
996.313208	1.000120
996.608586	0.998889
996.903928	0.999224
997.199234	0.999396
997.494504	1.000949
997.789738	0.998689
998.084936	0.999838
998.380099	0.999979
998.675225	1.001004
998.970316	1.000412
999.265371	1.000256
999.560390	0.999938
999.855373	0.999111
1000.150320	1.000037
1000.445232	0.999424
1000.740108	0.999318
1001.034948	0.999311
1001.329752	1.000474
1001.624521	0.998830
1001.919254	0.998865
1002.213951	0.999808
1002.508613	0.999800
1002.803239	0.999894
1003.097829	1.000668
1003.392384	1.001070
1003.686903	1.000326
1003.981386	0.999738
1004.275834	1.001137
1004.570246	0.998601
1004.864623	1.000922
1005.158964	1.000136
1005.453270	0.999179
1005.747540	0.999244
1006.041775	1.000174
1006.335974	1.000283
1006.630138	1.001343
1006.924266	0.999265
1007.218359	0.998740
1007.512416	1.001852
1007.806438	0.999832
1008.100425	1.000433
1008.394376	1.000897
1008.688292	0.999511
1008.982172	0.998108
1009.276017	0.999318
1009.569827	1.002245
1009.863602	0.999192
1010.157341	1.000145
1010.451045	0.999474
1010.744714	1.002206
1011.038347	1.000450
1011.331945	0.999319
1011.625508	0.999652
1011.919036	0.999408
1012.212528	1.000774
1012.505986	0.999317
1012.799408	0.999594
1013.092795	1.000010
1013.386147	1.000536
1013.679464	1.000476
1013.972745	0.999546
1014.265992	1.000127
1014.559204	0.999242
1014.852380	0.999095
1015.145521	0.999518
1015.438628	1.000068
1015.731699	0.999220
1016.024736	1.000310
1016.317737	1.001105
1016.610703	0.999890
1016.903635	1.000195
1017.196531	1.000323
1017.489393	0.999541
1017.782219	1.000008
1018.075011	0.999803
1018.367768	0.998988
1018.660490	1.001191
1018.953177	1.001191
1019.245829	1.001191
