Dividing Wavelength (nm)	Counts (n)	Blue Motor Position (mm): 30.000000	Red Motor Position (mm): 0.000000	
326.493990	0.998374
326.888308	0.998374
327.282561	0.998374
327.676750	1.000406
328.070874	1.000727
328.464933	1.002327
328.858929	1.000726
329.252859	1.000803
329.646726	0.999948
330.040528	0.999797
330.434265	1.000512
330.827938	0.999646
331.221547	1.001793
331.615091	1.000267
332.008571	1.001959
332.401986	1.000597
332.795338	0.999196
333.188625	1.001263
333.581847	1.000402
333.975006	1.001654
334.368100	1.000746
334.761129	1.000438
335.154095	1.000981
335.546996	0.998427
335.939833	0.998547
336.332606	1.000100
336.725315	0.998533
337.117960	1.000029
337.510540	0.998303
337.903056	0.999179
338.295508	1.000168
338.687896	1.000202
339.080220	0.999712
339.472480	0.999160
339.864676	0.999977
340.256807	0.999123
340.648875	0.999532
341.040879	1.000796
341.432818	1.000838
341.824694	0.999557
342.216506	0.999953
342.608253	0.999607
342.999937	0.999623
343.391557	0.998957
343.783113	1.001184
344.174605	0.999661
344.566033	0.998359
344.957397	1.000751
345.348697	0.999950
345.739934	0.999257
346.131106	0.998811
346.522215	0.998649
346.913260	0.999834
347.304241	0.998251
347.695159	0.999364
348.086012	0.999030
348.476802	0.999145
348.867528	0.998562
349.258191	0.999923
349.648789	0.999579
350.039324	0.998923
350.429796	0.997926
350.820203	0.998399
351.210548	0.999308
351.600828	0.998000
351.991045	0.998189
352.381198	1.000011
352.771288	0.999547
353.161314	0.999511
353.551276	0.997492
353.941175	0.997195
354.331010	0.998640
354.720782	0.999059
355.110490	0.998728
355.500135	0.998271
355.889717	0.998211
356.279235	0.997378
356.668689	0.998480
357.058080	0.998767
357.447408	0.997768
357.836672	0.999158
358.225873	0.998433
358.615010	0.998262
359.004084	0.997273
359.393095	0.998523
359.782043	0.998355
360.170927	0.998760
360.559748	0.998441
360.948505	0.997759
361.337199	0.997976
361.725830	0.998520
362.114398	0.997784
362.502903	0.997424
362.891344	0.996814
363.279722	0.997679
363.668037	0.998506
364.056289	0.997328
364.444478	0.998905
364.832603	0.997100
365.220665	0.997537
365.608665	0.996911
365.996601	0.996893
366.384474	0.995556
366.772284	0.996909
367.160031	0.995100
367.547715	0.995908
367.935336	0.994811
368.322893	0.995171
368.710388	0.993177
369.097820	0.991250
369.485189	0.988157
369.872495	0.987472
370.259738	0.983789
370.646918	0.982972
371.034035	0.979846
371.421090	0.977665
371.808081	0.972012
372.195010	0.969229
372.581875	0.964237
372.968678	0.959442
373.355418	0.954814
373.742096	0.948431
374.128710	0.945238
374.515262	0.939970
374.901751	0.933111
375.288177	0.929360
375.674540	0.922058
376.060841	0.914931
376.447079	0.910156
376.833254	0.903662
377.219367	0.898837
377.605417	0.886730
377.991404	0.883812
378.377329	0.876674
378.763191	0.870754
379.148991	0.862278
379.534727	0.853568
379.920402	0.846301
380.306013	0.842350
380.691563	0.829820
381.077049	0.823233
381.462474	0.819193
381.847835	0.807303
382.233134	0.803230
382.618371	0.803445
383.003545	0.785731
383.388657	0.783744
383.773706	0.775912
384.158693	0.772070
384.543618	0.767043
384.928480	0.758621
385.313280	0.748136
385.698017	0.747862
386.082692	0.736633
386.467305	0.734307
386.851856	0.729494
387.236344	0.724029
387.620770	0.717904
388.005133	0.713127
388.389435	0.707715
388.773674	0.704657
389.157851	0.696414
389.541965	0.693669
389.926018	0.700562
390.310008	0.687522
390.693936	0.684153
391.077802	0.677125
391.461606	0.678267
391.845348	0.667124
392.229027	0.666484
392.612645	0.664927
392.996200	0.651144
393.379694	0.644185
393.763125	0.635471
394.146494	0.639948
394.529801	0.629862
394.913047	0.622230
395.296230	0.628337
395.679351	0.619657
396.062410	0.616295
396.445408	0.619525
396.828343	0.614574
397.211217	0.609342
397.594028	0.622019
397.976778	0.612047
398.359466	0.608065
398.742092	0.604067
399.124656	0.616079
399.507158	0.603160
399.889598	0.601502
400.271977	0.592027
400.654294	0.596309
401.036549	0.595305
401.418742	0.599623
401.800874	0.585041
402.182944	0.582295
402.564952	0.574093
402.946898	0.576128
403.328783	0.576564
403.710606	0.587166
404.092367	0.563292
404.474067	0.567609
404.855705	0.566628
405.237282	0.575473
405.618797	0.561664
406.000250	0.557817
406.381642	0.547724
406.762972	0.552552
407.144240	0.552231
407.525447	0.551268
407.906593	0.544741
408.287677	0.539975
408.668700	0.548210
409.049661	0.542738
409.430560	0.537303
409.811399	0.545623
410.192176	0.527473
410.572891	0.535369
410.953545	0.523006
411.334138	0.536547
411.714669	0.528822
412.095139	0.541268
412.475547	0.525457
412.855894	0.526917
413.236180	0.526668
413.616405	0.531990
413.996568	0.522578
414.376670	0.528439
414.756711	0.532655
415.136691	0.530480
415.516609	0.520842
415.896466	0.517790
416.276262	0.514255
416.655997	0.515848
417.035670	0.497568
417.415283	0.488831
417.794834	0.493550
418.174324	0.499761
418.553753	0.508472
418.933121	0.489811
419.312428	0.484829
419.691674	0.490478
420.070859	0.478879
420.449983	0.487216
420.829045	0.476066
421.208047	0.485033
421.586988	0.478507
421.965867	0.477104
422.344686	0.466214
422.723444	0.478484
423.102141	0.497083
423.480777	0.469430
423.859352	0.490673
424.237866	0.468971
424.616319	0.469940
424.994712	0.461565
425.373044	0.472469
425.751314	0.462187
426.129524	0.479398
426.507673	0.463965
426.885762	0.458540
427.263789	0.465395
427.641756	0.476533
428.019662	0.468119
428.397508	0.468887
428.775292	0.475429
429.153016	0.468985
429.530679	0.477944
429.908282	0.472903
430.285824	0.484419
430.663305	0.466761
431.040726	0.489108
431.418086	0.491460
431.795385	0.486753
432.172624	0.488608
432.549802	0.491745
432.926920	0.493845
433.303977	0.497253
433.680974	0.497538
434.057910	0.500312
434.434786	0.503176
434.811601	0.510072
435.188355	0.497987
435.565050	0.510732
435.941683	0.516592
436.318257	0.507706
436.694770	0.513689
437.071222	0.516958
437.447614	0.526178
437.823946	0.536418
438.200218	0.533024
438.576429	0.546882
438.952580	0.547707
439.328670	0.551304
439.704700	0.562900
440.080670	0.569674
440.456580	0.562744
440.832429	0.576486
441.208218	0.591510
441.583947	0.589802
441.959616	0.596081
442.335224	0.608517
442.710773	0.608726
443.086261	0.616087
443.461689	0.631920
443.837057	0.633607
444.212365	0.636256
444.587612	0.647590
444.962800	0.649296
445.337927	0.659184
445.712995	0.682232
446.088002	0.668542
446.462949	0.683361
446.837837	0.695284
447.212664	0.695032
447.587431	0.701897
447.962139	0.695599
448.336786	0.682179
448.711374	0.695647
449.085901	0.727016
449.460369	0.738227
449.834776	0.747770
450.209124	0.747643
450.583412	0.754174
450.957640	0.757217
451.331808	0.771380
451.705917	0.788112
452.079965	0.797963
452.453954	0.802376
452.827883	0.811439
453.201752	0.818057
453.575562	0.828356
453.949311	0.832670
454.323001	0.840070
454.696632	0.845745
455.070202	0.851319
455.443713	0.854648
455.817164	0.860209
456.190556	0.866380
456.563888	0.872194
456.937160	0.876631
457.310373	0.886724
457.683526	0.892540
458.056619	0.899628
458.429653	0.905114
458.802628	0.910036
459.175542	0.913844
459.548398	0.916514
459.921194	0.918816
460.293930	0.923003
460.666607	0.922848
461.039224	0.925479
461.411782	0.928995
461.784280	0.934141
462.156719	0.939791
462.529099	0.943784
462.901419	0.949520
463.273680	0.952896
463.645882	0.956041
464.018024	0.960540
464.390106	0.962297
464.762130	0.963804
465.134094	0.964787
465.505999	0.963862
465.877845	0.962949
466.249631	0.965590
466.621358	0.969038
466.993026	0.973059
467.364634	0.975817
467.736184	0.977555
468.107674	0.979826
468.479105	0.981030
468.850477	0.982658
469.221790	0.984329
469.593043	0.985325
469.964238	0.987201
470.335373	0.987320
470.706449	0.988282
471.077467	0.989257
471.448425	0.989780
471.819324	0.990367
472.190164	0.989133
472.560945	0.990674
472.931667	0.991547
473.302330	0.992339
473.672934	0.992512
474.043479	0.992551
474.413965	0.993155
474.784393	0.993315
475.154761	0.993309
475.525070	0.993586
475.895321	0.994684
476.265513	0.995196
476.635645	0.994862
477.005719	0.994625
477.375734	0.993979
477.745691	0.994215
478.115588	0.994884
478.485427	0.995424
478.855207	0.995449
479.224928	0.994964
479.594591	0.994722
479.964194	0.994942
480.333739	0.995040
480.703226	0.995257
481.072653	0.995298
481.442022	0.995402
481.811333	0.995743
482.180584	0.995618
482.549777	0.995488
482.918912	0.995916
483.287988	0.995604
483.657005	0.995915
484.025964	0.996202
484.394864	0.995830
484.763706	0.995599
485.132489	0.995698
485.501213	0.995615
485.869879	0.996299
486.238487	0.995423
486.607036	0.996602
486.975527	0.996373
487.343959	0.995665
487.712333	0.996383
488.080648	0.995209
488.448905	0.996048
488.817104	0.995753
489.185244	0.995896
489.553326	0.996114
489.921350	0.996769
490.289315	0.995853
490.657222	0.995309
491.025070	0.995560
491.392861	0.996063
491.760593	0.995829
492.128267	0.996047
492.495883	0.995671
492.863440	0.996552
493.230939	0.996488
493.598380	0.996731
493.965763	0.996309
494.333088	0.995770
494.700354	0.995539
495.067563	0.996214
495.434713	0.996541
495.801805	0.996358
496.168839	0.996523
496.535815	0.996494
496.902733	0.996241
497.269593	0.996367
497.636395	0.995761
498.003139	0.996415
498.369825	0.997443
498.736453	0.996446
499.103023	0.996901
499.469535	0.996616
499.835989	0.996712
500.202385	0.996563
500.568723	0.996897
500.935003	0.996400
501.301226	0.997028
501.667390	0.996617
502.033497	0.996814
502.399546	0.996707
502.765537	0.997007
503.131470	0.996808
503.497345	0.997197
503.863163	0.996757
504.228923	0.996833
504.594625	0.996820
504.960269	0.996731
505.325856	0.997624
505.691385	0.996779
506.056856	0.996714
506.422270	0.997018
506.787625	0.997200
507.152924	0.997138
507.518164	0.996726
507.883347	0.996826
508.248472	0.996739
508.613540	0.997078
508.978550	0.997889
509.343503	0.997020
509.708398	0.997667
510.073236	0.996585
510.438016	0.996134
510.802738	0.996999
511.167403	0.996986
511.532010	0.997357
511.896561	0.997248
512.261053	0.996002
512.625488	0.997217
512.989866	0.997368
513.354186	0.996470
513.718449	0.997108
514.082655	0.996764
514.446803	0.996630
514.810894	0.996892
515.174927	0.997123
515.538904	0.997243
515.902822	0.996551
516.266684	0.997043
516.630488	0.996832
516.994235	0.997363
517.357925	0.997003
517.721558	0.996979
518.085133	0.996782
518.448651	0.997333
518.812112	0.997961
519.175516	0.997129
519.538863	0.996479
519.902152	0.997275
520.265385	0.996965
520.628560	0.996647
520.991678	0.996736
521.354739	0.997721
521.717743	0.996900
522.080690	0.996493
522.443580	0.997281
522.806413	0.996394
523.169189	0.997340
523.531908	0.996713
523.894569	0.997310
524.257174	0.996720
524.619722	0.996374
524.982213	0.997642
525.344647	0.996932
525.707025	0.996233
526.069345	0.995771
526.431608	0.997227
526.793815	0.997231
527.155964	0.997204
527.518057	0.997429
527.880093	0.996563
528.242072	0.996457
528.603995	0.996428
528.965860	0.996931
529.327669	0.997158
529.689421	0.996046
530.051117	0.997062
530.412755	0.997450
530.774337	0.996593
531.135862	0.997109
531.497331	0.996379
531.858743	0.997206
532.220098	0.996631
532.581396	0.996732
532.942638	0.996961
533.303824	0.997628
533.664953	0.996860
534.026025	0.997578
534.387040	0.996998
534.747999	0.996580
535.108902	0.997009
535.469748	0.996946
535.830537	0.997214
536.191270	0.996556
536.551947	0.996475
536.912567	0.996884
537.273131	0.997334
537.633638	0.996949
537.994089	0.997075
538.354483	0.996707
538.714821	0.996774
539.075103	0.996965
539.435328	0.997245
539.795497	0.997150
540.155609	0.997131
540.515665	0.997030
540.875665	0.996579
541.235609	0.996729
541.595496	0.996207
541.955328	0.996659
542.315102	0.996793
542.674821	0.996934
543.034483	0.996854
543.394090	0.996173
543.753640	0.997024
544.113134	0.995722
544.472571	0.997142
544.831953	0.996634
545.191278	0.997116
545.550548	0.996252
545.909761	0.995923
546.268918	0.997119
546.628019	0.997476
546.987064	0.996649
547.346053	0.996553
547.704986	0.996880
548.063863	0.996995
548.422684	0.996878
548.781449	0.996644
549.140158	0.997170
549.498811	0.996314
549.857408	0.996471
550.215949	0.996108
550.574434	0.996530
550.932864	0.997286
551.291237	0.996920
551.649555	0.996944
552.007817	0.996698
552.366022	0.997063
552.724173	0.997131
553.082267	0.996598
553.440305	0.996018
553.798288	0.996529
554.156215	0.996417
554.514086	0.996671
554.871902	0.996612
555.229661	0.996457
555.587365	0.997030
555.945014	0.996910
556.302606	0.995743
556.660143	0.996925
557.017625	0.996542
557.375050	0.996172
557.732421	0.996756
558.089735	0.996680
558.446994	0.996351
558.804197	0.996544
559.161345	0.996522
559.518437	0.996554
559.875474	0.997065
560.232455	0.996981
560.589381	0.997541
560.946251	0.996261
561.303065	0.996724
561.659825	0.996851
562.016528	0.996815
562.373177	0.996756
562.729770	0.996395
563.086307	0.995379
563.442789	0.997034
563.799216	0.995792
564.155587	0.997105
564.511904	0.996769
564.868164	0.995962
565.224370	0.996913
565.580520	0.996167
565.936615	0.996794
566.292654	0.996574
566.648638	0.997063
567.004567	0.996497
567.360441	0.997504
567.716260	0.996398
568.072023	0.995995
568.427732	0.996476
568.783385	0.996434
569.138982	0.996399
569.494525	0.996325
569.850013	0.996900
570.205445	0.996643
570.560823	0.997031
570.916145	0.997025
571.271412	0.996823
571.626625	0.996747
571.981782	0.996717
572.336884	0.996931
572.691931	0.996934
573.046923	0.996983
573.401860	0.996874
573.756743	0.996996
574.111570	0.996086
574.466342	0.997433
574.821059	0.996739
575.175722	0.996939
575.530330	0.996803
575.884882	0.996599
576.239380	0.997392
576.593823	0.996561
576.948211	0.997254
577.302544	0.996754
577.656823	0.996867
578.011047	0.996117
578.365216	0.997245
578.719330	0.997359
579.073389	0.996155
579.427394	0.996086
579.781344	0.997147
580.135239	0.996427
580.489080	0.996505
580.842866	0.996924
581.196597	0.996605
581.550273	0.996203
581.903895	0.996711
582.257463	0.996520
582.610975	0.996559
582.964434	0.996569
583.317837	0.996842
583.671186	0.996716
584.024481	0.996148
584.377721	0.995940
584.730906	0.997123
585.084037	0.997658
585.437113	0.996927
585.790135	0.996591
586.143103	0.996909
586.496016	0.996976
586.848874	0.997066
587.201679	0.996674
587.554428	0.995727
587.907124	0.996588
588.259765	0.997751
588.612352	0.997624
588.964884	0.997193
589.317362	0.996696
589.669786	0.997278
590.022155	0.995657
590.374470	0.996229
590.726731	0.996119
591.078937	0.997051
591.431090	0.996485
591.783188	0.995907
592.135232	0.997321
592.487222	0.996696
592.839157	0.996492
593.191038	0.997138
593.542866	0.997029
593.894639	0.996268
594.246358	0.997037
594.598022	0.996763
594.949633	0.996763
595.301190	0.996707
595.652692	0.996399
596.004141	0.996313
596.355535	0.996473
596.706876	0.996574
597.058162	0.997099
597.409395	0.997298
597.760573	0.996428
598.111698	0.997235
598.462768	0.996314
598.813785	0.996612
599.164748	0.996445
599.515657	0.996112
599.866511	0.996947
600.217312	0.997383
600.568060	0.996295
600.918753	0.996850
601.269392	0.996816
601.619978	0.997131
601.970510	0.996568
602.320988	0.996667
602.671412	0.997081
603.021783	0.996804
603.372100	0.997734
603.722363	0.997354
604.072572	0.996564
604.422728	0.996619
604.772830	0.996313
605.122878	0.996491
605.472872	0.997124
605.822813	0.996713
606.172701	0.996981
606.522534	0.996595
606.872314	0.997784
607.222041	0.997089
607.571714	0.997145
607.921333	0.996211
608.270899	0.996113
608.620411	0.996729
608.969870	0.997895
609.319276	0.997415
609.668627	0.997558
610.017926	0.996616
610.367171	0.997083
610.716362	0.996084
611.065500	0.996969
611.414585	0.996311
611.763616	0.996773
612.112594	0.996498
612.461518	0.995976
612.810389	0.996150
613.159207	0.996361
613.507971	0.995392
613.856682	0.998549
614.205340	0.995558
614.553945	0.996790
614.902496	0.996506
615.250994	0.997120
615.599439	0.996577
615.947830	0.996510
616.296169	0.996563
616.644454	0.996698
616.992686	0.996943
617.340864	0.996585
617.688990	0.996682
618.037063	0.996995
618.385082	0.996322
618.733048	0.996138
619.080961	0.996197
619.428821	0.997065
619.776628	0.996523
620.124382	0.997775
620.472083	0.996910
620.819731	0.997710
621.167326	0.997479
621.514868	0.997108
621.862357	0.996820
622.209793	0.996777
622.557176	0.997109
622.904506	0.996216
623.251783	0.996622
623.599007	0.996638
623.946179	0.996341
624.293297	0.997381
624.640363	0.997097
624.987376	0.996672
625.334336	0.996596
625.681243	0.996477
626.028097	0.996831
626.374899	0.997010
626.721647	0.997036
627.068343	0.996954
627.414987	0.996687
627.761577	0.996233
628.108115	0.996082
628.454600	0.997724
628.801032	0.996991
629.147412	0.996872
629.493739	0.998256
629.840014	0.996930
630.186236	0.997122
630.532405	0.996669
630.878521	0.995974
631.224585	0.996295
631.570597	0.997141
631.916556	0.997124
632.262462	0.996302
632.608316	0.996853
632.954117	0.996938
633.299866	0.997182
633.645562	0.995957
633.991206	0.996997
634.336797	0.996881
634.682336	0.996896
635.027823	0.997085
635.373257	0.996967
635.718639	0.997321
636.063968	0.997278
636.409245	0.996343
636.754470	0.997535
637.099642	0.997096
637.444762	0.996545
637.789829	0.996374
638.134845	0.996639
638.479808	0.996883
638.824719	0.996458
639.169577	0.997341
639.514383	0.997064
639.859137	0.997471
640.203839	0.997014
640.548489	0.996654
640.893086	0.996303
641.237632	0.997354
641.582125	0.996004
641.926566	0.997134
642.270955	0.997617
642.615292	0.997287
642.959576	0.996684
643.303809	0.997726
643.647990	0.996795
643.992118	0.996558
644.336195	0.996380
644.680219	0.997860
645.024192	0.996991
645.368112	0.996851
645.711981	0.997145
646.055797	0.996725
646.399562	0.995926
646.743274	0.997597
647.086935	0.997053
647.430544	0.996616
647.774101	0.996556
648.117606	0.996849
648.461059	0.997380
648.804460	0.996855
649.147810	0.996703
649.491108	0.997634
649.834354	0.996484
650.177548	0.996845
650.520690	0.996386
650.863781	0.996600
651.206820	0.996825
651.549807	0.997247
651.892742	0.997686
652.235626	0.997084
652.578458	0.997284
652.921238	0.997772
653.263967	0.997589
653.606644	0.996890
653.949269	0.997507
654.291843	0.996163
654.634365	0.997356
654.976836	0.996541
655.319255	0.997473
655.661622	0.997394
656.003938	0.997265
656.346203	0.995996
656.688416	0.997915
657.030577	0.997115
657.372687	0.997087
657.714746	0.996407
658.056753	0.996570
658.398708	0.996720
658.740612	0.997846
659.082465	0.996842
659.424266	0.996989
659.766016	0.995999
660.107715	0.996761
660.449362	0.997007
660.790958	0.996190
661.132503	0.997431
661.473996	0.996597
661.815438	0.997266
662.156829	0.996607
662.498168	0.997592
662.839456	0.997377
663.180693	0.997105
663.521879	0.996575
663.863013	0.996778
664.204097	0.996156
664.545129	0.996776
664.886110	0.997198
665.227040	0.995972
665.567918	0.996403
665.908746	0.996981
666.249522	0.996753
666.590248	0.996715
666.930922	0.996342
667.271545	0.996461
667.612118	0.996558
667.952639	0.997244
668.293109	0.996843
668.633528	0.996572
668.973896	0.996414
669.314213	0.996719
669.654480	0.996664
669.994695	0.995816
670.334859	0.997002
670.674973	0.996079
671.015035	0.997091
671.355047	0.996512
671.695008	0.994835
672.034918	0.995170
672.374777	0.996423
672.714585	0.996947
673.054342	0.996587
673.394049	0.995925
673.733705	0.996117
674.073310	0.996909
674.412864	0.997138
674.752368	0.995679
675.091820	0.996878
675.431223	0.997361
675.770574	0.995477
676.109875	0.996502
676.449125	0.996267
676.788324	0.996042
677.127473	0.996785
677.466571	0.997245
677.805619	0.996572
678.144616	0.997693
678.483562	0.996773
678.822458	0.996467
679.161303	0.995969
679.500098	0.996727
679.838842	0.996559
680.177535	0.997389
680.516179	0.995817
680.854771	0.996161
681.193314	0.996042
681.531805	0.996173
681.870247	0.996686
682.208638	0.996773
682.546978	0.995980
682.885268	0.996067
683.223508	0.996149
683.561697	0.996357
683.899836	0.996337
684.237925	0.996165
684.575963	0.996180
684.913951	0.997235
685.251889	0.995646
685.589776	0.996355
685.927614	0.996388
686.265401	0.995576
686.603137	0.996089
686.940824	0.996334
687.278460	0.996087
687.616046	0.996183
687.953582	0.995889
688.291068	0.996460
688.628504	0.996474
688.965889	0.995491
689.303224	0.994638
689.640510	0.996507
689.977745	0.995314
690.314930	0.995811
690.652065	0.995777
690.989150	0.996417
691.326185	0.996147
691.663170	0.995554
692.000105	0.996201
692.336990	0.996199
692.673825	0.995748
693.010610	0.996745
693.347345	0.996084
693.684030	0.996420
694.020665	0.995700
694.357251	0.996461
694.693786	0.996170
695.030272	0.995068
695.366707	0.996366
695.703093	0.996236
696.039429	0.995357
696.375716	0.996280
696.711952	0.995272
697.048139	0.996547
697.384276	0.996788
697.720363	0.996071
698.056400	0.994338
698.392388	0.995050
698.728326	0.996473
699.064214	0.997722
699.400053	0.996530
699.735842	0.997096
700.071581	0.996745
700.407270	0.996487
700.742910	0.996984
701.078501	0.997235
701.414042	0.997263
701.749533	0.995565
702.084974	0.996459
702.420366	0.996473
702.755709	0.996030
703.091002	0.996865
703.426246	0.997177
703.761440	0.997210
704.096584	0.995991
704.431679	0.996229
704.766725	0.996812
705.101721	0.997414
705.436668	0.995737
705.771565	0.995645
706.106413	0.995014
706.441212	0.996437
706.775961	0.996817
707.110661	0.995709
707.445311	0.996184
707.779913	0.996504
708.114465	0.996986
708.448967	0.996124
708.783421	0.996404
709.117825	0.996777
709.452180	0.996740
709.786485	0.996643
710.120742	0.996569
710.454949	0.995871
710.789107	0.995424
711.123216	0.994733
711.457275	0.995478
711.791286	0.996432
712.125247	0.996952
712.459159	0.996086
712.793023	0.995882
713.126837	0.996116
713.460602	0.995813
713.794318	0.994587
714.127985	0.995404
714.461602	0.996718
714.795171	0.995187
715.128691	0.995853
715.462162	0.996638
715.795584	0.995838
716.128957	0.997271
716.462281	0.996495
716.795556	0.995737
717.128782	0.996981
717.461960	0.995616
717.795088	0.996313
718.128167	0.997641
718.461198	0.995147
718.794180	0.996430
719.127113	0.997077
719.459997	0.995513
719.792833	0.996653
720.125619	0.995246
720.458357	0.996952
720.791046	0.997205
721.123686	0.997093
721.456278	0.997043
721.788821	0.997356
722.121315	0.997697
722.453761	0.996761
722.786158	0.995942
723.118506	0.997337
723.450805	0.995895
723.783056	0.996657
724.115259	0.996747
724.447412	0.997353
724.779518	0.996605
725.111574	0.995489
725.443582	0.996341
725.775542	0.996934
726.107453	0.997307
726.439315	0.996979
726.771129	0.997075
727.102895	0.996628
727.434612	0.996275
727.766281	0.996456
728.097901	0.995215
728.429473	0.996500
728.760996	0.995644
729.092471	0.995011
729.423897	0.996893
729.755276	0.996680
730.086606	0.996112
730.417887	0.996551
730.749120	0.996604
731.080305	0.997676
731.411442	0.994643
731.742530	0.994646
732.073570	0.995997
732.404562	0.995735
732.735506	0.995597
733.066401	0.995766
733.397249	0.995828
733.728048	0.995450
734.058798	0.996275
734.389501	0.997322
734.720156	0.997250
735.050762	0.996769
735.381320	0.996717
735.711831	0.996176
736.042293	0.995865
736.372707	0.996636
736.703073	0.995616
737.033391	0.996838
737.363661	0.996848
737.693883	0.996169
738.024056	0.996461
738.354182	0.996306
738.684260	0.996751
739.014290	0.996361
739.344272	0.995750
739.674207	0.996129
740.004093	0.997277
740.333931	0.996461
740.663722	0.996177
740.993464	0.996362
741.323159	0.995647
741.652806	0.996898
741.982405	0.996865
742.311956	0.996785
742.641460	0.996670
742.970915	0.995618
743.300323	0.995276
743.629683	0.996328
743.958996	0.997454
744.288260	0.995389
744.617477	0.996883
744.946647	0.995710
745.275768	0.996620
745.604842	0.995684
745.933869	0.996898
746.262847	0.997783
746.591778	0.995766
746.920662	0.998515
747.249498	0.997507
747.578286	0.996917
747.907027	0.996842
748.235720	0.997020
748.564365	0.996787
748.892963	0.995725
749.221514	0.996541
749.550017	0.996067
749.878473	0.997021
750.206881	0.997956
750.535242	0.996539
750.863555	0.996080
751.191821	0.997004
751.520039	0.996852
751.848210	0.995862
752.176334	0.996227
752.504411	0.997175
752.832440	0.997532
753.160421	0.996902
753.488356	0.996866
753.816243	0.996108
754.144082	0.996294
754.471875	0.996384
754.799620	0.997327
755.127318	0.997167
755.454969	0.996782
755.782572	0.998452
756.110129	0.997020
756.437638	0.997537
756.765100	0.997654
757.092515	0.996424
757.419882	0.996315
757.747203	0.995897
758.074477	0.997545
758.401703	0.996608
758.728882	0.995510
759.056014	0.996148
759.383099	0.996439
759.710138	0.997083
760.037129	0.996611
760.364073	0.998043
760.690970	0.996542
761.017820	0.995593
761.344623	0.997279
761.671379	0.998197
761.998088	0.997124
762.324751	0.996145
762.651366	0.996709
762.977935	0.994814
763.304456	0.994854
763.630931	0.993580
763.957359	0.992823
764.283740	0.994440
764.610074	0.995292
764.936362	0.994183
765.262602	0.996219
765.588796	0.996642
765.914943	0.995796
766.241044	0.997113
766.567097	0.996614
766.893104	0.995781
767.219064	0.995900
767.544978	0.996585
767.870845	0.995850
768.196665	0.996623
768.522438	0.997497
768.848165	0.998007
769.173846	0.996917
769.499479	0.998007
769.825066	0.997906
770.150607	0.998122
770.476101	0.997482
770.801548	0.998293
771.126949	0.998029
771.452303	0.997321
771.777611	0.998079
772.102872	0.997341
772.428087	0.996486
772.753256	0.997369
773.078378	0.997303
773.403453	0.997762
773.728482	0.998616
774.053465	0.997449
774.378401	0.997782
774.703291	0.998617
775.028135	0.998324
775.352932	0.996887
775.677683	0.997784
776.002388	0.997955
776.327046	0.997181
776.651658	0.999754
776.976224	0.998518
777.300743	0.998053
777.625216	0.998292
777.949643	0.997731
778.274024	0.997154
778.598359	0.997703
778.922647	0.998647
779.246889	0.998696
779.571086	0.997483
779.895236	0.998089
780.219339	0.999327
780.543397	0.997460
780.867409	0.998329
781.191374	0.997519
781.515294	0.997667
781.839167	0.997512
782.162995	0.998083
782.486776	0.997753
782.810511	0.998175
783.134201	0.998900
783.457844	0.998122
783.781441	0.998148
784.104993	0.997112
784.428498	0.998275
784.751958	0.999151
785.075372	0.999202
785.398739	0.998042
785.722061	0.997118
786.045337	0.997760
786.368568	0.997224
786.691752	0.997338
787.014891	0.997448
787.337983	0.996713
787.661030	0.997716
787.984031	0.997735
788.306987	0.997668
788.629897	0.996791
788.952760	0.996869
789.275579	0.997770
789.598351	0.997395
789.921078	0.998072
790.243759	0.997969
790.566395	0.997943
790.888984	0.998183
791.211529	0.998146
791.534027	0.998404
791.856480	0.997366
792.178888	0.997870
792.501249	0.998136
792.823566	0.998968
793.145836	0.997484
793.468062	0.998384
793.790241	0.998495
794.112375	0.997229
794.434464	0.998759
794.756507	0.999462
795.078505	0.996985
795.400457	0.997320
795.722364	0.997768
796.044226	0.997818
796.366042	0.997052
796.687812	0.996569
797.009538	0.997052
797.331218	0.998468
797.652852	0.999141
797.974442	0.997624
798.295986	0.998107
798.617484	0.997004
798.938938	0.997930
799.260346	0.997435
799.581709	0.996720
799.903026	0.998926
800.224299	0.997761
800.545526	0.997356
800.866708	0.997487
801.187845	0.998370
801.508936	0.997592
801.829983	0.998328
802.150984	0.998219
802.471940	0.997850
802.792851	0.997781
803.113717	0.998909
803.434538	0.998785
803.755314	0.999508
804.076045	0.998246
804.396731	0.997098
804.717372	0.997485
805.037967	0.999084
805.358518	0.998761
805.679024	0.997209
805.999485	0.997633
806.319901	0.998749
806.640272	0.998597
806.960598	0.998227
807.280879	0.998022
807.601115	0.998917
807.921306	0.998628
808.241453	0.997401
808.561554	0.998114
808.881611	0.998189
809.201623	0.997458
809.521590	0.998657
809.841513	0.997782
810.161390	0.996958
810.481223	0.997171
810.801011	0.998179
811.120755	0.999856
811.440453	0.998255
811.760107	0.999064
812.079716	0.997852
812.399281	0.997680
812.718801	0.997587
813.038276	0.997067
813.357707	0.998188
813.677093	0.999278
813.996434	0.998158
814.315731	0.999631
814.634983	0.997496
814.954191	0.998884
815.273354	0.997403
815.592473	0.997171
815.911547	0.998408
816.230577	0.998022
816.549562	0.998591
816.868502	0.997380
817.187399	0.999806
817.506250	0.998945
817.825058	0.996905
818.143821	0.997317
818.462539	0.998265
818.781213	0.997717
819.099843	0.997476
819.418429	0.996898
819.736970	0.998142
820.055466	0.996080
820.373919	0.995363
820.692327	0.995433
821.010691	0.994772
821.329011	0.992954
821.647286	0.990976
821.965517	0.989435
822.283704	0.987095
822.601847	0.986507
822.919945	0.986346
823.237999	0.987708
823.556010	0.988874
823.873976	0.989179
824.191897	0.990420
824.509775	0.991553
824.827609	0.992664
825.145398	0.993358
825.463144	0.991597
825.780845	0.992827
826.098502	0.992474
826.416116	0.993005
826.733685	0.991726
827.051210	0.989590
827.368692	0.990487
827.686129	0.990759
828.003522	0.992301
828.320872	0.993342
828.638177	0.993977
828.955439	0.996162
829.272656	0.996221
829.589830	0.995479
829.906960	0.996466
830.224046	0.996103
830.541088	0.997226
830.858086	0.996578
831.175041	0.997348
831.491952	0.996558
831.808819	0.997368
832.125642	0.996736
832.442421	0.996296
832.759157	0.997652
833.075849	0.996267
833.392497	0.995053
833.709101	0.993481
834.025662	0.994283
834.342179	0.994304
834.658653	0.995560
834.975083	0.994888
835.291469	0.995972
835.607811	0.996305
835.924110	0.996954
836.240366	0.997938
836.556578	0.997744
836.872746	0.997815
837.188871	0.998319
837.504952	0.998034
837.820990	0.998493
838.136984	0.998219
838.452935	0.997639
838.768842	0.998400
839.084706	0.998516
839.400526	0.998580
839.716303	0.996391
840.032037	0.996453
840.347727	0.996791
840.663373	0.997468
840.978977	0.996170
841.294537	0.997691
841.610054	0.997991
841.925527	0.997918
842.240957	0.998579
842.556344	0.997889
842.871687	0.998035
843.186987	0.998271
843.502244	0.999517
843.817458	0.998987
844.132629	0.998932
844.447756	0.998390
844.762840	0.998287
845.077881	0.999716
845.392879	0.997905
845.707833	0.999342
846.022745	0.999255
846.337613	0.999203
846.652438	0.998040
846.967221	0.999255
847.281960	0.998711
847.596656	0.998963
847.911309	0.998567
848.225919	0.999254
848.540485	0.998328
848.855009	1.000037
849.169490	0.997917
849.483928	0.999447
849.798323	0.999602
850.112675	0.999631
850.426984	0.999881
850.741251	0.999232
851.055474	0.999267
851.369654	0.999510
851.683792	0.997999
851.997887	0.999085
852.311938	0.999268
852.625947	0.999500
852.939914	0.999343
853.253837	1.000543
853.567718	0.999314
853.881555	0.999049
854.195350	0.999614
854.509103	1.000253
854.822812	0.999138
855.136479	0.999990
855.450103	0.999267
855.763685	0.999475
856.077224	0.999388
856.390720	0.999238
856.704173	1.000416
857.017584	1.000000
857.330953	0.999516
857.644278	0.998403
857.957561	1.000002
858.270802	0.999318
858.584000	0.998374
858.897155	0.998947
859.210268	1.000495
859.523339	0.998933
859.836367	1.000212
860.149352	0.998938
860.462295	0.998959
860.775195	0.999058
861.088054	0.998761
861.400869	0.998896
861.713642	0.999011
862.026373	1.000132
862.339062	1.000865
862.651708	0.999260
862.964312	0.999455
863.276873	0.998964
863.589392	0.999478
863.901869	0.997729
864.214303	0.999490
864.526696	0.999080
864.839045	0.998839
865.151353	0.999040
865.463619	0.998525
865.775842	0.999641
866.088023	0.999629
866.400162	0.998893
866.712258	0.999666
867.024313	0.999379
867.336325	0.999462
867.648296	0.999265
867.960224	0.999051
868.272110	0.999446
868.583954	0.999242
868.895755	0.999454
869.207515	0.998698
869.519233	0.999226
869.830909	0.998603
870.142542	0.997478
870.454134	0.999229
870.765684	0.999132
871.077191	1.000218
871.388657	0.999025
871.700081	0.999395
872.011463	0.998744
872.322803	0.999466
872.634101	0.998814
872.945357	0.998989
873.256571	0.998249
873.567744	0.999611
873.878874	0.998300
874.189963	0.998143
874.501010	1.000599
874.812015	0.999587
875.122979	0.999448
875.433900	0.998436
875.744780	0.998663
876.055618	0.998086
876.366415	0.997517
876.677169	0.999241
876.987882	0.998129
877.298554	0.999002
877.609183	0.998623
877.919771	0.998516
878.230317	0.998024
878.540822	0.997784
878.851285	0.998237
879.161707	0.996971
879.472087	0.998914
879.782425	0.996020
880.092722	0.995623
880.402977	0.994124
880.713191	0.991124
881.023363	0.989357
881.333494	0.987624
881.643583	0.988176
881.953631	0.987960
882.263637	0.987815
882.573602	0.988225
882.883526	0.989018
883.193408	0.991711
883.503248	0.991421
883.813048	0.991854
884.122806	0.993928
884.432522	0.993671
884.742197	0.995376
885.051831	0.995373
885.361424	0.996230
885.670975	0.997533
885.980485	0.996222
886.289954	0.996885
886.599382	0.996745
886.908768	0.997861
887.218113	0.997158
887.527417	0.997827
887.836680	0.998168
888.145901	0.997598
888.455082	0.998604
888.764221	0.998760
889.073319	0.998647
889.382376	0.998829
889.691392	0.997568
890.000366	0.998811
890.309300	0.998355
890.618193	0.999180
890.927044	0.997372
891.235855	0.998494
891.544625	0.998830
891.853353	0.998480
892.162041	0.998410
892.470687	0.999037
892.779293	0.998276
893.087858	0.995903
893.396381	0.997389
893.704864	0.995855
894.013306	0.996011
894.321707	0.994916
894.630068	0.993824
894.938387	0.993208
895.246665	0.993141
895.554903	0.994036
895.863100	0.996299
896.171256	0.995110
896.479371	0.995289
896.787446	0.996426
897.095480	0.995550
897.403473	0.997160
897.711425	0.997070
898.019336	0.997995
898.327207	0.998940
898.635038	0.996781
898.942827	0.998420
899.250576	0.998253
899.558284	0.998076
899.865952	0.997511
900.173579	0.998525
900.481165	0.998509
900.788711	0.997950
901.096216	0.998638
901.403681	0.998535
901.711105	0.997158
902.018489	0.998330
902.325832	0.998436
902.633135	0.998014
902.940397	0.998148
903.247619	0.998078
903.554800	0.995761
903.861941	0.995934
904.169041	0.993065
904.476101	0.993058
904.783121	0.991768
905.090100	0.992724
905.397039	0.994191
905.703938	0.995009
906.010796	0.996111
906.317614	0.995675
906.624391	0.997409
906.931129	0.997309
907.237826	0.998215
907.544483	0.998265
907.851099	0.998003
908.157675	0.998882
908.464211	0.998193
908.770707	0.997236
909.077163	0.998681
909.383578	0.998561
909.689954	0.999376
909.996289	0.999657
910.302584	0.999254
910.608839	1.000518
910.915054	0.998529
911.221229	1.000556
911.527363	0.998727
911.833458	0.999881
912.139513	0.999192
912.445527	1.000427
912.751502	0.998879
913.057436	0.999219
913.363331	0.999407
913.669186	0.999230
913.975000	0.998495
914.280775	0.998336
914.586510	0.997153
914.892205	0.996571
915.197859	0.995849
915.503475	0.996066
915.809050	0.994402
916.114585	0.991769
916.420081	0.992588
916.725536	0.992130
917.030952	0.993236
917.336328	0.994090
917.641665	0.993135
917.946961	0.994353
918.252218	0.995355
918.557435	0.996224
918.862612	0.996138
919.167750	0.996375
919.472848	0.997782
919.777906	0.998554
920.082925	0.998397
920.387904	0.997588
920.692843	0.997471
920.997743	0.997876
921.302603	0.998134
921.607423	0.998162
921.912204	0.998189
922.216946	0.998680
922.521647	0.999041
922.826310	0.997312
923.130932	0.999763
923.435516	0.998729
923.740059	0.999534
924.044564	0.999061
924.349028	0.998468
924.653454	0.999593
924.957840	0.998028
925.262186	0.998834
925.566493	0.999092
925.870761	0.999607
926.174989	0.998367
926.479178	1.000538
926.783328	0.999854
927.087438	0.999771
927.391509	0.998133
927.695541	0.999040
927.999533	0.999884
928.303486	0.998746
928.607400	1.000286
928.911275	1.000456
929.215110	1.000790
929.518906	1.000485
929.822663	1.000125
930.126381	1.000961
930.430060	0.999434
930.733699	0.999839
931.037299	0.999309
931.340861	1.000820
931.644383	0.998368
931.947866	0.999702
932.251309	1.000071
932.554714	0.999835
932.858080	1.000398
933.161407	0.998722
933.464694	0.999984
933.767943	0.999976
934.071153	1.000057
934.374323	1.000118
934.677455	1.000751
934.980548	0.999224
935.283602	1.000528
935.586617	0.999591
935.889593	0.999893
936.192530	1.000123
936.495428	0.999521
936.798287	0.998766
937.101108	1.000460
937.403890	0.999693
937.706632	1.001203
938.009336	0.998795
938.312002	0.998191
938.614628	0.999540
938.917216	0.999018
939.219765	0.998317
939.522275	1.000020
939.824747	0.999533
940.127179	0.999727
940.429573	1.000420
940.731929	0.998656
941.034246	0.999025
941.336524	0.998356
941.638763	0.999580
941.940964	0.998567
942.243126	0.998396
942.545250	1.000675
942.847335	0.998951
943.149381	0.999211
943.451389	0.998445
943.753359	0.999756
944.055290	1.000321
944.357182	0.999596
944.659036	0.999972
944.960851	0.999902
945.262628	0.999527
945.564367	1.000059
945.866067	0.999399
946.167729	0.999883
946.469352	1.000640
946.770937	0.997989
947.072484	1.000330
947.373992	0.999681
947.675462	0.998924
947.976893	0.998828
948.278286	1.001315
948.579641	0.999877
948.880958	0.999493
949.182236	0.999680
949.483476	1.000293
949.784678	0.999765
950.085841	0.999413
950.386967	1.000179
950.688054	0.999058
950.989103	0.997823
951.290114	0.997943
951.591087	1.001031
951.892021	0.999336
952.192917	0.999624
952.493776	0.999578
952.794596	0.999163
953.095378	0.999617
953.396122	0.999465
953.696828	0.999928
953.997496	0.999518
954.298126	0.999730
954.598718	0.998968
954.899272	1.000084
955.199788	1.000035
955.500266	1.000898
955.800706	0.999495
956.101108	0.998754
956.401472	1.000958
956.701798	0.999724
957.002087	0.999592
957.302337	1.000040
957.602550	0.998815
957.902724	1.000213
958.202861	0.999370
958.502960	0.999460
958.803022	0.999903
959.103045	1.000713
959.403031	1.000946
959.702979	1.001375
960.002889	1.000437
960.302762	0.999369
960.602596	1.002264
960.902393	0.999597
961.202153	0.999992
961.501875	1.001283
961.801559	0.999943
962.101205	0.999454
962.400814	1.000238
962.700385	1.001032
962.999918	1.000452
963.299414	0.998593
963.598873	0.999636
963.898293	0.999958
964.197677	0.999344
964.497022	1.000164
964.796331	1.000868
965.095601	1.000938
965.394835	1.000029
965.694030	1.001938
965.993189	0.999794
966.292309	1.000327
966.591393	0.999553
966.890439	1.000337
967.189447	1.000404
967.488419	1.001559
967.787353	0.999919
968.086249	1.001495
968.385108	0.999683
968.683930	1.001036
968.982714	0.999466
969.281462	1.000370
969.580172	1.000367
969.878844	1.000493
970.177480	0.999151
970.476078	1.001192
970.774639	1.000055
971.073162	1.000851
971.371649	0.999268
971.670098	0.999922
971.968510	1.000938
972.266885	0.999705
972.565223	1.000287
972.863524	1.000181
973.161788	0.999685
973.460014	0.999900
973.758204	0.999637
974.056356	0.998690
974.354471	0.999971
974.652550	1.000903
974.950591	1.000155
975.248595	0.998813
975.546563	1.001256
975.844493	1.000351
976.142386	0.999775
976.440243	0.999344
976.738062	0.999576
977.035845	0.999936
977.333590	0.999124
977.631299	0.999207
977.928971	1.000611
978.226606	1.000170
978.524204	0.999866
978.821765	1.000331
979.119290	1.000582
979.416777	1.000606
979.714228	0.999847
980.011642	1.000489
980.309020	0.999885
980.606360	1.000274
980.903664	0.999992
981.200931	0.999481
981.498162	0.999852
981.795356	1.001172
982.092513	1.000500
982.389633	1.000895
982.686717	0.998134
982.983764	0.998649
983.280775	0.999321
983.577749	1.000922
983.874686	0.999075
984.171587	0.998888
984.468451	0.999922
984.765279	0.998969
985.062070	0.999579
985.358824	0.999895
985.655543	0.999843
985.952224	1.000500
986.248869	0.999898
986.545478	1.001081
986.842050	0.999922
987.138586	0.998199
987.435086	1.000078
987.731549	1.001710
988.027975	1.000620
988.324366	1.000355
988.620719	1.000462
988.917037	1.000177
989.213318	1.000490
989.509563	0.999963
989.805772	1.000841
990.101944	1.001145
990.398080	1.000783
990.694180	1.000668
990.990244	0.999658
991.286271	1.000437
991.582262	1.000408
991.878217	0.999772
992.174136	1.000448
992.470019	0.999871
992.765865	1.002033
993.061676	1.000367
993.357450	1.000944
993.653188	1.000569
993.948890	0.999460
994.244556	1.000994
994.540186	1.000150
994.835780	1.000763
995.131337	1.000968
995.426859	1.000979
995.722345	1.000329
996.017795	1.000055
996.313208	0.999330
996.608586	0.999684
996.903928	1.001184
997.199234	0.999934
997.494504	1.000545
997.789738	0.999138
998.084936	1.000771
998.380099	0.999699
998.675225	1.001354
998.970316	1.001116
999.265371	0.999803
999.560390	1.000122
999.855373	1.000443
1000.150320	1.000772
1000.445232	1.000961
1000.740108	1.000398
1001.034948	0.999596
1001.329752	1.000803
1001.624521	1.001093
1001.919254	0.999494
1002.213951	1.000488
1002.508613	0.999221
1002.803239	1.000213
1003.097829	1.000642
1003.392384	1.000511
1003.686903	1.000150
1003.981386	1.000000
1004.275834	1.001711
1004.570246	0.999301
1004.864623	1.001015
1005.158964	1.000601
1005.453270	1.000443
1005.747540	0.999836
1006.041775	1.000470
1006.335974	1.000864
1006.630138	1.001670
1006.924266	0.999472
1007.218359	0.997682
1007.512416	1.002017
1007.806438	1.000129
1008.100425	0.999912
1008.394376	1.001192
1008.688292	0.999928
1008.982172	0.999419
1009.276017	0.999562
1009.569827	1.001730
1009.863602	0.999353
1010.157341	1.000531
1010.451045	1.000367
1010.744714	1.001324
1011.038347	1.000731
1011.331945	0.999457
1011.625508	1.000045
1011.919036	0.999857
1012.212528	1.000959
1012.505986	0.999732
1012.799408	1.000992
1013.092795	1.000276
1013.386147	0.999818
1013.679464	1.001781
1013.972745	0.999823
1014.265992	1.000356
1014.559204	1.000108
1014.852380	1.001718
1015.145521	1.000462
1015.438628	0.999273
1015.731699	1.000096
1016.024736	1.001245
1016.317737	1.000961
1016.610703	1.000575
1016.903635	1.000770
1017.196531	1.000945
1017.489393	0.999648
1017.782219	1.001031
1018.075011	1.000066
1018.367768	0.999371
1018.660490	1.000394
1018.953177	1.000394
1019.245829	1.000394
