Dividing Wavelength (nm)	Counts (n)	Blue Motor Position (mm): 29.700000	Red Motor Position (mm): 0.000000	
326.493990	1.000425
326.888308	1.000425
327.282561	1.000425
327.676750	1.000866
328.070874	1.000171
328.464933	1.002321
328.858929	1.001440
329.252859	1.001132
329.646726	1.000438
330.040528	1.001252
330.434265	1.001039
330.827938	1.000766
331.221547	1.000808
331.615091	1.000699
332.008571	1.001658
332.401986	1.000197
332.795338	1.001050
333.188625	1.000789
333.581847	1.000103
333.975006	1.000383
334.368100	1.000865
334.761129	1.000733
335.154095	0.999901
335.546996	1.000632
335.939833	0.998396
336.332606	1.000369
336.725315	0.997925
337.117960	0.999313
337.510540	0.999549
337.903056	0.999793
338.295508	1.000824
338.687896	0.999821
339.080220	0.999577
339.472480	0.998667
339.864676	1.000544
340.256807	0.997563
340.648875	1.001539
341.040879	0.998496
341.432818	1.000247
341.824694	0.998523
342.216506	1.000558
342.608253	1.000068
342.999937	1.000131
343.391557	0.998831
343.783113	1.001299
344.174605	1.000231
344.566033	0.999546
344.957397	0.999978
345.348697	1.000829
345.739934	1.000133
346.131106	0.999499
346.522215	0.998479
346.913260	0.998543
347.304241	0.999620
347.695159	1.000178
348.086012	0.998830
348.476802	0.999168
348.867528	0.998336
349.258191	0.999166
349.648789	0.999490
350.039324	0.998971
350.429796	0.998657
350.820203	0.997679
351.210548	0.999155
351.600828	0.998767
351.991045	0.998499
352.381198	1.000662
352.771288	0.999528
353.161314	0.999830
353.551276	0.998181
353.941175	0.996580
354.331010	0.998244
354.720782	0.998772
355.110490	0.998888
355.500135	0.999230
355.889717	0.997347
356.279235	0.997268
356.668689	0.999129
357.058080	0.998406
357.447408	0.998510
357.836672	0.998129
358.225873	0.998397
358.615010	0.999008
359.004084	0.996937
359.393095	0.998663
359.782043	0.997365
360.170927	0.999084
360.559748	0.998779
360.948505	0.998608
361.337199	0.997691
361.725830	0.998659
362.114398	0.997859
362.502903	0.997434
362.891344	0.998535
363.279722	0.996685
363.668037	0.998185
364.056289	0.996514
364.444478	0.998150
364.832603	0.997849
365.220665	0.998295
365.608665	0.997271
365.996601	0.996633
366.384474	0.996071
366.772284	0.996405
367.160031	0.995555
367.547715	0.996101
367.935336	0.995472
368.322893	0.994190
368.710388	0.993114
369.097820	0.991273
369.485189	0.988816
369.872495	0.986404
370.259738	0.985425
370.646918	0.982356
371.034035	0.980352
371.421090	0.977814
371.808081	0.973124
372.195010	0.970064
372.581875	0.963152
372.968678	0.960091
373.355418	0.956465
373.742096	0.949314
374.128710	0.944512
374.515262	0.940122
374.901751	0.933998
375.288177	0.929994
375.674540	0.921910
376.060841	0.917105
376.447079	0.909846
376.833254	0.903335
377.219367	0.897863
377.605417	0.886933
377.991404	0.883124
378.377329	0.877547
378.763191	0.870421
379.148991	0.862484
379.534727	0.854921
379.920402	0.847186
380.306013	0.842637
380.691563	0.830469
381.077049	0.822708
381.462474	0.818967
381.847835	0.807852
382.233134	0.802234
382.618371	0.803412
383.003545	0.785227
383.388657	0.783837
383.773706	0.777605
384.158693	0.772246
384.543618	0.766831
384.928480	0.758411
385.313280	0.748597
385.698017	0.747260
386.082692	0.736205
386.467305	0.734022
386.851856	0.729383
387.236344	0.723794
387.620770	0.719003
388.005133	0.712260
388.389435	0.707102
388.773674	0.704117
389.157851	0.696782
389.541965	0.693753
389.926018	0.700509
390.310008	0.687399
390.693936	0.684231
391.077802	0.675968
391.461606	0.677928
391.845348	0.666615
392.229027	0.666836
392.612645	0.664163
392.996200	0.651723
393.379694	0.644939
393.763125	0.635009
394.146494	0.639593
394.529801	0.630439
394.913047	0.622140
395.296230	0.627752
395.679351	0.619374
396.062410	0.616449
396.445408	0.618783
396.828343	0.614813
397.211217	0.609472
397.594028	0.621692
397.976778	0.611917
398.359466	0.608691
398.742092	0.603863
399.124656	0.616023
399.507158	0.603693
399.889598	0.601511
400.271977	0.592416
400.654294	0.595986
401.036549	0.595866
401.418742	0.599879
401.800874	0.586185
402.182944	0.582543
402.564952	0.574068
402.946898	0.575717
403.328783	0.576917
403.710606	0.587780
404.092367	0.562600
404.474067	0.568223
404.855705	0.566796
405.237282	0.575393
405.618797	0.562041
406.000250	0.558041
406.381642	0.547365
406.762972	0.553412
407.144240	0.551573
407.525447	0.550821
407.906593	0.544372
408.287677	0.539096
408.668700	0.548676
409.049661	0.542449
409.430560	0.536853
409.811399	0.545738
410.192176	0.527557
410.572891	0.535206
410.953545	0.523250
411.334138	0.536588
411.714669	0.528939
412.095139	0.540795
412.475547	0.525046
412.855894	0.526760
413.236180	0.525817
413.616405	0.531723
413.996568	0.522112
414.376670	0.528192
414.756711	0.533104
415.136691	0.530442
415.516609	0.521426
415.896466	0.517885
416.276262	0.514050
416.655997	0.515403
417.035670	0.497196
417.415283	0.488791
417.794834	0.494405
418.174324	0.499083
418.553753	0.508595
418.933121	0.490665
419.312428	0.484652
419.691674	0.490063
420.070859	0.479126
420.449983	0.486437
420.829045	0.476056
421.208047	0.485174
421.586988	0.477973
421.965867	0.477595
422.344686	0.465951
422.723444	0.478820
423.102141	0.495981
423.480777	0.469299
423.859352	0.489630
424.237866	0.467593
424.616319	0.468173
424.994712	0.459796
425.373044	0.469901
425.751314	0.458708
426.129524	0.476415
426.507673	0.460328
426.885762	0.454547
427.263789	0.461048
427.641756	0.471122
428.019662	0.462499
428.397508	0.463020
428.775292	0.468462
429.153016	0.461974
429.530679	0.469351
429.908282	0.464648
430.285824	0.476335
430.663305	0.457314
431.040726	0.479456
431.418086	0.481116
431.795385	0.475848
432.172624	0.476595
432.549802	0.479401
432.926920	0.480736
433.303977	0.482643
433.680974	0.482991
434.057910	0.484730
434.434786	0.486971
434.811601	0.492986
435.188355	0.480006
435.565050	0.491727
435.941683	0.497058
436.318257	0.486348
436.694770	0.491778
437.071222	0.494475
437.447614	0.502409
437.823946	0.511983
438.200218	0.507499
438.576429	0.521171
438.952580	0.520232
439.328670	0.522855
439.704700	0.534123
440.080670	0.540372
440.456580	0.531252
440.832429	0.544030
441.208218	0.558672
441.583947	0.555913
441.959616	0.561704
442.335224	0.572641
442.710773	0.572988
443.086261	0.579153
443.461689	0.595699
443.837057	0.595523
444.212365	0.596658
444.587612	0.608522
444.962800	0.608691
445.337927	0.618073
445.712995	0.643352
446.088002	0.625848
446.462949	0.640511
446.837837	0.652794
447.212664	0.651707
447.587431	0.657278
447.962139	0.649425
448.336786	0.632914
448.711374	0.647739
449.085901	0.681384
449.460369	0.692349
449.834776	0.702057
450.209124	0.701455
450.583412	0.707926
450.957640	0.709841
451.331808	0.725619
451.705917	0.744238
452.079965	0.754131
452.453954	0.758749
452.827883	0.768474
453.201752	0.774181
453.575562	0.786707
453.949311	0.791232
454.323001	0.799775
454.696632	0.805924
455.070202	0.810839
455.443713	0.815006
455.817164	0.820698
456.190556	0.828133
456.563888	0.834495
456.937160	0.839430
457.310373	0.850586
457.683526	0.858181
458.056619	0.866355
458.429653	0.873085
458.802628	0.878719
459.175542	0.882784
459.548398	0.884949
459.921194	0.888790
460.293930	0.893709
460.666607	0.892582
461.039224	0.894641
461.411782	0.900312
461.784280	0.905492
462.156719	0.912218
462.529099	0.918563
462.901419	0.925132
463.273680	0.930034
463.645882	0.934772
464.018024	0.940309
464.390106	0.941734
464.762130	0.945020
465.134094	0.946053
465.505999	0.944160
465.877845	0.943372
466.249631	0.946095
466.621358	0.950985
466.993026	0.957719
467.364634	0.961312
467.736184	0.963300
468.107674	0.966752
468.479105	0.969207
468.850477	0.971328
469.221790	0.973594
469.593043	0.975308
469.964238	0.977901
470.335373	0.978981
470.706449	0.980729
471.077467	0.981731
471.448425	0.982680
471.819324	0.981991
472.190164	0.982927
472.560945	0.984641
472.931667	0.985906
473.302330	0.986801
473.672934	0.988681
474.043479	0.988145
474.413965	0.989041
474.784393	0.988876
475.154761	0.988837
475.525070	0.989834
475.895321	0.991860
476.265513	0.990983
476.635645	0.991357
477.005719	0.991882
477.375734	0.991464
477.745691	0.991828
478.115588	0.991787
478.485427	0.992551
478.855207	0.992796
479.224928	0.992815
479.594591	0.992510
479.964194	0.991731
480.333739	0.993217
480.703226	0.992701
481.072653	0.992587
481.442022	0.993084
481.811333	0.993242
482.180584	0.992940
482.549777	0.993659
482.918912	0.993820
483.287988	0.993714
483.657005	0.993876
484.025964	0.994016
484.394864	0.993535
484.763706	0.993592
485.132489	0.994877
485.501213	0.994191
485.869879	0.994378
486.238487	0.994022
486.607036	0.994541
486.975527	0.995021
487.343959	0.994072
487.712333	0.994194
488.080648	0.993950
488.448905	0.994399
488.817104	0.994475
489.185244	0.994400
489.553326	0.994847
489.921350	0.994890
490.289315	0.994421
490.657222	0.993599
491.025070	0.994263
491.392861	0.993963
491.760593	0.994372
492.128267	0.994682
492.495883	0.993504
492.863440	0.994865
493.230939	0.994655
493.598380	0.995570
493.965763	0.994918
494.333088	0.994184
494.700354	0.994785
495.067563	0.994556
495.434713	0.995369
495.801805	0.995277
496.168839	0.995299
496.535815	0.995084
496.902733	0.994678
497.269593	0.994847
497.636395	0.994683
498.003139	0.994683
498.369825	0.995518
498.736453	0.995380
499.103023	0.995177
499.469535	0.994886
499.835989	0.995398
500.202385	0.994958
500.568723	0.995205
500.935003	0.994886
501.301226	0.995277
501.667390	0.995140
502.033497	0.995548
502.399546	0.994837
502.765537	0.995602
503.131470	0.995453
503.497345	0.995346
503.863163	0.995509
504.228923	0.994782
504.594625	0.995401
504.960269	0.995456
505.325856	0.996474
505.691385	0.995765
506.056856	0.995255
506.422270	0.995721
506.787625	0.995259
507.152924	0.996092
507.518164	0.995416
507.883347	0.995911
508.248472	0.995557
508.613540	0.995784
508.978550	0.995447
509.343503	0.995164
509.708398	0.995482
510.073236	0.995767
510.438016	0.995303
510.802738	0.995289
511.167403	0.995205
511.532010	0.995983
511.896561	0.995739
512.261053	0.994983
512.625488	0.995213
512.989866	0.995470
513.354186	0.994975
513.718449	0.995255
514.082655	0.995026
514.446803	0.995871
514.810894	0.995996
515.174927	0.995783
515.538904	0.995777
515.902822	0.995176
516.266684	0.995841
516.630488	0.995835
516.994235	0.996219
517.357925	0.995778
517.721558	0.995751
518.085133	0.995847
518.448651	0.995642
518.812112	0.996353
519.175516	0.995384
519.538863	0.995639
519.902152	0.996322
520.265385	0.996139
520.628560	0.994621
520.991678	0.995822
521.354739	0.995825
521.717743	0.995892
522.080690	0.995430
522.443580	0.995267
522.806413	0.994971
523.169189	0.995626
523.531908	0.994785
523.894569	0.995186
524.257174	0.995166
524.619722	0.995755
524.982213	0.995312
525.344647	0.995356
525.707025	0.994508
526.069345	0.994848
526.431608	0.995846
526.793815	0.995761
527.155964	0.995951
527.518057	0.995570
527.880093	0.994987
528.242072	0.994796
528.603995	0.994902
528.965860	0.995410
529.327669	0.995561
529.689421	0.994876
530.051117	0.995633
530.412755	0.995127
530.774337	0.994792
531.135862	0.996221
531.497331	0.995540
531.858743	0.995580
532.220098	0.995164
532.581396	0.995447
532.942638	0.995612
533.303824	0.995762
533.664953	0.995541
534.026025	0.996490
534.387040	0.995599
534.747999	0.995533
535.108902	0.995128
535.469748	0.995962
535.830537	0.995541
536.191270	0.995453
536.551947	0.995305
536.912567	0.995284
537.273131	0.995559
537.633638	0.995218
537.994089	0.995601
538.354483	0.995602
538.714821	0.995871
539.075103	0.995769
539.435328	0.995907
539.795497	0.995602
540.155609	0.995527
540.515665	0.996150
540.875665	0.995262
541.235609	0.995990
541.595496	0.994291
541.955328	0.995315
542.315102	0.995567
542.674821	0.995858
543.034483	0.996058
543.394090	0.995063
543.753640	0.995853
544.113134	0.995203
544.472571	0.996264
544.831953	0.995852
545.191278	0.996426
545.550548	0.995408
545.909761	0.995374
546.268918	0.996123
546.628019	0.996056
546.987064	0.995606
547.346053	0.994718
547.704986	0.994978
548.063863	0.995067
548.422684	0.995944
548.781449	0.995125
549.140158	0.995879
549.498811	0.995381
549.857408	0.995077
550.215949	0.993963
550.574434	0.994954
550.932864	0.995977
551.291237	0.995220
551.649555	0.995772
552.007817	0.995668
552.366022	0.995835
552.724173	0.995770
553.082267	0.994844
553.440305	0.995173
553.798288	0.994754
554.156215	0.995569
554.514086	0.995163
554.871902	0.995114
555.229661	0.995144
555.587365	0.995065
555.945014	0.995610
556.302606	0.995142
556.660143	0.995401
557.017625	0.995714
557.375050	0.995029
557.732421	0.994621
558.089735	0.995154
558.446994	0.995449
558.804197	0.994918
559.161345	0.995026
559.518437	0.995138
559.875474	0.995412
560.232455	0.995518
560.589381	0.995893
560.946251	0.995068
561.303065	0.995766
561.659825	0.995217
562.016528	0.995798
562.373177	0.995268
562.729770	0.995378
563.086307	0.994400
563.442789	0.995488
563.799216	0.994951
564.155587	0.995735
564.511904	0.995553
564.868164	0.994293
565.224370	0.994630
565.580520	0.995412
565.936615	0.995268
566.292654	0.994746
566.648638	0.995978
567.004567	0.995380
567.360441	0.995402
567.716260	0.994790
568.072023	0.994788
568.427732	0.995952
568.783385	0.994873
569.138982	0.995016
569.494525	0.995136
569.850013	0.996062
570.205445	0.995901
570.560823	0.995458
570.916145	0.995177
571.271412	0.995276
571.626625	0.995422
571.981782	0.995349
572.336884	0.995797
572.691931	0.995632
573.046923	0.996108
573.401860	0.995743
573.756743	0.995367
574.111570	0.995442
574.466342	0.996367
574.821059	0.994963
575.175722	0.995808
575.530330	0.995143
575.884882	0.995688
576.239380	0.995486
576.593823	0.994726
576.948211	0.995957
577.302544	0.995195
577.656823	0.995145
578.011047	0.994962
578.365216	0.996489
578.719330	0.995224
579.073389	0.994617
579.427394	0.995058
579.781344	0.995562
580.135239	0.994313
580.489080	0.994851
580.842866	0.995544
581.196597	0.995728
581.550273	0.995275
581.903895	0.995371
582.257463	0.994925
582.610975	0.995759
582.964434	0.995476
583.317837	0.995861
583.671186	0.995195
584.024481	0.995850
584.377721	0.994974
584.730906	0.995843
585.084037	0.995509
585.437113	0.995453
585.790135	0.995543
586.143103	0.995217
586.496016	0.995072
586.848874	0.995371
587.201679	0.995467
587.554428	0.995195
587.907124	0.995472
588.259765	0.995429
588.612352	0.996159
588.964884	0.995580
589.317362	0.995305
589.669786	0.995013
590.022155	0.994878
590.374470	0.995540
590.726731	0.994997
591.078937	0.995276
591.431090	0.995379
591.783188	0.994988
592.135232	0.995507
592.487222	0.995144
592.839157	0.995132
593.191038	0.995923
593.542866	0.995259
593.894639	0.994982
594.246358	0.995599
594.598022	0.995501
594.949633	0.995590
595.301190	0.995356
595.652692	0.995287
596.004141	0.994997
596.355535	0.995233
596.706876	0.995841
597.058162	0.995078
597.409395	0.995317
597.760573	0.995739
598.111698	0.995493
598.462768	0.994671
598.813785	0.994916
599.164748	0.994974
599.515657	0.994932
599.866511	0.995325
600.217312	0.995390
600.568060	0.995604
600.918753	0.995576
601.269392	0.995769
601.619978	0.995518
601.970510	0.994937
602.320988	0.995463
602.671412	0.995036
603.021783	0.995370
603.372100	0.995950
603.722363	0.995899
604.072572	0.995645
604.422728	0.994915
604.772830	0.995470
605.122878	0.995521
605.472872	0.996668
605.822813	0.994804
606.172701	0.995285
606.522534	0.996189
606.872314	0.996431
607.222041	0.995733
607.571714	0.996117
607.921333	0.995826
608.270899	0.995392
608.620411	0.995446
608.969870	0.995872
609.319276	0.995691
609.668627	0.996231
610.017926	0.996094
610.367171	0.995716
610.716362	0.995613
611.065500	0.995448
611.414585	0.996024
611.763616	0.994837
612.112594	0.995141
612.461518	0.994633
612.810389	0.995441
613.159207	0.995393
613.507971	0.994604
613.856682	0.996606
614.205340	0.994779
614.553945	0.995612
614.902496	0.994160
615.250994	0.995665
615.599439	0.995892
615.947830	0.995245
616.296169	0.995624
616.644454	0.995995
616.992686	0.995656
617.340864	0.996677
617.688990	0.994740
618.037063	0.995243
618.385082	0.994903
618.733048	0.994968
619.080961	0.995461
619.428821	0.995940
619.776628	0.995252
620.124382	0.996284
620.472083	0.995238
620.819731	0.996474
621.167326	0.995221
621.514868	0.996442
621.862357	0.996009
622.209793	0.995114
622.557176	0.995338
622.904506	0.994910
623.251783	0.995769
623.599007	0.995474
623.946179	0.995223
624.293297	0.995562
624.640363	0.996192
624.987376	0.995137
625.334336	0.995279
625.681243	0.996216
626.028097	0.996120
626.374899	0.995958
626.721647	0.996608
627.068343	0.995815
627.414987	0.996073
627.761577	0.995586
628.108115	0.994908
628.454600	0.996199
628.801032	0.996106
629.147412	0.996160
629.493739	0.997016
629.840014	0.995779
630.186236	0.995710
630.532405	0.996119
630.878521	0.995445
631.224585	0.995830
631.570597	0.995702
631.916556	0.995576
632.262462	0.994402
632.608316	0.996104
632.954117	0.995017
633.299866	0.995867
633.645562	0.995681
633.991206	0.996528
634.336797	0.995060
634.682336	0.996416
635.027823	0.995124
635.373257	0.995694
635.718639	0.996650
636.063968	0.995793
636.409245	0.995632
636.754470	0.996392
637.099642	0.996152
637.444762	0.996201
637.789829	0.996166
638.134845	0.996730
638.479808	0.996280
638.824719	0.996546
639.169577	0.996397
639.514383	0.996495
639.859137	0.996578
640.203839	0.996160
640.548489	0.996269
640.893086	0.994890
641.237632	0.996127
641.582125	0.995156
641.926566	0.997173
642.270955	0.996166
642.615292	0.996085
642.959576	0.996143
643.303809	0.996909
643.647990	0.996561
643.992118	0.996853
644.336195	0.994832
644.680219	0.995785
645.024192	0.996597
645.368112	0.995153
645.711981	0.995730
646.055797	0.996442
646.399562	0.995871
646.743274	0.997350
647.086935	0.995809
647.430544	0.996058
647.774101	0.995411
648.117606	0.996721
648.461059	0.996486
648.804460	0.996156
649.147810	0.995960
649.491108	0.995494
649.834354	0.994831
650.177548	0.996143
650.520690	0.995744
650.863781	0.995337
651.206820	0.996065
651.549807	0.996693
651.892742	0.996091
652.235626	0.995947
652.578458	0.995807
652.921238	0.996531
653.263967	0.996405
653.606644	0.995316
653.949269	0.996887
654.291843	0.996312
654.634365	0.997151
654.976836	0.995956
655.319255	0.997028
655.661622	0.997149
656.003938	0.995359
656.346203	0.995038
656.688416	0.996648
657.030577	0.996315
657.372687	0.997265
657.714746	0.996986
658.056753	0.996200
658.398708	0.995112
658.740612	0.996765
659.082465	0.996760
659.424266	0.996228
659.766016	0.996204
660.107715	0.996762
660.449362	0.996554
660.790958	0.995961
661.132503	0.996837
661.473996	0.995565
661.815438	0.997063
662.156829	0.996553
662.498168	0.997475
662.839456	0.996289
663.180693	0.996689
663.521879	0.996379
663.863013	0.996570
664.204097	0.996425
664.545129	0.995534
664.886110	0.996615
665.227040	0.996427
665.567918	0.995635
665.908746	0.995478
666.249522	0.995622
666.590248	0.996655
666.930922	0.996113
667.271545	0.995038
667.612118	0.995453
667.952639	0.996520
668.293109	0.996368
668.633528	0.996679
668.973896	0.996815
669.314213	0.996490
669.654480	0.996459
669.994695	0.996043
670.334859	0.996273
670.674973	0.996346
671.015035	0.996516
671.355047	0.996210
671.695008	0.995561
672.034918	0.995264
672.374777	0.996564
672.714585	0.996362
673.054342	0.997301
673.394049	0.996168
673.733705	0.996116
674.073310	0.995847
674.412864	0.996761
674.752368	0.995690
675.091820	0.997247
675.431223	0.996756
675.770574	0.996403
676.109875	0.996701
676.449125	0.995582
676.788324	0.996215
677.127473	0.997045
677.466571	0.997133
677.805619	0.996507
678.144616	0.997424
678.483562	0.996858
678.822458	0.996809
679.161303	0.996672
679.500098	0.997342
679.838842	0.997205
680.177535	0.996112
680.516179	0.996172
680.854771	0.996701
681.193314	0.996160
681.531805	0.996135
681.870247	0.996447
682.208638	0.997522
682.546978	0.995947
682.885268	0.995739
683.223508	0.995669
683.561697	0.996382
683.899836	0.996126
684.237925	0.996576
684.575963	0.996705
684.913951	0.996700
685.251889	0.995880
685.589776	0.996407
685.927614	0.996477
686.265401	0.996213
686.603137	0.995632
686.940824	0.996089
687.278460	0.996956
687.616046	0.996385
687.953582	0.995983
688.291068	0.996472
688.628504	0.996006
688.965889	0.996010
689.303224	0.994961
689.640510	0.996745
689.977745	0.996147
690.314930	0.995674
690.652065	0.996537
690.989150	0.996082
691.326185	0.996108
691.663170	0.996494
692.000105	0.997385
692.336990	0.996907
692.673825	0.996740
693.010610	0.996005
693.347345	0.996551
693.684030	0.996565
694.020665	0.995570
694.357251	0.995846
694.693786	0.996366
695.030272	0.995431
695.366707	0.996857
695.703093	0.996934
696.039429	0.996943
696.375716	0.997934
696.711952	0.996474
697.048139	0.996938
697.384276	0.997031
697.720363	0.996577
698.056400	0.995436
698.392388	0.996022
698.728326	0.996621
699.064214	0.997452
699.400053	0.996492
699.735842	0.997354
700.071581	0.997192
700.407270	0.996438
700.742910	0.996745
701.078501	0.996333
701.414042	0.997716
701.749533	0.996078
702.084974	0.996681
702.420366	0.997584
702.755709	0.996356
703.091002	0.997470
703.426246	0.998076
703.761440	0.997082
704.096584	0.996339
704.431679	0.996331
704.766725	0.996919
705.101721	0.997569
705.436668	0.997004
705.771565	0.996652
706.106413	0.996398
706.441212	0.997663
706.775961	0.996837
707.110661	0.997327
707.445311	0.997094
707.779913	0.997839
708.114465	0.997746
708.448967	0.997841
708.783421	0.997978
709.117825	0.997121
709.452180	0.997360
709.786485	0.996889
710.120742	0.997772
710.454949	0.996193
710.789107	0.997504
711.123216	0.996314
711.457275	0.996650
711.791286	0.997233
712.125247	0.997953
712.459159	0.996433
712.793023	0.997500
713.126837	0.997489
713.460602	0.995741
713.794318	0.995383
714.127985	0.995448
714.461602	0.997239
714.795171	0.997040
715.128691	0.996853
715.462162	0.996774
715.795584	0.997365
716.128957	0.997738
716.462281	0.996555
716.795556	0.997178
717.128782	0.998035
717.461960	0.997047
717.795088	0.996422
718.128167	0.997310
718.461198	0.997718
718.794180	0.997559
719.127113	0.997469
719.459997	0.996642
719.792833	0.996866
720.125619	0.996932
720.458357	0.996482
720.791046	0.997535
721.123686	0.997505
721.456278	0.997248
721.788821	0.997047
722.121315	0.997377
722.453761	0.997844
722.786158	0.997262
723.118506	0.997265
723.450805	0.996340
723.783056	0.997724
724.115259	0.996570
724.447412	0.997926
724.779518	0.997311
725.111574	0.996815
725.443582	0.997785
725.775542	0.997300
726.107453	0.996843
726.439315	0.998312
726.771129	0.997643
727.102895	0.996668
727.434612	0.996751
727.766281	0.997562
728.097901	0.996367
728.429473	0.998113
728.760996	0.996015
729.092471	0.997898
729.423897	0.998453
729.755276	0.997158
730.086606	0.996610
730.417887	0.997870
730.749120	0.997831
731.080305	0.997870
731.411442	0.996560
731.742530	0.996346
732.073570	0.996963
732.404562	0.997241
732.735506	0.996822
733.066401	0.996946
733.397249	0.996796
733.728048	0.996431
734.058798	0.997595
734.389501	0.998376
734.720156	0.997933
735.050762	0.998086
735.381320	0.997959
735.711831	0.995596
736.042293	0.997368
736.372707	0.997290
736.703073	0.996746
737.033391	0.997514
737.363661	0.997898
737.693883	0.997752
738.024056	0.997003
738.354182	0.997486
738.684260	0.996877
739.014290	0.997758
739.344272	0.997027
739.674207	0.997120
740.004093	0.998311
740.333931	0.997369
740.663722	0.997089
740.993464	0.996765
741.323159	0.997733
741.652806	0.997378
741.982405	0.997328
742.311956	0.997263
742.641460	0.997283
742.970915	0.996826
743.300323	0.996454
743.629683	0.996970
743.958996	0.999046
744.288260	0.996846
744.617477	0.997063
744.946647	0.996856
745.275768	0.998384
745.604842	0.997691
745.933869	0.997736
746.262847	0.998286
746.591778	0.995927
746.920662	0.998102
747.249498	0.998145
747.578286	0.999070
747.907027	0.998703
748.235720	0.998549
748.564365	0.998620
748.892963	0.997068
749.221514	0.999049
749.550017	0.997108
749.878473	0.998115
750.206881	0.999222
750.535242	0.998580
750.863555	0.998044
751.191821	0.997126
751.520039	0.996964
751.848210	0.996548
752.176334	0.997383
752.504411	0.997345
752.832440	0.998013
753.160421	0.997848
753.488356	0.997641
753.816243	0.997023
754.144082	0.997568
754.471875	0.998213
754.799620	0.998322
755.127318	0.997371
755.454969	0.997733
755.782572	0.998575
756.110129	0.998462
756.437638	0.998800
756.765100	0.998244
757.092515	0.997746
757.419882	0.998718
757.747203	0.997482
758.074477	0.998661
758.401703	0.998045
758.728882	0.998451
759.056014	0.998180
759.383099	0.998236
759.710138	0.996861
760.037129	0.997006
760.364073	0.998148
760.690970	0.998577
761.017820	0.997458
761.344623	0.997285
761.671379	0.998558
761.998088	0.998298
762.324751	0.998566
762.651366	0.997593
762.977935	0.996995
763.304456	0.997790
763.630931	0.995535
763.957359	0.995604
764.283740	0.995760
764.610074	0.996514
764.936362	0.997028
765.262602	0.997217
765.588796	0.997776
765.914943	0.997575
766.241044	0.996724
766.567097	0.997652
766.893104	0.998059
767.219064	0.997545
767.544978	0.997653
767.870845	0.998367
768.196665	0.998067
768.522438	0.998786
768.848165	0.998146
769.173846	0.998120
769.499479	0.999520
769.825066	0.998647
770.150607	0.999183
770.476101	0.998434
770.801548	0.999009
771.126949	0.998536
771.452303	0.998672
771.777611	0.998222
772.102872	0.998482
772.428087	0.997827
772.753256	0.998399
773.078378	0.999087
773.403453	0.997590
773.728482	1.000134
774.053465	0.998626
774.378401	0.998674
774.703291	0.999390
775.028135	0.999348
775.352932	0.998281
775.677683	0.999673
776.002388	0.999513
776.327046	0.997934
776.651658	0.999874
776.976224	0.999303
777.300743	0.997575
777.625216	0.998123
777.949643	0.998901
778.274024	0.997692
778.598359	0.998690
778.922647	0.999650
779.246889	0.999968
779.571086	0.998289
779.895236	0.998811
780.219339	0.999364
780.543397	0.998513
780.867409	0.999123
781.191374	0.998619
781.515294	1.000576
781.839167	0.999080
782.162995	0.999085
782.486776	0.997883
782.810511	0.998465
783.134201	0.999987
783.457844	0.999237
783.781441	0.998996
784.104993	0.997650
784.428498	0.998551
784.751958	0.999761
785.075372	0.999865
785.398739	0.997785
785.722061	0.997742
786.045337	0.998953
786.368568	0.998113
786.691752	0.999066
787.014891	0.999132
787.337983	0.998553
787.661030	0.998424
787.984031	0.999002
788.306987	0.999642
788.629897	0.997539
788.952760	0.998681
789.275579	0.999309
789.598351	0.999295
789.921078	0.999901
790.243759	0.998573
790.566395	0.997786
790.888984	0.998659
791.211529	0.998972
791.534027	0.998881
791.856480	0.998730
792.178888	0.998550
792.501249	0.998947
792.823566	0.999920
793.145836	0.999514
793.468062	0.998119
793.790241	0.999437
794.112375	0.997708
794.434464	0.998597
794.756507	0.999290
795.078505	0.998806
795.400457	0.999686
795.722364	0.999230
796.044226	0.999288
796.366042	0.998675
796.687812	0.997899
797.009538	0.997773
797.331218	0.998736
797.652852	0.999148
797.974442	0.998676
798.295986	0.999288
798.617484	0.997993
798.938938	0.998903
799.260346	0.998824
799.581709	0.997945
799.903026	0.999805
800.224299	0.998221
800.545526	0.998189
800.866708	0.998367
801.187845	0.998691
801.508936	0.999871
801.829983	0.999756
802.150984	0.998620
802.471940	0.998849
802.792851	0.999211
803.113717	1.000322
803.434538	0.999101
803.755314	1.000257
804.076045	0.999290
804.396731	0.998689
804.717372	0.996828
805.037967	0.998817
805.358518	0.998832
805.679024	0.997648
805.999485	0.999182
806.319901	0.999109
806.640272	0.999652
806.960598	0.999494
807.280879	0.999005
807.601115	0.999588
807.921306	0.999311
808.241453	0.998080
808.561554	0.999747
808.881611	1.000474
809.201623	0.998802
809.521590	0.998901
809.841513	0.998547
810.161390	0.998024
810.481223	0.998427
810.801011	0.998801
811.120755	1.000199
811.440453	0.998248
811.760107	0.999939
812.079716	0.998829
812.399281	0.998676
812.718801	0.998753
813.038276	0.999194
813.357707	0.998536
813.677093	1.000456
813.996434	0.998770
814.315731	1.001393
814.634983	0.999298
814.954191	0.999645
815.273354	0.999300
815.592473	0.998597
815.911547	0.999945
816.230577	0.998578
816.549562	0.999065
816.868502	0.998295
817.187399	0.999838
817.506250	0.998767
817.825058	0.997432
818.143821	0.998831
818.462539	0.998765
818.781213	0.998324
819.099843	0.999264
819.418429	0.998001
819.736970	0.998354
820.055466	0.997766
820.373919	0.997611
820.692327	0.996938
821.010691	0.996682
821.329011	0.995540
821.647286	0.993962
821.965517	0.993152
822.283704	0.990918
822.601847	0.990273
822.919945	0.990067
823.237999	0.990995
823.556010	0.991710
823.873976	0.992345
824.191897	0.993775
824.509775	0.995002
824.827609	0.994570
825.145398	0.995776
825.463144	0.994750
825.780845	0.995336
826.098502	0.994768
826.416116	0.996195
826.733685	0.994912
827.051210	0.993324
827.368692	0.993886
827.686129	0.994161
828.003522	0.995723
828.320872	0.995328
828.638177	0.996347
828.955439	0.996882
829.272656	0.996636
829.589830	0.996500
829.906960	0.997851
830.224046	0.996725
830.541088	0.997867
830.858086	0.998953
831.175041	0.999685
831.491952	0.998882
831.808819	0.998918
832.125642	0.998819
832.442421	0.998731
832.759157	0.999027
833.075849	0.996918
833.392497	0.996835
833.709101	0.996450
834.025662	0.995894
834.342179	0.995577
834.658653	0.998162
834.975083	0.996634
835.291469	0.997870
835.607811	0.997795
835.924110	0.998487
836.240366	0.998837
836.556578	0.998828
836.872746	0.998548
837.188871	0.998899
837.504952	0.998120
837.820990	0.999304
838.136984	0.998348
838.452935	0.997700
838.768842	0.999560
839.084706	0.999206
839.400526	1.000618
839.716303	0.997178
840.032037	0.999202
840.347727	0.997842
840.663373	0.998775
840.978977	0.997312
841.294537	0.998950
841.610054	0.999277
841.925527	0.999553
842.240957	0.998732
842.556344	0.999017
842.871687	0.999417
843.186987	0.999190
843.502244	1.000053
843.817458	0.998431
844.132629	0.999179
844.447756	0.999481
844.762840	1.000027
845.077881	1.001324
845.392879	0.998377
845.707833	0.998852
846.022745	1.000458
846.337613	1.000223
846.652438	0.999696
846.967221	0.999330
847.281960	1.000303
847.596656	1.000517
847.911309	0.999404
848.225919	0.998465
848.540485	0.999019
848.855009	1.000742
849.169490	0.999431
849.483928	0.999314
849.798323	0.998493
850.112675	0.999792
850.426984	0.999872
850.741251	1.000000
851.055474	0.999584
851.369654	0.998910
851.683792	0.998977
851.997887	0.999291
852.311938	1.000654
852.625947	0.999036
852.939914	0.999328
853.253837	1.000897
853.567718	1.000234
853.881555	0.999661
854.195350	0.999626
854.509103	0.999814
854.822812	1.000035
855.136479	0.999541
855.450103	0.999749
855.763685	1.000258
856.077224	0.998650
856.390720	0.999409
856.704173	0.999671
857.017584	0.999918
857.330953	1.000376
857.644278	0.999816
857.957561	0.999903
858.270802	1.000234
858.584000	1.000540
858.897155	0.999317
859.210268	0.999346
859.523339	1.000515
859.836367	1.000096
860.149352	1.000090
860.462295	0.999563
860.775195	0.998962
861.088054	0.998702
861.400869	0.999192
861.713642	0.999098
862.026373	1.000603
862.339062	1.000652
862.651708	1.000322
862.964312	1.001198
863.276873	0.998131
863.589392	1.000386
863.901869	0.999799
864.214303	1.000049
864.526696	0.999218
864.839045	0.999829
865.151353	0.999447
865.463619	0.998730
865.775842	1.000439
866.088023	1.000436
866.400162	0.999459
866.712258	1.000300
867.024313	0.999095
867.336325	1.000492
867.648296	0.999672
867.960224	0.999640
868.272110	0.999608
868.583954	0.999522
868.895755	0.999335
869.207515	0.999411
869.519233	1.000454
869.830909	0.999162
870.142542	0.999628
870.454134	0.998356
870.765684	0.999678
871.077191	0.998845
871.388657	0.998622
871.700081	1.000146
872.011463	1.000306
872.322803	0.999811
872.634101	0.999324
872.945357	0.998633
873.256571	0.998460
873.567744	0.999611
873.878874	1.000300
874.189963	0.998842
874.501010	0.999904
874.812015	0.999285
875.122979	0.999718
875.433900	0.998211
875.744780	0.999540
876.055618	0.998044
876.366415	0.998850
876.677169	0.998672
876.987882	0.998722
877.298554	0.999318
877.609183	0.999794
877.919771	1.000098
878.230317	1.000332
878.540822	0.998505
878.851285	0.998269
879.161707	0.997433
879.472087	0.999762
879.782425	0.997026
880.092722	0.996371
880.402977	0.995587
880.713191	0.993718
881.023363	0.991578
881.333494	0.990515
881.643583	0.991729
881.953631	0.992254
882.263637	0.989517
882.573602	0.990130
882.883526	0.991463
883.193408	0.994117
883.503248	0.993706
883.813048	0.994212
884.122806	0.995386
884.432522	0.995469
884.742197	0.997357
885.051831	0.995772
885.361424	0.997056
885.670975	0.999178
885.980485	0.997351
886.289954	0.997957
886.599382	0.996823
886.908768	0.999799
887.218113	0.997339
887.527417	0.997630
887.836680	0.999476
888.145901	0.998304
888.455082	0.999863
888.764221	0.999699
889.073319	0.998004
889.382376	0.999895
889.691392	0.997855
890.000366	1.000114
890.309300	0.998263
890.618193	0.999322
890.927044	0.998886
891.235855	0.998224
891.544625	0.998115
891.853353	0.998569
892.162041	0.999018
892.470687	0.999637
892.779293	0.997664
893.087858	0.997118
893.396381	0.997925
893.704864	0.997816
894.013306	0.997486
894.321707	0.996208
894.630068	0.994995
894.938387	0.994946
895.246665	0.995775
895.554903	0.996224
895.863100	0.996694
896.171256	0.995860
896.479371	0.996354
896.787446	0.995734
897.095480	0.997041
897.403473	0.997566
897.711425	0.998095
898.019336	0.998675
898.327207	0.999358
898.635038	0.998716
898.942827	0.998939
899.250576	0.998563
899.558284	0.998427
899.865952	0.997664
900.173579	0.998943
900.481165	0.999548
900.788711	0.998321
901.096216	0.998497
901.403681	0.999373
901.711105	0.998447
902.018489	0.997873
902.325832	0.999834
902.633135	0.999770
902.940397	1.000034
903.247619	0.998820
903.554800	0.998080
903.861941	0.996780
904.169041	0.994925
904.476101	0.994937
904.783121	0.993497
905.090100	0.995057
905.397039	0.995630
905.703938	0.996648
906.010796	0.996852
906.317614	0.997839
906.624391	0.998696
906.931129	0.998540
907.237826	0.998921
907.544483	0.999369
907.851099	0.998785
908.157675	0.998738
908.464211	0.999338
908.770707	0.998772
909.077163	0.999079
909.383578	1.000001
909.689954	0.999344
909.996289	0.998638
910.302584	0.999269
910.608839	1.000332
910.915054	0.998919
911.221229	1.000019
911.527363	0.998761
911.833458	0.999644
912.139513	0.999190
912.445527	0.999633
912.751502	0.999887
913.057436	0.999159
913.363331	1.000046
913.669186	0.999387
913.975000	0.999649
914.280775	0.998309
914.586510	0.998140
914.892205	0.996864
915.197859	0.995970
915.503475	0.995954
915.809050	0.995601
916.114585	0.993543
916.420081	0.993713
916.725536	0.995332
917.030952	0.994239
917.336328	0.995196
917.641665	0.994681
917.946961	0.995536
918.252218	0.995429
918.557435	0.996426
918.862612	0.996895
919.167750	0.998454
919.472848	0.998629
919.777906	0.999318
920.082925	0.998746
920.387904	0.997855
920.692843	0.998919
920.997743	0.997647
921.302603	1.000086
921.607423	0.998552
921.912204	0.998426
922.216946	1.000057
922.521647	0.999230
922.826310	0.998391
923.130932	0.999001
923.435516	1.000223
923.740059	0.999490
924.044564	0.999085
924.349028	0.998913
924.653454	0.999872
924.957840	0.999791
925.262186	0.998913
925.566493	0.998900
925.870761	0.999868
926.174989	0.999928
926.479178	1.000865
926.783328	1.000060
927.087438	0.999594
927.391509	0.999163
927.695541	0.999920
927.999533	1.000275
928.303486	1.000269
928.607400	1.001404
928.911275	1.000465
929.215110	1.000331
929.518906	1.000041
929.822663	1.000838
930.126381	1.000867
930.430060	0.999880
930.733699	1.000042
931.037299	0.999931
931.340861	0.999594
931.644383	0.998858
931.947866	1.000340
932.251309	1.000453
932.554714	1.000675
932.858080	1.000541
933.161407	0.999482
933.464694	0.999922
933.767943	0.999759
934.071153	1.000268
934.374323	0.999978
934.677455	0.999511
934.980548	1.000133
935.283602	1.001597
935.586617	0.999634
935.889593	1.001200
936.192530	1.000213
936.495428	0.999557
936.798287	0.998494
937.101108	1.000211
937.403890	0.998883
937.706632	1.001619
938.009336	1.000619
938.312002	0.999181
938.614628	0.999329
938.917216	1.000322
939.219765	0.998609
939.522275	1.000200
939.824747	1.000112
940.127179	0.999402
940.429573	1.000588
940.731929	0.999978
941.034246	0.998293
941.336524	0.999019
941.638763	1.000225
941.940964	0.999183
942.243126	0.999940
942.545250	0.999541
942.847335	1.000080
943.149381	1.000020
943.451389	1.000516
943.753359	0.999919
944.055290	1.000835
944.357182	1.000482
944.659036	0.999245
944.960851	1.000107
945.262628	1.000800
945.564367	0.999725
945.866067	0.999702
946.167729	1.001125
946.469352	1.000761
946.770937	0.998057
947.072484	1.001005
947.373992	0.999293
947.675462	1.000435
947.976893	0.999037
948.278286	1.001791
948.579641	1.000342
948.880958	0.999543
949.182236	1.000186
949.483476	1.000581
949.784678	0.999452
950.085841	1.000140
950.386967	0.998650
950.688054	1.000159
950.989103	0.998701
951.290114	0.999121
951.591087	1.000148
951.892021	0.999657
952.192917	0.999113
952.493776	1.000602
952.794596	0.999471
953.095378	0.998888
953.396122	0.999169
953.696828	1.000104
953.997496	0.999820
954.298126	1.000762
954.598718	1.000351
954.899272	1.000801
955.199788	0.999806
955.500266	1.000480
955.800706	1.000104
956.101108	0.999873
956.401472	1.000696
956.701798	1.000220
957.002087	0.999848
957.302337	1.000121
957.602550	1.000061
957.902724	1.000738
958.202861	0.999607
958.502960	1.000264
958.803022	1.000793
959.103045	1.000261
959.403031	0.999639
959.702979	1.001126
960.002889	1.000732
960.302762	0.999615
960.602596	1.000786
960.902393	1.000378
961.202153	1.000826
961.501875	0.999691
961.801559	1.000494
962.101205	1.000165
962.400814	1.001126
962.700385	1.001168
962.999918	1.000646
963.299414	0.998959
963.598873	1.000983
963.898293	1.000338
964.197677	1.000552
964.497022	1.000457
964.796331	1.001233
965.095601	1.000829
965.394835	1.000643
965.694030	1.000605
965.993189	0.999347
966.292309	1.000647
966.591393	0.998961
966.890439	1.001819
967.189447	1.000439
967.488419	1.000856
967.787353	0.999770
968.086249	1.001283
968.385108	0.999527
968.683930	1.001971
968.982714	0.999152
969.281462	1.001047
969.580172	0.999980
969.878844	1.000785
970.177480	0.999181
970.476078	1.002357
970.774639	1.001256
971.073162	0.999894
971.371649	0.999548
971.670098	1.000815
971.968510	0.999628
972.266885	0.999856
972.565223	0.999950
972.863524	1.000386
973.161788	1.000211
973.460014	1.000509
973.758204	0.999191
974.056356	0.999212
974.354471	0.999629
974.652550	1.001484
974.950591	0.999640
975.248595	1.000270
975.546563	1.000238
975.844493	1.001481
976.142386	0.998414
976.440243	1.001827
976.738062	1.000813
977.035845	0.998219
977.333590	0.999500
977.631299	1.000184
977.928971	1.000287
978.226606	1.000546
978.524204	0.999937
978.821765	1.000388
979.119290	1.000334
979.416777	1.000265
979.714228	1.000187
980.011642	1.000796
980.309020	0.999837
980.606360	0.999631
980.903664	0.999682
981.200931	0.999887
981.498162	0.999538
981.795356	0.999940
982.092513	1.000763
982.389633	1.000806
982.686717	0.998166
982.983764	1.000125
983.280775	0.999206
983.577749	1.001071
983.874686	0.999764
984.171587	0.999268
984.468451	0.999019
984.765279	1.001656
985.062070	1.000712
985.358824	1.000118
985.655543	1.000855
985.952224	1.000473
986.248869	1.000342
986.545478	1.001030
986.842050	0.999589
987.138586	1.000938
987.435086	0.999425
987.731549	1.001634
988.027975	1.001459
988.324366	0.999336
988.620719	1.002098
988.917037	1.001086
989.213318	1.001368
989.509563	0.999999
989.805772	1.000144
990.101944	1.001205
990.398080	1.000840
990.694180	1.002268
990.990244	0.999850
991.286271	1.000174
991.582262	1.000447
991.878217	1.000850
992.174136	1.000881
992.470019	0.999785
992.765865	1.002510
993.061676	1.000682
993.357450	1.000371
993.653188	1.001318
993.948890	0.999634
994.244556	1.000419
994.540186	1.000983
994.835780	1.001118
995.131337	1.001019
995.426859	1.000177
995.722345	1.000670
996.017795	1.000396
996.313208	1.000061
996.608586	0.999766
996.903928	1.000033
997.199234	1.001482
997.494504	1.001123
997.789738	0.999727
998.084936	0.999280
998.380099	1.000343
998.675225	1.001309
998.970316	1.001239
999.265371	1.000007
999.560390	1.000181
999.855373	1.001029
1000.150320	1.000299
1000.445232	1.001368
1000.740108	1.000279
1001.034948	0.999972
1001.329752	1.001789
1001.624521	1.000455
1001.919254	0.999106
1002.213951	1.000046
1002.508613	0.999423
1002.803239	1.000788
1003.097829	1.000683
1003.392384	1.001203
1003.686903	1.001304
1003.981386	0.999541
1004.275834	1.002056
1004.570246	0.998264
1004.864623	1.000970
1005.158964	1.001780
1005.453270	1.000120
1005.747540	0.999986
1006.041775	1.001185
1006.335974	1.000203
1006.630138	1.000665
1006.924266	0.999814
1007.218359	0.999066
1007.512416	1.002039
1007.806438	0.999698
1008.100425	1.001190
1008.394376	1.002062
1008.688292	1.000249
1008.982172	1.000000
1009.276017	1.000301
1009.569827	1.001645
1009.863602	0.999492
1010.157341	1.000975
1010.451045	0.999959
1010.744714	1.001263
1011.038347	1.001414
1011.331945	0.999021
1011.625508	1.000790
1011.919036	1.000164
1012.212528	1.000642
1012.505986	1.000204
1012.799408	1.001559
1013.092795	1.001986
1013.386147	1.000196
1013.679464	1.001161
1013.972745	1.000449
1014.265992	1.000719
1014.559204	0.999423
1014.852380	1.001099
1015.145521	1.000911
1015.438628	1.000997
1015.731699	0.999997
1016.024736	1.000871
1016.317737	1.001836
1016.610703	1.000940
1016.903635	1.000761
1017.196531	1.000655
1017.489393	1.000360
1017.782219	1.000227
1018.075011	0.999232
1018.367768	0.999719
1018.660490	1.000342
1018.953177	1.000342
1019.245829	1.000342
