Dividing Wavelength (nm)	Counts (n)	Blue Motor Position (mm): 28.400000	Red Motor Position (mm): 0.000000	
326.493990	0.999561
326.888308	0.999561
327.282561	0.999561
327.676750	1.001683
328.070874	1.002337
328.464933	1.003585
328.858929	1.001677
329.252859	1.001328
329.646726	1.000275
330.040528	1.000829
330.434265	1.000575
330.827938	1.000202
331.221547	1.001187
331.615091	1.001685
332.008571	1.002019
332.401986	1.001265
332.795338	1.000799
333.188625	1.002037
333.581847	1.000103
333.975006	1.002381
334.368100	1.001214
334.761129	1.000660
335.154095	1.001548
335.546996	1.002272
335.939833	0.998980
336.332606	1.000691
336.725315	0.998721
337.117960	1.000416
337.510540	0.999768
337.903056	0.999758
338.295508	1.002093
338.687896	1.000469
339.080220	0.999924
339.472480	1.000048
339.864676	1.000443
340.256807	0.999538
340.648875	1.000759
341.040879	1.000455
341.432818	1.000872
341.824694	0.999327
342.216506	1.001188
342.608253	0.999501
342.999937	0.999098
343.391557	0.999511
343.783113	1.000751
344.174605	1.000374
344.566033	0.998302
344.957397	1.000472
345.348697	1.000629
345.739934	1.000426
346.131106	0.999821
346.522215	0.999414
346.913260	1.000299
347.304241	0.999025
347.695159	1.000903
348.086012	0.999426
348.476802	1.000585
348.867528	0.999194
349.258191	0.999791
349.648789	0.999477
350.039324	0.999711
350.429796	0.999185
350.820203	0.998432
351.210548	0.998886
351.600828	1.000046
351.991045	0.999154
352.381198	0.999351
352.771288	0.998928
353.161314	1.000549
353.551276	0.998380
353.941175	0.997913
354.331010	0.999611
354.720782	0.999310
355.110490	0.999894
355.500135	1.000545
355.889717	0.998344
356.279235	0.998756
356.668689	0.999667
357.058080	0.999250
357.447408	0.997846
357.836672	0.998730
358.225873	0.998820
358.615010	0.998478
359.004084	0.997430
359.393095	0.999230
359.782043	0.998482
360.170927	0.998981
360.559748	0.998803
360.948505	0.997725
361.337199	0.998149
361.725830	0.998997
362.114398	0.998414
362.502903	0.997725
362.891344	0.997430
363.279722	0.997908
363.668037	0.998500
364.056289	0.997973
364.444478	0.999716
364.832603	0.998084
365.220665	0.998553
365.608665	0.998186
365.996601	0.997534
366.384474	0.996953
366.772284	0.996920
367.160031	0.995707
367.547715	0.996727
367.935336	0.995115
368.322893	0.994944
368.710388	0.993370
369.097820	0.991680
369.485189	0.989734
369.872495	0.988145
370.259738	0.984721
370.646918	0.982794
371.034035	0.980680
371.421090	0.977841
371.808081	0.972120
372.195010	0.970666
372.581875	0.965087
372.968678	0.960855
373.355418	0.956959
373.742096	0.949475
374.128710	0.945325
374.515262	0.940469
374.901751	0.934705
375.288177	0.930203
375.674540	0.923081
376.060841	0.916500
376.447079	0.911667
376.833254	0.903532
377.219367	0.898526
377.605417	0.887470
377.991404	0.884612
378.377329	0.877730
378.763191	0.871263
379.148991	0.862014
379.534727	0.854745
379.920402	0.846672
380.306013	0.843522
380.691563	0.829738
381.077049	0.823008
381.462474	0.819707
381.847835	0.808131
382.233134	0.803666
382.618371	0.803764
383.003545	0.785949
383.388657	0.784229
383.773706	0.777223
384.158693	0.773033
384.543618	0.767706
384.928480	0.757813
385.313280	0.748473
385.698017	0.747272
386.082692	0.735740
386.467305	0.734710
386.851856	0.729738
387.236344	0.723988
387.620770	0.719037
388.005133	0.712726
388.389435	0.707980
388.773674	0.703922
389.157851	0.696678
389.541965	0.694823
389.926018	0.700415
390.310008	0.687144
390.693936	0.685065
391.077802	0.676758
391.461606	0.677788
391.845348	0.667424
392.229027	0.667174
392.612645	0.665521
392.996200	0.651451
393.379694	0.645297
393.763125	0.635060
394.146494	0.639515
394.529801	0.629895
394.913047	0.622645
395.296230	0.628265
395.679351	0.619883
396.062410	0.616770
396.445408	0.619314
396.828343	0.614196
397.211217	0.609939
397.594028	0.622352
397.976778	0.611940
398.359466	0.608408
398.742092	0.604013
399.124656	0.615955
399.507158	0.603966
399.889598	0.601662
400.271977	0.592953
400.654294	0.596511
401.036549	0.596064
401.418742	0.600275
401.800874	0.585701
402.182944	0.582747
402.564952	0.574642
402.946898	0.575536
403.328783	0.577117
403.710606	0.588026
404.092367	0.562773
404.474067	0.568174
404.855705	0.567212
405.237282	0.576177
405.618797	0.562182
406.000250	0.557921
406.381642	0.547609
406.762972	0.553386
407.144240	0.551690
407.525447	0.551653
407.906593	0.544078
408.287677	0.540259
408.668700	0.547899
409.049661	0.542211
409.430560	0.537415
409.811399	0.546078
410.192176	0.527382
410.572891	0.535163
410.953545	0.522847
411.334138	0.536812
411.714669	0.528728
412.095139	0.540492
412.475547	0.524973
412.855894	0.527190
413.236180	0.526432
413.616405	0.531512
413.996568	0.521775
414.376670	0.528302
414.756711	0.532201
415.136691	0.529794
415.516609	0.521420
415.896466	0.517927
416.276262	0.514335
416.655997	0.515259
417.035670	0.497120
417.415283	0.489150
417.794834	0.493616
418.174324	0.499526
418.553753	0.507884
418.933121	0.490152
419.312428	0.484403
419.691674	0.489912
420.070859	0.478525
420.449983	0.486382
420.829045	0.475394
421.208047	0.484482
421.586988	0.477475
421.965867	0.476924
422.344686	0.465491
422.723444	0.477764
423.102141	0.495427
423.480777	0.467969
423.859352	0.488779
424.237866	0.466102
424.616319	0.466412
424.994712	0.457172
425.373044	0.467716
425.751314	0.456268
426.129524	0.473010
426.507673	0.456183
426.885762	0.449462
427.263789	0.455098
427.641756	0.465377
428.019662	0.454936
428.397508	0.454811
428.775292	0.459228
429.153016	0.451042
429.530679	0.457785
429.908282	0.451079
430.285824	0.461089
430.663305	0.440039
431.040726	0.461300
431.418086	0.461244
431.795385	0.453772
432.172624	0.453441
432.549802	0.453750
432.926920	0.453202
433.303977	0.453601
433.680974	0.451503
434.057910	0.450992
434.434786	0.451110
434.811601	0.454858
435.188355	0.438092
435.565050	0.448689
435.941683	0.451123
436.318257	0.436511
436.694770	0.439386
437.071222	0.438847
437.447614	0.444699
437.823946	0.452274
438.200218	0.443999
438.576429	0.455565
438.952580	0.450795
439.328670	0.450124
439.704700	0.458135
440.080670	0.462100
440.456580	0.446902
440.832429	0.457616
441.208218	0.470175
441.583947	0.463080
441.959616	0.465453
442.335224	0.474032
442.710773	0.468135
443.086261	0.470610
443.461689	0.486977
443.837057	0.481142
444.212365	0.476384
444.587612	0.487119
444.962800	0.481729
445.337927	0.487852
445.712995	0.515748
446.088002	0.487118
446.462949	0.501244
446.837837	0.511464
447.212664	0.504799
447.587431	0.505100
447.962139	0.488035
448.336786	0.459952
448.711374	0.473960
449.085901	0.515807
449.460369	0.525364
449.834776	0.534420
450.209124	0.526003
450.583412	0.529144
450.957640	0.528794
451.331808	0.545080
451.705917	0.569285
452.079965	0.579574
452.453954	0.579390
452.827883	0.591324
453.201752	0.595269
453.575562	0.609668
453.949311	0.611590
454.323001	0.621796
454.696632	0.626741
455.070202	0.630953
455.443713	0.633834
455.817164	0.639024
456.190556	0.645907
456.563888	0.652758
456.937160	0.658366
457.310373	0.676390
457.683526	0.684356
458.056619	0.696517
458.429653	0.703986
458.802628	0.713184
459.175542	0.717966
459.548398	0.718458
459.921194	0.722692
460.293930	0.730593
460.666607	0.728735
461.039224	0.730839
461.411782	0.736471
461.784280	0.745223
462.156719	0.756151
462.529099	0.766368
462.901419	0.781421
463.273680	0.789789
463.645882	0.797070
464.018024	0.808619
464.390106	0.812460
464.762130	0.814163
465.134094	0.814622
465.505999	0.810122
465.877845	0.806006
466.249631	0.810025
466.621358	0.822011
466.993026	0.835999
467.364634	0.845774
467.736184	0.854216
468.107674	0.862933
468.479105	0.869263
468.850477	0.875774
469.221790	0.883916
469.593043	0.891637
469.964238	0.898345
470.335373	0.902766
470.706449	0.907662
471.077467	0.912232
471.448425	0.911454
471.819324	0.911770
472.190164	0.915240
472.560945	0.924272
472.931667	0.931757
473.302330	0.935316
473.672934	0.940157
474.043479	0.942798
474.413965	0.946429
474.784393	0.950090
475.154761	0.951642
475.525070	0.955642
475.895321	0.958454
476.265513	0.960213
476.635645	0.962202
477.005719	0.964638
477.375734	0.966720
477.745691	0.967836
478.115588	0.969492
478.485427	0.971258
478.855207	0.973014
479.224928	0.973496
479.594591	0.974904
479.964194	0.975746
480.333739	0.977908
480.703226	0.978797
481.072653	0.980103
481.442022	0.981798
481.811333	0.982387
482.180584	0.982877
482.549777	0.984541
482.918912	0.985288
483.287988	0.986519
483.657005	0.986655
484.025964	0.987875
484.394864	0.988080
484.763706	0.988889
485.132489	0.989912
485.501213	0.989997
485.869879	0.990042
486.238487	0.990034
486.607036	0.991621
486.975527	0.991537
487.343959	0.990858
487.712333	0.991865
488.080648	0.991109
488.448905	0.991961
488.817104	0.992609
489.185244	0.992359
489.553326	0.992943
489.921350	0.992882
490.289315	0.992614
490.657222	0.991899
491.025070	0.992419
491.392861	0.992857
491.760593	0.992675
492.128267	0.993459
492.495883	0.993072
492.863440	0.993203
493.230939	0.993942
493.598380	0.994886
493.965763	0.994385
494.333088	0.993666
494.700354	0.994284
495.067563	0.994039
495.434713	0.994419
495.801805	0.994848
496.168839	0.994886
496.535815	0.994826
496.902733	0.994458
497.269593	0.994398
497.636395	0.994619
498.003139	0.994358
498.369825	0.995507
498.736453	0.994899
499.103023	0.994636
499.469535	0.995277
499.835989	0.995325
500.202385	0.994872
500.568723	0.994987
500.935003	0.994954
501.301226	0.994944
501.667390	0.994437
502.033497	0.995430
502.399546	0.995390
502.765537	0.995109
503.131470	0.995954
503.497345	0.995627
503.863163	0.995721
504.228923	0.995248
504.594625	0.995428
504.960269	0.995722
505.325856	0.995804
505.691385	0.995892
506.056856	0.995132
506.422270	0.995660
506.787625	0.995699
507.152924	0.995846
507.518164	0.995021
507.883347	0.994819
508.248472	0.996171
508.613540	0.995126
508.978550	0.995460
509.343503	0.996024
509.708398	0.996019
510.073236	0.996000
510.438016	0.995279
510.802738	0.996060
511.167403	0.994958
511.532010	0.995994
511.896561	0.995662
512.261053	0.995250
512.625488	0.995574
512.989866	0.995848
513.354186	0.994954
513.718449	0.995986
514.082655	0.995669
514.446803	0.995814
514.810894	0.996007
515.174927	0.995917
515.538904	0.995836
515.902822	0.995559
516.266684	0.995936
516.630488	0.995821
516.994235	0.995328
517.357925	0.996098
517.721558	0.995529
518.085133	0.995747
518.448651	0.995558
518.812112	0.996437
519.175516	0.995501
519.538863	0.995307
519.902152	0.996199
520.265385	0.995950
520.628560	0.995263
520.991678	0.996169
521.354739	0.995979
521.717743	0.995682
522.080690	0.995266
522.443580	0.995876
522.806413	0.995855
523.169189	0.995906
523.531908	0.994697
523.894569	0.995643
524.257174	0.995762
524.619722	0.995874
524.982213	0.996303
525.344647	0.995972
525.707025	0.995194
526.069345	0.995485
526.431608	0.995877
526.793815	0.996050
527.155964	0.996173
527.518057	0.996145
527.880093	0.996031
528.242072	0.995848
528.603995	0.995649
528.965860	0.996352
529.327669	0.996067
529.689421	0.995722
530.051117	0.996226
530.412755	0.996262
530.774337	0.995544
531.135862	0.995975
531.497331	0.995875
531.858743	0.996101
532.220098	0.995259
532.581396	0.996379
532.942638	0.996317
533.303824	0.996464
533.664953	0.995881
534.026025	0.996558
534.387040	0.996157
534.747999	0.995848
535.108902	0.996141
535.469748	0.996379
535.830537	0.995750
536.191270	0.995542
536.551947	0.995923
536.912567	0.996068
537.273131	0.997164
537.633638	0.995423
537.994089	0.995922
538.354483	0.995890
538.714821	0.995867
539.075103	0.996102
539.435328	0.996377
539.795497	0.995437
540.155609	0.995365
540.515665	0.996204
540.875665	0.995634
541.235609	0.996273
541.595496	0.995769
541.955328	0.995593
542.315102	0.996070
542.674821	0.996422
543.034483	0.996301
543.394090	0.995372
543.753640	0.996190
544.113134	0.995724
544.472571	0.996205
544.831953	0.996162
545.191278	0.996350
545.550548	0.995123
545.909761	0.995215
546.268918	0.996078
546.628019	0.996007
546.987064	0.995856
547.346053	0.995671
547.704986	0.995856
548.063863	0.995508
548.422684	0.996394
548.781449	0.995390
549.140158	0.995912
549.498811	0.995272
549.857408	0.995461
550.215949	0.995512
550.574434	0.995519
550.932864	0.995896
551.291237	0.994998
551.649555	0.995986
552.007817	0.995912
552.366022	0.996260
552.724173	0.996026
553.082267	0.995716
553.440305	0.995561
553.798288	0.995164
554.156215	0.995161
554.514086	0.995794
554.871902	0.995438
555.229661	0.995353
555.587365	0.995683
555.945014	0.995845
556.302606	0.995388
556.660143	0.996900
557.017625	0.996333
557.375050	0.995613
557.732421	0.996209
558.089735	0.995242
558.446994	0.994914
558.804197	0.996401
559.161345	0.995257
559.518437	0.995277
559.875474	0.996383
560.232455	0.995757
560.589381	0.996088
560.946251	0.995417
561.303065	0.995962
561.659825	0.995374
562.016528	0.996168
562.373177	0.996411
562.729770	0.995559
563.086307	0.995078
563.442789	0.995775
563.799216	0.994986
564.155587	0.995775
564.511904	0.996522
564.868164	0.994759
565.224370	0.995699
565.580520	0.995541
565.936615	0.995808
566.292654	0.995502
566.648638	0.996249
567.004567	0.995326
567.360441	0.995942
567.716260	0.995187
568.072023	0.995034
568.427732	0.996188
568.783385	0.996023
569.138982	0.996010
569.494525	0.995751
569.850013	0.996106
570.205445	0.996408
570.560823	0.996216
570.916145	0.995809
571.271412	0.995469
571.626625	0.995823
571.981782	0.995493
572.336884	0.996227
572.691931	0.995888
573.046923	0.995948
573.401860	0.995445
573.756743	0.995411
574.111570	0.995496
574.466342	0.996604
574.821059	0.995670
575.175722	0.995863
575.530330	0.995726
575.884882	0.995391
576.239380	0.996343
576.593823	0.995495
576.948211	0.995317
577.302544	0.995740
577.656823	0.995899
578.011047	0.995164
578.365216	0.996558
578.719330	0.996074
579.073389	0.995464
579.427394	0.996375
579.781344	0.995370
580.135239	0.994868
580.489080	0.995515
580.842866	0.995767
581.196597	0.995605
581.550273	0.995286
581.903895	0.995819
582.257463	0.995531
582.610975	0.995138
582.964434	0.995141
583.317837	0.995863
583.671186	0.996004
584.024481	0.995254
584.377721	0.994823
584.730906	0.995748
585.084037	0.996986
585.437113	0.996561
585.790135	0.995379
586.143103	0.995329
586.496016	0.995279
586.848874	0.996307
587.201679	0.995741
587.554428	0.995643
587.907124	0.996208
588.259765	0.996331
588.612352	0.996842
588.964884	0.996069
589.317362	0.995990
589.669786	0.995826
590.022155	0.995829
590.374470	0.995772
590.726731	0.994905
591.078937	0.995565
591.431090	0.996475
591.783188	0.994935
592.135232	0.996668
592.487222	0.995605
592.839157	0.995440
593.191038	0.995637
593.542866	0.995475
593.894639	0.995219
594.246358	0.995862
594.598022	0.995897
594.949633	0.995300
595.301190	0.995365
595.652692	0.994863
596.004141	0.995780
596.355535	0.996283
596.706876	0.995842
597.058162	0.995951
597.409395	0.996075
597.760573	0.995948
598.111698	0.995773
598.462768	0.994896
598.813785	0.995083
599.164748	0.994785
599.515657	0.995963
599.866511	0.996289
600.217312	0.996444
600.568060	0.995576
600.918753	0.996100
601.269392	0.995598
601.619978	0.995685
601.970510	0.995860
602.320988	0.996450
602.671412	0.995325
603.021783	0.996484
603.372100	0.996489
603.722363	0.996240
604.072572	0.995944
604.422728	0.995427
604.772830	0.995645
605.122878	0.995629
605.472872	0.996531
605.822813	0.995512
606.172701	0.996136
606.522534	0.995646
606.872314	0.996456
607.222041	0.996148
607.571714	0.995322
607.921333	0.995851
608.270899	0.995646
608.620411	0.996294
608.969870	0.996975
609.319276	0.995607
609.668627	0.997139
610.017926	0.996297
610.367171	0.996081
610.716362	0.995728
611.065500	0.995749
611.414585	0.996054
611.763616	0.995754
612.112594	0.995921
612.461518	0.995451
612.810389	0.995987
613.159207	0.995906
613.507971	0.994824
613.856682	0.997020
614.205340	0.994895
614.553945	0.995714
614.902496	0.995478
615.250994	0.995542
615.599439	0.995841
615.947830	0.995360
616.296169	0.995839
616.644454	0.995618
616.992686	0.995462
617.340864	0.996186
617.688990	0.995259
618.037063	0.995724
618.385082	0.994921
618.733048	0.995153
619.080961	0.995670
619.428821	0.995505
619.776628	0.995288
620.124382	0.996471
620.472083	0.996478
620.819731	0.996496
621.167326	0.996306
621.514868	0.996604
621.862357	0.995409
622.209793	0.995216
622.557176	0.995192
622.904506	0.995612
623.251783	0.995773
623.599007	0.996028
623.946179	0.995390
624.293297	0.996764
624.640363	0.996117
624.987376	0.995951
625.334336	0.995612
625.681243	0.995674
626.028097	0.996304
626.374899	0.996219
626.721647	0.996587
627.068343	0.996151
627.414987	0.995642
627.761577	0.994940
628.108115	0.995412
628.454600	0.995991
628.801032	0.996630
629.147412	0.996208
629.493739	0.997113
629.840014	0.995965
630.186236	0.995324
630.532405	0.995644
630.878521	0.996426
631.224585	0.995530
631.570597	0.995879
631.916556	0.996401
632.262462	0.995246
632.608316	0.996528
632.954117	0.995381
633.299866	0.995385
633.645562	0.996166
633.991206	0.996925
634.336797	0.996384
634.682336	0.996477
635.027823	0.996271
635.373257	0.996043
635.718639	0.996324
636.063968	0.995774
636.409245	0.996198
636.754470	0.996222
637.099642	0.996142
637.444762	0.996357
637.789829	0.996545
638.134845	0.996380
638.479808	0.996580
638.824719	0.996704
639.169577	0.995944
639.514383	0.996544
639.859137	0.996098
640.203839	0.995517
640.548489	0.995866
640.893086	0.995851
641.237632	0.996468
641.582125	0.995809
641.926566	0.997233
642.270955	0.996942
642.615292	0.995995
642.959576	0.997277
643.303809	0.996573
643.647990	0.996009
643.992118	0.996341
644.336195	0.996572
644.680219	0.996006
645.024192	0.996486
645.368112	0.995990
645.711981	0.996136
646.055797	0.996430
646.399562	0.995083
646.743274	0.996894
647.086935	0.995676
647.430544	0.996206
647.774101	0.996115
648.117606	0.995943
648.461059	0.997114
648.804460	0.996180
649.147810	0.995589
649.491108	0.996034
649.834354	0.995898
650.177548	0.996499
650.520690	0.996181
650.863781	0.995615
651.206820	0.996341
651.549807	0.995860
651.892742	0.997138
652.235626	0.996702
652.578458	0.995916
652.921238	0.996901
653.263967	0.996355
653.606644	0.995605
653.949269	0.996728
654.291843	0.995931
654.634365	0.996937
654.976836	0.996160
655.319255	0.996890
655.661622	0.996347
656.003938	0.995845
656.346203	0.995398
656.688416	0.997165
657.030577	0.996014
657.372687	0.996922
657.714746	0.996402
658.056753	0.995594
658.398708	0.995921
658.740612	0.996477
659.082465	0.996284
659.424266	0.996725
659.766016	0.995783
660.107715	0.997138
660.449362	0.996056
660.790958	0.995887
661.132503	0.996525
661.473996	0.996170
661.815438	0.997065
662.156829	0.996893
662.498168	0.997164
662.839456	0.995699
663.180693	0.996039
663.521879	0.995648
663.863013	0.996684
664.204097	0.995809
664.545129	0.996378
664.886110	0.997272
665.227040	0.995764
665.567918	0.996696
665.908746	0.996101
666.249522	0.995597
666.590248	0.996773
666.930922	0.996153
667.271545	0.996839
667.612118	0.996662
667.952639	0.995810
668.293109	0.996468
668.633528	0.995952
668.973896	0.996393
669.314213	0.995802
669.654480	0.996210
669.994695	0.995894
670.334859	0.996623
670.674973	0.996123
671.015035	0.996553
671.355047	0.996028
671.695008	0.996457
672.034918	0.996301
672.374777	0.995925
672.714585	0.996465
673.054342	0.995992
673.394049	0.995227
673.733705	0.995907
674.073310	0.996641
674.412864	0.996090
674.752368	0.995513
675.091820	0.997507
675.431223	0.996611
675.770574	0.996273
676.109875	0.995580
676.449125	0.995373
676.788324	0.995329
677.127473	0.996043
677.466571	0.996987
677.805619	0.996312
678.144616	0.997129
678.483562	0.997155
678.822458	0.996502
679.161303	0.996383
679.500098	0.996814
679.838842	0.996939
680.177535	0.995692
680.516179	0.996740
680.854771	0.996208
681.193314	0.996337
681.531805	0.996665
681.870247	0.996510
682.208638	0.996120
682.546978	0.995739
682.885268	0.995355
683.223508	0.996226
683.561697	0.995779
683.899836	0.995457
684.237925	0.995660
684.575963	0.996186
684.913951	0.996673
685.251889	0.996057
685.589776	0.996319
685.927614	0.995919
686.265401	0.996110
686.603137	0.995297
686.940824	0.996173
687.278460	0.996878
687.616046	0.996209
687.953582	0.996517
688.291068	0.996425
688.628504	0.996241
688.965889	0.995330
689.303224	0.994876
689.640510	0.994810
689.977745	0.995945
690.314930	0.995116
690.652065	0.996462
690.989150	0.995650
691.326185	0.996387
691.663170	0.996467
692.000105	0.996666
692.336990	0.996300
692.673825	0.996538
693.010610	0.996003
693.347345	0.996042
693.684030	0.996669
694.020665	0.996319
694.357251	0.995809
694.693786	0.995920
695.030272	0.995682
695.366707	0.996014
695.703093	0.996183
696.039429	0.996523
696.375716	0.996774
696.711952	0.996597
697.048139	0.997250
697.384276	0.996871
697.720363	0.996529
698.056400	0.994723
698.392388	0.995434
698.728326	0.996010
699.064214	0.997253
699.400053	0.995670
699.735842	0.997387
700.071581	0.996642
700.407270	0.995862
700.742910	0.997083
701.078501	0.996092
701.414042	0.998202
701.749533	0.995822
702.084974	0.996506
702.420366	0.996990
702.755709	0.996416
703.091002	0.996896
703.426246	0.997308
703.761440	0.996859
704.096584	0.996691
704.431679	0.996162
704.766725	0.996613
705.101721	0.997579
705.436668	0.997174
705.771565	0.996320
706.106413	0.995337
706.441212	0.996487
706.775961	0.996993
707.110661	0.996534
707.445311	0.997450
707.779913	0.997490
708.114465	0.998012
708.448967	0.997251
708.783421	0.997380
709.117825	0.996823
709.452180	0.996769
709.786485	0.996730
710.120742	0.995776
710.454949	0.996163
710.789107	0.996769
711.123216	0.995734
711.457275	0.995330
711.791286	0.996483
712.125247	0.997748
712.459159	0.995792
712.793023	0.996200
713.126837	0.996428
713.460602	0.996058
713.794318	0.995719
714.127985	0.995827
714.461602	0.996911
714.795171	0.996738
715.128691	0.996644
715.462162	0.996699
715.795584	0.997198
716.128957	0.996979
716.462281	0.996772
716.795556	0.996077
717.128782	0.997284
717.461960	0.996665
717.795088	0.996888
718.128167	0.998172
718.461198	0.996165
718.794180	0.996698
719.127113	0.996940
719.459997	0.996671
719.792833	0.997112
720.125619	0.996169
720.458357	0.997028
720.791046	0.996858
721.123686	0.997371
721.456278	0.996833
721.788821	0.996730
722.121315	0.997333
722.453761	0.996567
722.786158	0.996122
723.118506	0.996695
723.450805	0.996151
723.783056	0.997389
724.115259	0.996640
724.447412	0.997362
724.779518	0.996856
725.111574	0.996042
725.443582	0.997854
725.775542	0.997002
726.107453	0.997081
726.439315	0.997949
726.771129	0.997154
727.102895	0.996370
727.434612	0.996285
727.766281	0.996829
728.097901	0.996185
728.429473	0.997839
728.760996	0.996144
729.092471	0.997421
729.423897	0.996820
729.755276	0.997315
730.086606	0.997270
730.417887	0.997244
730.749120	0.996759
731.080305	0.996714
731.411442	0.995241
731.742530	0.995940
732.073570	0.996294
732.404562	0.996821
732.735506	0.995909
733.066401	0.996338
733.397249	0.996110
733.728048	0.996856
734.058798	0.997248
734.389501	0.997823
734.720156	0.996640
735.050762	0.997448
735.381320	0.997182
735.711831	0.996403
736.042293	0.996585
736.372707	0.997959
736.703073	0.995937
737.033391	0.996476
737.363661	0.997736
737.693883	0.996323
738.024056	0.996755
738.354182	0.996931
738.684260	0.997299
739.014290	0.997218
739.344272	0.996586
739.674207	0.996894
740.004093	0.996246
740.333931	0.997338
740.663722	0.996294
740.993464	0.997242
741.323159	0.997232
741.652806	0.996902
741.982405	0.997416
742.311956	0.997632
742.641460	0.996369
742.970915	0.996407
743.300323	0.996349
743.629683	0.997030
743.958996	0.997003
744.288260	0.996848
744.617477	0.996536
744.946647	0.997203
745.275768	0.997590
745.604842	0.997065
745.933869	0.997452
746.262847	0.997627
746.591778	0.996329
746.920662	0.997905
747.249498	0.999229
747.578286	0.998377
747.907027	0.997060
748.235720	0.997412
748.564365	0.998549
748.892963	0.995493
749.221514	0.997374
749.550017	0.996193
749.878473	0.996942
750.206881	0.998359
750.535242	0.997023
750.863555	0.996907
751.191821	0.997003
751.520039	0.996964
751.848210	0.996724
752.176334	0.997464
752.504411	0.998166
752.832440	0.997503
753.160421	0.996379
753.488356	0.997729
753.816243	0.996658
754.144082	0.997332
754.471875	0.997118
754.799620	0.997915
755.127318	0.997473
755.454969	0.996779
755.782572	0.997951
756.110129	0.997516
756.437638	0.999207
756.765100	0.996986
757.092515	0.996794
757.419882	0.998250
757.747203	0.996367
758.074477	0.998064
758.401703	0.997709
758.728882	0.997396
759.056014	0.997265
759.383099	0.997176
759.710138	0.996324
760.037129	0.997033
760.364073	0.997365
760.690970	0.997520
761.017820	0.996013
761.344623	0.997960
761.671379	0.998415
761.998088	0.997803
762.324751	0.997531
762.651366	0.996758
762.977935	0.996437
763.304456	0.995861
763.630931	0.993993
763.957359	0.993122
764.283740	0.994898
764.610074	0.994691
764.936362	0.996012
765.262602	0.996660
765.588796	0.997282
765.914943	0.996175
766.241044	0.996884
766.567097	0.997215
766.893104	0.998083
767.219064	0.996580
767.544978	0.996717
767.870845	0.997027
768.196665	0.997871
768.522438	0.997722
768.848165	0.997274
769.173846	0.998627
769.499479	0.998489
769.825066	0.999169
770.150607	0.998859
770.476101	0.998413
770.801548	0.998108
771.126949	0.998789
771.452303	0.998717
771.777611	0.999495
772.102872	0.998363
772.428087	0.997269
772.753256	0.998497
773.078378	0.997641
773.403453	0.997583
773.728482	1.000428
774.053465	0.998834
774.378401	0.999005
774.703291	0.999139
775.028135	0.999482
775.352932	0.997491
775.677683	0.999288
776.002388	0.998186
776.327046	0.998012
776.651658	1.000505
776.976224	1.000321
777.300743	0.998939
777.625216	0.998071
777.949643	0.999038
778.274024	0.997828
778.598359	0.998934
778.922647	0.998811
779.246889	0.998913
779.571086	0.998127
779.895236	0.997337
780.219339	0.999454
780.543397	0.998617
780.867409	0.999202
781.191374	0.998702
781.515294	0.999891
781.839167	0.998083
782.162995	0.997888
782.486776	0.998243
782.810511	0.998407
783.134201	0.998855
783.457844	0.998993
783.781441	0.998407
784.104993	0.997638
784.428498	0.999022
784.751958	1.000718
785.075372	1.000034
785.398739	0.999207
785.722061	0.998540
786.045337	0.998681
786.368568	0.998622
786.691752	0.998130
787.014891	0.999053
787.337983	0.997946
787.661030	0.998165
787.984031	0.999464
788.306987	0.998404
788.629897	0.997279
788.952760	0.998414
789.275579	0.998785
789.598351	0.997482
789.921078	0.998496
790.243759	0.997527
790.566395	0.998543
790.888984	0.999395
791.211529	0.997801
791.534027	0.998223
791.856480	0.999085
792.178888	0.998948
792.501249	0.997029
792.823566	1.000322
793.145836	0.999190
793.468062	0.998947
793.790241	0.999920
794.112375	0.998497
794.434464	0.998967
794.756507	0.998563
795.078505	0.999040
795.400457	0.999863
795.722364	0.999438
796.044226	0.999191
796.366042	0.998247
796.687812	0.996838
797.009538	0.997958
797.331218	0.999242
797.652852	0.998678
797.974442	0.997069
798.295986	0.998299
798.617484	0.997222
798.938938	0.999945
799.260346	0.998439
799.581709	0.997871
799.903026	0.999037
800.224299	0.999023
800.545526	0.999787
800.866708	0.997854
801.187845	0.998670
801.508936	0.999781
801.829983	0.998184
802.150984	0.999723
802.471940	0.999512
802.792851	0.998307
803.113717	1.000528
803.434538	0.999202
803.755314	1.000218
804.076045	0.999539
804.396731	0.999302
804.717372	0.998100
805.037967	1.000478
805.358518	0.999174
805.679024	0.998247
805.999485	0.999466
806.319901	0.999195
806.640272	0.999933
806.960598	0.999673
807.280879	0.999180
807.601115	0.998948
807.921306	0.999124
808.241453	0.998660
808.561554	0.998591
808.881611	0.997538
809.201623	0.999136
809.521590	0.998711
809.841513	0.999711
810.161390	0.998777
810.481223	0.997891
810.801011	0.998631
811.120755	0.999387
811.440453	0.998319
811.760107	0.998054
812.079716	0.997734
812.399281	0.999014
812.718801	0.998078
813.038276	0.998542
813.357707	0.999287
813.677093	0.999840
813.996434	0.998822
814.315731	1.000650
814.634983	0.999069
814.954191	0.999242
815.273354	0.999531
815.592473	0.997743
815.911547	0.999475
816.230577	0.998263
816.549562	0.998760
816.868502	0.997591
817.187399	0.999157
817.506250	0.998863
817.825058	0.997385
818.143821	0.997520
818.462539	0.998610
818.781213	0.998238
819.099843	0.997927
819.418429	0.997642
819.736970	0.998000
820.055466	0.997166
820.373919	0.995851
820.692327	0.995309
821.010691	0.995458
821.329011	0.993831
821.647286	0.991598
821.965517	0.989613
822.283704	0.986703
822.601847	0.985649
822.919945	0.986027
823.237999	0.988402
823.556010	0.988272
823.873976	0.989167
824.191897	0.990403
824.509775	0.992846
824.827609	0.993708
825.145398	0.994339
825.463144	0.992880
825.780845	0.994108
826.098502	0.993660
826.416116	0.993538
826.733685	0.991318
827.051210	0.990712
827.368692	0.990702
827.686129	0.991065
828.003522	0.994291
828.320872	0.993582
828.638177	0.995116
828.955439	0.996268
829.272656	0.995800
829.589830	0.996696
829.906960	0.999184
830.224046	0.997251
830.541088	0.997031
830.858086	0.996804
831.175041	0.999742
831.491952	0.998401
831.808819	0.998018
832.125642	0.997871
832.442421	0.998082
832.759157	0.998369
833.075849	0.996543
833.392497	0.995783
833.709101	0.993950
834.025662	0.992986
834.342179	0.994548
834.658653	0.996306
834.975083	0.996382
835.291469	0.996104
835.607811	0.996854
835.924110	0.997157
836.240366	0.999230
836.556578	0.998981
836.872746	0.998904
837.188871	0.998704
837.504952	0.998574
837.820990	0.998720
838.136984	0.998057
838.452935	0.998473
838.768842	0.998992
839.084706	0.999042
839.400526	0.999649
839.716303	0.997458
840.032037	0.996839
840.347727	0.995938
840.663373	0.997885
840.978977	0.998892
841.294537	0.999456
841.610054	0.999539
841.925527	0.999047
842.240957	0.999239
842.556344	0.998996
842.871687	0.999055
843.186987	0.999857
843.502244	1.000884
843.817458	0.998429
844.132629	0.998984
844.447756	0.999491
844.762840	0.999273
845.077881	1.001832
845.392879	0.999738
845.707833	0.998942
846.022745	0.999533
846.337613	0.999913
846.652438	1.000280
846.967221	0.999813
847.281960	1.000400
847.596656	1.001167
847.911309	0.999762
848.225919	0.999981
848.540485	1.000924
848.855009	1.000321
849.169490	1.000094
849.483928	0.999808
849.798323	0.998520
850.112675	1.001585
850.426984	0.999993
850.741251	0.998974
851.055474	0.999384
851.369654	1.000343
851.683792	0.999188
851.997887	1.000013
852.311938	1.000757
852.625947	1.000020
852.939914	0.999788
853.253837	1.000190
853.567718	1.000480
853.881555	0.999169
854.195350	1.001423
854.509103	1.000696
854.822812	1.000721
855.136479	1.000407
855.450103	0.999939
855.763685	1.000111
856.077224	0.999288
856.390720	0.999755
856.704173	1.000816
857.017584	1.000619
857.330953	1.000177
857.644278	1.000058
857.957561	1.000100
858.270802	1.000352
858.584000	0.999873
858.897155	0.999621
859.210268	1.000267
859.523339	1.000848
859.836367	1.000879
860.149352	0.999397
860.462295	0.999649
860.775195	1.000586
861.088054	0.999365
861.400869	0.999336
861.713642	0.999134
862.026373	1.000011
862.339062	1.000248
862.651708	1.000802
862.964312	1.000125
863.276873	0.999905
863.589392	0.999593
863.901869	0.999317
864.214303	1.000714
864.526696	1.000759
864.839045	1.000493
865.151353	0.999270
865.463619	0.999256
865.775842	1.000033
866.088023	1.000777
866.400162	1.000054
866.712258	1.001572
867.024313	0.999698
867.336325	1.000102
867.648296	1.000629
867.960224	0.999796
868.272110	1.000527
868.583954	1.000128
868.895755	1.000452
869.207515	0.999223
869.519233	1.000707
869.830909	0.998716
870.142542	0.998604
870.454134	0.999856
870.765684	0.999201
871.077191	0.999713
871.388657	0.999809
871.700081	0.999783
872.011463	1.001388
872.322803	0.999800
872.634101	0.999427
872.945357	0.999182
873.256571	0.998533
873.567744	0.999569
873.878874	0.999549
874.189963	0.998571
874.501010	1.000384
874.812015	0.999078
875.122979	0.998875
875.433900	0.999813
875.744780	0.999194
876.055618	0.998011
876.366415	0.998580
876.677169	0.999836
876.987882	0.997953
877.298554	0.999762
877.609183	0.999393
877.919771	1.000797
878.230317	0.999949
878.540822	0.997977
878.851285	0.998551
879.161707	0.998576
879.472087	0.999983
879.782425	0.997697
880.092722	0.995937
880.402977	0.993878
880.713191	0.992021
881.023363	0.989717
881.333494	0.987283
881.643583	0.989347
881.953631	0.987501
882.263637	0.988074
882.573602	0.988268
882.883526	0.989647
883.193408	0.991479
883.503248	0.991060
883.813048	0.991875
884.122806	0.994247
884.432522	0.994372
884.742197	0.996265
885.051831	0.996051
885.361424	0.995939
885.670975	0.998548
885.980485	0.997340
886.289954	0.997672
886.599382	0.997260
886.908768	0.998834
887.218113	0.997799
887.527417	0.998061
887.836680	0.998229
888.145901	0.999730
888.455082	0.999962
888.764221	0.999906
889.073319	0.998589
889.382376	0.999795
889.691392	0.998612
890.000366	1.000074
890.309300	0.999987
890.618193	1.000410
890.927044	0.999241
891.235855	0.999408
891.544625	0.998285
891.853353	0.998349
892.162041	0.999267
892.470687	0.999498
892.779293	0.997721
893.087858	0.997281
893.396381	0.997662
893.704864	0.997237
894.013306	0.996152
894.321707	0.994915
894.630068	0.994400
894.938387	0.994191
895.246665	0.993260
895.554903	0.993589
895.863100	0.995449
896.171256	0.995970
896.479371	0.997087
896.787446	0.997367
897.095480	0.998017
897.403473	0.998677
897.711425	0.998551
898.019336	0.999125
898.327207	0.999113
898.635038	0.998139
898.942827	0.999285
899.250576	0.998562
899.558284	0.999139
899.865952	0.998041
900.173579	0.998990
900.481165	0.998103
900.788711	0.999301
901.096216	0.999238
901.403681	0.999231
901.711105	0.998841
902.018489	0.999585
902.325832	0.999920
902.633135	0.998472
902.940397	0.999615
903.247619	0.998443
903.554800	0.996836
903.861941	0.995845
904.169041	0.994087
904.476101	0.992691
904.783121	0.992696
905.090100	0.994427
905.397039	0.994489
905.703938	0.995132
906.010796	0.995708
906.317614	0.996892
906.624391	0.997973
906.931129	0.999462
907.237826	0.999126
907.544483	0.997606
907.851099	0.998609
908.157675	0.998526
908.464211	1.000210
908.770707	0.998861
909.077163	0.999456
909.383578	0.999383
909.689954	0.999056
909.996289	0.999433
910.302584	1.000369
910.608839	1.000939
910.915054	0.999693
911.221229	1.001093
911.527363	0.999192
911.833458	0.999388
912.139513	0.999754
912.445527	0.999682
912.751502	1.000283
913.057436	0.998618
913.363331	1.000008
913.669186	0.999128
913.975000	1.000299
914.280775	0.998580
914.586510	0.997824
914.892205	0.996525
915.197859	0.997178
915.503475	0.996096
915.809050	0.995080
916.114585	0.991535
916.420081	0.994263
916.725536	0.993701
917.030952	0.993819
917.336328	0.993812
917.641665	0.994226
917.946961	0.994910
918.252218	0.996196
918.557435	0.996645
918.862612	0.997920
919.167750	0.997600
919.472848	0.997971
919.777906	0.999022
920.082925	0.998723
920.387904	0.998896
920.692843	0.998170
920.997743	0.998281
921.302603	0.999443
921.607423	0.998975
921.912204	0.998598
922.216946	0.999867
922.521647	1.000085
922.826310	0.998667
923.130932	0.999796
923.435516	1.001064
923.740059	0.999173
924.044564	0.998945
924.349028	1.000092
924.653454	1.001247
924.957840	0.999506
925.262186	0.999092
925.566493	0.999961
925.870761	1.001035
926.174989	0.999526
926.479178	1.000841
926.783328	1.000564
927.087438	0.999359
927.391509	1.000002
927.695541	1.001176
927.999533	1.000376
928.303486	1.000620
928.607400	0.999894
928.911275	1.000964
929.215110	1.001414
929.518906	1.001064
929.822663	1.001203
930.126381	1.001394
930.430060	1.000367
930.733699	1.001322
931.037299	1.001231
931.340861	1.001568
931.644383	1.000534
931.947866	0.999339
932.251309	1.001279
932.554714	1.000775
932.858080	1.000975
933.161407	0.999822
933.464694	1.001160
933.767943	1.001004
934.071153	1.000935
934.374323	1.002246
934.677455	1.000312
934.980548	0.999827
935.283602	1.000972
935.586617	1.000138
935.889593	1.002016
936.192530	1.001776
936.495428	1.000538
936.798287	0.998758
937.101108	1.000750
937.403890	1.000759
937.706632	1.000177
938.009336	1.000387
938.312002	0.999716
938.614628	1.000100
938.917216	0.999489
939.219765	0.998209
939.522275	1.000836
939.824747	0.999515
940.127179	1.000443
940.429573	1.000813
940.731929	0.999253
941.034246	0.999305
941.336524	0.998930
941.638763	0.999462
941.940964	0.999802
942.243126	0.998678
942.545250	1.000754
942.847335	1.001322
943.149381	1.000940
943.451389	0.999151
943.753359	1.000717
944.055290	1.001831
944.357182	1.000758
944.659036	1.001020
944.960851	1.001162
945.262628	1.000485
945.564367	1.001477
945.866067	0.999629
946.167729	1.001279
946.469352	1.000845
946.770937	0.999116
947.072484	1.000802
947.373992	1.001242
947.675462	0.999466
947.976893	0.999851
948.278286	1.002045
948.579641	1.001900
948.880958	1.000427
949.182236	1.001176
949.483476	1.001877
949.784678	1.000874
950.085841	1.000020
950.386967	1.000316
950.688054	1.001071
950.989103	0.999017
951.290114	0.999155
951.591087	1.001728
951.892021	0.999572
952.192917	1.001181
952.493776	1.000992
952.794596	1.000723
953.095378	0.999923
953.396122	0.999921
953.696828	1.000650
953.997496	1.001554
954.298126	1.001391
954.598718	0.999472
954.899272	1.000829
955.199788	0.999288
955.500266	1.000913
955.800706	1.000062
956.101108	1.000327
956.401472	1.002177
956.701798	1.000374
957.002087	1.001653
957.302337	0.999941
957.602550	1.001321
957.902724	1.000606
958.202861	0.999552
958.502960	0.999965
958.803022	1.001701
959.103045	1.001472
959.403031	1.001562
959.702979	1.001574
960.002889	1.001064
960.302762	1.000493
960.602596	1.001409
960.902393	1.000004
961.202153	1.001213
961.501875	1.000982
961.801559	1.001198
962.101205	1.000268
962.400814	1.001179
962.700385	1.002297
962.999918	1.001170
963.299414	1.000101
963.598873	1.001756
963.898293	1.000095
964.197677	1.001206
964.497022	0.999970
964.796331	1.001367
965.095601	1.001429
965.394835	1.000680
965.694030	1.002210
965.993189	1.000343
966.292309	1.000980
966.591393	1.000215
966.890439	1.001663
967.189447	1.000840
967.488419	1.001364
967.787353	1.000518
968.086249	1.001250
968.385108	1.000616
968.683930	1.002198
968.982714	1.000352
969.281462	1.001433
969.580172	1.001164
969.878844	1.001942
970.177480	1.000940
970.476078	1.001856
970.774639	1.001785
971.073162	1.000516
971.371649	1.000855
971.670098	1.000070
971.968510	1.000564
972.266885	0.999757
972.565223	1.000717
972.863524	0.999334
973.161788	1.001855
973.460014	1.001982
973.758204	0.999992
974.056356	1.003426
974.354471	1.000697
974.652550	1.002033
974.950591	1.000857
975.248595	0.999550
975.546563	1.001055
975.844493	1.002280
976.142386	0.999933
976.440243	1.001506
976.738062	1.000960
977.035845	1.000244
977.333590	1.002259
977.631299	1.000743
977.928971	1.000825
978.226606	1.002718
978.524204	1.000148
978.821765	1.000624
979.119290	1.002593
979.416777	1.001099
979.714228	1.001185
980.011642	1.000585
980.309020	1.000833
980.606360	1.000853
980.903664	1.001111
981.200931	1.000610
981.498162	1.001367
981.795356	1.002126
982.092513	1.000347
982.389633	1.001234
982.686717	1.000734
982.983764	1.000386
983.280775	1.000022
983.577749	1.003044
983.874686	0.999454
984.171587	0.999189
984.468451	1.000837
984.765279	1.001448
985.062070	1.001245
985.358824	1.001472
985.655543	1.001397
985.952224	1.001193
986.248869	1.000931
986.545478	1.001818
986.842050	0.999567
987.138586	1.000702
987.435086	1.000913
987.731549	1.002746
988.027975	1.002327
988.324366	1.000880
988.620719	1.001872
988.917037	1.001070
989.213318	1.002158
989.509563	1.000546
989.805772	1.001552
990.101944	1.002114
990.398080	1.001214
990.694180	1.001360
990.990244	1.000601
991.286271	1.001437
991.582262	1.000785
991.878217	1.001293
992.174136	1.000765
992.470019	1.000695
992.765865	1.003506
993.061676	1.001393
993.357450	1.002217
993.653188	1.001826
993.948890	1.000798
994.244556	1.000810
994.540186	1.000923
994.835780	1.000784
995.131337	1.001273
995.426859	1.001947
995.722345	1.001166
996.017795	1.000446
996.313208	1.001048
996.608586	1.001201
996.903928	1.001233
997.199234	1.000198
997.494504	1.002268
997.789738	1.000494
998.084936	1.001536
998.380099	1.000352
998.675225	1.001871
998.970316	1.002078
999.265371	1.000683
999.560390	1.001075
999.855373	1.001309
1000.150320	1.001612
1000.445232	1.001659
1000.740108	1.001168
1001.034948	1.001525
1001.329752	1.001368
1001.624521	1.001108
1001.919254	0.999996
1002.213951	1.000554
1002.508613	1.000769
1002.803239	1.000742
1003.097829	1.001138
1003.392384	1.000569
1003.686903	1.001757
1003.981386	1.001192
1004.275834	1.002956
1004.570246	0.999419
1004.864623	1.001796
1005.158964	1.002438
1005.453270	1.001071
1005.747540	1.000546
1006.041775	1.001712
1006.335974	1.001618
1006.630138	1.000158
1006.924266	1.000199
1007.218359	0.999564
1007.512416	1.000856
1007.806438	1.000814
1008.100425	1.000447
1008.394376	1.001909
1008.688292	0.999587
1008.982172	1.000783
1009.276017	1.001613
1009.569827	1.001976
1009.863602	0.998663
1010.157341	1.001414
1010.451045	1.000331
1010.744714	1.002187
1011.038347	1.000373
1011.331945	1.000298
1011.625508	1.000224
1011.919036	1.000428
1012.212528	1.001656
1012.505986	1.001099
1012.799408	1.001775
1013.092795	1.001947
1013.386147	1.001085
1013.679464	1.002061
1013.972745	1.001032
1014.265992	1.001193
1014.559204	1.001233
1014.852380	1.002003
1015.145521	1.001371
1015.438628	1.001484
1015.731699	1.001625
1016.024736	1.002011
1016.317737	1.000559
1016.610703	1.002409
1016.903635	1.001127
1017.196531	1.000980
1017.489393	1.001008
1017.782219	1.001842
1018.075011	1.001132
1018.367768	1.000904
1018.660490	1.000985
1018.953177	1.000985
1019.245829	1.000985
