Dividing Wavelength (nm)	Counts (n)	Blue Motor Position (mm): 38.400000	Red Motor Position (mm): 0.000000	
326.493990	0.998597
326.888308	0.998597
327.282561	0.998597
327.676750	1.000988
328.070874	0.999511
328.464933	1.001345
328.858929	0.999615
329.252859	0.999422
329.646726	0.999120
330.040528	0.998684
330.434265	1.000138
330.827938	0.999052
331.221547	0.999932
331.615091	1.000478
332.008571	1.001004
332.401986	0.998296
332.795338	0.999191
333.188625	1.000708
333.581847	0.999688
333.975006	1.000313
334.368100	0.999835
334.761129	0.997960
335.154095	0.999623
335.546996	0.999726
335.939833	0.998346
336.332606	1.000021
336.725315	0.997247
337.117960	1.000233
337.510540	0.999112
337.903056	1.000495
338.295508	1.000552
338.687896	1.000440
339.080220	0.999359
339.472480	1.000308
339.864676	1.000645
340.256807	0.997951
340.648875	1.000201
341.040879	0.998501
341.432818	1.001023
341.824694	0.999117
342.216506	1.000369
342.608253	1.000055
342.999937	0.998957
343.391557	0.999638
343.783113	1.000903
344.174605	1.000076
344.566033	0.997739
344.957397	1.000661
345.348697	1.000224
345.739934	0.999579
346.131106	1.000015
346.522215	0.998140
346.913260	0.999428
347.304241	0.998088
347.695159	0.999942
348.086012	0.999254
348.476802	0.998765
348.867528	0.999203
349.258191	1.000419
349.648789	0.999739
350.039324	0.999589
350.429796	0.997468
350.820203	0.997092
351.210548	0.999399
351.600828	0.999216
351.991045	0.999880
352.381198	1.000107
352.771288	0.999753
353.161314	0.998743
353.551276	0.998509
353.941175	0.997496
354.331010	1.000511
354.720782	0.998318
355.110490	0.999496
355.500135	0.998829
355.889717	0.997964
356.279235	0.997833
356.668689	0.998804
357.058080	0.997150
357.447408	0.996617
357.836672	0.998438
358.225873	0.997843
358.615010	0.999717
359.004084	0.997678
359.393095	0.999129
359.782043	0.997846
360.170927	0.998747
360.559748	0.998062
360.948505	0.998940
361.337199	0.996734
361.725830	0.999200
362.114398	0.997714
362.502903	0.996793
362.891344	0.995102
363.279722	0.998281
363.668037	0.998332
364.056289	0.997892
364.444478	0.999215
364.832603	0.997192
365.220665	0.997672
365.608665	0.996814
365.996601	0.997273
366.384474	0.997447
366.772284	0.998044
367.160031	0.996012
367.547715	0.996287
367.935336	0.995370
368.322893	0.994187
368.710388	0.992519
369.097820	0.991464
369.485189	0.990030
369.872495	0.988103
370.259738	0.985787
370.646918	0.982544
371.034035	0.980578
371.421090	0.978079
371.808081	0.973340
372.195010	0.970128
372.581875	0.965151
372.968678	0.960458
373.355418	0.956877
373.742096	0.948970
374.128710	0.945376
374.515262	0.941308
374.901751	0.935009
375.288177	0.930199
375.674540	0.923720
376.060841	0.917048
376.447079	0.910663
376.833254	0.904105
377.219367	0.899431
377.605417	0.887785
377.991404	0.885171
378.377329	0.878016
378.763191	0.871919
379.148991	0.862727
379.534727	0.855645
379.920402	0.847341
380.306013	0.843266
380.691563	0.830372
381.077049	0.823091
381.462474	0.821264
381.847835	0.809356
382.233134	0.804714
382.618371	0.804896
383.003545	0.788464
383.388657	0.785249
383.773706	0.777549
384.158693	0.773816
384.543618	0.768609
384.928480	0.759251
385.313280	0.749504
385.698017	0.749188
386.082692	0.737454
386.467305	0.736361
386.851856	0.731192
387.236344	0.725857
387.620770	0.720091
388.005133	0.714976
388.389435	0.709478
388.773674	0.707243
389.157851	0.698585
389.541965	0.695803
389.926018	0.702770
390.310008	0.689864
390.693936	0.686603
391.077802	0.679209
391.461606	0.680900
391.845348	0.671036
392.229027	0.670511
392.612645	0.670000
392.996200	0.658030
393.379694	0.652358
393.763125	0.644343
394.146494	0.650357
394.529801	0.643124
394.913047	0.637332
395.296230	0.645833
395.679351	0.639538
396.062410	0.639445
396.445408	0.646185
396.828343	0.645387
397.211217	0.644394
397.594028	0.659738
397.976778	0.655528
398.359466	0.656509
398.742092	0.657373
399.124656	0.672564
399.507158	0.668612
399.889598	0.670758
400.271977	0.670063
400.654294	0.679634
401.036549	0.685341
401.418742	0.695143
401.800874	0.690679
402.182944	0.695518
402.564952	0.696605
402.946898	0.706571
403.328783	0.714921
403.710606	0.730421
404.092367	0.721949
404.474067	0.733553
404.855705	0.741004
405.237282	0.754480
405.618797	0.754879
406.000250	0.761225
406.381642	0.764600
406.762972	0.776702
407.144240	0.784976
407.525447	0.792780
407.906593	0.798060
408.287677	0.804507
408.668700	0.817170
409.049661	0.823568
409.430560	0.830079
409.811399	0.840883
410.192176	0.843902
410.572891	0.854747
410.953545	0.858776
411.334138	0.870964
411.714669	0.875198
412.095139	0.886587
412.475547	0.889093
412.855894	0.897568
413.236180	0.903634
413.616405	0.911235
413.996568	0.915643
414.376670	0.922958
414.756711	0.928696
415.136691	0.934413
415.516609	0.937171
415.896466	0.941742
416.276262	0.944977
416.655997	0.950613
417.035670	0.953456
417.415283	0.956283
417.794834	0.960897
418.174324	0.965125
418.553753	0.968110
418.933121	0.970694
419.312428	0.973688
419.691674	0.976708
420.070859	0.978006
420.449983	0.980571
420.829045	0.981043
421.208047	0.984701
421.586988	0.985264
421.965867	0.986137
422.344686	0.988813
422.723444	0.989558
423.102141	0.991005
423.480777	0.990685
423.859352	0.992542
424.237866	0.993291
424.616319	0.994253
424.994712	0.995042
425.373044	0.995388
425.751314	0.995652
426.129524	0.996184
426.507673	0.995395
426.885762	0.996575
427.263789	0.996806
427.641756	0.997331
428.019662	0.997771
428.397508	0.997414
428.775292	0.996435
429.153016	0.998130
429.530679	0.998267
429.908282	0.998607
430.285824	0.997406
430.663305	0.998572
431.040726	0.998608
431.418086	0.997378
431.795385	0.998160
432.172624	0.999414
432.549802	0.998559
432.926920	0.998857
433.303977	0.998005
433.680974	0.998903
434.057910	0.998878
434.434786	0.998848
434.811601	0.998739
435.188355	0.999542
435.565050	0.998853
435.941683	0.998016
436.318257	0.997757
436.694770	0.998716
437.071222	0.999414
437.447614	0.999129
437.823946	0.999160
438.200218	0.998883
438.576429	0.998595
438.952580	0.998285
439.328670	0.997459
439.704700	0.997705
440.080670	0.999181
440.456580	0.999638
440.832429	0.999148
441.208218	0.998890
441.583947	0.999654
441.959616	0.998704
442.335224	0.999277
442.710773	0.999209
443.086261	0.999444
443.461689	0.998945
443.837057	0.998799
444.212365	0.999456
444.587612	0.999958
444.962800	0.999335
445.337927	0.999451
445.712995	0.998982
446.088002	0.999271
446.462949	0.999440
446.837837	1.000246
447.212664	0.998190
447.587431	0.999349
447.962139	0.998743
448.336786	0.998043
448.711374	0.998780
449.085901	0.999117
449.460369	0.999801
449.834776	0.998186
450.209124	0.999246
450.583412	0.999199
450.957640	0.998541
451.331808	0.999144
451.705917	0.998399
452.079965	0.999075
452.453954	0.999476
452.827883	0.999160
453.201752	0.998917
453.575562	0.998913
453.949311	0.999690
454.323001	0.998819
454.696632	0.998933
455.070202	0.998833
455.443713	0.998832
455.817164	0.998135
456.190556	0.998903
456.563888	1.000194
456.937160	0.999185
457.310373	0.998815
457.683526	0.998599
458.056619	0.998892
458.429653	0.998705
458.802628	0.998965
459.175542	0.998849
459.548398	0.999249
459.921194	0.999599
460.293930	0.999107
460.666607	0.999112
461.039224	0.998695
461.411782	0.999578
461.784280	0.998729
462.156719	0.999059
462.529099	0.999182
462.901419	0.999003
463.273680	0.998448
463.645882	0.998243
464.018024	0.999336
464.390106	0.998773
464.762130	0.998875
465.134094	0.998726
465.505999	0.998917
465.877845	0.998573
466.249631	0.998912
466.621358	0.998055
466.993026	0.998204
467.364634	0.998076
467.736184	0.998122
468.107674	0.998541
468.479105	0.998347
468.850477	0.998844
469.221790	0.998802
469.593043	0.997921
469.964238	0.997813
470.335373	0.998119
470.706449	0.998457
471.077467	0.997946
471.448425	0.998535
471.819324	0.998589
472.190164	0.997844
472.560945	0.998073
472.931667	0.997911
473.302330	0.998243
473.672934	0.998680
474.043479	0.998493
474.413965	0.998798
474.784393	0.998584
475.154761	0.998178
475.525070	0.998266
475.895321	0.998858
476.265513	0.998746
476.635645	0.998689
477.005719	0.998035
477.375734	0.998207
477.745691	0.998065
478.115588	0.997767
478.485427	0.998083
478.855207	0.998811
479.224928	0.999310
479.594591	0.998243
479.964194	0.998243
480.333739	0.998543
480.703226	0.997720
481.072653	0.998024
481.442022	0.998678
481.811333	0.998385
482.180584	0.998535
482.549777	0.998071
482.918912	0.998577
483.287988	0.998131
483.657005	0.997568
484.025964	0.997733
484.394864	0.998341
484.763706	0.998201
485.132489	0.997922
485.501213	0.998511
485.869879	0.998211
486.238487	0.997973
486.607036	0.999007
486.975527	0.998837
487.343959	0.998519
487.712333	0.999114
488.080648	0.997923
488.448905	0.998376
488.817104	0.998664
489.185244	0.998635
489.553326	0.998656
489.921350	0.998518
490.289315	0.998691
490.657222	0.997728
491.025070	0.998895
491.392861	0.998641
491.760593	0.998709
492.128267	0.998394
492.495883	0.997547
492.863440	0.998898
493.230939	0.998810
493.598380	0.998842
493.965763	0.998179
494.333088	0.997754
494.700354	0.997635
495.067563	0.997851
495.434713	0.998397
495.801805	0.997823
496.168839	0.998623
496.535815	0.998503
496.902733	0.998236
497.269593	0.999109
497.636395	0.997675
498.003139	0.998310
498.369825	0.999010
498.736453	0.998410
499.103023	0.999062
499.469535	0.998940
499.835989	0.998778
500.202385	0.998476
500.568723	0.998283
500.935003	0.999007
501.301226	0.998678
501.667390	0.997896
502.033497	0.998113
502.399546	0.997970
502.765537	0.998331
503.131470	0.998320
503.497345	0.998734
503.863163	0.998581
504.228923	0.997903
504.594625	0.998403
504.960269	0.998508
505.325856	0.999394
505.691385	0.998343
506.056856	0.998457
506.422270	0.998793
506.787625	0.998598
507.152924	0.998715
507.518164	0.997844
507.883347	0.998761
508.248472	0.999021
508.613540	0.998521
508.978550	0.998628
509.343503	0.998849
509.708398	0.999226
510.073236	0.998915
510.438016	0.998276
510.802738	0.997860
511.167403	0.998236
511.532010	0.998707
511.896561	0.998886
512.261053	0.998465
512.625488	0.998947
512.989866	0.998525
513.354186	0.998017
513.718449	0.998996
514.082655	0.998335
514.446803	0.998136
514.810894	0.999069
515.174927	0.998622
515.538904	0.998791
515.902822	0.998319
516.266684	0.999052
516.630488	0.998871
516.994235	0.998648
517.357925	0.998929
517.721558	0.998928
518.085133	0.997860
518.448651	0.998300
518.812112	0.998685
519.175516	0.998756
519.538863	0.998419
519.902152	0.999069
520.265385	0.998806
520.628560	0.998254
520.991678	0.998390
521.354739	0.999475
521.717743	0.998526
522.080690	0.998189
522.443580	0.998854
522.806413	0.998385
523.169189	0.999194
523.531908	0.998362
523.894569	0.998770
524.257174	0.998522
524.619722	0.999169
524.982213	0.998837
525.344647	0.998309
525.707025	0.997832
526.069345	0.997994
526.431608	0.999182
526.793815	0.999216
527.155964	0.999269
527.518057	0.998389
527.880093	0.998581
528.242072	0.998648
528.603995	0.998479
528.965860	0.998588
529.327669	0.999018
529.689421	0.998344
530.051117	0.998657
530.412755	0.998555
530.774337	0.998504
531.135862	0.998822
531.497331	0.998537
531.858743	0.999323
532.220098	0.997964
532.581396	0.998635
532.942638	0.998700
533.303824	0.999459
533.664953	0.998000
534.026025	0.998937
534.387040	0.998859
534.747999	0.997811
535.108902	0.998396
535.469748	0.999508
535.830537	0.998949
536.191270	0.998906
536.551947	0.998398
536.912567	0.999060
537.273131	0.999510
537.633638	0.998715
537.994089	0.998535
538.354483	0.998747
538.714821	0.999406
539.075103	0.999354
539.435328	0.999037
539.795497	0.999013
540.155609	0.998962
540.515665	0.999617
540.875665	0.998417
541.235609	0.998482
541.595496	0.997881
541.955328	0.999166
542.315102	0.999214
542.674821	0.998858
543.034483	0.998763
543.394090	0.998100
543.753640	0.999069
544.113134	0.998189
544.472571	0.999133
544.831953	0.998672
545.191278	0.998434
545.550548	0.998394
545.909761	0.998592
546.268918	0.999282
546.628019	0.999072
546.987064	0.998379
547.346053	0.998419
547.704986	0.998871
548.063863	0.998448
548.422684	0.998641
548.781449	0.999319
549.140158	0.999084
549.498811	0.998490
549.857408	0.998242
550.215949	0.997551
550.574434	0.997948
550.932864	0.998869
551.291237	0.999155
551.649555	0.999017
552.007817	0.999102
552.366022	0.999199
552.724173	0.999066
553.082267	0.998641
553.440305	0.998553
553.798288	0.998425
554.156215	0.998670
554.514086	0.998618
554.871902	0.999274
555.229661	0.998200
555.587365	0.998865
555.945014	0.999176
556.302606	0.998148
556.660143	0.999600
557.017625	0.999333
557.375050	0.998190
557.732421	0.998514
558.089735	0.998766
558.446994	0.998191
558.804197	0.998603
559.161345	0.998501
559.518437	0.998283
559.875474	0.998901
560.232455	0.999192
560.589381	0.998729
560.946251	0.999086
561.303065	0.998852
561.659825	0.998347
562.016528	0.998910
562.373177	0.998537
562.729770	0.999045
563.086307	0.997412
563.442789	0.999190
563.799216	0.998595
564.155587	0.998448
564.511904	0.998890
564.868164	0.997562
565.224370	0.998457
565.580520	0.998642
565.936615	0.998661
566.292654	0.998086
566.648638	0.999351
567.004567	0.998624
567.360441	0.998355
567.716260	0.998945
568.072023	0.998128
568.427732	0.998732
568.783385	0.998891
569.138982	0.998680
569.494525	0.998121
569.850013	0.998829
570.205445	0.999259
570.560823	0.998231
570.916145	0.998460
571.271412	0.998576
571.626625	0.998622
571.981782	0.998761
572.336884	0.999003
572.691931	0.998744
573.046923	0.998939
573.401860	0.998141
573.756743	0.998185
574.111570	0.998664
574.466342	0.999215
574.821059	0.997725
575.175722	0.999233
575.530330	0.998351
575.884882	0.998353
576.239380	0.998666
576.593823	0.998634
576.948211	0.998479
577.302544	0.998568
577.656823	0.998420
578.011047	0.998231
578.365216	0.999043
578.719330	0.998368
579.073389	0.997981
579.427394	0.997482
579.781344	0.998481
580.135239	0.997240
580.489080	0.998480
580.842866	0.998380
581.196597	0.998281
581.550273	0.998033
581.903895	0.998690
582.257463	0.998975
582.610975	0.998585
582.964434	0.998893
583.317837	0.999125
583.671186	0.999392
584.024481	0.998638
584.377721	0.997595
584.730906	0.998776
585.084037	0.998797
585.437113	0.998992
585.790135	0.998355
586.143103	0.998877
586.496016	0.998415
586.848874	0.998001
587.201679	0.998047
587.554428	0.997874
587.907124	0.999264
588.259765	0.999058
588.612352	0.998615
588.964884	0.998898
589.317362	0.998899
589.669786	0.998523
590.022155	0.997731
590.374470	0.998889
590.726731	0.997573
591.078937	0.999160
591.431090	0.998630
591.783188	0.998087
592.135232	0.999122
592.487222	0.998895
592.839157	0.998205
593.191038	0.998535
593.542866	0.998097
593.894639	0.997424
594.246358	0.998621
594.598022	0.998936
594.949633	0.998908
595.301190	0.998350
595.652692	0.997745
596.004141	0.998573
596.355535	0.997698
596.706876	0.998361
597.058162	0.998500
597.409395	0.998008
597.760573	0.998153
598.111698	0.998292
598.462768	0.997704
598.813785	0.997343
599.164748	0.998006
599.515657	0.997849
599.866511	0.998351
600.217312	0.998661
600.568060	0.997829
600.918753	0.998995
601.269392	0.998395
601.619978	0.998724
601.970510	0.997811
602.320988	0.998158
602.671412	0.997919
603.021783	0.999354
603.372100	0.999648
603.722363	0.999068
604.072572	0.998114
604.422728	0.998145
604.772830	0.997841
605.122878	0.998330
605.472872	0.998891
605.822813	0.998091
606.172701	0.997964
606.522534	0.998608
606.872314	0.998615
607.222041	0.997811
607.571714	0.998324
607.921333	0.998328
608.270899	0.998394
608.620411	0.999473
608.969870	0.999158
609.319276	0.998532
609.668627	0.999548
610.017926	0.998162
610.367171	0.998211
610.716362	0.997919
611.065500	0.997613
611.414585	0.998038
611.763616	0.998129
612.112594	0.997494
612.461518	0.997717
612.810389	0.998487
613.159207	0.998234
613.507971	0.997848
613.856682	0.999396
614.205340	0.997520
614.553945	0.997713
614.902496	0.997460
615.250994	0.999239
615.599439	0.998623
615.947830	0.997804
616.296169	0.997904
616.644454	0.998465
616.992686	0.998441
617.340864	0.998958
617.688990	0.998112
618.037063	0.998560
618.385082	0.997725
618.733048	0.998293
619.080961	0.997786
619.428821	0.998643
619.776628	0.996744
620.124382	0.998783
620.472083	0.998841
620.819731	0.999058
621.167326	0.997786
621.514868	0.998216
621.862357	0.998053
622.209793	0.997919
622.557176	0.997741
622.904506	0.998067
623.251783	0.998602
623.599007	0.998787
623.946179	0.996976
624.293297	0.998590
624.640363	0.998424
624.987376	0.997017
625.334336	0.997468
625.681243	0.998583
626.028097	0.999169
626.374899	0.998255
626.721647	0.998878
627.068343	0.997991
627.414987	0.997823
627.761577	0.997707
628.108115	0.997721
628.454600	0.999266
628.801032	0.998153
629.147412	0.997799
629.493739	0.998560
629.840014	0.998178
630.186236	0.998124
630.532405	0.997739
630.878521	0.997474
631.224585	0.998114
631.570597	0.997557
631.916556	0.998329
632.262462	0.997164
632.608316	0.998831
632.954117	0.998087
633.299866	0.998677
633.645562	0.998098
633.991206	0.998261
634.336797	0.998481
634.682336	0.998959
635.027823	0.998346
635.373257	0.997880
635.718639	0.998185
636.063968	0.997656
636.409245	0.997118
636.754470	0.997928
637.099642	0.998658
637.444762	0.998686
637.789829	0.998051
638.134845	0.997872
638.479808	0.997989
638.824719	0.998141
639.169577	0.997618
639.514383	0.998116
639.859137	0.998763
640.203839	0.997557
640.548489	0.997985
640.893086	0.997417
641.237632	0.998420
641.582125	0.997990
641.926566	0.998883
642.270955	0.998790
642.615292	0.997935
642.959576	0.997968
643.303809	0.998047
643.647990	0.999218
643.992118	0.998513
644.336195	0.997863
644.680219	0.997975
645.024192	0.997406
645.368112	0.997066
645.711981	0.998106
646.055797	0.998247
646.399562	0.997422
646.743274	0.998157
647.086935	0.998053
647.430544	0.998406
647.774101	0.997327
648.117606	0.998891
648.461059	0.998536
648.804460	0.998297
649.147810	0.998152
649.491108	0.998684
649.834354	0.997342
650.177548	0.998133
650.520690	0.997965
650.863781	0.997230
651.206820	0.998134
651.549807	0.998615
651.892742	0.998132
652.235626	0.998582
652.578458	0.998749
652.921238	0.997430
653.263967	0.998500
653.606644	0.998190
653.949269	0.998454
654.291843	0.997436
654.634365	0.998600
654.976836	0.997412
655.319255	0.998327
655.661622	0.998514
656.003938	0.998465
656.346203	0.997976
656.688416	0.998611
657.030577	0.998037
657.372687	0.998412
657.714746	0.997277
658.056753	0.998152
658.398708	0.997479
658.740612	0.999146
659.082465	0.998112
659.424266	0.998545
659.766016	0.997105
660.107715	0.998411
660.449362	0.997799
660.790958	0.997531
661.132503	0.998578
661.473996	0.997347
661.815438	0.998241
662.156829	0.998249
662.498168	0.998049
662.839456	0.996930
663.180693	0.998196
663.521879	0.998098
663.863013	0.998694
664.204097	0.997525
664.545129	0.998182
664.886110	0.998617
665.227040	0.998170
665.567918	0.997532
665.908746	0.997828
666.249522	0.997032
666.590248	0.998202
666.930922	0.998061
667.271545	0.998425
667.612118	0.997129
667.952639	0.998078
668.293109	0.997998
668.633528	0.997566
668.973896	0.997418
669.314213	0.997229
669.654480	0.997872
669.994695	0.997031
670.334859	0.997082
670.674973	0.997736
671.015035	0.997288
671.355047	0.997616
671.695008	0.997618
672.034918	0.997997
672.374777	0.998392
672.714585	0.998559
673.054342	0.997555
673.394049	0.997004
673.733705	0.997809
674.073310	0.998233
674.412864	0.997935
674.752368	0.997373
675.091820	0.999217
675.431223	0.997890
675.770574	0.998026
676.109875	0.998018
676.449125	0.997950
676.788324	0.997240
677.127473	0.998288
677.466571	0.997643
677.805619	0.998491
678.144616	0.998425
678.483562	0.998160
678.822458	0.998146
679.161303	0.998601
679.500098	0.998154
679.838842	0.998203
680.177535	0.997601
680.516179	0.996371
680.854771	0.998135
681.193314	0.998289
681.531805	0.997075
681.870247	0.997484
682.208638	0.997975
682.546978	0.998094
682.885268	0.997455
683.223508	0.997409
683.561697	0.997994
683.899836	0.998053
684.237925	0.997863
684.575963	0.997430
684.913951	0.997666
685.251889	0.997847
685.589776	0.998219
685.927614	0.997801
686.265401	0.997955
686.603137	0.998289
686.940824	0.996756
687.278460	0.998164
687.616046	0.998007
687.953582	0.998160
688.291068	0.998779
688.628504	0.998001
688.965889	0.997436
689.303224	0.996145
689.640510	0.997342
689.977745	0.997640
690.314930	0.997448
690.652065	0.997661
690.989150	0.997253
691.326185	0.997730
691.663170	0.997417
692.000105	0.997538
692.336990	0.997603
692.673825	0.997875
693.010610	0.997701
693.347345	0.997723
693.684030	0.997053
694.020665	0.997833
694.357251	0.996735
694.693786	0.997465
695.030272	0.996679
695.366707	0.997289
695.703093	0.997094
696.039429	0.997251
696.375716	0.997765
696.711952	0.997604
697.048139	0.998744
697.384276	0.997641
697.720363	0.997348
698.056400	0.996813
698.392388	0.997520
698.728326	0.997801
699.064214	0.999559
699.400053	0.998045
699.735842	0.998580
700.071581	0.997860
700.407270	0.997823
700.742910	0.998486
701.078501	0.997708
701.414042	0.998572
701.749533	0.996572
702.084974	0.998544
702.420366	0.998343
702.755709	0.997241
703.091002	0.998199
703.426246	0.997808
703.761440	0.997297
704.096584	0.996638
704.431679	0.997199
704.766725	0.996366
705.101721	0.997750
705.436668	0.997598
705.771565	0.997549
706.106413	0.997065
706.441212	0.997875
706.775961	0.997022
707.110661	0.997954
707.445311	0.998139
707.779913	0.998292
708.114465	0.998710
708.448967	0.998284
708.783421	0.998740
709.117825	0.997749
709.452180	0.998328
709.786485	0.997644
710.120742	0.998051
710.454949	0.997807
710.789107	0.997823
711.123216	0.996711
711.457275	0.996558
711.791286	0.997679
712.125247	0.999215
712.459159	0.997688
712.793023	0.997718
713.126837	0.997486
713.460602	0.997882
713.794318	0.996854
714.127985	0.996907
714.461602	0.997813
714.795171	0.997694
715.128691	0.997644
715.462162	0.997879
715.795584	0.997481
716.128957	0.997424
716.462281	0.997647
716.795556	0.997731
717.128782	0.997810
717.461960	0.997959
717.795088	0.998013
718.128167	0.999591
718.461198	0.998319
718.794180	0.997886
719.127113	0.997612
719.459997	0.997105
719.792833	0.997317
720.125619	0.996635
720.458357	0.997097
720.791046	0.998295
721.123686	0.998082
721.456278	0.998658
721.788821	0.997910
722.121315	0.999083
722.453761	0.998238
722.786158	0.997197
723.118506	0.997359
723.450805	0.997342
723.783056	0.997722
724.115259	0.997093
724.447412	0.998184
724.779518	0.997729
725.111574	0.997256
725.443582	0.998466
725.775542	0.998032
726.107453	0.998301
726.439315	0.998405
726.771129	0.998126
727.102895	0.997520
727.434612	0.998024
727.766281	0.997370
728.097901	0.997393
728.429473	0.999088
728.760996	0.997386
729.092471	0.997767
729.423897	0.997447
729.755276	0.997241
730.086606	0.997232
730.417887	0.998245
730.749120	0.997878
731.080305	0.997416
731.411442	0.998108
731.742530	0.997118
732.073570	0.997279
732.404562	0.998066
732.735506	0.997537
733.066401	0.998711
733.397249	0.997714
733.728048	0.996722
734.058798	0.998728
734.389501	0.998274
734.720156	0.997880
735.050762	0.998844
735.381320	0.998161
735.711831	0.997540
736.042293	0.998116
736.372707	0.998477
736.703073	0.997290
737.033391	0.997631
737.363661	0.998580
737.693883	0.998254
738.024056	0.997471
738.354182	0.998423
738.684260	0.998218
739.014290	0.997967
739.344272	0.997599
739.674207	0.998513
740.004093	0.998315
740.333931	0.998312
740.663722	0.997363
740.993464	0.998058
741.323159	0.997521
741.652806	0.997961
741.982405	0.998112
742.311956	0.998172
742.641460	0.998132
742.970915	0.996826
743.300323	0.997673
743.629683	0.997488
743.958996	0.999100
744.288260	0.997192
744.617477	0.997974
744.946647	0.998105
745.275768	0.999188
745.604842	0.997557
745.933869	0.998566
746.262847	0.999203
746.591778	0.996578
746.920662	0.998993
747.249498	0.999037
747.578286	0.999702
747.907027	0.998184
748.235720	0.998392
748.564365	0.998171
748.892963	0.997342
749.221514	0.998334
749.550017	0.997174
749.878473	0.998449
750.206881	0.999355
750.535242	0.997581
750.863555	0.997585
751.191821	0.997743
751.520039	0.997890
751.848210	0.997177
752.176334	0.997152
752.504411	0.997818
752.832440	0.997271
753.160421	0.997875
753.488356	0.998471
753.816243	0.997709
754.144082	0.997850
754.471875	0.999086
754.799620	0.998658
755.127318	0.997816
755.454969	0.998604
755.782572	0.999332
756.110129	0.998077
756.437638	0.999225
756.765100	0.998957
757.092515	0.998033
757.419882	0.998471
757.747203	0.997853
758.074477	0.999225
758.401703	0.998518
758.728882	0.998658
759.056014	0.997564
759.383099	0.997733
759.710138	0.998266
760.037129	0.998164
760.364073	0.998859
760.690970	0.998505
761.017820	0.997642
761.344623	0.998347
761.671379	0.999269
761.998088	0.998728
762.324751	0.997649
762.651366	0.997522
762.977935	0.997217
763.304456	0.997693
763.630931	0.996237
763.957359	0.996590
764.283740	0.997528
764.610074	0.996408
764.936362	0.997415
765.262602	0.997441
765.588796	0.997866
765.914943	0.998365
766.241044	0.997721
766.567097	0.997865
766.893104	0.998430
767.219064	0.997637
767.544978	0.998294
767.870845	0.997987
768.196665	0.997652
768.522438	0.999143
768.848165	0.997720
769.173846	0.998558
769.499479	0.999385
769.825066	0.998910
770.150607	0.999214
770.476101	0.997963
770.801548	0.999684
771.126949	0.999419
771.452303	0.999243
771.777611	0.998614
772.102872	0.998292
772.428087	0.998665
772.753256	0.998908
773.078378	0.997540
773.403453	0.997329
773.728482	0.998873
774.053465	0.998471
774.378401	0.998521
774.703291	0.999765
775.028135	1.000053
775.352932	0.997665
775.677683	0.999529
776.002388	0.999477
776.327046	0.997898
776.651658	0.999639
776.976224	0.999669
777.300743	0.998445
777.625216	0.998298
777.949643	0.998401
778.274024	0.998698
778.598359	0.999055
778.922647	0.998779
779.246889	0.998571
779.571086	0.998616
779.895236	0.998840
780.219339	0.999490
780.543397	0.997879
780.867409	0.998524
781.191374	0.998191
781.515294	0.999252
781.839167	0.998964
782.162995	0.998750
782.486776	0.998502
782.810511	0.999281
783.134201	0.999177
783.457844	0.999406
783.781441	0.998574
784.104993	0.998084
784.428498	0.998082
784.751958	0.999878
785.075372	0.999540
785.398739	0.998467
785.722061	0.997905
786.045337	0.999086
786.368568	0.998223
786.691752	0.998156
787.014891	0.998752
787.337983	0.998847
787.661030	0.998180
787.984031	0.998375
788.306987	0.998702
788.629897	0.997486
788.952760	0.998028
789.275579	0.998613
789.598351	0.997730
789.921078	0.999926
790.243759	0.998712
790.566395	0.998163
790.888984	0.999121
791.211529	0.998709
791.534027	0.997300
791.856480	0.997936
792.178888	0.998529
792.501249	0.998267
792.823566	1.000671
793.145836	0.998959
793.468062	0.998769
793.790241	1.000356
794.112375	0.998031
794.434464	0.998796
794.756507	0.998967
795.078505	0.999013
795.400457	0.999070
795.722364	0.998805
796.044226	0.998234
796.366042	0.998471
796.687812	0.997216
797.009538	0.998180
797.331218	0.998505
797.652852	0.999750
797.974442	0.998632
798.295986	0.998217
798.617484	0.998068
798.938938	0.998873
799.260346	0.997451
799.581709	0.997916
799.903026	0.999514
800.224299	0.998393
800.545526	0.999114
800.866708	0.997908
801.187845	0.999134
801.508936	0.998826
801.829983	0.998350
802.150984	0.998859
802.471940	0.999402
802.792851	0.998817
803.113717	0.999164
803.434538	1.000012
803.755314	0.999046
804.076045	0.999184
804.396731	0.998650
804.717372	0.996715
805.037967	0.999030
805.358518	0.998990
805.679024	0.998255
805.999485	0.999627
806.319901	0.998346
806.640272	0.999895
806.960598	0.999002
807.280879	0.999143
807.601115	1.000013
807.921306	0.999206
808.241453	0.998495
808.561554	0.999456
808.881611	0.998787
809.201623	0.998836
809.521590	0.998543
809.841513	0.999345
810.161390	0.997724
810.481223	0.998382
810.801011	0.999220
811.120755	1.000442
811.440453	0.998032
811.760107	0.998570
812.079716	0.996516
812.399281	0.999851
812.718801	0.998394
813.038276	0.998634
813.357707	0.999342
813.677093	0.999583
813.996434	0.999264
814.315731	0.999565
814.634983	0.998856
814.954191	1.000353
815.273354	0.998701
815.592473	0.997775
815.911547	0.999865
816.230577	0.999160
816.549562	0.998578
816.868502	0.997462
817.187399	0.999070
817.506250	0.999415
817.825058	0.997940
818.143821	0.998859
818.462539	0.998856
818.781213	0.997393
819.099843	0.998659
819.418429	0.998185
819.736970	0.998431
820.055466	0.996945
820.373919	0.998125
820.692327	0.996981
821.010691	0.996749
821.329011	0.994121
821.647286	0.994003
821.965517	0.992960
822.283704	0.993251
822.601847	0.992380
822.919945	0.991562
823.237999	0.992611
823.556010	0.993553
823.873976	0.993002
824.191897	0.994940
824.509775	0.995969
824.827609	0.996311
825.145398	0.996219
825.463144	0.995117
825.780845	0.995122
826.098502	0.995305
826.416116	0.996685
826.733685	0.996203
827.051210	0.995691
827.368692	0.994924
827.686129	0.995313
828.003522	0.996943
828.320872	0.995994
828.638177	0.997182
828.955439	0.997986
829.272656	0.997755
829.589830	0.996929
829.906960	0.998004
830.224046	0.997707
830.541088	0.998102
830.858086	0.997930
831.175041	0.997974
831.491952	0.998318
831.808819	0.997717
832.125642	0.999065
832.442421	0.998260
832.759157	0.998389
833.075849	0.998039
833.392497	0.997614
833.709101	0.995458
834.025662	0.997083
834.342179	0.995989
834.658653	0.997975
834.975083	0.997887
835.291469	0.998537
835.607811	0.998148
835.924110	0.997962
836.240366	0.999226
836.556578	0.998805
836.872746	0.998767
837.188871	0.998514
837.504952	0.998415
837.820990	0.999650
838.136984	0.998129
838.452935	0.998956
838.768842	0.998820
839.084706	0.998140
839.400526	0.998840
839.716303	0.995937
840.032037	0.998646
840.347727	0.998142
840.663373	0.998291
840.978977	0.998348
841.294537	0.999804
841.610054	0.998980
841.925527	0.999241
842.240957	0.998831
842.556344	0.998154
842.871687	0.998777
843.186987	0.998277
843.502244	0.999198
843.817458	0.998998
844.132629	0.998065
844.447756	0.999165
844.762840	0.998196
845.077881	0.999150
845.392879	0.997265
845.707833	1.000139
846.022745	0.999954
846.337613	0.999683
846.652438	0.998935
846.967221	0.999795
847.281960	0.998959
847.596656	1.000419
847.911309	0.998898
848.225919	0.999083
848.540485	0.999393
848.855009	1.000193
849.169490	0.998800
849.483928	0.998492
849.798323	0.997419
850.112675	0.999159
850.426984	0.998937
850.741251	0.998743
851.055474	0.998589
851.369654	1.000010
851.683792	0.998233
851.997887	0.998212
852.311938	0.999358
852.625947	0.999240
852.939914	0.998937
853.253837	0.999367
853.567718	0.999692
853.881555	0.999319
854.195350	0.999731
854.509103	0.999624
854.822812	1.000326
855.136479	0.999710
855.450103	0.999913
855.763685	0.999083
856.077224	0.998730
856.390720	0.999610
856.704173	0.999225
857.017584	1.001102
857.330953	0.999936
857.644278	0.999996
857.957561	0.999594
858.270802	0.999800
858.584000	0.999395
858.897155	0.998510
859.210268	0.999439
859.523339	0.998834
859.836367	0.999757
860.149352	0.998631
860.462295	0.999084
860.775195	0.999644
861.088054	0.998734
861.400869	0.998365
861.713642	0.997797
862.026373	1.000208
862.339062	0.999760
862.651708	0.999958
862.964312	0.999627
863.276873	0.999314
863.589392	0.998361
863.901869	0.998280
864.214303	0.999223
864.526696	0.998772
864.839045	0.999529
865.151353	0.999659
865.463619	0.998183
865.775842	0.999506
866.088023	0.999614
866.400162	0.999208
866.712258	1.000477
867.024313	0.999817
867.336325	0.999668
867.648296	0.999244
867.960224	0.999352
868.272110	0.999385
868.583954	0.999101
868.895755	0.999683
869.207515	0.999209
869.519233	1.000848
869.830909	0.998461
870.142542	0.998307
870.454134	0.999314
870.765684	0.999004
871.077191	0.999859
871.388657	0.999509
871.700081	0.999908
872.011463	0.999061
872.322803	0.999757
872.634101	0.998447
872.945357	0.998686
873.256571	0.998467
873.567744	0.999029
873.878874	0.998674
874.189963	0.998490
874.501010	1.000857
874.812015	0.999013
875.122979	0.998867
875.433900	0.998155
875.744780	1.000416
876.055618	0.998652
876.366415	0.997417
876.677169	0.997698
876.987882	0.999424
877.298554	0.999211
877.609183	0.998356
877.919771	0.999088
878.230317	0.998350
878.540822	0.997582
878.851285	0.999439
879.161707	0.998373
879.472087	0.999919
879.782425	0.997155
880.092722	0.997130
880.402977	0.996965
880.713191	0.995709
881.023363	0.993584
881.333494	0.992609
881.643583	0.992844
881.953631	0.993208
882.263637	0.993189
882.573602	0.992941
882.883526	0.992339
883.193408	0.995340
883.503248	0.995825
883.813048	0.994788
884.122806	0.996702
884.432522	0.995860
884.742197	0.997631
885.051831	0.997344
885.361424	0.997038
885.670975	0.998317
885.980485	0.996397
886.289954	0.998272
886.599382	0.997805
886.908768	0.999508
887.218113	0.997894
887.527417	0.998271
887.836680	0.998752
888.145901	0.998540
888.455082	0.999554
888.764221	0.999235
889.073319	0.998112
889.382376	0.999123
889.691392	0.998083
890.000366	0.999204
890.309300	0.999515
890.618193	0.999217
890.927044	0.999218
891.235855	0.999273
891.544625	0.998488
891.853353	0.999007
892.162041	0.998995
892.470687	1.000705
892.779293	0.998930
893.087858	0.998648
893.396381	0.998259
893.704864	0.997434
894.013306	0.998385
894.321707	0.996514
894.630068	0.996627
894.938387	0.996105
895.246665	0.996195
895.554903	0.994764
895.863100	0.997243
896.171256	0.996711
896.479371	0.997895
896.787446	0.996913
897.095480	0.998395
897.403473	0.999228
897.711425	0.998216
898.019336	0.998898
898.327207	0.998893
898.635038	0.997507
898.942827	0.999578
899.250576	0.998236
899.558284	0.998435
899.865952	0.998365
900.173579	0.998994
900.481165	0.998601
900.788711	0.999017
901.096216	0.999794
901.403681	0.999005
901.711105	0.999161
902.018489	0.998536
902.325832	0.998244
902.633135	0.998740
902.940397	0.999746
903.247619	0.998248
903.554800	0.997590
903.861941	0.997700
904.169041	0.995963
904.476101	0.995750
904.783121	0.995123
905.090100	0.995875
905.397039	0.996420
905.703938	0.997240
906.010796	0.996552
906.317614	0.998328
906.624391	0.997664
906.931129	0.999102
907.237826	0.998601
907.544483	0.998505
907.851099	0.998236
908.157675	0.999489
908.464211	0.999372
908.770707	0.998656
909.077163	0.998609
909.383578	0.999477
909.689954	0.997974
909.996289	0.998438
910.302584	0.999675
910.608839	0.999925
910.915054	0.999412
911.221229	1.000355
911.527363	0.998766
911.833458	0.999384
912.139513	0.998953
912.445527	0.999627
912.751502	1.000181
913.057436	0.998290
913.363331	0.999759
913.669186	1.000206
913.975000	0.998944
914.280775	0.999211
914.586510	0.997535
914.892205	0.996951
915.197859	0.996805
915.503475	0.997595
915.809050	0.995539
916.114585	0.994822
916.420081	0.995446
916.725536	0.996698
917.030952	0.996400
917.336328	0.995788
917.641665	0.995442
917.946961	0.997383
918.252218	0.996623
918.557435	0.997028
918.862612	0.998264
919.167750	0.998263
919.472848	0.998633
919.777906	0.999318
920.082925	0.999099
920.387904	0.998812
920.692843	0.998486
920.997743	0.997633
921.302603	0.999002
921.607423	0.998144
921.912204	0.999067
922.216946	1.000099
922.521647	0.998187
922.826310	0.998975
923.130932	1.000103
923.435516	0.999288
923.740059	0.998358
924.044564	0.999179
924.349028	0.998719
924.653454	1.000521
924.957840	0.998194
925.262186	1.000315
925.566493	0.999097
925.870761	1.000335
926.174989	0.998471
926.479178	0.999442
926.783328	0.999123
927.087438	0.998172
927.391509	0.998889
927.695541	0.998989
927.999533	0.999744
928.303486	0.999367
928.607400	0.999052
928.911275	0.998589
929.215110	0.999238
929.518906	1.000049
929.822663	1.001356
930.126381	0.999742
930.430060	1.000164
930.733699	1.000537
931.037299	0.999581
931.340861	1.001182
931.644383	0.997566
931.947866	1.000123
932.251309	1.000431
932.554714	0.999267
932.858080	1.000331
933.161407	0.999188
933.464694	0.998804
933.767943	1.000207
934.071153	0.998590
934.374323	0.999339
934.677455	0.999638
934.980548	0.999362
935.283602	0.999009
935.586617	0.997772
935.889593	1.000271
936.192530	1.000352
936.495428	1.000133
936.798287	0.998492
937.101108	1.000312
937.403890	0.999825
937.706632	1.000069
938.009336	0.999838
938.312002	0.998237
938.614628	0.999079
938.917216	0.998181
939.219765	0.999229
939.522275	1.000079
939.824747	0.998997
940.127179	0.998563
940.429573	1.000972
940.731929	0.998479
941.034246	0.998435
941.336524	0.998779
941.638763	0.998611
941.940964	0.998387
942.243126	0.998978
942.545250	0.999176
942.847335	0.999309
943.149381	0.999254
943.451389	0.998059
943.753359	0.999070
944.055290	1.000741
944.357182	1.000076
944.659036	0.999735
944.960851	0.999263
945.262628	1.000089
945.564367	0.999930
945.866067	0.999358
946.167729	1.000691
946.469352	0.999309
946.770937	0.997630
947.072484	1.000046
947.373992	1.000329
947.675462	0.998188
947.976893	0.998647
948.278286	1.000976
948.579641	0.999629
948.880958	0.999403
949.182236	0.999823
949.483476	1.001332
949.784678	0.998681
950.085841	0.999963
950.386967	0.998782
950.688054	1.000378
950.989103	0.998766
951.290114	0.998598
951.591087	0.999477
951.892021	1.000576
952.192917	0.998440
952.493776	1.000137
952.794596	0.999603
953.095378	0.999117
953.396122	0.999239
953.696828	0.999614
953.997496	0.998637
954.298126	0.999206
954.598718	1.000055
954.899272	0.999724
955.199788	0.998217
955.500266	1.000721
955.800706	0.999685
956.101108	0.998793
956.401472	1.001484
956.701798	0.999933
957.002087	0.999645
957.302337	0.998136
957.602550	0.999090
957.902724	0.998724
958.202861	1.000095
958.502960	1.000072
958.803022	1.000378
959.103045	0.998701
959.403031	1.001308
959.702979	1.001259
960.002889	1.000219
960.302762	0.999854
960.602596	1.000879
960.902393	0.999812
961.202153	1.000032
961.501875	0.999745
961.801559	0.999695
962.101205	0.998382
962.400814	1.000041
962.700385	1.000718
962.999918	0.999848
963.299414	0.999789
963.598873	1.000402
963.898293	0.999251
964.197677	0.999570
964.497022	0.999813
964.796331	0.999294
965.095601	1.000994
965.394835	0.999713
965.694030	1.001279
965.993189	0.999989
966.292309	1.000546
966.591393	1.000239
966.890439	1.000067
967.189447	0.999379
967.488419	1.000087
967.787353	0.999572
968.086249	0.999767
968.385108	0.999007
968.683930	1.000086
968.982714	1.000050
969.281462	0.999475
969.580172	0.999991
969.878844	1.000754
970.177480	1.000380
970.476078	1.000900
970.774639	1.000060
971.073162	1.000223
971.371649	0.999039
971.670098	0.999923
971.968510	0.998842
972.266885	0.998732
972.565223	0.999236
972.863524	0.999869
973.161788	0.998532
973.460014	1.001181
973.758204	0.999004
974.056356	0.999705
974.354471	0.999087
974.652550	1.000947
974.950591	0.999541
975.248595	0.998320
975.546563	0.999527
975.844493	0.999497
976.142386	0.998806
976.440243	1.000578
976.738062	0.999491
977.035845	0.999450
977.333590	1.000968
977.631299	0.998541
977.928971	0.999130
978.226606	0.999075
978.524204	0.999059
978.821765	0.999674
979.119290	1.001373
979.416777	0.999442
979.714228	0.999004
980.011642	0.999699
980.309020	0.998624
980.606360	0.997210
980.903664	1.000064
981.200931	0.997757
981.498162	0.998949
981.795356	0.999094
982.092513	0.999553
982.389633	1.000472
982.686717	0.998117
982.983764	0.999802
983.280775	0.999781
983.577749	1.000317
983.874686	0.998442
984.171587	0.998884
984.468451	0.999721
984.765279	1.001333
985.062070	0.998944
985.358824	1.000159
985.655543	1.000579
985.952224	1.000394
986.248869	0.999587
986.545478	1.000298
986.842050	1.000506
987.138586	0.998669
987.435086	0.998614
987.731549	1.001132
988.027975	1.000704
988.324366	0.999369
988.620719	0.999506
988.917037	0.999261
989.213318	0.999963
989.509563	1.000009
989.805772	0.999574
990.101944	1.000071
990.398080	0.999295
990.694180	1.000959
990.990244	0.999490
991.286271	0.999746
991.582262	0.999787
991.878217	0.999007
992.174136	0.999934
992.470019	0.999001
992.765865	1.000385
993.061676	0.999859
993.357450	1.000155
993.653188	1.001100
993.948890	1.000786
994.244556	0.999200
994.540186	0.999498
994.835780	0.999837
995.131337	1.000170
995.426859	1.000324
995.722345	0.999105
996.017795	0.998984
996.313208	0.998926
996.608586	0.999666
996.903928	1.000577
997.199234	0.998654
997.494504	1.000785
997.789738	0.998605
998.084936	1.000719
998.380099	0.999494
998.675225	1.000369
998.970316	0.999739
999.265371	0.999537
999.560390	1.000187
999.855373	0.999161
1000.150320	1.000484
1000.445232	0.999485
1000.740108	0.999719
1001.034948	0.998710
1001.329752	1.001937
1001.624521	0.998556
1001.919254	1.000035
1002.213951	0.999663
1002.508613	0.999978
1002.803239	0.998780
1003.097829	0.999513
1003.392384	1.000571
1003.686903	0.998998
1003.981386	0.999383
1004.275834	1.001288
1004.570246	0.998375
1004.864623	1.001228
1005.158964	0.999482
1005.453270	1.000296
1005.747540	0.999832
1006.041775	1.000676
1006.335974	1.000691
1006.630138	1.000161
1006.924266	0.998504
1007.218359	0.998852
1007.512416	1.001121
1007.806438	1.001055
1008.100425	1.000603
1008.394376	1.000903
1008.688292	0.999498
1008.982172	0.998340
1009.276017	0.999922
1009.569827	1.000784
1009.863602	0.998834
1010.157341	1.000001
1010.451045	1.000008
1010.744714	1.000692
1011.038347	1.000901
1011.331945	0.999209
1011.625508	1.000046
1011.919036	0.999244
1012.212528	0.998918
1012.505986	0.999399
1012.799408	1.000242
1013.092795	0.999802
1013.386147	1.000413
1013.679464	1.002086
1013.972745	0.999182
1014.265992	0.999946
1014.559204	0.998944
1014.852380	1.000990
1015.145521	0.998843
1015.438628	1.000879
1015.731699	0.999446
1016.024736	1.001577
1016.317737	0.999152
1016.610703	1.000250
1016.903635	0.999998
1017.196531	0.999326
1017.489393	0.998931
1017.782219	0.999149
1018.075011	0.999388
1018.367768	0.999778
1018.660490	1.000374
1018.953177	1.000374
1019.245829	1.000374
