Dividing Wavelength (nm)	Counts (n)	Blue Motor Position (mm): 38.800000	Red Motor Position (mm): 0.000000	
326.493990	1.000199
326.888308	1.000199
327.282561	1.000199
327.676750	1.000442
328.070874	1.001554
328.464933	1.001608
328.858929	1.000455
329.252859	0.999038
329.646726	0.999525
330.040528	1.000249
330.434265	1.000202
330.827938	0.999378
331.221547	0.999202
331.615091	1.000242
332.008571	1.002249
332.401986	1.000181
332.795338	1.000001
333.188625	1.001515
333.581847	0.999939
333.975006	1.000836
334.368100	1.000315
334.761129	0.999540
335.154095	1.000897
335.546996	1.001289
335.939833	1.000656
336.332606	0.999713
336.725315	0.999392
337.117960	1.000899
337.510540	0.998756
337.903056	0.999543
338.295508	1.000686
338.687896	1.001397
339.080220	1.001284
339.472480	1.000074
339.864676	1.000225
340.256807	0.999512
340.648875	0.999539
341.040879	0.999896
341.432818	1.000332
341.824694	0.999541
342.216506	1.000564
342.608253	0.999663
342.999937	0.998636
343.391557	0.999875
343.783113	1.001558
344.174605	1.000626
344.566033	0.999818
344.957397	0.999758
345.348697	0.999799
345.739934	0.999983
346.131106	1.000320
346.522215	0.999400
346.913260	0.999571
347.304241	0.998943
347.695159	1.000875
348.086012	0.999385
348.476802	0.998937
348.867528	0.999481
349.258191	1.000220
349.648789	0.999882
350.039324	0.999410
350.429796	0.999754
350.820203	0.999221
351.210548	0.999479
351.600828	0.999981
351.991045	0.999414
352.381198	1.000837
352.771288	1.000121
353.161314	1.000155
353.551276	0.998477
353.941175	0.996793
354.331010	0.999974
354.720782	0.999001
355.110490	1.000064
355.500135	1.000068
355.889717	0.998459
356.279235	0.998556
356.668689	0.999862
357.058080	0.999323
357.447408	0.998223
357.836672	0.998494
358.225873	0.997934
358.615010	0.998897
359.004084	0.998830
359.393095	0.999292
359.782043	0.998250
360.170927	0.999173
360.559748	0.998747
360.948505	0.998618
361.337199	0.996991
361.725830	1.001035
362.114398	0.998882
362.502903	0.997860
362.891344	0.997674
363.279722	0.997738
363.668037	0.999102
364.056289	0.997592
364.444478	0.999858
364.832603	0.997155
365.220665	0.998519
365.608665	0.996903
365.996601	0.998300
366.384474	0.998188
366.772284	0.997964
367.160031	0.996573
367.547715	0.996542
367.935336	0.996230
368.322893	0.995256
368.710388	0.993882
369.097820	0.991474
369.485189	0.990188
369.872495	0.988685
370.259738	0.985774
370.646918	0.983695
371.034035	0.980631
371.421090	0.978322
371.808081	0.972862
372.195010	0.970708
372.581875	0.965046
372.968678	0.960487
373.355418	0.957498
373.742096	0.949087
374.128710	0.945661
374.515262	0.941110
374.901751	0.936076
375.288177	0.931218
375.674540	0.924744
376.060841	0.917972
376.447079	0.910425
376.833254	0.904576
377.219367	0.900310
377.605417	0.887554
377.991404	0.885846
378.377329	0.878164
378.763191	0.872303
379.148991	0.863801
379.534727	0.855408
379.920402	0.847775
380.306013	0.844215
380.691563	0.831684
381.077049	0.825277
381.462474	0.821224
381.847835	0.809359
382.233134	0.805037
382.618371	0.805915
383.003545	0.787244
383.388657	0.785893
383.773706	0.777641
384.158693	0.774458
384.543618	0.769351
384.928480	0.760018
385.313280	0.750778
385.698017	0.750556
386.082692	0.738942
386.467305	0.737532
386.851856	0.731561
387.236344	0.726852
387.620770	0.720660
388.005133	0.715907
388.389435	0.709865
388.773674	0.706944
389.157851	0.698842
389.541965	0.697277
389.926018	0.704148
390.310008	0.691149
390.693936	0.687792
391.077802	0.681297
391.461606	0.683009
391.845348	0.673194
392.229027	0.672959
392.612645	0.673689
392.996200	0.663300
393.379694	0.657367
393.763125	0.651019
394.146494	0.656853
394.529801	0.651302
394.913047	0.647078
395.296230	0.656186
395.679351	0.652042
396.062410	0.653218
396.445408	0.660132
396.828343	0.660573
397.211217	0.660128
397.594028	0.676246
397.976778	0.673495
398.359466	0.675596
398.742092	0.677928
399.124656	0.693737
399.507158	0.689815
399.889598	0.694234
400.271977	0.694271
400.654294	0.703896
401.036549	0.711340
401.418742	0.722249
401.800874	0.719573
402.182944	0.724095
402.564952	0.727895
402.946898	0.737629
403.328783	0.746518
403.710606	0.761584
404.092367	0.755659
404.474067	0.766833
404.855705	0.775347
405.237282	0.787136
405.618797	0.789866
406.000250	0.796241
406.381642	0.799639
406.762972	0.811470
407.144240	0.820246
407.525447	0.827556
407.906593	0.833287
408.287677	0.840497
408.668700	0.851766
409.049661	0.857107
409.430560	0.863944
409.811399	0.873983
410.192176	0.877427
410.572891	0.886134
410.953545	0.889631
411.334138	0.900407
411.714669	0.904436
412.095139	0.913737
412.475547	0.917968
412.855894	0.923284
413.236180	0.929071
413.616405	0.935066
413.996568	0.939170
414.376670	0.944101
414.756711	0.949323
415.136691	0.953798
415.516609	0.956823
415.896466	0.960183
416.276262	0.963305
416.655997	0.967134
417.035670	0.969066
417.415283	0.971117
417.794834	0.974785
418.174324	0.978114
418.553753	0.980228
418.933121	0.980890
419.312428	0.984064
419.691674	0.986189
420.070859	0.987408
420.449983	0.988412
420.829045	0.989501
421.208047	0.991162
421.586988	0.991809
421.965867	0.992310
422.344686	0.993636
422.723444	0.993987
423.102141	0.995351
423.480777	0.994929
423.859352	0.996344
424.237866	0.996862
424.616319	0.997411
424.994712	0.997620
425.373044	0.997141
425.751314	0.998459
426.129524	0.999080
426.507673	0.997378
426.885762	0.998427
427.263789	0.998291
427.641756	0.998772
428.019662	0.998466
428.397508	0.998899
428.775292	0.999115
429.153016	0.998900
429.530679	0.999361
429.908282	1.000146
430.285824	0.999801
430.663305	0.998681
431.040726	0.999098
431.418086	0.999871
431.795385	1.000663
432.172624	1.000414
432.549802	0.999227
432.926920	1.000236
433.303977	0.999999
433.680974	0.999691
434.057910	1.000296
434.434786	0.999118
434.811601	1.000014
435.188355	0.999637
435.565050	0.999856
435.941683	0.999381
436.318257	0.998688
436.694770	1.000135
437.071222	1.000410
437.447614	0.999523
437.823946	0.999728
438.200218	1.000145
438.576429	0.999942
438.952580	0.999810
439.328670	0.999440
439.704700	0.998344
440.080670	0.999519
440.456580	0.999616
440.832429	0.999345
441.208218	1.000863
441.583947	0.999666
441.959616	0.998962
442.335224	1.000746
442.710773	0.999988
443.086261	1.000687
443.461689	0.998678
443.837057	0.999620
444.212365	1.000216
444.587612	1.000369
444.962800	0.999938
445.337927	1.000715
445.712995	1.000199
446.088002	0.999316
446.462949	1.000379
446.837837	1.000730
447.212664	0.999631
447.587431	1.000386
447.962139	0.999627
448.336786	0.999141
448.711374	0.999535
449.085901	1.000482
449.460369	1.000571
449.834776	0.999633
450.209124	1.000624
450.583412	1.000539
450.957640	1.000405
451.331808	1.000420
451.705917	0.999830
452.079965	1.000001
452.453954	1.000053
452.827883	1.000132
453.201752	1.000245
453.575562	0.999768
453.949311	1.000462
454.323001	0.999534
454.696632	0.999958
455.070202	0.999651
455.443713	1.000100
455.817164	0.999861
456.190556	0.999829
456.563888	1.000246
456.937160	1.000147
457.310373	0.999796
457.683526	1.000357
458.056619	0.999608
458.429653	0.999499
458.802628	0.999412
459.175542	0.999733
459.548398	1.000441
459.921194	0.999986
460.293930	1.000041
460.666607	0.999919
461.039224	0.999578
461.411782	0.999459
461.784280	0.999616
462.156719	1.000901
462.529099	1.000321
462.901419	0.999966
463.273680	0.999555
463.645882	0.999638
464.018024	1.000450
464.390106	1.000212
464.762130	0.999821
465.134094	0.999506
465.505999	0.999433
465.877845	0.999596
466.249631	0.999016
466.621358	0.999223
466.993026	0.999769
467.364634	0.999503
467.736184	0.999344
468.107674	0.999377
468.479105	0.999212
468.850477	1.000097
469.221790	1.000323
469.593043	0.999125
469.964238	0.999306
470.335373	0.998892
470.706449	0.999373
471.077467	0.999845
471.448425	1.000353
471.819324	0.999915
472.190164	0.999287
472.560945	0.999306
472.931667	0.999814
473.302330	0.999991
473.672934	1.000033
474.043479	0.999539
474.413965	0.999813
474.784393	0.999520
475.154761	0.998963
475.525070	1.000077
475.895321	0.999508
476.265513	0.999567
476.635645	1.000001
477.005719	0.999629
477.375734	0.999751
477.745691	0.998703
478.115588	0.998791
478.485427	0.999244
478.855207	0.999792
479.224928	0.999698
479.594591	0.999947
479.964194	0.999505
480.333739	0.999207
480.703226	0.999077
481.072653	0.999508
481.442022	0.999471
481.811333	1.000093
482.180584	0.999660
482.549777	0.999643
482.918912	0.999847
483.287988	0.999562
483.657005	0.999153
484.025964	0.999506
484.394864	0.999054
484.763706	0.999991
485.132489	0.999783
485.501213	0.999429
485.869879	0.999605
486.238487	0.999093
486.607036	1.000045
486.975527	0.999688
487.343959	0.998949
487.712333	0.999554
488.080648	0.999188
488.448905	0.999689
488.817104	0.999331
489.185244	0.999315
489.553326	1.000243
489.921350	0.999930
490.289315	0.999666
490.657222	0.999744
491.025070	0.999404
491.392861	0.999477
491.760593	0.999681
492.128267	0.998910
492.495883	0.998826
492.863440	0.999770
493.230939	0.999494
493.598380	1.000137
493.965763	0.999163
494.333088	0.999089
494.700354	0.999204
495.067563	0.999691
495.434713	0.999872
495.801805	0.999645
496.168839	0.999259
496.535815	0.999837
496.902733	0.999177
497.269593	0.998838
497.636395	0.998122
498.003139	0.998868
498.369825	1.000190
498.736453	0.999992
499.103023	0.999872
499.469535	0.999264
499.835989	0.999229
500.202385	0.999458
500.568723	0.999692
500.935003	0.999366
501.301226	0.999521
501.667390	0.998913
502.033497	0.999814
502.399546	0.998936
502.765537	0.999473
503.131470	0.999828
503.497345	0.999185
503.863163	0.999245
504.228923	0.998874
504.594625	0.999288
504.960269	0.999789
505.325856	0.999894
505.691385	0.999928
506.056856	0.999653
506.422270	0.999220
506.787625	0.999524
507.152924	0.999810
507.518164	0.998869
507.883347	0.999076
508.248472	0.999664
508.613540	0.999222
508.978550	1.000209
509.343503	0.999586
509.708398	1.000566
510.073236	0.998823
510.438016	0.998566
510.802738	0.999187
511.167403	0.999079
511.532010	0.999781
511.896561	0.999522
512.261053	0.999532
512.625488	0.999809
512.989866	0.999739
513.354186	0.999036
513.718449	0.999552
514.082655	0.999456
514.446803	0.999647
514.810894	0.999967
515.174927	0.999602
515.538904	1.000009
515.902822	0.999748
516.266684	0.999678
516.630488	0.999625
516.994235	0.999943
517.357925	1.000254
517.721558	0.999070
518.085133	0.999455
518.448651	0.999705
518.812112	1.000081
519.175516	0.999678
519.538863	0.999273
519.902152	1.000352
520.265385	0.999835
520.628560	0.999544
520.991678	1.000094
521.354739	1.000203
521.717743	1.000211
522.080690	0.999624
522.443580	0.999741
522.806413	0.999172
523.169189	0.999753
523.531908	0.999161
523.894569	0.999518
524.257174	0.999628
524.619722	0.999631
524.982213	0.999311
525.344647	0.999386
525.707025	0.998775
526.069345	0.999114
526.431608	0.999817
526.793815	1.000004
527.155964	1.000095
527.518057	1.000125
527.880093	0.999638
528.242072	0.999823
528.603995	0.999193
528.965860	1.000575
529.327669	0.999953
529.689421	0.999164
530.051117	0.999624
530.412755	0.999661
530.774337	0.999665
531.135862	1.000456
531.497331	0.999536
531.858743	1.000285
532.220098	0.999411
532.581396	0.999989
532.942638	0.999738
533.303824	1.000813
533.664953	0.999111
534.026025	1.000503
534.387040	0.999975
534.747999	0.999366
535.108902	1.000205
535.469748	1.000204
535.830537	1.000329
536.191270	0.999434
536.551947	0.999485
536.912567	0.999674
537.273131	1.000321
537.633638	0.999643
537.994089	1.000267
538.354483	0.999967
538.714821	0.999659
539.075103	1.000017
539.435328	0.999874
539.795497	1.000319
540.155609	0.999508
540.515665	0.999964
540.875665	0.999932
541.235609	1.000075
541.595496	0.999661
541.955328	0.999939
542.315102	0.999968
542.674821	1.000067
543.034483	1.000215
543.394090	0.999207
543.753640	0.999825
544.113134	0.999335
544.472571	1.000620
544.831953	0.999870
545.191278	0.999778
545.550548	0.999482
545.909761	0.999732
546.268918	1.000259
546.628019	1.000372
546.987064	0.999433
547.346053	0.999200
547.704986	0.999466
548.063863	0.999801
548.422684	0.999342
548.781449	0.999534
549.140158	0.999658
549.498811	0.999659
549.857408	0.998984
550.215949	0.999404
550.574434	0.999710
550.932864	0.999900
551.291237	0.999759
551.649555	1.000405
552.007817	0.999308
552.366022	0.999710
552.724173	1.000303
553.082267	0.999417
553.440305	0.999864
553.798288	0.999003
554.156215	0.999389
554.514086	1.000598
554.871902	0.999797
555.229661	0.998984
555.587365	0.999648
555.945014	1.000106
556.302606	0.999501
556.660143	1.000087
557.017625	1.000581
557.375050	0.999084
557.732421	1.000340
558.089735	0.999412
558.446994	0.999597
558.804197	0.999721
559.161345	0.999339
559.518437	0.999007
559.875474	1.000099
560.232455	0.999885
560.589381	1.000603
560.946251	1.000238
561.303065	1.000103
561.659825	0.999626
562.016528	1.000347
562.373177	1.000172
562.729770	0.999522
563.086307	0.999189
563.442789	1.000323
563.799216	0.999333
564.155587	0.999701
564.511904	0.999932
564.868164	0.998933
565.224370	0.999565
565.580520	1.000297
565.936615	0.999529
566.292654	0.999699
566.648638	0.999908
567.004567	1.000333
567.360441	1.000527
567.716260	0.999673
568.072023	0.998808
568.427732	0.999564
568.783385	1.000358
569.138982	0.999380
569.494525	0.999254
569.850013	1.000305
570.205445	0.999920
570.560823	0.999843
570.916145	0.999300
571.271412	1.000095
571.626625	0.999954
571.981782	1.000196
572.336884	1.000154
572.691931	1.000068
573.046923	1.000730
573.401860	0.999575
573.756743	0.999853
574.111570	0.999577
574.466342	1.000769
574.821059	0.999468
575.175722	0.999857
575.530330	1.000035
575.884882	0.999926
576.239380	1.000015
576.593823	0.999779
576.948211	1.000243
577.302544	0.999845
577.656823	0.999561
578.011047	0.999298
578.365216	1.000553
578.719330	0.999826
579.073389	0.998855
579.427394	0.999649
579.781344	0.999794
580.135239	0.999620
580.489080	0.999511
580.842866	0.999759
581.196597	0.999222
581.550273	0.999499
581.903895	1.000614
582.257463	0.999588
582.610975	0.998522
582.964434	1.000180
583.317837	1.000332
583.671186	1.000208
584.024481	0.999452
584.377721	0.999016
584.730906	1.000173
585.084037	1.000577
585.437113	1.000792
585.790135	0.999805
586.143103	0.999607
586.496016	0.999248
586.848874	0.999621
587.201679	0.999697
587.554428	0.999119
587.907124	1.000647
588.259765	0.999310
588.612352	1.000612
588.964884	1.000095
589.317362	0.999157
589.669786	0.999816
590.022155	0.999429
590.374470	0.999760
590.726731	0.999478
591.078937	1.000360
591.431090	0.999783
591.783188	0.999675
592.135232	0.999914
592.487222	0.999861
592.839157	0.999922
593.191038	1.000039
593.542866	0.999758
593.894639	0.999018
594.246358	1.000219
594.598022	1.000143
594.949633	1.000492
595.301190	0.999719
595.652692	0.999964
596.004141	0.999667
596.355535	0.999522
596.706876	1.000168
597.058162	0.999767
597.409395	0.999919
597.760573	0.999229
598.111698	0.999235
598.462768	0.999741
598.813785	0.999522
599.164748	0.999315
599.515657	0.999141
599.866511	1.000216
600.217312	1.000518
600.568060	0.999518
600.918753	0.999952
601.269392	0.999282
601.619978	0.999551
601.970510	0.999915
602.320988	0.999686
602.671412	0.999125
603.021783	1.000019
603.372100	0.999883
603.722363	1.000095
604.072572	0.999741
604.422728	0.999410
604.772830	0.999547
605.122878	0.999857
605.472872	1.000384
605.822813	0.998634
606.172701	0.999551
606.522534	1.000433
606.872314	0.999732
607.222041	0.999121
607.571714	1.000442
607.921333	0.999627
608.270899	0.999506
608.620411	1.000314
608.969870	1.000739
609.319276	0.999351
609.668627	1.000688
610.017926	0.999791
610.367171	1.000123
610.716362	0.999981
611.065500	0.999756
611.414585	1.000153
611.763616	0.999278
612.112594	0.999717
612.461518	0.999440
612.810389	0.999832
613.159207	0.999729
613.507971	0.999008
613.856682	1.000576
614.205340	0.998994
614.553945	1.000037
614.902496	0.999698
615.250994	1.000720
615.599439	1.000350
615.947830	0.999539
616.296169	1.000153
616.644454	1.000250
616.992686	0.999512
617.340864	0.999928
617.688990	0.999625
618.037063	0.999519
618.385082	0.999206
618.733048	0.999401
619.080961	0.999551
619.428821	1.000255
619.776628	0.999058
620.124382	1.001074
620.472083	1.000064
620.819731	1.000556
621.167326	0.999894
621.514868	1.000374
621.862357	0.999699
622.209793	0.999589
622.557176	0.999956
622.904506	0.999880
623.251783	0.999584
623.599007	1.000172
623.946179	0.998792
624.293297	1.000874
624.640363	1.000165
624.987376	0.999397
625.334336	0.999978
625.681243	0.999613
626.028097	0.999875
626.374899	0.999784
626.721647	1.000476
627.068343	0.999373
627.414987	0.999932
627.761577	0.999050
628.108115	0.998711
628.454600	1.000290
628.801032	0.999569
629.147412	1.000099
629.493739	1.000589
629.840014	0.999632
630.186236	0.999902
630.532405	0.999255
630.878521	0.999376
631.224585	1.000199
631.570597	0.999574
631.916556	1.000209
632.262462	0.999468
632.608316	1.000428
632.954117	0.999193
633.299866	1.000208
633.645562	0.999666
633.991206	0.999793
634.336797	0.998991
634.682336	1.000258
635.027823	0.999571
635.373257	0.999750
635.718639	1.000601
636.063968	0.999934
636.409245	0.999589
636.754470	0.999550
637.099642	0.999237
637.444762	0.999648
637.789829	0.999582
638.134845	0.999427
638.479808	0.999901
638.824719	1.000089
639.169577	0.999787
639.514383	1.000259
639.859137	1.000393
640.203839	0.999304
640.548489	0.999534
640.893086	0.999283
641.237632	1.000042
641.582125	0.999894
641.926566	1.000720
642.270955	0.999856
642.615292	0.999364
642.959576	0.999559
643.303809	0.999733
643.647990	0.999583
643.992118	1.000194
644.336195	0.999619
644.680219	0.999395
645.024192	0.999604
645.368112	0.998793
645.711981	0.999334
646.055797	1.000268
646.399562	0.998513
646.743274	0.999822
647.086935	0.998998
647.430544	0.999672
647.774101	0.999360
648.117606	0.999969
648.461059	1.000033
648.804460	1.000140
649.147810	0.999303
649.491108	0.999801
649.834354	0.998458
650.177548	0.999599
650.520690	0.999215
650.863781	0.999178
651.206820	0.999630
651.549807	0.999547
651.892742	0.999907
652.235626	0.999938
652.578458	0.999783
652.921238	1.000279
653.263967	1.000719
653.606644	0.999873
653.949269	1.000940
654.291843	0.999311
654.634365	1.000666
654.976836	0.999192
655.319255	1.000982
655.661622	1.000121
656.003938	0.999094
656.346203	0.999358
656.688416	1.000337
657.030577	0.999260
657.372687	0.999705
657.714746	0.998633
658.056753	0.998550
658.398708	0.999311
658.740612	0.999596
659.082465	0.999312
659.424266	0.999894
659.766016	0.998947
660.107715	0.999820
660.449362	0.999856
660.790958	0.998911
661.132503	1.000080
661.473996	0.999202
661.815438	1.000086
662.156829	0.999236
662.498168	1.000003
662.839456	0.998878
663.180693	0.998848
663.521879	0.999369
663.863013	0.999813
664.204097	0.998997
664.545129	0.998803
664.886110	0.999841
665.227040	0.999748
665.567918	0.999935
665.908746	0.998796
666.249522	0.998658
666.590248	0.999431
666.930922	0.998869
667.271545	0.999251
667.612118	0.999249
667.952639	0.999697
668.293109	0.999245
668.633528	0.999385
668.973896	0.999626
669.314213	0.999889
669.654480	0.999961
669.994695	0.998514
670.334859	0.999205
670.674973	0.999818
671.015035	0.999868
671.355047	0.999727
671.695008	0.999352
672.034918	0.998989
672.374777	0.999428
672.714585	0.998148
673.054342	1.000187
673.394049	0.998684
673.733705	0.998171
674.073310	0.998772
674.412864	0.999520
674.752368	0.998994
675.091820	0.999885
675.431223	1.000467
675.770574	0.998888
676.109875	0.999793
676.449125	0.999307
676.788324	0.998920
677.127473	1.000169
677.466571	0.999626
677.805619	0.999937
678.144616	1.000022
678.483562	1.000086
678.822458	0.999689
679.161303	0.998717
679.500098	0.999628
679.838842	1.000109
680.177535	0.998809
680.516179	0.999078
680.854771	0.999017
681.193314	0.999502
681.531805	0.998993
681.870247	0.999008
682.208638	0.999591
682.546978	0.998629
682.885268	0.999207
683.223508	0.999146
683.561697	0.999212
683.899836	0.999420
684.237925	0.998241
684.575963	1.000023
684.913951	0.999370
685.251889	0.999178
685.589776	0.997900
685.927614	0.998885
686.265401	0.999409
686.603137	0.998980
686.940824	0.998760
687.278460	1.000172
687.616046	0.998587
687.953582	0.998827
688.291068	0.998772
688.628504	0.998993
688.965889	0.999579
689.303224	0.997982
689.640510	0.998607
689.977745	0.998179
690.314930	0.998762
690.652065	0.998520
690.989150	0.998341
691.326185	0.999037
691.663170	0.998853
692.000105	0.999228
692.336990	0.998591
692.673825	0.998895
693.010610	0.999283
693.347345	0.998896
693.684030	0.998988
694.020665	0.999180
694.357251	0.998718
694.693786	0.998782
695.030272	0.998063
695.366707	0.998694
695.703093	0.998806
696.039429	0.997564
696.375716	0.999362
696.711952	0.998590
697.048139	0.999402
697.384276	0.998720
697.720363	0.998796
698.056400	0.998002
698.392388	0.997954
698.728326	0.999182
699.064214	0.999572
699.400053	0.999052
699.735842	0.999576
700.071581	0.998903
700.407270	0.999045
700.742910	0.998959
701.078501	0.998595
701.414042	0.999488
701.749533	0.997788
702.084974	0.999126
702.420366	0.998520
702.755709	0.997943
703.091002	0.999194
703.426246	0.999259
703.761440	0.998621
704.096584	0.998013
704.431679	0.998442
704.766725	0.998408
705.101721	0.999301
705.436668	0.998982
705.771565	0.998677
706.106413	0.998336
706.441212	0.998353
706.775961	0.998771
707.110661	0.997546
707.445311	0.999158
707.779913	0.999289
708.114465	0.999424
708.448967	0.998944
708.783421	0.999719
709.117825	0.998210
709.452180	0.999122
709.786485	0.998362
710.120742	0.998362
710.454949	0.997746
710.789107	0.998508
711.123216	0.998015
711.457275	0.997848
711.791286	0.998512
712.125247	0.999169
712.459159	0.998248
712.793023	0.999119
713.126837	0.998837
713.460602	0.998567
713.794318	0.998383
714.127985	0.997039
714.461602	0.998512
714.795171	0.998401
715.128691	0.998063
715.462162	0.998826
715.795584	0.999243
716.128957	0.999353
716.462281	0.998826
716.795556	0.998341
717.128782	0.998876
717.461960	0.997796
717.795088	0.998807
718.128167	0.999675
718.461198	0.998602
718.794180	0.999948
719.127113	0.997999
719.459997	0.998323
719.792833	0.998225
720.125619	0.996937
720.458357	0.999387
720.791046	1.000059
721.123686	0.998588
721.456278	0.998607
721.788821	0.998112
722.121315	1.000051
722.453761	0.999352
722.786158	0.997616
723.118506	0.999292
723.450805	0.997689
723.783056	0.998976
724.115259	0.998296
724.447412	0.999181
724.779518	0.998601
725.111574	0.998430
725.443582	0.998613
725.775542	0.998954
726.107453	0.998903
726.439315	0.999544
726.771129	0.998283
727.102895	0.998231
727.434612	0.998331
727.766281	0.997847
728.097901	0.997639
728.429473	0.999152
728.760996	0.998109
729.092471	0.998679
729.423897	0.998108
729.755276	0.998900
730.086606	0.997791
730.417887	0.999884
730.749120	0.998975
731.080305	0.998693
731.411442	0.997527
731.742530	0.997871
732.073570	0.998213
732.404562	0.998411
732.735506	0.998511
733.066401	0.997774
733.397249	0.997987
733.728048	0.998080
734.058798	0.999701
734.389501	0.998711
734.720156	0.999358
735.050762	0.998541
735.381320	0.998460
735.711831	0.998388
736.042293	0.998539
736.372707	0.999215
736.703073	0.998130
737.033391	0.998705
737.363661	0.999347
737.693883	0.998480
738.024056	0.998284
738.354182	0.998531
738.684260	0.997498
739.014290	0.998082
739.344272	0.998948
739.674207	0.999177
740.004093	0.999182
740.333931	0.998531
740.663722	0.998158
740.993464	0.998872
741.323159	0.998263
741.652806	0.998071
741.982405	0.998720
742.311956	0.999169
742.641460	0.998879
742.970915	0.997927
743.300323	0.997720
743.629683	0.998936
743.958996	0.999773
744.288260	0.998710
744.617477	0.998939
744.946647	0.998189
745.275768	0.998616
745.604842	0.997477
745.933869	0.998740
746.262847	0.999148
746.591778	0.997814
746.920662	0.998897
747.249498	0.998668
747.578286	0.998795
747.907027	0.998250
748.235720	0.999308
748.564365	0.998735
748.892963	0.997635
749.221514	0.998553
749.550017	0.998245
749.878473	0.998126
750.206881	0.999634
750.535242	0.998253
750.863555	0.998412
751.191821	0.998181
751.520039	0.997594
751.848210	0.997582
752.176334	0.998546
752.504411	0.998273
752.832440	0.996999
753.160421	0.997680
753.488356	0.999162
753.816243	0.998153
754.144082	0.998208
754.471875	0.999248
754.799620	0.998442
755.127318	0.998673
755.454969	0.998126
755.782572	0.999866
756.110129	0.997940
756.437638	0.999470
756.765100	0.998705
757.092515	0.997902
757.419882	0.999426
757.747203	0.998564
758.074477	0.998568
758.401703	0.998108
758.728882	0.998693
759.056014	0.997956
759.383099	0.999760
759.710138	0.997580
760.037129	0.998874
760.364073	0.998729
760.690970	0.998943
761.017820	0.997880
761.344623	0.998839
761.671379	0.999310
761.998088	0.998603
762.324751	0.998521
762.651366	0.997361
762.977935	0.996624
763.304456	0.997591
763.630931	0.997039
763.957359	0.996658
764.283740	0.997418
764.610074	0.998161
764.936362	0.997422
765.262602	0.998148
765.588796	0.998606
765.914943	0.998542
766.241044	0.998500
766.567097	0.998870
766.893104	0.998565
767.219064	0.998479
767.544978	0.998796
767.870845	0.997808
768.196665	0.997864
768.522438	0.999364
768.848165	0.999379
769.173846	0.999233
769.499479	0.999262
769.825066	0.999506
770.150607	0.999527
770.476101	0.999003
770.801548	0.998740
771.126949	0.999443
771.452303	0.998763
771.777611	0.999203
772.102872	0.999349
772.428087	0.998073
772.753256	0.998861
773.078378	0.999478
773.403453	0.998250
773.728482	0.999535
774.053465	0.998371
774.378401	0.999362
774.703291	0.999487
775.028135	1.000266
775.352932	0.998263
775.677683	1.000048
776.002388	0.999010
776.327046	0.998466
776.651658	1.000009
776.976224	0.999485
777.300743	0.999197
777.625216	0.999126
777.949643	0.999473
778.274024	0.998426
778.598359	0.998698
778.922647	0.999164
779.246889	0.998733
779.571086	0.999128
779.895236	0.998148
780.219339	1.000360
780.543397	0.998286
780.867409	1.000122
781.191374	0.998038
781.515294	0.999729
781.839167	0.999132
782.162995	0.999029
782.486776	0.998270
782.810511	1.000108
783.134201	0.999283
783.457844	0.998202
783.781441	0.998773
784.104993	0.998006
784.428498	0.999351
784.751958	1.000386
785.075372	0.999520
785.398739	0.998447
785.722061	0.997692
786.045337	0.998931
786.368568	0.998203
786.691752	0.998364
787.014891	0.998607
787.337983	0.997375
787.661030	0.998359
787.984031	0.999001
788.306987	0.998549
788.629897	0.996327
788.952760	0.999017
789.275579	0.998488
789.598351	0.998350
789.921078	0.999662
790.243759	0.998844
790.566395	0.998373
790.888984	0.998957
791.211529	1.000053
791.534027	0.998587
791.856480	0.999079
792.178888	0.998874
792.501249	0.998967
792.823566	1.000142
793.145836	0.998488
793.468062	0.998930
793.790241	0.999660
794.112375	0.997165
794.434464	0.999278
794.756507	0.999610
795.078505	0.999202
795.400457	0.999210
795.722364	0.999909
796.044226	0.999515
796.366042	0.999202
796.687812	0.997905
797.009538	0.998058
797.331218	0.999996
797.652852	0.999199
797.974442	0.999150
798.295986	0.998244
798.617484	0.998121
798.938938	0.998823
799.260346	0.998976
799.581709	0.998337
799.903026	0.999966
800.224299	0.999042
800.545526	0.998273
800.866708	0.998366
801.187845	0.998802
801.508936	0.999446
801.829983	0.999333
802.150984	0.998471
802.471940	0.999684
802.792851	0.998969
803.113717	0.999815
803.434538	0.998752
803.755314	0.999746
804.076045	0.998940
804.396731	0.998012
804.717372	0.997066
805.037967	0.999838
805.358518	0.999937
805.679024	0.998694
805.999485	0.999166
806.319901	0.999377
806.640272	1.000004
806.960598	0.999463
807.280879	0.998830
807.601115	0.999967
807.921306	0.999881
808.241453	0.998550
808.561554	0.999927
808.881611	0.999916
809.201623	0.999231
809.521590	0.999200
809.841513	0.999551
810.161390	0.998009
810.481223	0.998441
810.801011	0.998784
811.120755	0.999361
811.440453	0.999028
811.760107	0.999064
812.079716	0.998682
812.399281	0.999526
812.718801	0.998924
813.038276	0.998074
813.357707	0.999002
813.677093	0.999294
813.996434	0.998804
814.315731	1.000493
814.634983	1.000055
814.954191	0.999717
815.273354	0.999199
815.592473	0.998770
815.911547	0.999410
816.230577	0.998662
816.549562	0.999949
816.868502	0.997861
817.187399	0.999259
817.506250	0.999585
817.825058	0.998353
818.143821	0.998768
818.462539	0.998200
818.781213	0.999018
819.099843	0.999285
819.418429	0.998952
819.736970	0.998467
820.055466	0.998233
820.373919	0.998556
820.692327	0.997765
821.010691	0.997121
821.329011	0.994950
821.647286	0.994610
821.965517	0.994436
822.283704	0.993768
822.601847	0.992942
822.919945	0.992783
823.237999	0.993535
823.556010	0.994096
823.873976	0.994172
824.191897	0.995656
824.509775	0.996287
824.827609	0.996453
825.145398	0.997785
825.463144	0.996088
825.780845	0.995712
826.098502	0.996321
826.416116	0.996407
826.733685	0.995478
827.051210	0.994135
827.368692	0.995255
827.686129	0.995782
828.003522	0.996598
828.320872	0.996517
828.638177	0.996372
828.955439	0.998372
829.272656	0.999288
829.589830	0.997734
829.906960	0.998254
830.224046	0.998461
830.541088	0.998262
830.858086	0.999006
831.175041	1.000528
831.491952	0.998508
831.808819	0.999103
832.125642	0.998812
832.442421	0.999637
832.759157	0.999898
833.075849	0.998066
833.392497	0.996742
833.709101	0.995925
834.025662	0.997600
834.342179	0.997025
834.658653	0.997583
834.975083	0.999067
835.291469	0.999201
835.607811	0.998109
835.924110	0.999678
836.240366	0.999391
836.556578	0.998554
836.872746	0.998700
837.188871	0.998012
837.504952	0.999025
837.820990	0.999374
838.136984	0.999061
838.452935	0.998895
838.768842	0.999082
839.084706	0.998600
839.400526	0.999270
839.716303	0.997179
840.032037	0.997967
840.347727	0.998515
840.663373	0.998556
840.978977	0.998410
841.294537	0.999024
841.610054	0.998684
841.925527	0.999291
842.240957	0.998694
842.556344	0.997837
842.871687	0.998446
843.186987	0.999839
843.502244	0.999935
843.817458	0.998495
844.132629	0.999296
844.447756	0.999416
844.762840	1.000078
845.077881	1.000827
845.392879	0.997925
845.707833	0.999219
846.022745	0.999824
846.337613	1.000257
846.652438	0.999977
846.967221	0.999158
847.281960	0.999624
847.596656	1.001031
847.911309	0.999868
848.225919	0.998792
848.540485	1.000576
848.855009	1.000007
849.169490	0.999105
849.483928	0.999969
849.798323	0.998247
850.112675	1.000592
850.426984	0.999386
850.741251	0.999762
851.055474	0.998964
851.369654	0.999577
851.683792	1.000036
851.997887	0.998592
852.311938	0.999987
852.625947	0.999665
852.939914	0.998884
853.253837	1.000720
853.567718	0.999334
853.881555	0.999699
854.195350	0.999951
854.509103	0.999659
854.822812	0.999320
855.136479	0.999706
855.450103	0.999925
855.763685	0.998888
856.077224	0.999852
856.390720	0.999625
856.704173	0.999657
857.017584	0.999566
857.330953	1.000553
857.644278	1.000662
857.957561	0.999595
858.270802	0.999873
858.584000	1.001009
858.897155	0.999052
859.210268	0.999758
859.523339	1.000236
859.836367	0.999911
860.149352	0.999678
860.462295	0.999792
860.775195	0.999676
861.088054	0.998545
861.400869	0.999757
861.713642	0.998017
862.026373	1.000014
862.339062	1.000883
862.651708	0.999112
862.964312	0.999867
863.276873	0.998695
863.589392	0.999963
863.901869	0.999384
864.214303	0.998454
864.526696	0.998411
864.839045	0.999081
865.151353	0.998244
865.463619	0.999484
865.775842	1.000300
866.088023	1.000559
866.400162	0.999850
866.712258	1.000820
867.024313	1.000090
867.336325	1.000916
867.648296	1.000736
867.960224	1.000266
868.272110	1.001024
868.583954	0.999532
868.895755	1.000293
869.207515	0.999640
869.519233	1.000197
869.830909	0.999370
870.142542	0.998805
870.454134	0.999514
870.765684	1.000026
871.077191	0.999976
871.388657	0.999274
871.700081	1.000687
872.011463	1.000935
872.322803	0.999606
872.634101	0.998718
872.945357	0.999337
873.256571	0.998224
873.567744	0.999328
873.878874	0.999642
874.189963	0.999066
874.501010	1.000841
874.812015	0.999792
875.122979	0.999521
875.433900	0.998621
875.744780	0.998549
876.055618	0.999698
876.366415	0.998373
876.677169	0.999205
876.987882	0.998634
877.298554	0.999835
877.609183	0.999439
877.919771	1.000151
878.230317	1.000432
878.540822	0.997671
878.851285	0.998444
879.161707	0.999569
879.472087	1.000242
879.782425	0.997205
880.092722	0.997424
880.402977	0.997128
880.713191	0.995885
881.023363	0.995171
881.333494	0.993217
881.643583	0.994029
881.953631	0.994041
882.263637	0.993912
882.573602	0.994133
882.883526	0.994383
883.193408	0.995699
883.503248	0.994793
883.813048	0.995884
884.122806	0.996553
884.432522	0.996160
884.742197	0.998585
885.051831	0.998313
885.361424	0.997784
885.670975	0.999006
885.980485	0.997234
886.289954	0.997936
886.599382	0.997789
886.908768	0.999761
887.218113	0.997586
887.527417	0.999789
887.836680	0.998905
888.145901	0.999520
888.455082	1.000662
888.764221	0.999854
889.073319	0.998634
889.382376	0.998978
889.691392	0.998122
890.000366	0.999843
890.309300	0.998586
890.618193	1.000024
890.927044	0.999489
891.235855	0.998548
891.544625	0.999180
891.853353	0.999126
892.162041	0.998694
892.470687	0.999246
892.779293	0.998256
893.087858	0.997984
893.396381	0.997879
893.704864	0.997687
894.013306	0.997391
894.321707	0.997378
894.630068	0.997157
894.938387	0.995206
895.246665	0.995680
895.554903	0.996036
895.863100	0.998175
896.171256	0.996927
896.479371	0.998420
896.787446	0.998496
897.095480	0.998107
897.403473	0.998147
897.711425	0.999046
898.019336	0.999937
898.327207	0.999352
898.635038	0.998522
898.942827	0.999491
899.250576	0.998230
899.558284	0.999920
899.865952	0.998443
900.173579	0.998666
900.481165	0.998718
900.788711	0.998107
901.096216	0.998859
901.403681	1.000347
901.711105	0.998149
902.018489	0.998291
902.325832	0.998477
902.633135	0.998737
902.940397	0.999350
903.247619	0.999723
903.554800	0.998900
903.861941	0.997845
904.169041	0.996790
904.476101	0.996792
904.783121	0.996403
905.090100	0.997566
905.397039	0.997675
905.703938	0.997344
906.010796	0.998226
906.317614	0.998257
906.624391	0.999079
906.931129	0.999740
907.237826	0.999405
907.544483	1.000561
907.851099	0.999053
908.157675	0.998915
908.464211	0.999606
908.770707	0.997084
909.077163	0.999628
909.383578	0.999255
909.689954	0.998830
909.996289	0.999464
910.302584	1.000815
910.608839	1.000890
910.915054	0.999329
911.221229	1.000837
911.527363	0.998426
911.833458	0.998955
912.139513	0.999456
912.445527	0.999749
912.751502	0.999687
913.057436	0.998343
913.363331	0.999099
913.669186	0.999482
913.975000	0.999903
914.280775	0.999215
914.586510	0.998600
914.892205	0.997396
915.197859	0.997306
915.503475	0.996688
915.809050	0.996882
916.114585	0.995682
916.420081	0.996987
916.725536	0.996934
917.030952	0.996710
917.336328	0.996395
917.641665	0.996709
917.946961	0.996671
918.252218	0.997213
918.557435	0.997757
918.862612	0.997852
919.167750	0.999272
919.472848	0.998764
919.777906	0.999552
920.082925	0.999395
920.387904	0.999644
920.692843	0.998444
920.997743	0.998196
921.302603	0.999581
921.607423	0.999359
921.912204	0.998140
922.216946	1.000345
922.521647	0.999562
922.826310	0.998526
923.130932	1.000342
923.435516	0.999957
923.740059	0.998961
924.044564	0.999288
924.349028	0.998748
924.653454	1.000116
924.957840	0.999012
925.262186	0.999263
925.566493	0.999333
925.870761	0.999504
926.174989	0.998369
926.479178	1.001415
926.783328	0.999149
927.087438	0.999814
927.391509	0.998840
927.695541	0.999060
927.999533	0.999355
928.303486	0.999742
928.607400	1.000603
928.911275	0.999240
929.215110	1.001288
929.518906	0.999955
929.822663	1.001731
930.126381	1.001455
930.430060	1.000041
930.733699	1.000099
931.037299	0.998817
931.340861	0.999444
931.644383	0.998715
931.947866	1.000011
932.251309	0.999630
932.554714	1.000028
932.858080	1.001182
933.161407	0.998409
933.464694	1.000239
933.767943	1.000029
934.071153	0.999340
934.374323	1.000450
934.677455	0.999665
934.980548	0.997888
935.283602	1.000653
935.586617	0.999572
935.889593	1.001125
936.192530	0.999836
936.495428	1.000858
936.798287	0.999780
937.101108	1.000375
937.403890	0.999468
937.706632	1.001404
938.009336	0.999754
938.312002	0.998099
938.614628	1.000920
938.917216	0.999504
939.219765	0.999021
939.522275	1.000010
939.824747	1.000224
940.127179	0.999604
940.429573	1.001004
940.731929	0.999377
941.034246	0.999599
941.336524	0.998069
941.638763	0.999232
941.940964	0.999077
942.243126	0.999552
942.545250	1.001511
942.847335	0.998665
943.149381	0.999879
943.451389	0.999610
943.753359	1.000386
944.055290	1.001236
944.357182	0.999382
944.659036	0.999330
944.960851	0.999829
945.262628	0.999958
945.564367	1.000334
945.866067	0.999533
946.167729	0.998254
946.469352	0.999197
946.770937	0.998240
947.072484	1.000306
947.373992	0.999625
947.675462	0.998928
947.976893	1.000025
948.278286	1.000818
948.579641	1.000226
948.880958	0.999204
949.182236	0.999082
949.483476	1.000043
949.784678	0.999958
950.085841	0.999172
950.386967	0.999095
950.688054	0.999502
950.989103	0.999035
951.290114	0.999440
951.591087	0.999391
951.892021	0.999029
952.192917	1.000056
952.493776	0.999698
952.794596	0.999181
953.095378	0.999316
953.396122	0.999175
953.696828	1.000090
953.997496	1.000231
954.298126	1.000295
954.598718	0.999090
954.899272	0.999793
955.199788	0.999409
955.500266	1.000154
955.800706	1.000392
956.101108	0.999381
956.401472	1.000395
956.701798	0.999916
957.002087	1.000011
957.302337	0.999286
957.602550	1.000297
957.902724	1.000189
958.202861	0.998773
958.502960	0.999781
958.803022	0.999630
959.103045	0.999938
959.403031	0.999835
959.702979	1.001259
960.002889	1.000123
960.302762	0.998880
960.602596	1.000301
960.902393	0.999111
961.202153	1.000459
961.501875	1.000185
961.801559	1.000554
962.101205	0.999834
962.400814	1.000809
962.700385	1.000876
962.999918	1.001212
963.299414	0.998514
963.598873	1.000330
963.898293	1.000416
964.197677	1.000773
964.497022	1.000284
964.796331	1.000504
965.095601	1.000069
965.394835	0.999416
965.694030	1.001268
965.993189	1.000076
966.292309	1.000508
966.591393	0.999507
966.890439	1.000619
967.189447	0.999592
967.488419	0.999990
967.787353	0.999413
968.086249	0.999429
968.385108	0.999791
968.683930	1.001365
968.982714	1.000419
969.281462	1.000596
969.580172	0.999330
969.878844	1.000029
970.177480	1.000616
970.476078	1.000874
970.774639	1.000322
971.073162	1.000691
971.371649	0.999907
971.670098	0.999922
971.968510	1.000435
972.266885	0.999740
972.565223	0.998848
972.863524	0.999140
973.161788	0.999929
973.460014	1.000634
973.758204	0.997986
974.056356	1.000446
974.354471	0.998630
974.652550	0.999982
974.950591	0.999698
975.248595	0.998549
975.546563	0.999707
975.844493	1.000517
976.142386	0.999567
976.440243	1.000961
976.738062	1.000962
977.035845	0.999541
977.333590	1.000876
977.631299	0.998965
977.928971	0.999683
978.226606	1.000109
978.524204	0.998667
978.821765	1.000040
979.119290	1.000969
979.416777	0.999512
979.714228	1.000729
980.011642	1.001490
980.309020	1.000354
980.606360	0.999149
980.903664	1.000650
981.200931	1.000252
981.498162	1.000309
981.795356	0.999913
982.092513	1.000437
982.389633	1.000595
982.686717	0.999316
982.983764	0.999883
983.280775	0.998764
983.577749	1.000895
983.874686	0.999120
984.171587	0.999490
984.468451	0.999704
984.765279	1.000144
985.062070	1.000734
985.358824	1.000626
985.655543	1.001058
985.952224	1.000863
986.248869	1.000085
986.545478	1.001064
986.842050	0.999634
987.138586	0.999432
987.435086	0.999938
987.731549	1.000789
988.027975	1.000549
988.324366	0.999457
988.620719	1.001016
988.917037	0.999794
989.213318	1.000382
989.509563	1.000596
989.805772	1.000569
990.101944	1.001034
990.398080	1.000386
990.694180	1.000229
990.990244	0.999983
991.286271	0.999641
991.582262	1.000334
991.878217	1.000726
992.174136	1.000951
992.470019	1.000562
992.765865	1.001752
993.061676	1.000526
993.357450	1.000520
993.653188	1.000999
993.948890	0.999881
994.244556	1.000071
994.540186	0.998808
994.835780	1.000382
995.131337	1.000633
995.426859	1.001067
995.722345	1.000004
996.017795	1.000499
996.313208	1.000927
996.608586	1.000290
996.903928	1.000146
997.199234	1.000219
997.494504	1.001554
997.789738	0.999117
998.084936	1.000342
998.380099	0.999435
998.675225	1.000627
998.970316	1.000522
999.265371	0.999317
999.560390	0.999931
999.855373	1.000979
1000.150320	0.999875
1000.445232	1.000386
1000.740108	0.999678
1001.034948	1.000348
1001.329752	1.000933
1001.624521	1.000236
1001.919254	0.998979
1002.213951	1.000688
1002.508613	0.999924
1002.803239	1.000347
1003.097829	0.999403
1003.392384	1.001263
1003.686903	1.001252
1003.981386	1.000333
1004.275834	1.001758
1004.570246	0.999387
1004.864623	1.000275
1005.158964	1.000142
1005.453270	0.999481
1005.747540	1.000782
1006.041775	0.999947
1006.335974	1.001431
1006.630138	1.000372
1006.924266	0.998441
1007.218359	0.998542
1007.512416	1.001381
1007.806438	0.999783
1008.100425	1.001664
1008.394376	1.000915
1008.688292	0.999034
1008.982172	0.999069
1009.276017	0.999504
1009.569827	1.001069
1009.863602	0.999816
1010.157341	1.000595
1010.451045	0.999527
1010.744714	1.001529
1011.038347	1.001755
1011.331945	1.000439
1011.625508	1.000867
1011.919036	1.000312
1012.212528	1.000709
1012.505986	1.000257
1012.799408	1.001014
1013.092795	1.000069
1013.386147	0.999526
1013.679464	1.000095
1013.972745	1.000214
1014.265992	1.000802
1014.559204	1.000085
1014.852380	1.001385
1015.145521	0.999837
1015.438628	0.999737
1015.731699	1.000611
1016.024736	1.001049
1016.317737	1.000221
1016.610703	1.001388
1016.903635	0.999363
1017.196531	0.999364
1017.489393	1.000361
1017.782219	0.999497
1018.075011	0.999765
1018.367768	0.999464
1018.660490	1.000320
1018.953177	1.000320
1019.245829	1.000320
