Dividing Wavelength (nm)	Counts (n)	Blue Motor Position (mm): 28.600000	Red Motor Position (mm): 0.000000	
326.493990	1.000337
326.888308	1.000337
327.282561	1.000337
327.676750	1.002841
328.070874	1.001568
328.464933	1.002426
328.858929	1.002566
329.252859	1.000492
329.646726	1.001367
330.040528	1.000073
330.434265	1.001944
330.827938	1.000760
331.221547	1.001758
331.615091	1.001111
332.008571	1.001894
332.401986	1.001293
332.795338	1.000953
333.188625	1.001917
333.581847	1.000806
333.975006	1.002299
334.368100	1.001751
334.761129	0.999993
335.154095	1.000543
335.546996	1.000723
335.939833	0.999792
336.332606	1.000810
336.725315	0.998751
337.117960	1.000533
337.510540	0.999667
337.903056	1.000528
338.295508	1.001815
338.687896	1.000786
339.080220	0.999706
339.472480	1.000502
339.864676	1.000523
340.256807	0.999685
340.648875	1.000440
341.040879	0.999933
341.432818	1.000172
341.824694	0.998989
342.216506	1.001044
342.608253	0.999757
342.999937	1.000008
343.391557	1.000154
343.783113	1.001948
344.174605	1.000326
344.566033	0.999395
344.957397	1.000755
345.348697	1.000224
345.739934	0.999648
346.131106	0.999757
346.522215	0.999388
346.913260	0.999607
347.304241	0.999052
347.695159	0.999837
348.086012	0.999577
348.476802	1.000086
348.867528	0.999218
349.258191	1.000199
349.648789	0.999635
350.039324	1.000541
350.429796	1.000242
350.820203	0.998448
351.210548	1.000042
351.600828	0.998894
351.991045	0.999810
352.381198	0.999130
352.771288	0.999630
353.161314	0.999247
353.551276	0.998699
353.941175	0.998262
354.331010	0.999129
354.720782	0.998829
355.110490	0.998235
355.500135	0.999340
355.889717	0.998456
356.279235	0.998609
356.668689	0.999550
357.058080	0.999787
357.447408	0.997333
357.836672	0.999497
358.225873	0.998361
358.615010	0.998248
359.004084	0.997463
359.393095	0.998611
359.782043	0.998578
360.170927	0.999114
360.559748	0.998269
360.948505	0.999077
361.337199	0.998880
361.725830	0.998487
362.114398	0.997853
362.502903	0.997674
362.891344	0.996504
363.279722	0.997555
363.668037	0.999338
364.056289	0.998082
364.444478	1.000188
364.832603	0.997188
365.220665	0.998601
365.608665	0.998021
365.996601	0.998174
366.384474	0.996551
366.772284	0.997335
367.160031	0.995943
367.547715	0.997218
367.935336	0.995654
368.322893	0.995249
368.710388	0.993323
369.097820	0.992016
369.485189	0.989449
369.872495	0.988644
370.259738	0.985309
370.646918	0.982644
371.034035	0.979870
371.421090	0.978152
371.808081	0.972464
372.195010	0.970034
372.581875	0.964673
372.968678	0.960489
373.355418	0.957461
373.742096	0.949254
374.128710	0.945200
374.515262	0.941302
374.901751	0.934660
375.288177	0.930158
375.674540	0.923003
376.060841	0.917203
376.447079	0.909938
376.833254	0.903828
377.219367	0.898377
377.605417	0.888002
377.991404	0.883915
378.377329	0.877889
378.763191	0.871543
379.148991	0.861550
379.534727	0.854675
379.920402	0.846910
380.306013	0.843086
380.691563	0.829864
381.077049	0.824196
381.462474	0.819787
381.847835	0.807391
382.233134	0.803623
382.618371	0.803257
383.003545	0.786585
383.388657	0.784247
383.773706	0.776898
384.158693	0.771730
384.543618	0.768069
384.928480	0.758145
385.313280	0.748459
385.698017	0.748241
386.082692	0.736201
386.467305	0.735554
386.851856	0.729759
387.236344	0.724831
387.620770	0.718649
388.005133	0.713103
388.389435	0.706984
388.773674	0.704606
389.157851	0.696101
389.541965	0.694636
389.926018	0.700618
390.310008	0.687430
390.693936	0.684637
391.077802	0.676981
391.461606	0.677990
391.845348	0.666754
392.229027	0.666761
392.612645	0.665443
392.996200	0.651891
393.379694	0.645623
393.763125	0.634952
394.146494	0.639901
394.529801	0.630907
394.913047	0.623159
395.296230	0.628147
395.679351	0.620306
396.062410	0.616286
396.445408	0.618954
396.828343	0.614463
397.211217	0.609383
397.594028	0.621985
397.976778	0.612501
398.359466	0.608423
398.742092	0.603948
399.124656	0.616060
399.507158	0.604212
399.889598	0.601544
400.271977	0.592774
400.654294	0.596809
401.036549	0.595993
401.418742	0.599360
401.800874	0.585844
402.182944	0.582530
402.564952	0.574400
402.946898	0.576500
403.328783	0.576474
403.710606	0.588275
404.092367	0.563123
404.474067	0.568394
404.855705	0.567451
405.237282	0.576126
405.618797	0.562353
406.000250	0.557339
406.381642	0.547941
406.762972	0.552244
407.144240	0.552105
407.525447	0.551065
407.906593	0.544017
408.287677	0.540012
408.668700	0.548619
409.049661	0.542459
409.430560	0.537478
409.811399	0.546393
410.192176	0.527826
410.572891	0.534823
410.953545	0.522706
411.334138	0.536790
411.714669	0.528963
412.095139	0.541430
412.475547	0.525603
412.855894	0.527926
413.236180	0.526164
413.616405	0.531906
413.996568	0.521864
414.376670	0.528220
414.756711	0.533110
415.136691	0.529760
415.516609	0.521703
415.896466	0.517945
416.276262	0.513873
416.655997	0.515601
417.035670	0.497232
417.415283	0.488795
417.794834	0.493457
418.174324	0.499127
418.553753	0.508190
418.933121	0.490569
419.312428	0.484850
419.691674	0.489996
420.070859	0.478371
420.449983	0.485989
420.829045	0.475358
421.208047	0.484162
421.586988	0.477684
421.965867	0.476116
422.344686	0.465488
422.723444	0.477880
423.102141	0.495200
423.480777	0.467804
423.859352	0.489101
424.237866	0.466069
424.616319	0.466769
424.994712	0.457526
425.373044	0.467960
425.751314	0.456386
426.129524	0.472862
426.507673	0.456093
426.885762	0.449808
427.263789	0.455423
427.641756	0.465679
428.019662	0.455794
428.397508	0.454888
428.775292	0.459580
429.153016	0.451550
429.530679	0.457998
429.908282	0.451868
430.285824	0.462221
430.663305	0.440881
431.040726	0.462427
431.418086	0.462639
431.795385	0.455000
432.172624	0.454752
432.549802	0.456356
432.926920	0.455743
433.303977	0.456027
433.680974	0.453856
434.057910	0.453779
434.434786	0.454120
434.811601	0.458081
435.188355	0.442034
435.565050	0.453017
435.941683	0.455275
436.318257	0.441556
436.694770	0.444069
437.071222	0.444102
437.447614	0.450117
437.823946	0.458442
438.200218	0.450860
438.576429	0.461852
438.952580	0.457931
439.328670	0.457042
439.704700	0.466557
440.080670	0.470154
440.456580	0.455697
440.832429	0.466340
441.208218	0.479916
441.583947	0.472854
441.959616	0.475688
442.335224	0.484871
442.710773	0.479661
443.086261	0.482461
443.461689	0.498559
443.837057	0.494082
444.212365	0.490063
444.587612	0.500720
444.962800	0.496436
445.337927	0.503170
445.712995	0.530970
446.088002	0.503183
446.462949	0.518020
446.837837	0.528449
447.212664	0.523234
447.587431	0.524361
447.962139	0.508123
448.336786	0.482278
448.711374	0.496213
449.085901	0.537456
449.460369	0.547235
449.834776	0.557161
450.209124	0.549523
450.583412	0.553620
450.957640	0.554071
451.331808	0.570711
451.705917	0.594634
452.079965	0.604628
452.453954	0.605156
452.827883	0.617232
453.201752	0.621673
453.575562	0.636173
453.949311	0.638481
454.323001	0.648818
454.696632	0.654471
455.070202	0.659334
455.443713	0.661943
455.817164	0.667398
456.190556	0.674139
456.563888	0.681408
456.937160	0.687378
457.310373	0.703769
457.683526	0.712449
458.056619	0.723473
458.429653	0.731850
458.802628	0.740864
459.175542	0.746248
459.548398	0.747040
459.921194	0.750880
460.293930	0.758351
460.666607	0.756823
461.039224	0.759772
461.411782	0.765355
461.784280	0.773530
462.156719	0.784485
462.529099	0.794672
462.901419	0.808256
463.273680	0.815992
463.645882	0.822736
464.018024	0.833919
464.390106	0.837950
464.762130	0.839754
465.134094	0.839716
465.505999	0.835929
465.877845	0.833138
466.249631	0.836373
466.621358	0.847691
466.993026	0.860659
467.364634	0.870125
467.736184	0.877882
468.107674	0.884961
468.479105	0.890710
468.850477	0.896765
469.221790	0.904365
469.593043	0.910355
469.964238	0.916064
470.335373	0.920466
470.706449	0.924871
471.077467	0.928659
471.448425	0.928304
471.819324	0.928705
472.190164	0.931533
472.560945	0.939255
472.931667	0.944735
473.302330	0.948621
473.672934	0.951998
474.043479	0.953845
474.413965	0.957167
474.784393	0.960021
475.154761	0.961893
475.525070	0.964147
475.895321	0.966717
476.265513	0.968522
476.635645	0.970374
477.005719	0.972705
477.375734	0.973252
477.745691	0.974227
478.115588	0.975458
478.485427	0.976846
478.855207	0.978762
479.224928	0.978388
479.594591	0.979441
479.964194	0.980610
480.333739	0.981841
480.703226	0.982185
481.072653	0.983719
481.442022	0.985102
481.811333	0.985535
482.180584	0.986452
482.549777	0.987253
482.918912	0.987768
483.287988	0.988357
483.657005	0.988547
484.025964	0.989024
484.394864	0.989172
484.763706	0.990241
485.132489	0.990808
485.501213	0.991404
485.869879	0.990709
486.238487	0.990486
486.607036	0.991594
486.975527	0.992098
487.343959	0.991138
487.712333	0.992034
488.080648	0.992040
488.448905	0.992696
488.817104	0.992701
489.185244	0.992483
489.553326	0.993033
489.921350	0.992955
490.289315	0.992599
490.657222	0.992303
491.025070	0.992762
491.392861	0.992640
491.760593	0.993234
492.128267	0.993275
492.495883	0.993063
492.863440	0.994027
493.230939	0.993994
493.598380	0.994650
493.965763	0.994192
494.333088	0.993830
494.700354	0.993783
495.067563	0.994276
495.434713	0.994073
495.801805	0.994542
496.168839	0.994373
496.535815	0.994628
496.902733	0.994056
497.269593	0.993871
497.636395	0.994230
498.003139	0.993958
498.369825	0.995329
498.736453	0.994550
499.103023	0.995181
499.469535	0.994395
499.835989	0.995206
500.202385	0.994657
500.568723	0.994255
500.935003	0.995573
501.301226	0.994869
501.667390	0.994871
502.033497	0.994744
502.399546	0.994236
502.765537	0.994939
503.131470	0.994709
503.497345	0.995179
503.863163	0.994986
504.228923	0.994980
504.594625	0.994877
504.960269	0.995581
505.325856	0.996159
505.691385	0.995490
506.056856	0.995350
506.422270	0.995002
506.787625	0.996031
507.152924	0.995770
507.518164	0.994616
507.883347	0.995168
508.248472	0.995395
508.613540	0.995093
508.978550	0.995356
509.343503	0.995083
509.708398	0.995499
510.073236	0.995728
510.438016	0.995489
510.802738	0.994813
511.167403	0.995142
511.532010	0.995970
511.896561	0.995858
512.261053	0.994952
512.625488	0.995334
512.989866	0.995323
513.354186	0.994835
513.718449	0.995459
514.082655	0.995718
514.446803	0.995166
514.810894	0.995482
515.174927	0.995592
515.538904	0.995236
515.902822	0.995179
516.266684	0.995312
516.630488	0.995825
516.994235	0.995364
517.357925	0.995662
517.721558	0.995848
518.085133	0.995450
518.448651	0.995718
518.812112	0.996216
519.175516	0.995476
519.538863	0.994755
519.902152	0.995996
520.265385	0.995247
520.628560	0.995052
520.991678	0.995252
521.354739	0.996099
521.717743	0.995366
522.080690	0.995445
522.443580	0.995573
522.806413	0.995428
523.169189	0.995810
523.531908	0.994857
523.894569	0.995002
524.257174	0.995250
524.619722	0.995656
524.982213	0.995397
525.344647	0.995205
525.707025	0.995075
526.069345	0.994927
526.431608	0.995326
526.793815	0.996087
527.155964	0.995692
527.518057	0.996207
527.880093	0.995852
528.242072	0.995571
528.603995	0.995423
528.965860	0.995848
529.327669	0.995193
529.689421	0.995269
530.051117	0.995601
530.412755	0.995551
530.774337	0.995354
531.135862	0.996144
531.497331	0.995197
531.858743	0.995528
532.220098	0.994787
532.581396	0.995872
532.942638	0.995816
533.303824	0.996419
533.664953	0.995190
534.026025	0.996496
534.387040	0.995723
534.747999	0.994890
535.108902	0.995743
535.469748	0.996482
535.830537	0.996253
536.191270	0.995582
536.551947	0.994960
536.912567	0.994901
537.273131	0.996375
537.633638	0.995382
537.994089	0.995688
538.354483	0.995924
538.714821	0.995766
539.075103	0.996205
539.435328	0.996209
539.795497	0.996361
540.155609	0.995810
540.515665	0.996032
540.875665	0.995294
541.235609	0.995258
541.595496	0.995169
541.955328	0.995606
542.315102	0.996187
542.674821	0.996387
543.034483	0.995533
543.394090	0.995068
543.753640	0.995807
544.113134	0.995237
544.472571	0.995831
544.831953	0.995358
545.191278	0.995843
545.550548	0.995370
545.909761	0.994855
546.268918	0.996390
546.628019	0.996012
546.987064	0.995251
547.346053	0.995218
547.704986	0.995222
548.063863	0.995258
548.422684	0.995533
548.781449	0.995435
549.140158	0.996295
549.498811	0.995261
549.857408	0.994500
550.215949	0.994973
550.574434	0.995410
550.932864	0.995828
551.291237	0.995160
551.649555	0.995655
552.007817	0.995486
552.366022	0.995810
552.724173	0.996374
553.082267	0.995412
553.440305	0.994591
553.798288	0.994839
554.156215	0.995300
554.514086	0.996248
554.871902	0.996029
555.229661	0.994939
555.587365	0.996004
555.945014	0.995699
556.302606	0.994960
556.660143	0.995926
557.017625	0.995693
557.375050	0.995216
557.732421	0.995188
558.089735	0.995177
558.446994	0.994905
558.804197	0.995443
559.161345	0.994597
559.518437	0.995071
559.875474	0.995548
560.232455	0.995704
560.589381	0.995612
560.946251	0.994915
561.303065	0.995975
561.659825	0.995081
562.016528	0.996024
562.373177	0.995115
562.729770	0.995360
563.086307	0.994930
563.442789	0.995754
563.799216	0.994604
564.155587	0.995406
564.511904	0.995583
564.868164	0.994503
565.224370	0.995185
565.580520	0.995203
565.936615	0.995125
566.292654	0.995450
566.648638	0.995445
567.004567	0.995052
567.360441	0.995363
567.716260	0.995517
568.072023	0.994768
568.427732	0.995702
568.783385	0.994627
569.138982	0.995578
569.494525	0.994853
569.850013	0.995733
570.205445	0.995048
570.560823	0.995373
570.916145	0.994793
571.271412	0.995253
571.626625	0.995818
571.981782	0.995728
572.336884	0.995626
572.691931	0.995024
573.046923	0.996536
573.401860	0.995049
573.756743	0.995357
574.111570	0.995081
574.466342	0.995222
574.821059	0.995309
575.175722	0.995127
575.530330	0.995017
575.884882	0.994699
576.239380	0.995624
576.593823	0.995483
576.948211	0.996024
577.302544	0.995173
577.656823	0.995344
578.011047	0.994505
578.365216	0.995971
578.719330	0.995992
579.073389	0.994739
579.427394	0.995282
579.781344	0.995319
580.135239	0.994992
580.489080	0.994636
580.842866	0.995493
581.196597	0.994978
581.550273	0.995133
581.903895	0.995228
582.257463	0.995480
582.610975	0.994204
582.964434	0.995676
583.317837	0.995668
583.671186	0.995213
584.024481	0.995857
584.377721	0.994446
584.730906	0.995643
585.084037	0.995945
585.437113	0.995966
585.790135	0.995003
586.143103	0.995239
586.496016	0.995423
586.848874	0.995078
587.201679	0.995177
587.554428	0.995240
587.907124	0.995643
588.259765	0.995831
588.612352	0.996175
588.964884	0.996098
589.317362	0.995822
589.669786	0.995544
590.022155	0.994782
590.374470	0.995207
590.726731	0.994641
591.078937	0.995637
591.431090	0.995977
591.783188	0.994708
592.135232	0.995984
592.487222	0.995495
592.839157	0.995677
593.191038	0.995585
593.542866	0.995242
593.894639	0.994858
594.246358	0.996065
594.598022	0.995022
594.949633	0.995365
595.301190	0.994464
595.652692	0.995383
596.004141	0.994704
596.355535	0.995003
596.706876	0.995089
597.058162	0.995577
597.409395	0.995890
597.760573	0.995444
598.111698	0.994782
598.462768	0.994815
598.813785	0.995625
599.164748	0.995063
599.515657	0.994652
599.866511	0.996135
600.217312	0.996458
600.568060	0.995363
600.918753	0.995879
601.269392	0.995087
601.619978	0.995657
601.970510	0.995593
602.320988	0.995516
602.671412	0.995169
603.021783	0.996078
603.372100	0.995700
603.722363	0.995850
604.072572	0.995703
604.422728	0.995535
604.772830	0.995379
605.122878	0.995769
605.472872	0.996083
605.822813	0.994731
606.172701	0.995704
606.522534	0.996014
606.872314	0.996368
607.222041	0.995137
607.571714	0.996098
607.921333	0.995915
608.270899	0.995314
608.620411	0.995880
608.969870	0.996153
609.319276	0.996680
609.668627	0.996165
610.017926	0.996029
610.367171	0.995869
610.716362	0.995981
611.065500	0.996057
611.414585	0.995747
611.763616	0.995269
612.112594	0.995869
612.461518	0.994612
612.810389	0.995805
613.159207	0.995699
613.507971	0.994394
613.856682	0.996490
614.205340	0.994588
614.553945	0.995218
614.902496	0.995502
615.250994	0.996231
615.599439	0.995922
615.947830	0.995424
616.296169	0.995370
616.644454	0.995771
616.992686	0.995305
617.340864	0.995513
617.688990	0.994778
618.037063	0.995643
618.385082	0.994855
618.733048	0.995547
619.080961	0.995441
619.428821	0.995512
619.776628	0.994813
620.124382	0.996251
620.472083	0.996415
620.819731	0.996001
621.167326	0.995889
621.514868	0.995959
621.862357	0.995845
622.209793	0.995400
622.557176	0.995463
622.904506	0.995590
623.251783	0.995423
623.599007	0.995965
623.946179	0.995432
624.293297	0.996156
624.640363	0.996103
624.987376	0.995339
625.334336	0.995878
625.681243	0.995368
626.028097	0.996229
626.374899	0.996032
626.721647	0.996132
627.068343	0.996567
627.414987	0.996037
627.761577	0.995089
628.108115	0.995630
628.454600	0.996098
628.801032	0.996088
629.147412	0.996488
629.493739	0.996791
629.840014	0.995887
630.186236	0.995535
630.532405	0.996497
630.878521	0.995375
631.224585	0.996180
631.570597	0.995541
631.916556	0.996798
632.262462	0.994925
632.608316	0.996609
632.954117	0.994916
633.299866	0.995996
633.645562	0.995546
633.991206	0.996592
634.336797	0.995521
634.682336	0.996550
635.027823	0.996060
635.373257	0.996125
635.718639	0.995757
636.063968	0.995614
636.409245	0.995495
636.754470	0.996181
637.099642	0.996564
637.444762	0.996609
637.789829	0.996061
638.134845	0.996033
638.479808	0.996154
638.824719	0.996148
639.169577	0.995989
639.514383	0.996687
639.859137	0.996781
640.203839	0.996195
640.548489	0.996428
640.893086	0.996691
641.237632	0.996882
641.582125	0.995640
641.926566	0.997181
642.270955	0.996347
642.615292	0.996400
642.959576	0.996017
643.303809	0.997314
643.647990	0.996359
643.992118	0.996539
644.336195	0.996037
644.680219	0.996963
645.024192	0.996249
645.368112	0.996711
645.711981	0.995620
646.055797	0.997316
646.399562	0.995411
646.743274	0.996495
647.086935	0.995800
647.430544	0.996156
647.774101	0.995302
648.117606	0.996321
648.461059	0.996572
648.804460	0.995858
649.147810	0.995333
649.491108	0.996210
649.834354	0.996003
650.177548	0.996494
650.520690	0.995867
650.863781	0.996094
651.206820	0.996511
651.549807	0.996747
651.892742	0.995882
652.235626	0.996762
652.578458	0.996297
652.921238	0.997776
653.263967	0.997214
653.606644	0.996885
653.949269	0.997735
654.291843	0.996239
654.634365	0.997002
654.976836	0.996197
655.319255	0.997102
655.661622	0.996625
656.003938	0.996273
656.346203	0.995846
656.688416	0.997813
657.030577	0.996439
657.372687	0.996399
657.714746	0.996276
658.056753	0.995755
658.398708	0.996129
658.740612	0.997403
659.082465	0.995664
659.424266	0.996705
659.766016	0.996026
660.107715	0.996225
660.449362	0.996496
660.790958	0.996317
661.132503	0.997001
661.473996	0.997107
661.815438	0.997229
662.156829	0.996932
662.498168	0.997361
662.839456	0.995565
663.180693	0.996795
663.521879	0.996790
663.863013	0.997051
664.204097	0.996136
664.545129	0.996644
664.886110	0.996862
665.227040	0.996589
665.567918	0.995869
665.908746	0.996239
666.249522	0.996019
666.590248	0.996897
666.930922	0.996239
667.271545	0.996755
667.612118	0.996514
667.952639	0.996128
668.293109	0.996188
668.633528	0.995428
668.973896	0.997218
669.314213	0.996734
669.654480	0.996992
669.994695	0.995386
670.334859	0.997367
670.674973	0.996812
671.015035	0.996207
671.355047	0.996338
671.695008	0.996658
672.034918	0.996575
672.374777	0.996643
672.714585	0.997143
673.054342	0.997031
673.394049	0.996675
673.733705	0.996102
674.073310	0.996977
674.412864	0.996362
674.752368	0.995916
675.091820	0.997804
675.431223	0.997256
675.770574	0.996675
676.109875	0.996766
676.449125	0.995879
676.788324	0.996000
677.127473	0.997845
677.466571	0.996838
677.805619	0.997061
678.144616	0.997632
678.483562	0.996576
678.822458	0.996706
679.161303	0.996546
679.500098	0.997110
679.838842	0.997421
680.177535	0.996843
680.516179	0.995790
680.854771	0.996148
681.193314	0.997213
681.531805	0.996635
681.870247	0.996496
682.208638	0.996781
682.546978	0.995738
682.885268	0.996128
683.223508	0.996616
683.561697	0.996423
683.899836	0.996273
684.237925	0.996493
684.575963	0.996305
684.913951	0.997158
685.251889	0.995902
685.589776	0.996763
685.927614	0.996148
686.265401	0.996846
686.603137	0.997365
686.940824	0.996333
687.278460	0.996994
687.616046	0.996808
687.953582	0.996320
688.291068	0.996549
688.628504	0.996271
688.965889	0.996468
689.303224	0.996011
689.640510	0.996336
689.977745	0.995174
690.314930	0.996194
690.652065	0.996559
690.989150	0.996871
691.326185	0.996574
691.663170	0.996785
692.000105	0.997243
692.336990	0.996736
692.673825	0.996778
693.010610	0.996936
693.347345	0.996843
693.684030	0.995531
694.020665	0.996513
694.357251	0.996312
694.693786	0.996775
695.030272	0.995936
695.366707	0.996614
695.703093	0.996563
696.039429	0.996499
696.375716	0.997234
696.711952	0.996982
697.048139	0.997094
697.384276	0.997047
697.720363	0.996580
698.056400	0.995468
698.392388	0.996820
698.728326	0.996528
699.064214	0.997959
699.400053	0.996806
699.735842	0.997890
700.071581	0.996396
700.407270	0.996394
700.742910	0.997142
701.078501	0.997251
701.414042	0.998102
701.749533	0.995197
702.084974	0.997726
702.420366	0.997390
702.755709	0.997231
703.091002	0.997548
703.426246	0.998039
703.761440	0.997576
704.096584	0.997899
704.431679	0.996957
704.766725	0.997705
705.101721	0.997991
705.436668	0.997750
705.771565	0.996485
706.106413	0.996380
706.441212	0.996745
706.775961	0.997197
707.110661	0.996733
707.445311	0.996786
707.779913	0.998143
708.114465	0.997878
708.448967	0.998098
708.783421	0.998421
709.117825	0.997203
709.452180	0.997473
709.786485	0.996720
710.120742	0.996643
710.454949	0.996183
710.789107	0.997245
711.123216	0.996850
711.457275	0.996680
711.791286	0.997118
712.125247	0.997249
712.459159	0.997045
712.793023	0.997321
713.126837	0.997016
713.460602	0.996269
713.794318	0.995892
714.127985	0.995747
714.461602	0.996765
714.795171	0.996796
715.128691	0.996444
715.462162	0.997295
715.795584	0.996750
716.128957	0.997651
716.462281	0.997942
716.795556	0.997569
717.128782	0.997387
717.461960	0.996958
717.795088	0.997261
718.128167	0.998128
718.461198	0.997774
718.794180	0.997798
719.127113	0.998093
719.459997	0.996716
719.792833	0.996905
720.125619	0.997140
720.458357	0.997364
720.791046	0.998114
721.123686	0.996942
721.456278	0.997052
721.788821	0.997550
722.121315	0.998647
722.453761	0.997909
722.786158	0.997641
723.118506	0.997551
723.450805	0.996874
723.783056	0.998799
724.115259	0.996879
724.447412	0.997956
724.779518	0.997577
725.111574	0.997311
725.443582	0.997123
725.775542	0.997313
726.107453	0.997817
726.439315	0.997665
726.771129	0.997653
727.102895	0.997710
727.434612	0.997461
727.766281	0.996823
728.097901	0.997036
728.429473	0.998746
728.760996	0.997463
729.092471	0.997934
729.423897	0.997834
729.755276	0.996747
730.086606	0.996663
730.417887	0.997455
730.749120	0.998188
731.080305	0.997039
731.411442	0.996981
731.742530	0.996941
732.073570	0.996038
732.404562	0.997783
732.735506	0.997662
733.066401	0.997324
733.397249	0.996957
733.728048	0.996518
734.058798	0.997955
734.389501	0.997629
734.720156	0.997174
735.050762	0.998323
735.381320	0.997844
735.711831	0.997175
736.042293	0.996999
736.372707	0.998202
736.703073	0.996650
737.033391	0.997166
737.363661	0.998918
737.693883	0.998432
738.024056	0.997295
738.354182	0.998500
738.684260	0.997589
739.014290	0.997807
739.344272	0.997536
739.674207	0.996841
740.004093	0.996301
740.333931	0.997648
740.663722	0.997283
740.993464	0.997432
741.323159	0.996880
741.652806	0.997877
741.982405	0.997248
742.311956	0.997913
742.641460	0.997765
742.970915	0.998224
743.300323	0.996565
743.629683	0.997086
743.958996	0.998239
744.288260	0.997710
744.617477	0.997502
744.946647	0.998189
745.275768	0.997482
745.604842	0.997880
745.933869	0.996729
746.262847	0.998893
746.591778	0.996385
746.920662	0.998026
747.249498	0.998936
747.578286	0.999009
747.907027	0.998650
748.235720	0.998119
748.564365	0.997946
748.892963	0.997066
749.221514	0.997457
749.550017	0.995273
749.878473	0.996986
750.206881	0.999188
750.535242	0.998303
750.863555	0.997388
751.191821	0.997215
751.520039	0.998178
751.848210	0.996070
752.176334	0.997396
752.504411	0.997001
752.832440	0.998083
753.160421	0.997161
753.488356	0.998874
753.816243	0.996878
754.144082	0.997566
754.471875	0.997381
754.799620	0.998005
755.127318	0.998258
755.454969	0.998880
755.782572	0.998572
756.110129	0.997544
756.437638	0.998700
756.765100	0.998144
757.092515	0.998254
757.419882	0.999144
757.747203	0.997861
758.074477	0.999176
758.401703	0.997564
758.728882	0.998031
759.056014	0.997628
759.383099	0.997936
759.710138	0.997676
760.037129	0.997825
760.364073	0.998532
760.690970	0.997483
761.017820	0.996623
761.344623	0.997985
761.671379	0.998619
761.998088	0.998405
762.324751	0.997934
762.651366	0.997347
762.977935	0.996187
763.304456	0.997037
763.630931	0.994939
763.957359	0.994542
764.283740	0.995630
764.610074	0.996756
764.936362	0.997169
765.262602	0.996876
765.588796	0.998032
765.914943	0.996664
766.241044	0.996871
766.567097	0.998124
766.893104	0.998260
767.219064	0.998020
767.544978	0.998884
767.870845	0.998544
768.196665	0.998200
768.522438	0.998564
768.848165	0.998162
769.173846	0.998135
769.499479	0.999396
769.825066	0.999397
770.150607	0.998851
770.476101	0.998498
770.801548	0.999432
771.126949	0.999267
771.452303	0.999295
771.777611	0.999077
772.102872	0.997749
772.428087	0.998747
772.753256	0.998417
773.078378	0.998279
773.403453	0.998397
773.728482	1.000421
774.053465	0.998075
774.378401	0.999126
774.703291	0.999795
775.028135	0.999191
775.352932	0.998485
775.677683	0.999737
776.002388	0.998906
776.327046	0.998162
776.651658	1.000538
776.976224	0.999159
777.300743	0.997618
777.625216	0.998721
777.949643	0.998739
778.274024	0.998600
778.598359	0.999395
778.922647	0.998814
779.246889	0.999507
779.571086	0.998718
779.895236	0.999335
780.219339	0.999805
780.543397	0.997945
780.867409	0.999028
781.191374	0.998318
781.515294	0.999292
781.839167	0.999510
782.162995	0.998894
782.486776	0.998698
782.810511	0.998728
783.134201	0.998907
783.457844	0.998889
783.781441	0.998963
784.104993	0.998627
784.428498	0.998551
784.751958	1.000074
785.075372	0.999223
785.398739	0.997707
785.722061	0.997582
786.045337	0.998964
786.368568	0.998847
786.691752	0.998284
787.014891	0.999064
787.337983	0.998198
787.661030	0.999223
787.984031	0.999428
788.306987	0.998830
788.629897	0.997078
788.952760	0.998436
789.275579	0.999507
789.598351	0.997974
789.921078	0.999121
790.243759	0.999538
790.566395	0.998568
790.888984	0.998470
791.211529	0.998983
791.534027	0.999138
791.856480	0.999234
792.178888	0.998388
792.501249	0.999543
792.823566	0.999954
793.145836	0.998744
793.468062	0.999568
793.790241	0.999851
794.112375	0.997523
794.434464	1.000015
794.756507	0.999698
795.078505	0.999181
795.400457	0.998596
795.722364	0.999666
796.044226	0.998893
796.366042	0.998171
796.687812	0.997576
797.009538	0.998247
797.331218	0.999280
797.652852	0.999776
797.974442	0.998157
798.295986	0.999227
798.617484	0.997879
798.938938	0.999466
799.260346	0.998731
799.581709	0.997176
799.903026	0.999406
800.224299	0.998476
800.545526	0.998750
800.866708	0.998204
801.187845	0.999054
801.508936	0.999238
801.829983	0.999894
802.150984	0.999194
802.471940	0.999195
802.792851	0.999520
803.113717	0.999989
803.434538	0.999967
803.755314	0.999920
804.076045	0.999710
804.396731	0.998989
804.717372	0.998223
805.037967	1.000057
805.358518	0.999057
805.679024	0.998912
805.999485	0.999700
806.319901	0.999399
806.640272	0.999180
806.960598	0.999352
807.280879	0.999210
807.601115	0.999440
807.921306	1.000447
808.241453	0.998320
808.561554	0.999581
808.881611	1.000063
809.201623	0.997976
809.521590	0.999851
809.841513	0.999573
810.161390	0.998556
810.481223	0.998633
810.801011	0.999145
811.120755	1.000686
811.440453	0.998250
811.760107	0.999885
812.079716	0.999031
812.399281	0.999349
812.718801	0.998610
813.038276	0.998911
813.357707	0.999402
813.677093	1.000030
813.996434	0.999313
814.315731	0.999514
814.634983	0.998963
814.954191	0.999217
815.273354	0.998407
815.592473	0.999482
815.911547	0.999230
816.230577	0.998683
816.549562	1.000105
816.868502	0.996742
817.187399	0.999001
817.506250	0.999556
817.825058	0.998288
818.143821	0.997780
818.462539	0.999135
818.781213	0.999313
819.099843	0.999810
819.418429	0.997500
819.736970	0.998558
820.055466	0.996361
820.373919	0.996982
820.692327	0.996108
821.010691	0.995933
821.329011	0.993254
821.647286	0.992586
821.965517	0.990315
822.283704	0.988386
822.601847	0.986685
822.919945	0.987971
823.237999	0.988607
823.556010	0.989824
823.873976	0.990687
824.191897	0.992075
824.509775	0.993241
824.827609	0.993118
825.145398	0.994886
825.463144	0.993968
825.780845	0.993963
826.098502	0.993453
826.416116	0.993943
826.733685	0.993377
827.051210	0.990623
827.368692	0.991810
827.686129	0.992269
828.003522	0.994655
828.320872	0.994898
828.638177	0.994434
828.955439	0.997630
829.272656	0.997301
829.589830	0.996829
829.906960	0.998314
830.224046	0.997222
830.541088	0.997406
830.858086	0.998061
831.175041	0.999118
831.491952	0.998347
831.808819	0.998092
832.125642	0.998050
832.442421	0.998719
832.759157	0.998683
833.075849	0.996664
833.392497	0.996591
833.709101	0.994910
834.025662	0.994567
834.342179	0.994779
834.658653	0.996576
834.975083	0.997395
835.291469	0.996441
835.607811	0.996828
835.924110	0.998387
836.240366	0.999154
836.556578	0.998941
836.872746	0.999213
837.188871	0.998809
837.504952	0.999068
837.820990	0.998336
838.136984	0.998171
838.452935	0.998545
838.768842	0.999418
839.084706	0.999247
839.400526	0.999432
839.716303	0.996593
840.032037	0.997770
840.347727	0.997221
840.663373	0.997477
840.978977	0.998408
841.294537	0.999220
841.610054	0.998344
841.925527	1.000051
842.240957	0.998442
842.556344	0.998606
842.871687	0.999145
843.186987	0.999385
843.502244	0.999893
843.817458	0.999163
844.132629	0.999457
844.447756	0.999880
844.762840	1.000098
845.077881	1.000373
845.392879	0.999100
845.707833	0.998849
846.022745	1.000120
846.337613	0.999966
846.652438	0.999357
846.967221	0.999844
847.281960	1.000177
847.596656	0.999771
847.911309	0.999809
848.225919	0.999514
848.540485	1.000101
848.855009	1.001504
849.169490	1.001192
849.483928	1.000251
849.798323	0.999074
850.112675	1.000794
850.426984	1.000949
850.741251	1.000013
851.055474	1.000051
851.369654	1.000932
851.683792	0.998847
851.997887	0.999114
852.311938	1.000186
852.625947	0.999489
852.939914	0.999807
853.253837	1.000659
853.567718	0.999960
853.881555	1.000237
854.195350	0.999550
854.509103	1.000684
854.822812	1.000595
855.136479	1.000106
855.450103	1.000591
855.763685	1.000319
856.077224	1.000638
856.390720	1.000332
856.704173	1.001056
857.017584	1.000728
857.330953	1.001081
857.644278	1.000401
857.957561	1.001270
858.270802	1.000149
858.584000	1.000371
858.897155	0.999938
859.210268	1.000273
859.523339	1.000542
859.836367	1.000014
860.149352	0.999517
860.462295	1.000246
860.775195	0.999931
861.088054	0.998533
861.400869	0.999835
861.713642	0.998974
862.026373	1.000775
862.339062	1.000650
862.651708	1.000126
862.964312	0.999930
863.276873	0.999799
863.589392	1.000055
863.901869	1.000595
864.214303	0.999684
864.526696	0.998721
864.839045	0.999021
865.151353	1.000415
865.463619	1.000394
865.775842	1.000681
866.088023	1.000430
866.400162	1.000717
866.712258	1.000661
867.024313	0.999672
867.336325	1.000398
867.648296	0.999369
867.960224	1.000373
868.272110	1.000366
868.583954	0.999314
868.895755	1.001205
869.207515	0.999889
869.519233	1.000316
869.830909	0.998575
870.142542	0.998489
870.454134	0.999587
870.765684	1.000076
871.077191	0.999931
871.388657	0.999345
871.700081	1.000339
872.011463	0.999787
872.322803	0.999892
872.634101	0.999239
872.945357	0.999312
873.256571	0.999581
873.567744	1.000305
873.878874	0.999846
874.189963	0.999801
874.501010	1.000204
874.812015	0.998666
875.122979	0.999774
875.433900	1.000273
875.744780	0.999518
876.055618	0.999386
876.366415	0.998430
876.677169	0.999230
876.987882	0.999451
877.298554	1.000331
877.609183	0.999551
877.919771	0.999359
878.230317	1.000058
878.540822	0.999056
878.851285	0.998634
879.161707	0.999169
879.472087	0.999626
879.782425	0.998020
880.092722	0.996839
880.402977	0.994421
880.713191	0.992340
881.023363	0.990016
881.333494	0.989007
881.643583	0.989856
881.953631	0.989261
882.263637	0.987958
882.573602	0.989038
882.883526	0.991186
883.193408	0.992078
883.503248	0.992279
883.813048	0.992456
884.122806	0.994431
884.432522	0.994229
884.742197	0.996734
885.051831	0.995855
885.361424	0.996995
885.670975	0.997491
885.980485	0.996840
886.289954	0.997479
886.599382	0.997106
886.908768	0.998467
887.218113	0.998166
887.527417	0.998029
887.836680	0.999336
888.145901	0.999352
888.455082	0.999748
888.764221	0.999647
889.073319	0.997989
889.382376	1.000083
889.691392	0.998126
890.000366	1.000717
890.309300	0.999281
890.618193	1.000029
890.927044	0.998970
891.235855	0.998890
891.544625	0.998770
891.853353	0.998976
892.162041	0.998671
892.470687	0.998672
892.779293	0.997833
893.087858	0.997092
893.396381	0.997119
893.704864	0.996780
894.013306	0.997680
894.321707	0.995190
894.630068	0.994988
894.938387	0.994607
895.246665	0.994612
895.554903	0.994233
895.863100	0.996229
896.171256	0.996320
896.479371	0.996472
896.787446	0.996903
897.095480	0.997434
897.403473	0.997987
897.711425	0.998560
898.019336	0.999874
898.327207	0.999265
898.635038	0.998373
898.942827	0.998360
899.250576	0.998870
899.558284	0.999648
899.865952	0.998866
900.173579	0.998755
900.481165	0.998506
900.788711	0.999057
901.096216	0.998907
901.403681	1.000743
901.711105	0.999911
902.018489	0.998234
902.325832	0.999598
902.633135	0.998847
902.940397	0.999218
903.247619	0.998010
903.554800	0.997961
903.861941	0.996494
904.169041	0.994258
904.476101	0.993456
904.783121	0.993068
905.090100	0.993562
905.397039	0.994719
905.703938	0.995657
906.010796	0.996865
906.317614	0.996210
906.624391	0.998373
906.931129	0.998546
907.237826	0.998569
907.544483	0.997843
907.851099	0.999269
908.157675	0.999933
908.464211	1.000732
908.770707	0.998437
909.077163	0.999644
909.383578	0.999281
909.689954	0.998712
909.996289	0.999337
910.302584	1.000297
910.608839	1.000899
910.915054	1.000432
911.221229	1.000274
911.527363	0.999900
911.833458	1.000449
912.139513	0.999566
912.445527	1.000550
912.751502	0.999554
913.057436	0.999211
913.363331	0.999883
913.669186	1.000329
913.975000	0.998875
914.280775	0.998453
914.586510	0.997689
914.892205	0.996856
915.197859	0.997036
915.503475	0.996283
915.809050	0.994839
916.114585	0.993260
916.420081	0.993919
916.725536	0.994611
917.030952	0.994805
917.336328	0.994866
917.641665	0.994821
917.946961	0.995882
918.252218	0.995752
918.557435	0.996728
918.862612	0.997773
919.167750	0.997916
919.472848	0.998749
919.777906	1.000047
920.082925	0.999936
920.387904	0.999568
920.692843	0.998845
920.997743	0.998489
921.302603	1.000776
921.607423	0.998526
921.912204	0.998674
922.216946	1.000967
922.521647	0.999670
922.826310	0.999436
923.130932	1.000541
923.435516	0.999834
923.740059	0.999795
924.044564	0.999689
924.349028	0.999898
924.653454	1.000685
924.957840	0.999609
925.262186	1.000244
925.566493	0.999776
925.870761	1.000198
926.174989	0.999623
926.479178	1.000636
926.783328	1.000299
927.087438	0.999708
927.391509	0.999859
927.695541	0.999324
927.999533	1.001585
928.303486	1.001106
928.607400	1.001039
928.911275	1.001418
929.215110	1.000815
929.518906	1.000326
929.822663	1.002118
930.126381	1.001022
930.430060	1.000414
930.733699	1.001006
931.037299	1.000218
931.340861	1.000218
931.644383	0.999919
931.947866	1.000487
932.251309	1.000714
932.554714	1.000522
932.858080	1.000419
933.161407	0.999592
933.464694	1.000254
933.767943	1.000741
934.071153	1.000568
934.374323	1.000874
934.677455	0.999848
934.980548	0.999999
935.283602	1.000912
935.586617	1.000167
935.889593	1.002124
936.192530	1.001512
936.495428	1.000774
936.798287	1.000175
937.101108	1.001120
937.403890	1.000226
937.706632	1.002173
938.009336	1.000897
938.312002	0.999820
938.614628	1.001105
938.917216	0.999084
939.219765	0.999831
939.522275	1.000472
939.824747	1.000972
940.127179	0.999858
940.429573	1.000864
940.731929	1.000161
941.034246	0.999426
941.336524	0.999768
941.638763	0.999903
941.940964	0.999949
942.243126	0.999820
942.545250	1.000923
942.847335	1.000764
943.149381	1.001190
943.451389	0.999570
943.753359	0.999539
944.055290	1.001091
944.357182	1.001257
944.659036	1.001295
944.960851	1.000373
945.262628	1.001159
945.564367	1.000607
945.866067	1.000543
946.167729	1.000294
946.469352	1.000691
946.770937	0.999154
947.072484	1.001473
947.373992	0.999949
947.675462	0.999556
947.976893	0.999816
948.278286	1.002127
948.579641	1.000274
948.880958	1.000973
949.182236	1.001415
949.483476	1.000961
949.784678	1.001372
950.085841	1.000126
950.386967	0.999800
950.688054	1.000775
950.989103	1.000071
951.290114	1.000025
951.591087	1.001680
951.892021	0.999852
952.192917	1.001051
952.493776	1.000992
952.794596	1.000814
953.095378	1.000501
953.396122	1.000607
953.696828	1.000365
953.997496	1.000844
954.298126	1.001247
954.598718	0.999907
954.899272	1.001118
955.199788	0.999853
955.500266	1.001365
955.800706	1.001188
956.101108	1.000745
956.401472	1.001779
956.701798	1.000303
957.002087	1.000458
957.302337	1.000397
957.602550	1.000733
957.902724	1.001118
958.202861	1.000857
958.502960	1.000910
958.803022	1.001246
959.103045	1.001707
959.403031	1.002018
959.702979	1.000971
960.002889	1.000107
960.302762	0.999748
960.602596	1.002218
960.902393	1.000865
961.202153	1.001196
961.501875	1.001619
961.801559	1.001040
962.101205	1.000078
962.400814	1.001439
962.700385	1.000697
962.999918	1.001312
963.299414	1.000273
963.598873	1.002037
963.898293	1.000412
964.197677	1.000073
964.497022	1.000612
964.796331	1.001154
965.095601	1.001579
965.394835	1.000421
965.694030	1.001251
965.993189	0.999935
966.292309	1.001177
966.591393	0.999727
966.890439	1.000910
967.189447	1.000187
967.488419	1.000814
967.787353	1.000915
968.086249	1.001338
968.385108	0.999940
968.683930	1.001106
968.982714	1.000862
969.281462	1.001667
969.580172	1.001041
969.878844	1.002075
970.177480	1.001219
970.476078	1.002925
970.774639	1.002081
971.073162	0.999833
971.371649	1.001196
971.670098	1.001666
971.968510	1.001042
972.266885	1.000630
972.565223	0.999920
972.863524	1.000175
973.161788	0.999939
973.460014	1.002360
973.758204	1.000073
974.056356	1.001227
974.354471	1.001298
974.652550	1.002258
974.950591	0.999719
975.248595	0.999939
975.546563	1.002397
975.844493	1.001195
976.142386	1.000459
976.440243	1.001235
976.738062	1.001446
977.035845	1.000129
977.333590	1.002410
977.631299	0.999868
977.928971	1.001412
978.226606	1.000124
978.524204	1.000147
978.821765	1.000588
979.119290	1.001857
979.416777	1.000606
979.714228	1.001778
980.011642	1.001487
980.309020	1.001171
980.606360	1.000424
980.903664	1.001391
981.200931	1.001037
981.498162	1.001486
981.795356	1.001565
982.092513	0.999946
982.389633	1.001682
982.686717	0.999861
982.983764	1.000274
983.280775	1.000556
983.577749	1.000708
983.874686	0.999630
984.171587	0.999433
984.468451	1.000900
984.765279	1.001785
985.062070	1.000929
985.358824	0.999915
985.655543	1.001372
985.952224	1.002148
986.248869	1.001516
986.545478	1.002798
986.842050	1.000229
987.138586	0.999727
987.435086	1.000819
987.731549	1.002138
988.027975	1.002151
988.324366	1.000144
988.620719	1.001885
988.917037	1.000599
989.213318	1.001561
989.509563	1.000548
989.805772	1.001431
990.101944	1.001552
990.398080	1.001250
990.694180	1.002559
990.990244	1.000856
991.286271	1.001180
991.582262	1.002334
991.878217	1.000182
992.174136	1.002568
992.470019	1.000413
992.765865	1.001933
993.061676	1.001364
993.357450	1.001204
993.653188	1.001434
993.948890	1.000301
994.244556	1.000459
994.540186	1.001649
994.835780	1.000276
995.131337	1.002838
995.426859	1.001511
995.722345	0.999786
996.017795	1.001300
996.313208	1.001180
996.608586	1.001109
996.903928	1.000987
997.199234	1.001014
997.494504	1.001851
997.789738	0.999764
998.084936	1.001714
998.380099	1.000425
998.675225	1.001157
998.970316	1.001498
999.265371	1.001200
999.560390	1.001621
999.855373	1.001362
1000.150320	1.000830
1000.445232	1.000323
1000.740108	1.000904
1001.034948	1.000800
1001.329752	1.002412
1001.624521	1.000627
1001.919254	1.000602
1002.213951	1.001115
1002.508613	1.001119
1002.803239	1.000671
1003.097829	1.002147
1003.392384	1.001585
1003.686903	1.000491
1003.981386	1.000891
1004.275834	1.001855
1004.570246	1.000482
1004.864623	1.001548
1005.158964	1.002592
1005.453270	1.001836
1005.747540	0.999617
1006.041775	1.001277
1006.335974	1.001597
1006.630138	1.000940
1006.924266	1.000046
1007.218359	0.999850
1007.512416	1.003963
1007.806438	1.001191
1008.100425	1.001881
1008.394376	1.001680
1008.688292	1.001710
1008.982172	1.001018
1009.276017	1.002072
1009.569827	1.000338
1009.863602	1.000085
1010.157341	1.000782
1010.451045	1.000907
1010.744714	1.003959
1011.038347	1.000745
1011.331945	1.000330
1011.625508	1.000864
1011.919036	1.000967
1012.212528	1.002530
1012.505986	1.001856
1012.799408	1.001456
1013.092795	1.001317
1013.386147	1.001677
1013.679464	1.002504
1013.972745	1.000842
1014.265992	1.000474
1014.559204	1.000708
1014.852380	1.001545
1015.145521	1.000131
1015.438628	1.001970
1015.731699	1.000763
1016.024736	1.002393
1016.317737	1.001408
1016.610703	1.000752
1016.903635	1.002477
1017.196531	1.000662
1017.489393	1.000400
1017.782219	1.000395
1018.075011	0.999844
1018.367768	1.000505
1018.660490	1.002273
1018.953177	1.002273
1019.245829	1.002273
