Dividing Wavelength (nm)	Counts (n)	Blue Motor Position (mm): 4.300000	Red Motor Position (mm): 0.000000	
326.493990	1.006582
326.888308	1.006582
327.282561	1.006582
327.676750	1.007267
328.070874	1.007004
328.464933	1.007759
328.858929	1.007969
329.252859	1.006169
329.646726	1.006190
330.040528	1.006140
330.434265	1.006682
330.827938	1.006510
331.221547	1.007487
331.615091	1.007670
332.008571	1.007847
332.401986	1.005731
332.795338	1.005217
333.188625	1.006297
333.581847	1.005951
333.975006	1.005784
334.368100	1.007099
334.761129	1.005975
335.154095	1.006480
335.546996	1.002975
335.939833	0.998889
336.332606	0.999695
336.725315	0.998366
337.117960	0.999996
337.510540	0.998355
337.903056	0.999518
338.295508	1.000487
338.687896	1.001564
339.080220	1.000330
339.472480	0.999926
339.864676	1.000030
340.256807	0.998353
340.648875	1.001189
341.040879	0.999006
341.432818	1.001421
341.824694	0.999343
342.216506	1.000383
342.608253	0.998874
342.999937	1.000129
343.391557	0.998611
343.783113	1.000576
344.174605	0.999672
344.566033	0.998018
344.957397	1.000501
345.348697	0.998272
345.739934	0.998700
346.131106	0.998890
346.522215	0.998179
346.913260	1.000044
347.304241	0.997969
347.695159	0.999623
348.086012	0.998892
348.476802	1.000268
348.867528	0.998374
349.258191	0.999503
349.648789	0.999205
350.039324	0.999123
350.429796	0.998664
350.820203	0.997403
351.210548	0.998018
351.600828	0.999369
351.991045	0.998310
352.381198	1.000303
352.771288	1.000340
353.161314	0.999195
353.551276	0.998616
353.941175	0.996859
354.331010	0.999463
354.720782	0.998448
355.110490	0.999044
355.500135	0.998476
355.889717	0.997821
356.279235	0.998291
356.668689	0.997813
357.058080	0.998023
357.447408	0.996521
357.836672	0.997949
358.225873	0.997778
358.615010	0.997630
359.004084	0.997362
359.393095	0.997646
359.782043	0.997995
360.170927	0.998798
360.559748	0.997905
360.948505	0.997030
361.337199	0.997058
361.725830	0.999485
362.114398	0.997507
362.502903	0.997560
362.891344	0.996995
363.279722	0.997284
363.668037	0.998837
364.056289	0.998012
364.444478	0.998724
364.832603	0.997019
365.220665	0.997035
365.608665	0.997845
365.996601	0.995687
366.384474	0.996619
366.772284	0.995729
367.160031	0.995331
367.547715	0.995970
367.935336	0.995312
368.322893	0.993778
368.710388	0.992446
369.097820	0.991422
369.485189	0.988328
369.872495	0.986606
370.259738	0.985154
370.646918	0.981815
371.034035	0.979626
371.421090	0.976939
371.808081	0.972041
372.195010	0.969754
372.581875	0.964452
372.968678	0.960184
373.355418	0.957023
373.742096	0.949436
374.128710	0.944875
374.515262	0.939825
374.901751	0.935136
375.288177	0.929869
375.674540	0.922218
376.060841	0.917016
376.447079	0.909205
376.833254	0.902411
377.219367	0.898229
377.605417	0.886667
377.991404	0.882482
378.377329	0.877187
378.763191	0.870391
379.148991	0.860442
379.534727	0.853911
379.920402	0.846541
380.306013	0.840970
380.691563	0.829234
381.077049	0.822781
381.462474	0.818949
381.847835	0.807228
382.233134	0.802644
382.618371	0.802800
383.003545	0.785713
383.388657	0.784565
383.773706	0.775481
384.158693	0.771713
384.543618	0.766354
384.928480	0.757090
385.313280	0.747458
385.698017	0.746562
386.082692	0.735706
386.467305	0.734607
386.851856	0.728503
387.236344	0.723857
387.620770	0.717729
388.005133	0.712318
388.389435	0.706435
388.773674	0.704153
389.157851	0.696821
389.541965	0.693238
389.926018	0.700056
390.310008	0.686598
390.693936	0.683845
391.077802	0.675757
391.461606	0.676900
391.845348	0.666910
392.229027	0.666796
392.612645	0.664440
392.996200	0.652055
393.379694	0.644538
393.763125	0.634366
394.146494	0.638895
394.529801	0.629388
394.913047	0.621743
395.296230	0.627544
395.679351	0.619200
396.062410	0.615660
396.445408	0.618363
396.828343	0.613709
397.211217	0.608487
397.594028	0.621869
397.976778	0.611120
398.359466	0.608334
398.742092	0.603338
399.124656	0.615347
399.507158	0.603977
399.889598	0.600740
400.271977	0.591607
400.654294	0.596022
401.036549	0.594878
401.418742	0.599127
401.800874	0.585558
402.182944	0.581469
402.564952	0.573130
402.946898	0.575082
403.328783	0.575752
403.710606	0.587394
404.092367	0.562243
404.474067	0.567617
404.855705	0.566065
405.237282	0.575641
405.618797	0.561489
406.000250	0.556740
406.381642	0.546896
406.762972	0.551845
407.144240	0.550813
407.525447	0.549916
407.906593	0.543093
408.287677	0.539051
408.668700	0.546907
409.049661	0.541329
409.430560	0.535279
409.811399	0.544751
410.192176	0.526483
410.572891	0.533967
410.953545	0.521810
411.334138	0.535197
411.714669	0.527065
412.095139	0.539984
412.475547	0.524075
412.855894	0.525935
413.236180	0.524985
413.616405	0.530315
413.996568	0.520500
414.376670	0.527225
414.756711	0.531321
415.136691	0.528305
415.516609	0.519799
415.896466	0.516579
416.276262	0.512485
416.655997	0.514036
417.035670	0.495835
417.415283	0.487377
417.794834	0.492138
418.174324	0.497535
418.553753	0.506845
418.933121	0.489253
419.312428	0.482651
419.691674	0.487788
420.070859	0.476941
420.449983	0.484734
420.829045	0.474001
421.208047	0.483525
421.586988	0.476087
421.965867	0.475079
422.344686	0.463631
422.723444	0.475864
423.102141	0.493148
423.480777	0.465987
423.859352	0.486763
424.237866	0.463569
424.616319	0.464669
424.994712	0.455939
425.373044	0.465569
425.751314	0.454700
426.129524	0.470947
426.507673	0.453710
426.885762	0.447114
427.263789	0.453148
427.641756	0.462430
428.019662	0.453307
428.397508	0.452425
428.775292	0.456423
429.153016	0.448882
429.530679	0.454668
429.908282	0.448077
430.285824	0.457849
430.663305	0.436540
431.040726	0.457801
431.418086	0.457248
431.795385	0.449467
432.172624	0.448362
432.549802	0.448665
432.926920	0.447840
433.303977	0.446747
433.680974	0.444399
434.057910	0.442275
434.434786	0.441869
434.811601	0.445060
435.188355	0.427510
435.565050	0.436858
435.941683	0.437828
436.318257	0.421676
436.694770	0.422512
437.071222	0.420653
437.447614	0.425429
437.823946	0.431936
438.200218	0.421114
438.576429	0.430761
438.952580	0.423657
439.328670	0.420364
439.704700	0.426467
440.080670	0.428042
440.456580	0.409131
440.832429	0.417618
441.208218	0.428114
441.583947	0.417528
441.959616	0.416436
442.335224	0.422574
442.710773	0.412286
443.086261	0.410699
443.461689	0.425209
443.837057	0.414970
444.212365	0.404709
444.587612	0.411780
444.962800	0.401412
445.337927	0.403287
445.712995	0.429282
446.088002	0.391259
446.462949	0.401542
446.837837	0.406680
447.212664	0.395395
447.587431	0.386746
447.962139	0.356985
448.336786	0.315887
448.711374	0.326407
449.085901	0.371171
449.460369	0.374919
449.834776	0.378594
450.209124	0.357777
450.583412	0.350895
450.957640	0.343640
451.331808	0.354878
451.705917	0.378771
452.079965	0.383250
452.453954	0.371044
452.827883	0.378186
453.201752	0.372932
453.575562	0.384249
453.949311	0.372471
454.323001	0.378651
454.696632	0.374785
455.070202	0.367461
455.443713	0.359051
455.817164	0.353811
456.190556	0.349809
456.563888	0.346738
456.937160	0.343815
457.310373	0.361227
457.683526	0.360236
458.056619	0.366022
458.429653	0.365920
458.802628	0.370359
459.175542	0.364358
459.548398	0.346744
459.921194	0.338886
460.293930	0.339574
460.666607	0.316781
461.039224	0.304846
461.411782	0.300546
461.784280	0.299915
462.156719	0.304135
462.529099	0.308303
462.901419	0.324473
463.273680	0.328835
463.645882	0.328009
464.018024	0.334173
464.390106	0.327031
464.762130	0.311856
465.134094	0.294633
465.505999	0.263438
465.877845	0.233758
466.249631	0.220714
466.621358	0.228135
466.993026	0.242109
467.364634	0.248393
467.736184	0.257268
468.107674	0.265961
468.479105	0.265274
468.850477	0.272088
469.221790	0.278957
469.593043	0.288586
469.964238	0.293433
470.335373	0.293104
470.706449	0.291360
471.077467	0.292052
471.448425	0.253965
471.819324	0.229498
472.190164	0.228796
472.560945	0.257894
472.931667	0.280214
473.302330	0.284381
473.672934	0.296218
474.043479	0.284263
474.413965	0.286065
474.784393	0.289524
475.154761	0.284649
475.525070	0.281468
475.895321	0.287371
476.265513	0.281622
476.635645	0.277438
477.005719	0.276876
477.375734	0.273320
477.745691	0.266777
478.115588	0.263092
478.485427	0.256642
478.855207	0.243501
479.224928	0.225730
479.594591	0.213969
479.964194	0.217416
480.333739	0.218707
480.703226	0.220261
481.072653	0.218509
481.442022	0.214065
481.811333	0.210936
482.180584	0.214383
482.549777	0.219455
482.918912	0.222799
483.287988	0.222686
483.657005	0.222342
484.025964	0.228493
484.394864	0.225792
484.763706	0.226586
485.132489	0.231490
485.501213	0.232514
485.869879	0.230710
486.238487	0.233859
486.607036	0.231762
486.975527	0.236445
487.343959	0.232296
487.712333	0.231395
488.080648	0.232804
488.448905	0.232066
488.817104	0.233132
489.185244	0.227530
489.553326	0.224484
489.921350	0.214202
490.289315	0.196910
490.657222	0.191665
491.025070	0.193202
491.392861	0.194952
491.760593	0.200726
492.128267	0.206590
492.495883	0.212183
492.863440	0.218493
493.230939	0.224824
493.598380	0.226376
493.965763	0.228245
494.333088	0.230578
494.700354	0.232052
495.067563	0.231202
495.434713	0.234512
495.801805	0.232334
496.168839	0.233816
496.535815	0.235225
496.902733	0.235235
497.269593	0.236732
497.636395	0.234519
498.003139	0.234437
498.369825	0.237755
498.736453	0.234241
499.103023	0.235729
499.469535	0.235025
499.835989	0.235225
500.202385	0.236237
500.568723	0.239353
500.935003	0.234459
501.301226	0.239090
501.667390	0.233279
502.033497	0.231519
502.399546	0.234286
502.765537	0.235957
503.131470	0.234532
503.497345	0.230940
503.863163	0.239606
504.228923	0.232349
504.594625	0.231155
504.960269	0.236543
505.325856	0.231955
505.691385	0.236454
506.056856	0.233161
506.422270	0.232495
506.787625	0.234952
507.152924	0.232435
507.518164	0.232773
507.883347	0.234511
508.248472	0.236278
508.613540	0.231258
508.978550	0.233715
509.343503	0.234298
509.708398	0.232019
510.073236	0.229398
510.438016	0.229222
510.802738	0.230332
511.167403	0.229022
511.532010	0.231413
511.896561	0.226656
512.261053	0.225187
512.625488	0.227385
512.989866	0.227833
513.354186	0.227992
513.718449	0.230052
514.082655	0.226093
514.446803	0.228431
514.810894	0.226136
515.174927	0.229193
515.538904	0.228415
515.902822	0.225258
516.266684	0.227526
516.630488	0.229023
516.994235	0.227776
517.357925	0.226550
517.721558	0.224529
518.085133	0.224470
518.448651	0.224247
518.812112	0.226719
519.175516	0.226222
519.538863	0.223504
519.902152	0.225480
520.265385	0.222317
520.628560	0.223987
520.991678	0.224433
521.354739	0.223393
521.717743	0.224525
522.080690	0.224872
522.443580	0.222365
522.806413	0.223069
523.169189	0.222692
523.531908	0.221488
523.894569	0.224915
524.257174	0.224848
524.619722	0.222673
524.982213	0.223696
525.344647	0.222567
525.707025	0.223338
526.069345	0.221685
526.431608	0.223291
526.793815	0.221312
527.155964	0.225618
527.518057	0.224242
527.880093	0.225563
528.242072	0.224050
528.603995	0.225947
528.965860	0.227577
529.327669	0.226424
529.689421	0.227410
530.051117	0.228268
530.412755	0.225970
530.774337	0.228501
531.135862	0.228890
531.497331	0.227874
531.858743	0.230761
532.220098	0.227209
532.581396	0.230242
532.942638	0.230720
533.303824	0.231687
533.664953	0.231275
534.026025	0.233257
534.387040	0.230994
534.747999	0.230801
535.108902	0.229734
535.469748	0.234912
535.830537	0.232831
536.191270	0.233319
536.551947	0.232481
536.912567	0.232656
537.273131	0.234346
537.633638	0.234682
537.994089	0.235013
538.354483	0.236096
538.714821	0.232797
539.075103	0.232812
539.435328	0.233686
539.795497	0.237076
540.155609	0.233824
540.515665	0.231976
540.875665	0.237622
541.235609	0.236106
541.595496	0.236242
541.955328	0.232902
542.315102	0.235469
542.674821	0.236458
543.034483	0.236555
543.394090	0.236520
543.753640	0.238079
544.113134	0.232926
544.472571	0.236286
544.831953	0.233348
545.191278	0.237836
545.550548	0.236557
545.909761	0.233826
546.268918	0.234530
546.628019	0.232812
546.987064	0.235578
547.346053	0.236967
547.704986	0.235095
548.063863	0.235473
548.422684	0.235763
548.781449	0.237303
549.140158	0.235033
549.498811	0.237676
549.857408	0.240946
550.215949	0.235632
550.574434	0.238785
550.932864	0.236867
551.291237	0.235323
551.649555	0.236940
552.007817	0.236586
552.366022	0.237476
552.724173	0.237383
553.082267	0.237823
553.440305	0.234904
553.798288	0.239109
554.156215	0.235789
554.514086	0.236286
554.871902	0.239666
555.229661	0.238639
555.587365	0.239477
555.945014	0.241989
556.302606	0.238903
556.660143	0.241412
557.017625	0.238002
557.375050	0.240063
557.732421	0.237314
558.089735	0.238984
558.446994	0.239167
558.804197	0.238435
559.161345	0.238015
559.518437	0.241708
559.875474	0.239869
560.232455	0.239038
560.589381	0.240106
560.946251	0.240399
561.303065	0.238026
561.659825	0.239135
562.016528	0.240941
562.373177	0.243569
562.729770	0.240771
563.086307	0.242579
563.442789	0.240815
563.799216	0.243345
564.155587	0.242635
564.511904	0.243630
564.868164	0.243377
565.224370	0.243417
565.580520	0.244783
565.936615	0.244727
566.292654	0.248158
566.648638	0.244830
567.004567	0.246019
567.360441	0.246648
567.716260	0.248565
568.072023	0.246196
568.427732	0.246959
568.783385	0.249305
569.138982	0.247653
569.494525	0.247127
569.850013	0.250131
570.205445	0.248850
570.560823	0.250967
570.916145	0.253288
571.271412	0.251508
571.626625	0.253064
571.981782	0.253508
572.336884	0.254202
572.691931	0.253614
573.046923	0.255238
573.401860	0.256462
573.756743	0.258248
574.111570	0.256867
574.466342	0.257347
574.821059	0.256756
575.175722	0.259285
575.530330	0.258938
575.884882	0.259628
576.239380	0.261448
576.593823	0.262169
576.948211	0.261654
577.302544	0.264781
577.656823	0.264428
578.011047	0.264115
578.365216	0.264940
578.719330	0.267043
579.073389	0.266739
579.427394	0.268295
579.781344	0.269025
580.135239	0.270419
580.489080	0.270440
580.842866	0.272765
581.196597	0.273217
581.550273	0.271609
581.903895	0.272595
582.257463	0.270528
582.610975	0.274321
582.964434	0.273662
583.317837	0.275986
583.671186	0.276700
584.024481	0.276537
584.377721	0.279001
584.730906	0.279638
585.084037	0.279018
585.437113	0.280574
585.790135	0.280204
586.143103	0.283285
586.496016	0.284241
586.848874	0.281650
587.201679	0.282356
587.554428	0.285624
587.907124	0.284733
588.259765	0.285141
588.612352	0.285616
588.964884	0.289932
589.317362	0.289264
589.669786	0.288872
590.022155	0.287603
590.374470	0.287034
590.726731	0.289003
591.078937	0.294088
591.431090	0.290304
591.783188	0.294039
592.135232	0.294897
592.487222	0.294948
592.839157	0.292980
593.191038	0.295280
593.542866	0.297115
593.894639	0.300245
594.246358	0.298924
594.598022	0.298204
594.949633	0.302172
595.301190	0.302523
595.652692	0.301427
596.004141	0.297419
596.355535	0.305945
596.706876	0.306608
597.058162	0.308867
597.409395	0.306007
597.760573	0.303521
598.111698	0.307024
598.462768	0.307292
598.813785	0.309165
599.164748	0.310010
599.515657	0.310458
599.866511	0.313941
600.217312	0.309489
600.568060	0.314433
600.918753	0.310933
601.269392	0.311465
601.619978	0.315058
601.970510	0.312503
602.320988	0.312934
602.671412	0.310256
603.021783	0.312933
603.372100	0.314416
603.722363	0.313888
604.072572	0.314983
604.422728	0.314459
604.772830	0.316749
605.122878	0.316761
605.472872	0.316943
605.822813	0.315137
606.172701	0.318420
606.522534	0.315305
606.872314	0.315437
607.222041	0.316506
607.571714	0.314275
607.921333	0.315461
608.270899	0.315306
608.620411	0.312160
608.969870	0.316068
609.319276	0.316242
609.668627	0.316191
610.017926	0.315146
610.367171	0.313377
610.716362	0.313996
611.065500	0.314005
611.414585	0.312960
611.763616	0.313056
612.112594	0.313767
612.461518	0.313444
612.810389	0.310930
613.159207	0.313211
613.507971	0.315082
613.856682	0.310878
614.205340	0.311986
614.553945	0.309626
614.902496	0.313238
615.250994	0.310942
615.599439	0.311786
615.947830	0.311458
616.296169	0.312424
616.644454	0.312018
616.992686	0.312034
617.340864	0.309927
617.688990	0.313202
618.037063	0.309957
618.385082	0.311607
618.733048	0.308786
619.080961	0.310860
619.428821	0.310233
619.776628	0.310257
620.124382	0.312483
620.472083	0.313025
620.819731	0.311838
621.167326	0.315929
621.514868	0.315611
621.862357	0.319630
622.209793	0.319012
622.557176	0.321666
622.904506	0.322555
623.251783	0.325199
623.599007	0.327139
623.946179	0.326824
624.293297	0.328580
624.640363	0.332827
624.987376	0.333511
625.334336	0.335563
625.681243	0.338085
626.028097	0.338547
626.374899	0.339640
626.721647	0.340258
627.068343	0.342940
627.414987	0.344610
627.761577	0.346373
628.108115	0.344574
628.454600	0.349657
628.801032	0.347441
629.147412	0.349083
629.493739	0.350166
629.840014	0.352954
630.186236	0.349917
630.532405	0.355924
630.878521	0.352772
631.224585	0.355526
631.570597	0.358808
631.916556	0.357556
632.262462	0.357460
632.608316	0.360108
632.954117	0.360760
633.299866	0.361735
633.645562	0.361553
633.991206	0.366449
634.336797	0.368907
634.682336	0.371641
635.027823	0.372933
635.373257	0.373738
635.718639	0.377378
636.063968	0.376248
636.409245	0.382069
636.754470	0.382251
637.099642	0.385388
637.444762	0.388549
637.789829	0.387744
638.134845	0.391250
638.479808	0.392095
638.824719	0.392087
639.169577	0.396479
639.514383	0.395005
639.859137	0.399058
640.203839	0.398391
640.548489	0.399803
640.893086	0.400343
641.237632	0.402361
641.582125	0.400921
641.926566	0.403176
642.270955	0.402422
642.615292	0.402759
642.959576	0.401818
643.303809	0.403015
643.647990	0.402233
643.992118	0.403041
644.336195	0.406255
644.680219	0.404796
645.024192	0.405262
645.368112	0.398673
645.711981	0.398025
646.055797	0.393326
646.399562	0.395537
646.743274	0.388447
647.086935	0.385213
647.430544	0.385459
647.774101	0.383690
648.117606	0.384203
648.461059	0.384792
648.804460	0.387030
649.147810	0.391412
649.491108	0.393619
649.834354	0.395240
650.177548	0.400256
650.520690	0.405843
650.863781	0.406900
651.206820	0.406507
651.549807	0.411293
651.892742	0.415562
652.235626	0.414337
652.578458	0.415866
652.921238	0.421894
653.263967	0.419341
653.606644	0.423395
653.949269	0.423467
654.291843	0.426957
654.634365	0.424126
654.976836	0.426632
655.319255	0.427228
655.661622	0.428498
656.003938	0.429365
656.346203	0.431448
656.688416	0.429462
657.030577	0.432674
657.372687	0.435199
657.714746	0.436420
658.056753	0.432916
658.398708	0.436188
658.740612	0.438262
659.082465	0.434318
659.424266	0.434338
659.766016	0.434174
660.107715	0.437733
660.449362	0.435740
660.790958	0.436266
661.132503	0.437247
661.473996	0.434140
661.815438	0.435358
662.156829	0.435532
662.498168	0.436735
662.839456	0.437870
663.180693	0.435521
663.521879	0.435672
663.863013	0.436157
664.204097	0.434206
664.545129	0.431788
664.886110	0.432509
665.227040	0.428963
665.567918	0.431389
665.908746	0.430041
666.249522	0.429623
666.590248	0.430631
666.930922	0.428556
667.271545	0.427643
667.612118	0.427913
667.952639	0.429597
668.293109	0.427723
668.633528	0.430510
668.973896	0.430962
669.314213	0.431073
669.654480	0.433039
669.994695	0.432700
670.334859	0.433728
670.674973	0.434907
671.015035	0.434690
671.355047	0.434517
671.695008	0.435494
672.034918	0.437044
672.374777	0.436209
672.714585	0.437202
673.054342	0.437532
673.394049	0.437840
673.733705	0.434611
674.073310	0.437153
674.412864	0.439499
674.752368	0.439630
675.091820	0.440182
675.431223	0.445198
675.770574	0.444352
676.109875	0.448087
676.449125	0.447761
676.788324	0.449847
677.127473	0.454916
677.466571	0.454853
677.805619	0.456748
678.144616	0.457895
678.483562	0.459712
678.822458	0.462462
679.161303	0.462496
679.500098	0.463698
679.838842	0.464935
680.177535	0.464689
680.516179	0.462823
680.854771	0.462258
681.193314	0.455704
681.531805	0.447226
681.870247	0.435436
682.208638	0.428029
682.546978	0.427031
682.885268	0.428036
683.223508	0.435090
683.561697	0.438321
683.899836	0.441455
684.237925	0.444193
684.575963	0.447812
684.913951	0.450449
685.251889	0.446223
685.589776	0.448119
685.927614	0.450790
686.265401	0.444695
686.603137	0.445932
686.940824	0.439944
687.278460	0.438789
687.616046	0.437096
687.953582	0.432759
688.291068	0.434279
688.628504	0.429228
688.965889	0.431994
689.303224	0.435939
689.640510	0.439545
689.977745	0.445501
690.314930	0.453080
690.652065	0.458303
690.989150	0.465401
691.326185	0.472225
691.663170	0.476985
692.000105	0.484118
692.336990	0.490899
692.673825	0.493928
693.010610	0.500571
693.347345	0.506839
693.684030	0.507453
694.020665	0.511827
694.357251	0.520982
694.693786	0.520836
695.030272	0.524054
695.366707	0.528514
695.703093	0.532081
696.039429	0.529071
696.375716	0.531381
696.711952	0.533841
697.048139	0.536258
697.384276	0.538110
697.720363	0.537471
698.056400	0.534995
698.392388	0.541662
698.728326	0.543687
699.064214	0.546717
699.400053	0.547104
699.735842	0.550945
700.071581	0.554183
700.407270	0.557033
700.742910	0.559107
701.078501	0.566050
701.414042	0.567059
701.749533	0.569759
702.084974	0.578786
702.420366	0.571078
702.755709	0.578358
703.091002	0.586231
703.426246	0.580026
703.761440	0.585111
704.096584	0.590649
704.431679	0.587254
704.766725	0.589547
705.101721	0.591127
705.436668	0.586996
705.771565	0.594286
706.106413	0.590278
706.441212	0.586636
706.775961	0.585146
707.110661	0.587159
707.445311	0.584821
707.779913	0.581578
708.114465	0.580253
708.448967	0.577046
708.783421	0.568969
709.117825	0.563079
709.452180	0.563353
709.786485	0.556924
710.120742	0.547008
710.454949	0.547993
710.789107	0.540416
711.123216	0.531423
711.457275	0.532150
711.791286	0.524829
712.125247	0.523551
712.459159	0.533898
712.793023	0.525696
713.126837	0.530364
713.460602	0.530422
713.794318	0.539399
714.127985	0.538864
714.461602	0.549159
714.795171	0.553017
715.128691	0.560364
715.462162	0.567994
715.795584	0.574156
716.128957	0.576531
716.462281	0.583102
716.795556	0.586353
717.128782	0.591711
717.461960	0.602128
717.795088	0.599658
718.128167	0.606788
718.461198	0.614407
718.794180	0.615463
719.127113	0.617987
719.459997	0.621108
719.792833	0.627798
720.125619	0.629294
720.458357	0.634747
720.791046	0.634698
721.123686	0.638107
721.456278	0.645236
721.788821	0.641903
722.121315	0.647823
722.453761	0.651245
722.786158	0.648812
723.118506	0.645421
723.450805	0.652256
723.783056	0.650229
724.115259	0.646756
724.447412	0.646620
724.779518	0.647538
725.111574	0.646108
725.443582	0.641841
725.775542	0.644804
726.107453	0.635893
726.439315	0.636194
726.771129	0.634905
727.102895	0.627631
727.434612	0.621185
727.766281	0.618844
728.097901	0.617708
728.429473	0.617287
728.760996	0.616206
729.092471	0.616708
729.423897	0.620052
729.755276	0.618871
730.086606	0.619044
730.417887	0.613489
730.749120	0.604161
731.080305	0.594820
731.411442	0.590911
731.742530	0.595185
732.073570	0.595321
732.404562	0.587192
732.735506	0.588860
733.066401	0.593576
733.397249	0.602611
733.728048	0.613934
734.058798	0.626929
734.389501	0.637430
734.720156	0.647963
735.050762	0.655180
735.381320	0.656798
735.711831	0.664521
736.042293	0.670087
736.372707	0.666192
736.703073	0.670506
737.033391	0.672473
737.363661	0.669536
737.693883	0.665063
738.024056	0.663726
738.354182	0.664380
738.684260	0.653066
739.014290	0.650557
739.344272	0.650633
739.674207	0.643984
740.004093	0.642769
740.333931	0.644859
740.663722	0.643998
740.993464	0.645198
741.323159	0.647962
741.652806	0.652790
741.982405	0.657469
742.311956	0.663299
742.641460	0.665299
742.970915	0.668717
743.300323	0.675579
743.629683	0.681642
743.958996	0.685078
744.288260	0.688858
744.617477	0.695385
744.946647	0.696305
745.275768	0.702697
745.604842	0.701603
745.933869	0.711781
746.262847	0.713383
746.591778	0.706018
746.920662	0.712757
747.249498	0.718419
747.578286	0.710537
747.907027	0.706959
748.235720	0.707059
748.564365	0.702383
748.892963	0.701011
749.221514	0.705429
749.550017	0.708582
749.878473	0.710514
750.206881	0.716719
750.535242	0.716525
750.863555	0.715812
751.191821	0.716779
751.520039	0.721120
751.848210	0.724854
752.176334	0.718815
752.504411	0.717611
752.832440	0.725589
753.160421	0.728851
753.488356	0.727523
753.816243	0.724891
754.144082	0.733703
754.471875	0.736854
754.799620	0.732511
755.127318	0.733273
755.454969	0.733988
755.782572	0.735534
756.110129	0.737658
756.437638	0.741264
756.765100	0.738046
757.092515	0.735270
757.419882	0.733918
757.747203	0.739384
758.074477	0.740379
758.401703	0.735822
758.728882	0.731497
759.056014	0.730133
759.383099	0.729212
759.710138	0.729931
760.037129	0.726679
760.364073	0.720788
760.690970	0.722756
761.017820	0.727056
761.344623	0.724831
761.671379	0.715207
761.998088	0.703440
762.324751	0.679665
762.651366	0.636867
762.977935	0.569301
763.304456	0.517458
763.630931	0.507852
763.957359	0.547824
764.283740	0.591907
764.610074	0.619642
764.936362	0.651216
765.262602	0.679263
765.588796	0.700401
765.914943	0.716631
766.241044	0.736171
766.567097	0.741644
766.893104	0.752574
767.219064	0.759389
767.544978	0.765336
767.870845	0.779195
768.196665	0.783664
768.522438	0.781502
768.848165	0.782523
769.173846	0.791544
769.499479	0.796142
769.825066	0.800880
770.150607	0.805081
770.476101	0.800392
770.801548	0.802143
771.126949	0.813462
771.452303	0.818009
771.777611	0.815092
772.102872	0.813826
772.428087	0.820464
772.753256	0.823888
773.078378	0.825498
773.403453	0.834927
773.728482	0.838996
774.053465	0.832245
774.378401	0.835696
774.703291	0.845049
775.028135	0.844819
775.352932	0.844571
775.677683	0.849529
776.002388	0.849739
776.327046	0.850639
776.651658	0.853133
776.976224	0.857426
777.300743	0.855493
777.625216	0.858370
777.949643	0.860196
778.274024	0.859133
778.598359	0.862440
778.922647	0.860060
779.246889	0.860897
779.571086	0.864045
779.895236	0.866295
780.219339	0.864833
780.543397	0.859896
780.867409	0.859415
781.191374	0.861766
781.515294	0.862739
781.839167	0.862670
782.162995	0.864735
782.486776	0.861900
782.810511	0.863446
783.134201	0.867670
783.457844	0.865092
783.781441	0.868356
784.104993	0.873172
784.428498	0.874120
784.751958	0.870102
785.075372	0.871397
785.398739	0.876770
785.722061	0.870196
786.045337	0.866746
786.368568	0.872647
786.691752	0.873950
787.014891	0.860459
787.337983	0.850381
787.661030	0.844242
787.984031	0.825681
788.306987	0.814295
788.629897	0.813909
788.952760	0.819260
789.275579	0.823662
789.598351	0.840187
789.921078	0.852896
790.243759	0.853931
790.566395	0.858580
790.888984	0.866767
791.211529	0.871243
791.534027	0.874548
791.856480	0.878412
792.178888	0.882699
792.501249	0.884479
792.823566	0.887084
793.145836	0.887078
793.468062	0.887291
793.790241	0.888245
794.112375	0.885481
794.434464	0.882325
794.756507	0.881406
795.078505	0.880105
795.400457	0.874639
795.722364	0.862499
796.044226	0.856180
796.366042	0.854628
796.687812	0.858206
797.009538	0.854216
797.331218	0.857922
797.652852	0.862031
797.974442	0.866665
798.295986	0.867812
798.617484	0.868094
798.938938	0.874211
799.260346	0.878337
799.581709	0.880296
799.903026	0.882673
800.224299	0.884461
800.545526	0.885912
800.866708	0.890587
801.187845	0.896094
801.508936	0.894255
801.829983	0.892353
802.150984	0.897460
802.471940	0.901463
802.792851	0.900504
803.113717	0.901755
803.434538	0.898874
803.755314	0.901802
804.076045	0.902231
804.396731	0.903412
804.717372	0.901930
805.037967	0.905127
805.358518	0.902607
805.679024	0.899594
805.999485	0.900858
806.319901	0.899661
806.640272	0.903577
806.960598	0.900273
807.280879	0.896926
807.601115	0.896215
807.921306	0.900034
808.241453	0.899688
808.561554	0.897690
808.881611	0.897168
809.201623	0.898816
809.521590	0.900186
809.841513	0.902734
810.161390	0.897842
810.481223	0.900076
810.801011	0.905350
811.120755	0.906692
811.440453	0.904813
811.760107	0.904778
812.079716	0.904328
812.399281	0.907575
812.718801	0.909521
813.038276	0.910775
813.357707	0.910307
813.677093	0.908422
813.996434	0.910906
814.315731	0.913131
814.634983	0.914164
814.954191	0.912718
815.273354	0.907562
815.592473	0.904589
815.911547	0.905704
816.230577	0.902069
816.549562	0.898699
816.868502	0.897967
817.187399	0.896082
817.506250	0.891784
817.825058	0.891819
818.143821	0.888247
818.462539	0.884481
818.781213	0.875476
819.099843	0.865250
819.418429	0.847387
819.736970	0.831316
820.055466	0.810675
820.373919	0.784358
820.692327	0.750142
821.010691	0.715459
821.329011	0.634358
821.647286	0.517892
821.965517	0.402609
822.283704	0.359503
822.601847	0.360186
822.919945	0.396115
823.237999	0.430776
823.556010	0.479451
823.873976	0.535619
824.191897	0.587262
824.509775	0.631369
824.827609	0.676807
825.145398	0.700035
825.463144	0.701521
825.780845	0.684376
826.098502	0.665957
826.416116	0.619437
826.733685	0.574624
827.051210	0.565311
827.368692	0.580570
827.686129	0.619195
828.003522	0.673701
828.320872	0.723395
828.638177	0.766140
828.955439	0.800426
829.272656	0.822847
829.589830	0.839524
829.906960	0.856301
830.224046	0.869375
830.541088	0.879496
830.858086	0.883820
831.175041	0.890946
831.491952	0.888845
831.808819	0.885405
832.125642	0.877784
832.442421	0.865636
832.759157	0.840615
833.075849	0.793549
833.392497	0.728962
833.709101	0.687320
834.025662	0.697696
834.342179	0.729686
834.658653	0.770330
834.975083	0.805959
835.291469	0.833726
835.607811	0.854996
835.924110	0.873463
836.240366	0.890370
836.556578	0.903318
836.872746	0.911644
837.188871	0.918196
837.504952	0.923968
837.820990	0.926697
838.136984	0.931081
838.452935	0.933698
838.768842	0.935380
839.084706	0.929404
839.400526	0.902144
839.716303	0.860295
840.032037	0.837817
840.347727	0.842123
840.663373	0.860220
840.978977	0.882417
841.294537	0.906085
841.610054	0.922207
841.925527	0.929149
842.240957	0.937674
842.556344	0.943564
842.871687	0.949731
843.186987	0.953995
843.502244	0.954745
843.817458	0.956159
844.132629	0.960638
844.447756	0.963604
844.762840	0.965406
845.077881	0.965264
845.392879	0.963931
845.707833	0.965894
846.022745	0.968464
846.337613	0.969406
846.652438	0.969252
846.967221	0.970428
847.281960	0.969463
847.596656	0.971500
847.911309	0.971873
848.225919	0.972418
848.540485	0.973723
848.855009	0.974971
849.169490	0.973345
849.483928	0.973142
849.798323	0.973073
850.112675	0.974790
850.426984	0.974505
850.741251	0.974869
851.055474	0.975409
851.369654	0.973679
851.683792	0.972907
851.997887	0.974778
852.311938	0.975338
852.625947	0.973864
852.939914	0.972908
853.253837	0.973407
853.567718	0.975672
853.881555	0.975436
854.195350	0.973470
854.509103	0.973741
854.822812	0.975853
855.136479	0.975214
855.450103	0.973317
855.763685	0.973255
856.077224	0.973715
856.390720	0.976507
856.704173	0.975018
857.017584	0.973534
857.330953	0.972949
857.644278	0.972449
857.957561	0.973750
858.270802	0.972792
858.584000	0.973125
858.897155	0.972684
859.210268	0.971184
859.523339	0.973607
859.836367	0.975740
860.149352	0.974172
860.462295	0.974853
860.775195	0.975535
861.088054	0.974451
861.400869	0.976073
861.713642	0.974602
862.026373	0.976698
862.339062	0.975682
862.651708	0.974475
862.964312	0.973587
863.276873	0.974284
863.589392	0.972875
863.901869	0.969799
864.214303	0.969195
864.526696	0.968802
864.839045	0.968341
865.151353	0.966561
865.463619	0.965966
865.775842	0.967700
866.088023	0.968944
866.400162	0.967049
866.712258	0.969027
867.024313	0.967931
867.336325	0.970014
867.648296	0.968378
867.960224	0.965951
868.272110	0.967404
868.583954	0.969750
868.895755	0.968292
869.207515	0.967014
869.519233	0.965775
869.830909	0.964744
870.142542	0.966257
870.454134	0.965671
870.765684	0.963417
871.077191	0.964220
871.388657	0.962004
871.700081	0.963464
872.011463	0.963947
872.322803	0.962256
872.634101	0.960169
872.945357	0.957283
873.256571	0.956568
873.567744	0.958252
873.878874	0.958384
874.189963	0.957314
874.501010	0.957444
874.812015	0.954208
875.122979	0.956406
875.433900	0.957174
875.744780	0.958954
876.055618	0.955056
876.366415	0.953866
876.677169	0.954100
876.987882	0.954992
877.298554	0.955710
877.609183	0.951320
877.919771	0.948807
878.230317	0.947101
878.540822	0.943220
878.851285	0.938863
879.161707	0.930303
879.472087	0.917888
879.782425	0.900223
880.092722	0.864590
880.402977	0.811445
880.713191	0.747603
881.023363	0.686301
881.333494	0.650879
881.643583	0.623842
881.953631	0.623727
882.263637	0.652353
882.573602	0.693133
882.883526	0.719174
883.193408	0.744474
883.503248	0.767519
883.813048	0.796117
884.122806	0.826421
884.432522	0.851249
884.742197	0.870990
885.051831	0.882288
885.361424	0.894255
885.670975	0.905403
885.980485	0.915540
886.289954	0.921936
886.599382	0.926000
886.908768	0.931378
887.218113	0.936859
887.527417	0.942437
887.836680	0.945316
888.145901	0.947264
888.455082	0.951234
888.764221	0.954309
889.073319	0.956475
889.382376	0.957778
889.691392	0.956882
890.000366	0.956412
890.309300	0.957834
890.618193	0.956813
890.927044	0.955425
891.235855	0.955480
891.544625	0.956989
891.853353	0.955176
892.162041	0.952386
892.470687	0.946755
892.779293	0.940287
893.087858	0.936328
893.396381	0.927933
893.704864	0.913788
894.013306	0.890968
894.321707	0.863121
894.630068	0.847181
894.938387	0.841813
895.246665	0.842844
895.554903	0.856802
895.863100	0.869693
896.171256	0.887696
896.479371	0.907905
896.787446	0.922074
897.095480	0.928320
897.403473	0.930640
897.711425	0.935068
898.019336	0.942319
898.327207	0.947244
898.635038	0.947615
898.942827	0.948047
899.250576	0.952101
899.558284	0.957252
899.865952	0.956933
900.173579	0.959368
900.481165	0.960373
900.788711	0.962395
901.096216	0.964969
901.403681	0.966327
901.711105	0.966276
902.018489	0.966674
902.325832	0.966686
902.633135	0.964283
902.940397	0.959630
903.247619	0.945487
903.554800	0.920439
903.861941	0.879661
904.169041	0.841199
904.476101	0.823226
904.783121	0.824492
905.090100	0.841304
905.397039	0.864039
905.703938	0.886682
906.010796	0.906931
906.317614	0.924888
906.624391	0.937721
906.931129	0.947868
907.237826	0.955057
907.544483	0.962757
907.851099	0.967380
908.157675	0.970991
908.464211	0.974472
908.770707	0.975150
909.077163	0.978539
909.383578	0.980610
909.689954	0.979614
909.996289	0.981312
910.302584	0.982921
910.608839	0.984755
910.915054	0.982856
911.221229	0.983618
911.527363	0.981215
911.833458	0.981607
912.139513	0.982647
912.445527	0.980944
912.751502	0.979380
913.057436	0.976043
913.363331	0.974482
913.669186	0.971202
913.975000	0.965056
914.280775	0.958953
914.586510	0.950636
914.892205	0.938312
915.197859	0.914572
915.503475	0.887583
915.809050	0.865568
916.114585	0.860375
916.420081	0.857770
916.725536	0.854494
917.030952	0.863208
917.336328	0.876481
917.641665	0.891967
917.946961	0.908604
918.252218	0.919182
918.557435	0.929961
918.862612	0.938118
919.167750	0.944435
919.472848	0.951536
919.777906	0.957254
920.082925	0.961437
920.387904	0.965590
920.692843	0.966630
920.997743	0.968119
921.302603	0.972691
921.607423	0.973952
921.912204	0.976773
922.216946	0.978056
922.521647	0.978679
922.826310	0.979274
923.130932	0.981606
923.435516	0.984083
923.740059	0.983174
924.044564	0.983976
924.349028	0.984336
924.653454	0.987051
924.957840	0.988530
925.262186	0.989196
925.566493	0.988588
925.870761	0.989729
926.174989	0.991042
926.479178	0.993368
926.783328	0.992754
927.087438	0.992415
927.391509	0.992082
927.695541	0.993807
927.999533	0.995994
928.303486	0.995867
928.607400	0.995121
928.911275	0.995195
929.215110	0.996029
929.518906	0.995971
929.822663	0.996643
930.126381	0.997284
930.430060	0.996002
930.733699	0.995583
931.037299	0.996866
931.340861	0.994886
931.644383	0.995076
931.947866	0.994940
932.251309	0.994836
932.554714	0.995436
932.858080	0.996688
933.161407	0.994442
933.464694	0.996248
933.767943	0.996162
934.071153	0.996385
934.374323	0.997471
934.677455	0.996197
934.980548	0.997186
935.283602	0.997111
935.586617	0.996948
935.889593	0.997694
936.192530	0.997304
936.495428	0.996048
936.798287	0.994809
937.101108	0.996739
937.403890	0.994215
937.706632	0.995508
938.009336	0.992957
938.312002	0.990415
938.614628	0.988762
938.917216	0.988074
939.219765	0.987076
939.522275	0.987766
939.824747	0.987984
940.127179	0.988197
940.429573	0.989961
940.731929	0.989352
941.034246	0.989172
941.336524	0.988801
941.638763	0.990518
941.940964	0.990139
942.243126	0.992340
942.545250	0.992631
942.847335	0.992161
943.149381	0.994591
943.451389	0.992534
943.753359	0.993739
944.055290	0.995559
944.357182	0.996639
944.659036	0.995275
944.960851	0.995264
945.262628	0.995563
945.564367	0.994904
945.866067	0.995758
946.167729	0.995089
946.469352	0.995528
946.770937	0.993292
947.072484	0.996396
947.373992	0.994356
947.675462	0.994766
947.976893	0.996225
948.278286	0.996898
948.579641	0.996629
948.880958	0.996608
949.182236	0.996355
949.483476	0.997586
949.784678	0.996563
950.085841	0.995592
950.386967	0.995717
950.688054	0.997466
950.989103	0.994370
951.290114	0.994191
951.591087	0.995313
951.892021	0.993808
952.192917	0.994014
952.493776	0.993176
952.794596	0.994152
953.095378	0.993766
953.396122	0.993028
953.696828	0.993876
953.997496	0.995139
954.298126	0.995998
954.598718	0.995663
954.899272	0.996914
955.199788	0.995702
955.500266	0.998196
955.800706	0.996545
956.101108	0.997542
956.401472	1.000019
956.701798	0.998990
957.002087	0.998371
957.302337	1.000393
957.602550	0.999028
957.902724	1.000426
958.202861	0.999467
958.502960	1.001088
958.803022	1.000629
959.103045	1.000781
959.403031	1.002327
959.702979	1.002699
960.002889	1.001664
960.302762	1.001583
960.602596	1.002450
960.902393	1.002208
961.202153	1.001654
961.501875	1.001809
961.801559	1.002595
962.101205	1.002128
962.400814	1.002845
962.700385	1.002349
962.999918	1.002356
963.299414	1.001502
963.598873	1.002926
963.898293	1.002239
964.197677	1.002422
964.497022	1.002470
964.796331	1.002440
965.095601	1.002594
965.394835	1.002415
965.694030	1.003529
965.993189	1.001894
966.292309	1.002855
966.591393	1.002051
966.890439	1.003758
967.189447	1.002459
967.488419	1.002037
967.787353	1.002225
968.086249	1.002794
968.385108	1.002593
968.683930	1.003705
968.982714	1.002847
969.281462	1.002171
969.580172	1.002805
969.878844	1.002830
970.177480	1.002008
970.476078	1.003747
970.774639	1.001839
971.073162	1.002992
971.371649	1.002086
971.670098	1.002309
971.968510	1.002336
972.266885	1.001700
972.565223	1.002751
972.863524	1.001594
973.161788	1.002327
973.460014	1.003254
973.758204	1.001826
974.056356	1.002116
974.354471	1.001917
974.652550	1.001961
974.950591	1.001577
975.248595	1.001409
975.546563	1.001983
975.844493	1.002143
976.142386	1.002116
976.440243	1.003185
976.738062	1.002997
977.035845	1.001617
977.333590	1.002636
977.631299	1.002451
977.928971	1.001893
978.226606	1.001852
978.524204	1.002970
978.821765	1.002755
979.119290	1.004232
979.416777	1.003312
979.714228	1.002597
980.011642	1.002829
980.309020	1.001959
980.606360	1.001888
980.903664	1.003058
981.200931	1.001290
981.498162	1.001251
981.795356	1.000871
982.092513	0.999901
982.389633	0.999492
982.686717	0.997667
982.983764	0.998158
983.280775	0.995706
983.577749	0.998132
983.874686	0.996059
984.171587	0.997321
984.468451	0.998106
984.765279	1.000070
985.062070	1.001435
985.358824	0.999980
985.655543	1.002397
985.952224	1.001998
986.248869	1.002297
986.545478	1.003401
986.842050	1.002834
987.138586	1.002654
987.435086	1.003708
987.731549	1.004242
988.027975	1.004750
988.324366	1.003232
988.620719	1.004023
988.917037	1.004147
989.213318	1.004771
989.509563	1.003990
989.805772	1.004506
990.101944	1.004188
990.398080	1.004584
990.694180	1.004318
990.990244	1.002539
991.286271	1.003649
991.582262	1.004540
991.878217	1.004488
992.174136	1.004527
992.470019	1.004797
992.765865	1.005873
993.061676	1.003748
993.357450	1.003900
993.653188	1.005808
993.948890	1.003609
994.244556	1.003241
994.540186	1.002718
994.835780	1.002523
995.131337	1.004356
995.426859	1.003802
995.722345	1.002877
996.017795	1.001766
996.313208	1.002187
996.608586	1.002237
996.903928	1.002231
997.199234	1.002590
997.494504	1.004183
997.789738	1.001579
998.084936	1.003015
998.380099	1.002174
998.675225	1.002847
998.970316	1.003296
999.265371	1.004237
999.560390	1.004327
999.855373	1.003404
1000.150320	1.004180
1000.445232	1.004800
1000.740108	1.003330
1001.034948	1.004550
1001.329752	1.006758
1001.624521	1.004831
1001.919254	1.004549
1002.213951	1.004466
1002.508613	1.003886
1002.803239	1.003679
1003.097829	1.005368
1003.392384	1.004063
1003.686903	1.004363
1003.981386	1.003948
1004.275834	1.005177
1004.570246	1.003104
1004.864623	1.005256
1005.158964	1.004682
1005.453270	1.003570
1005.747540	1.004111
1006.041775	1.005396
1006.335974	1.004362
1006.630138	1.005327
1006.924266	1.004177
1007.218359	1.002897
1007.512416	1.005369
1007.806438	1.004568
1008.100425	1.004176
1008.394376	1.005858
1008.688292	1.003737
1008.982172	1.003039
1009.276017	1.005615
1009.569827	1.004866
1009.863602	1.003444
1010.157341	1.004566
1010.451045	1.004818
1010.744714	1.006409
1011.038347	1.005111
1011.331945	1.003878
1011.625508	1.003642
1011.919036	1.005370
1012.212528	1.005910
1012.505986	1.004594
1012.799408	1.005010
1013.092795	1.004447
1013.386147	1.004470
1013.679464	1.005584
1013.972745	1.004486
1014.265992	1.004063
1014.559204	1.004818
1014.852380	1.004193
1015.145521	1.005384
1015.438628	1.004828
1015.731699	1.004451
1016.024736	1.005717
1016.317737	1.004417
1016.610703	1.005223
1016.903635	1.004364
1017.196531	1.004367
1017.489393	1.004511
1017.782219	1.005421
1018.075011	1.005045
1018.367768	1.004307
1018.660490	1.004259
1018.953177	1.004259
1019.245829	1.004259
