Dividing Wavelength (nm)	Counts (n)	Blue Motor Position (mm): 44.300000	Red Motor Position (mm): 0.000000	
326.493990	0.999175
326.888308	0.999175
327.282561	0.999175
327.676750	0.999905
328.070874	1.000024
328.464933	1.000609
328.858929	1.000538
329.252859	1.000305
329.646726	0.998885
330.040528	0.999601
330.434265	1.000784
330.827938	0.999475
331.221547	0.999118
331.615091	1.001100
332.008571	1.000182
332.401986	0.999732
332.795338	0.998830
333.188625	1.000176
333.581847	0.999690
333.975006	1.000663
334.368100	0.999593
334.761129	0.999032
335.154095	0.999786
335.546996	0.999361
335.939833	0.999443
336.332606	0.999838
336.725315	0.998256
337.117960	1.000940
337.510540	0.998942
337.903056	0.999183
338.295508	0.999921
338.687896	1.001248
339.080220	0.998830
339.472480	0.998277
339.864676	0.999938
340.256807	0.999180
340.648875	1.000326
341.040879	0.999577
341.432818	1.000586
341.824694	0.999250
342.216506	1.000506
342.608253	0.999416
342.999937	0.999910
343.391557	0.999398
343.783113	0.999586
344.174605	1.000231
344.566033	0.998660
344.957397	0.999803
345.348697	1.000173
345.739934	0.999211
346.131106	0.999785
346.522215	0.998475
346.913260	0.998620
347.304241	0.998662
347.695159	1.000019
348.086012	0.999039
348.476802	0.999122
348.867528	0.998771
349.258191	1.000080
349.648789	1.000000
350.039324	0.999509
350.429796	0.999023
350.820203	0.997422
351.210548	0.999402
351.600828	0.999906
351.991045	0.999626
352.381198	1.000596
352.771288	0.998981
353.161314	0.998954
353.551276	0.998028
353.941175	0.998182
354.331010	1.000627
354.720782	0.999812
355.110490	0.999201
355.500135	0.999693
355.889717	0.997957
356.279235	0.999050
356.668689	0.999624
357.058080	0.998909
357.447408	0.998666
357.836672	1.000353
358.225873	0.998955
358.615010	0.998189
359.004084	0.998288
359.393095	0.998883
359.782043	0.998381
360.170927	0.999144
360.559748	0.999398
360.948505	0.998771
361.337199	0.998292
361.725830	0.999295
362.114398	0.999545
362.502903	0.999423
362.891344	0.998407
363.279722	0.998807
363.668037	0.999768
364.056289	0.999306
364.444478	0.999503
364.832603	0.998449
365.220665	0.998379
365.608665	0.999245
365.996601	0.998252
366.384474	0.997948
366.772284	0.999010
367.160031	0.996690
367.547715	0.997471
367.935336	0.996937
368.322893	0.996054
368.710388	0.994280
369.097820	0.992834
369.485189	0.990816
369.872495	0.989133
370.259738	0.987849
370.646918	0.984375
371.034035	0.982958
371.421090	0.979414
371.808081	0.973204
372.195010	0.972272
372.581875	0.967120
372.968678	0.962777
373.355418	0.959201
373.742096	0.951422
374.128710	0.947923
374.515262	0.942180
374.901751	0.937019
375.288177	0.932699
375.674540	0.927877
376.060841	0.920143
376.447079	0.914038
376.833254	0.909125
377.219367	0.906255
377.605417	0.897031
377.991404	0.894100
378.377329	0.889974
378.763191	0.886910
379.148991	0.880515
379.534727	0.875931
379.920402	0.871132
380.306013	0.871402
380.691563	0.864315
381.077049	0.861532
381.462474	0.861695
381.847835	0.855783
382.233134	0.856601
382.618371	0.860827
383.003545	0.851811
383.388657	0.854752
383.773706	0.855520
384.158693	0.857145
384.543618	0.858878
384.928480	0.858553
385.313280	0.858265
385.698017	0.863031
386.082692	0.862462
386.467305	0.867899
386.851856	0.872098
387.236344	0.874137
387.620770	0.877956
388.005133	0.882643
388.389435	0.885314
388.773674	0.890931
389.157851	0.894467
389.541965	0.900594
389.926018	0.908439
390.310008	0.909888
390.693936	0.915715
391.077802	0.919194
391.461606	0.925653
391.845348	0.928473
392.229027	0.932392
392.612645	0.937707
392.996200	0.940441
393.379694	0.943138
393.763125	0.947970
394.146494	0.952544
394.529801	0.955183
394.913047	0.959078
395.296230	0.963869
395.679351	0.967182
396.062410	0.970457
396.445408	0.974203
396.828343	0.976958
397.211217	0.978576
397.594028	0.980918
397.976778	0.984203
398.359466	0.986476
398.742092	0.988524
399.124656	0.988867
399.507158	0.989878
399.889598	0.992059
400.271977	0.992953
400.654294	0.993672
401.036549	0.995150
401.418742	0.994789
401.800874	0.995847
402.182944	0.995931
402.564952	0.996879
402.946898	0.997310
403.328783	0.998134
403.710606	0.997386
404.092367	0.997727
404.474067	0.998805
404.855705	0.999556
405.237282	0.999050
405.618797	0.998435
406.000250	0.998809
406.381642	0.998282
406.762972	0.998325
407.144240	0.998584
407.525447	0.997562
407.906593	0.998234
408.287677	0.998886
408.668700	0.999137
409.049661	0.998135
409.430560	0.998193
409.811399	0.997900
410.192176	0.999128
410.572891	0.999559
410.953545	0.998704
411.334138	0.999163
411.714669	0.999471
412.095139	0.999208
412.475547	1.000127
412.855894	0.999003
413.236180	0.999018
413.616405	0.998922
413.996568	0.999788
414.376670	0.998961
414.756711	0.998602
415.136691	0.999117
415.516609	0.998325
415.896466	0.999302
416.276262	0.999203
416.655997	0.999636
417.035670	0.999559
417.415283	0.999541
417.794834	0.998693
418.174324	1.000191
418.553753	0.999375
418.933121	0.999197
419.312428	1.000097
419.691674	1.000240
420.070859	1.000576
420.449983	0.999750
420.829045	0.998608
421.208047	0.999994
421.586988	0.999148
421.965867	0.998142
422.344686	0.999509
422.723444	0.999306
423.102141	0.999497
423.480777	0.998341
423.859352	0.999445
424.237866	0.999020
424.616319	0.999133
424.994712	0.999231
425.373044	0.999783
425.751314	0.999406
426.129524	0.999372
426.507673	0.998487
426.885762	0.999266
427.263789	0.999119
427.641756	0.999282
428.019662	0.999293
428.397508	0.999369
428.775292	0.998865
429.153016	0.999484
429.530679	0.999728
429.908282	1.000698
430.285824	1.000059
430.663305	0.999630
431.040726	0.999642
431.418086	0.999389
431.795385	0.999717
432.172624	1.000317
432.549802	0.999592
432.926920	0.999685
433.303977	0.998350
433.680974	0.999889
434.057910	1.000214
434.434786	0.999322
434.811601	0.999749
435.188355	1.000332
435.565050	0.999732
435.941683	0.998669
436.318257	0.998635
436.694770	1.000278
437.071222	0.999678
437.447614	1.000190
437.823946	0.999867
438.200218	0.999662
438.576429	0.999757
438.952580	1.000386
439.328670	0.998562
439.704700	0.998915
440.080670	0.999439
440.456580	0.999862
440.832429	0.999638
441.208218	0.999750
441.583947	0.999689
441.959616	0.998699
442.335224	1.000060
442.710773	1.000373
443.086261	0.999882
443.461689	0.998778
443.837057	0.999548
444.212365	0.999490
444.587612	0.999621
444.962800	0.999273
445.337927	1.000306
445.712995	0.999870
446.088002	0.999140
446.462949	0.999637
446.837837	1.001148
447.212664	0.999239
447.587431	1.000165
447.962139	0.999706
448.336786	0.999484
448.711374	0.999544
449.085901	1.000643
449.460369	1.000082
449.834776	0.999700
450.209124	0.999461
450.583412	1.000180
450.957640	0.999486
451.331808	1.000569
451.705917	0.999399
452.079965	0.999407
452.453954	1.000036
452.827883	0.999943
453.201752	0.999887
453.575562	0.999825
453.949311	1.000139
454.323001	1.000230
454.696632	0.999652
455.070202	0.999401
455.443713	0.999342
455.817164	0.999550
456.190556	0.999959
456.563888	1.000693
456.937160	0.999995
457.310373	0.999055
457.683526	0.999974
458.056619	0.999789
458.429653	0.999599
458.802628	1.000001
459.175542	0.999484
459.548398	0.999875
459.921194	1.000267
460.293930	1.000875
460.666607	1.000013
461.039224	0.999471
461.411782	1.000199
461.784280	0.999742
462.156719	0.999918
462.529099	1.000899
462.901419	1.000350
463.273680	0.999301
463.645882	0.999735
464.018024	1.000771
464.390106	0.999407
464.762130	0.999079
465.134094	0.999441
465.505999	1.000174
465.877845	0.999863
466.249631	1.000044
466.621358	0.999032
466.993026	0.999439
467.364634	1.000060
467.736184	1.000124
468.107674	1.000157
468.479105	0.999917
468.850477	1.000219
469.221790	1.000324
469.593043	0.999461
469.964238	0.999681
470.335373	0.999630
470.706449	0.999846
471.077467	0.999902
471.448425	1.000128
471.819324	0.999617
472.190164	0.999876
472.560945	1.000189
472.931667	0.999441
473.302330	1.000105
473.672934	0.999997
474.043479	0.999827
474.413965	1.000091
474.784393	1.000291
475.154761	0.999693
475.525070	1.000270
475.895321	0.999899
476.265513	1.000925
476.635645	1.000052
477.005719	0.999859
477.375734	0.999664
477.745691	0.999654
478.115588	0.999121
478.485427	1.000040
478.855207	0.999856
479.224928	0.999367
479.594591	1.000198
479.964194	0.999678
480.333739	0.999870
480.703226	0.999369
481.072653	0.999440
481.442022	1.000175
481.811333	0.999686
482.180584	0.999762
482.549777	1.000019
482.918912	1.000123
483.287988	0.999803
483.657005	0.999157
484.025964	0.999513
484.394864	0.999463
484.763706	0.999847
485.132489	0.999880
485.501213	0.999960
485.869879	0.999681
486.238487	0.998931
486.607036	1.000079
486.975527	1.000314
487.343959	0.999530
487.712333	0.999897
488.080648	0.999373
488.448905	0.999855
488.817104	0.999493
489.185244	0.999860
489.553326	0.999934
489.921350	0.999358
490.289315	0.999667
490.657222	0.999322
491.025070	1.000590
491.392861	1.000360
491.760593	0.999764
492.128267	0.999802
492.495883	0.998655
492.863440	0.999921
493.230939	0.999743
493.598380	1.000243
493.965763	0.999628
494.333088	0.999136
494.700354	0.999803
495.067563	0.999490
495.434713	0.999915
495.801805	0.999582
496.168839	0.999591
496.535815	1.000387
496.902733	1.000090
497.269593	0.999671
497.636395	0.999359
498.003139	0.999066
498.369825	1.000615
498.736453	0.999379
499.103023	1.000784
499.469535	0.999642
499.835989	0.999677
500.202385	0.999495
500.568723	0.999930
500.935003	0.999761
501.301226	0.999960
501.667390	0.999472
502.033497	1.000071
502.399546	0.999020
502.765537	0.999499
503.131470	1.000260
503.497345	1.000121
503.863163	0.999834
504.228923	0.999521
504.594625	0.999418
504.960269	0.999618
505.325856	1.000307
505.691385	1.000141
506.056856	0.999678
506.422270	0.999791
506.787625	1.000063
507.152924	1.000072
507.518164	1.000061
507.883347	0.999395
508.248472	0.999749
508.613540	0.999398
508.978550	0.999887
509.343503	1.000009
509.708398	1.000314
510.073236	1.000425
510.438016	0.999586
510.802738	0.999363
511.167403	0.998943
511.532010	0.999815
511.896561	1.000193
512.261053	0.999407
512.625488	1.000319
512.989866	1.000562
513.354186	0.999668
513.718449	0.999870
514.082655	0.999241
514.446803	0.999631
514.810894	1.000097
515.174927	0.999270
515.538904	0.999834
515.902822	0.999657
516.266684	1.000000
516.630488	0.999983
516.994235	0.999694
517.357925	0.999703
517.721558	0.999618
518.085133	0.999310
518.448651	0.999613
518.812112	0.999994
519.175516	0.999630
519.538863	0.999292
519.902152	1.000161
520.265385	0.999911
520.628560	0.999505
520.991678	1.000228
521.354739	1.000836
521.717743	0.999615
522.080690	0.999634
522.443580	0.999843
522.806413	0.999350
523.169189	1.000933
523.531908	0.999738
523.894569	1.000070
524.257174	1.000071
524.619722	1.000093
524.982213	1.000101
525.344647	0.999243
525.707025	0.999248
526.069345	0.999628
526.431608	0.999726
526.793815	1.000197
527.155964	1.000020
527.518057	1.000174
527.880093	0.999774
528.242072	1.000068
528.603995	0.999798
528.965860	1.000123
529.327669	1.000406
529.689421	0.999840
530.051117	1.000414
530.412755	0.999242
530.774337	0.999664
531.135862	1.000320
531.497331	0.999681
531.858743	1.000246
532.220098	0.999611
532.581396	0.999703
532.942638	1.000281
533.303824	1.000018
533.664953	0.999906
534.026025	1.000113
534.387040	0.999500
534.747999	0.999757
535.108902	0.999303
535.469748	1.000827
535.830537	1.000674
536.191270	1.000548
536.551947	0.999516
536.912567	1.000337
537.273131	1.000744
537.633638	0.999536
537.994089	0.999724
538.354483	1.000169
538.714821	0.999766
539.075103	0.999859
539.435328	1.000062
539.795497	1.000490
540.155609	1.000493
540.515665	1.000370
540.875665	0.999620
541.235609	1.000147
541.595496	0.999286
541.955328	0.999845
542.315102	1.000329
542.674821	0.999743
543.034483	0.999921
543.394090	0.998889
543.753640	0.999888
544.113134	0.999490
544.472571	1.000266
544.831953	0.999781
545.191278	1.000140
545.550548	0.999145
545.909761	0.999940
546.268918	1.000781
546.628019	1.000010
546.987064	0.999720
547.346053	0.999171
547.704986	0.999193
548.063863	1.000049
548.422684	1.000167
548.781449	0.999692
549.140158	0.999964
549.498811	0.999342
549.857408	0.999146
550.215949	0.999197
550.574434	0.999671
550.932864	1.000175
551.291237	0.999869
551.649555	0.999959
552.007817	1.000060
552.366022	0.999910
552.724173	1.000347
553.082267	0.999824
553.440305	0.999621
553.798288	0.999172
554.156215	0.999897
554.514086	0.999979
554.871902	1.000330
555.229661	0.999552
555.587365	0.999707
555.945014	1.000015
556.302606	0.999827
556.660143	0.999798
557.017625	1.000208
557.375050	0.998980
557.732421	0.999483
558.089735	0.999776
558.446994	0.999057
558.804197	0.999778
559.161345	0.999358
559.518437	0.999133
559.875474	0.999855
560.232455	1.000197
560.589381	0.999896
560.946251	0.999664
561.303065	1.000396
561.659825	0.999211
562.016528	1.000228
562.373177	0.999500
562.729770	1.000275
563.086307	0.999318
563.442789	1.000224
563.799216	0.999847
564.155587	1.000542
564.511904	1.000024
564.868164	0.999370
565.224370	0.999408
565.580520	0.999809
565.936615	0.999561
566.292654	0.999774
566.648638	0.999754
567.004567	0.999943
567.360441	1.000000
567.716260	0.999745
568.072023	0.999849
568.427732	0.999866
568.783385	1.000004
569.138982	1.000817
569.494525	0.999179
569.850013	1.000248
570.205445	1.000256
570.560823	0.999744
570.916145	0.999430
571.271412	0.999856
571.626625	1.000259
571.981782	0.999832
572.336884	1.000052
572.691931	1.000250
573.046923	1.000628
573.401860	1.000053
573.756743	1.000150
574.111570	0.999784
574.466342	1.000974
574.821059	0.999849
575.175722	0.999705
575.530330	0.999222
575.884882	0.999968
576.239380	0.999969
576.593823	0.998856
576.948211	0.999899
577.302544	0.999663
577.656823	0.999806
578.011047	0.999043
578.365216	1.000636
578.719330	0.999975
579.073389	0.999207
579.427394	0.999633
579.781344	1.000551
580.135239	0.999048
580.489080	0.999783
580.842866	0.999904
581.196597	1.000085
581.550273	0.999902
581.903895	0.999616
582.257463	0.999952
582.610975	1.000008
582.964434	1.000320
583.317837	1.000969
583.671186	1.000593
584.024481	0.999298
584.377721	0.999256
584.730906	0.999979
585.084037	1.000853
585.437113	1.000641
585.790135	0.999691
586.143103	0.999805
586.496016	1.000206
586.848874	0.999864
587.201679	1.000050
587.554428	0.999651
587.907124	1.000188
588.259765	1.000443
588.612352	1.000211
588.964884	1.000250
589.317362	1.000009
589.669786	0.999425
590.022155	0.999483
590.374470	0.999772
590.726731	0.998914
591.078937	1.000403
591.431090	0.999761
591.783188	0.999471
592.135232	1.000720
592.487222	0.999677
592.839157	0.999441
593.191038	0.999818
593.542866	1.000314
593.894639	0.999535
594.246358	1.000231
594.598022	1.000030
594.949633	0.999581
595.301190	0.999258
595.652692	0.999273
596.004141	0.999856
596.355535	0.999734
596.706876	0.999971
597.058162	1.000027
597.409395	0.999785
597.760573	1.000500
598.111698	0.999868
598.462768	0.999849
598.813785	0.998961
599.164748	0.999438
599.515657	0.999322
599.866511	1.000386
600.217312	0.999619
600.568060	0.999735
600.918753	0.999742
601.269392	1.000178
601.619978	0.999780
601.970510	0.999785
602.320988	1.000141
602.671412	0.999227
603.021783	1.000289
603.372100	1.000540
603.722363	1.000183
604.072572	0.999595
604.422728	0.999501
604.772830	0.999647
605.122878	1.000027
605.472872	0.999656
605.822813	1.000019
606.172701	1.000155
606.522534	1.000430
606.872314	1.000965
607.222041	0.999465
607.571714	0.999959
607.921333	0.999889
608.270899	0.999196
608.620411	0.999806
608.969870	1.000725
609.319276	0.999890
609.668627	1.000567
610.017926	0.999255
610.367171	0.999820
610.716362	1.000222
611.065500	0.999835
611.414585	0.999408
611.763616	0.999416
612.112594	0.999720
612.461518	0.999127
612.810389	0.999368
613.159207	0.999859
613.507971	0.999120
613.856682	1.001207
614.205340	0.999183
614.553945	1.000335
614.902496	0.999364
615.250994	1.000291
615.599439	0.999791
615.947830	0.999222
616.296169	0.999942
616.644454	0.999743
616.992686	1.000109
617.340864	0.999767
617.688990	0.999181
618.037063	1.000557
618.385082	0.999223
618.733048	0.999136
619.080961	0.999844
619.428821	1.000007
619.776628	0.999805
620.124382	1.000199
620.472083	1.000447
620.819731	1.001112
621.167326	1.000057
621.514868	1.000610
621.862357	1.000353
622.209793	0.999786
622.557176	0.999332
622.904506	0.999353
623.251783	0.999909
623.599007	1.000108
623.946179	0.999759
624.293297	0.999911
624.640363	1.000854
624.987376	0.999153
625.334336	0.999438
625.681243	0.999816
626.028097	1.000280
626.374899	0.999078
626.721647	1.001209
627.068343	1.000126
627.414987	1.000045
627.761577	0.998789
628.108115	0.999150
628.454600	1.000085
628.801032	1.000332
629.147412	0.999177
629.493739	1.001175
629.840014	0.999515
630.186236	0.999117
630.532405	0.999253
630.878521	0.999200
631.224585	1.000084
631.570597	0.999430
631.916556	0.999327
632.262462	0.998771
632.608316	0.999845
632.954117	0.999407
633.299866	1.000002
633.645562	0.999562
633.991206	1.000079
634.336797	0.999335
634.682336	1.000374
635.027823	0.999549
635.373257	0.999777
635.718639	1.000320
636.063968	0.999481
636.409245	0.999617
636.754470	1.000272
637.099642	0.999782
637.444762	1.000695
637.789829	0.999361
638.134845	1.000144
638.479808	0.999943
638.824719	0.999573
639.169577	0.999224
639.514383	0.999777
639.859137	0.999177
640.203839	0.998908
640.548489	0.998647
640.893086	0.999827
641.237632	0.999823
641.582125	0.999640
641.926566	1.000291
642.270955	0.999538
642.615292	0.999853
642.959576	0.999758
643.303809	0.999959
643.647990	0.999731
643.992118	0.999994
644.336195	0.998680
644.680219	0.998850
645.024192	1.000228
645.368112	0.998953
645.711981	0.999588
646.055797	0.999853
646.399562	0.999630
646.743274	1.000077
647.086935	0.999264
647.430544	0.998965
647.774101	0.998958
648.117606	0.999999
648.461059	0.999986
648.804460	0.999468
649.147810	0.999369
649.491108	0.999109
649.834354	0.999234
650.177548	0.999401
650.520690	0.999244
650.863781	0.998690
651.206820	0.999770
651.549807	0.999160
651.892742	0.999952
652.235626	0.999754
652.578458	0.999568
652.921238	0.999650
653.263967	1.000195
653.606644	0.999059
653.949269	1.000378
654.291843	0.998732
654.634365	0.999442
654.976836	0.999230
655.319255	1.000852
655.661622	1.000459
656.003938	1.000009
656.346203	0.999893
656.688416	1.000250
657.030577	0.999552
657.372687	0.999976
657.714746	0.998598
658.056753	0.999602
658.398708	0.999315
658.740612	1.000250
659.082465	0.999606
659.424266	1.000093
659.766016	0.998861
660.107715	0.999680
660.449362	0.999647
660.790958	0.998882
661.132503	1.000239
661.473996	0.999002
661.815438	1.000184
662.156829	1.000602
662.498168	1.000060
662.839456	0.998699
663.180693	0.998741
663.521879	0.998866
663.863013	0.999439
664.204097	0.999818
664.545129	0.999260
664.886110	0.998523
665.227040	0.999628
665.567918	0.999147
665.908746	0.998569
666.249522	0.999080
666.590248	0.999136
666.930922	0.999562
667.271545	0.999641
667.612118	0.999612
667.952639	0.999803
668.293109	0.999395
668.633528	0.999270
668.973896	0.999826
669.314213	0.999367
669.654480	0.999812
669.994695	0.998419
670.334859	0.999210
670.674973	0.998748
671.015035	0.999938
671.355047	0.999328
671.695008	0.998671
672.034918	0.999480
672.374777	0.999241
672.714585	0.999255
673.054342	0.999972
673.394049	0.999124
673.733705	0.999858
674.073310	0.999319
674.412864	0.999032
674.752368	0.998476
675.091820	0.999750
675.431223	0.998902
675.770574	0.998778
676.109875	0.999008
676.449125	0.998706
676.788324	0.999233
677.127473	0.999635
677.466571	0.998738
677.805619	0.999724
678.144616	0.999112
678.483562	0.999358
678.822458	0.998821
679.161303	0.999122
679.500098	0.999650
679.838842	0.998705
680.177535	0.998905
680.516179	0.997873
680.854771	0.998705
681.193314	0.998822
681.531805	0.998843
681.870247	0.999755
682.208638	0.999383
682.546978	0.999147
682.885268	0.999443
683.223508	0.998304
683.561697	0.998745
683.899836	0.998915
684.237925	0.998626
684.575963	0.998842
684.913951	0.999466
685.251889	0.998744
685.589776	0.998758
685.927614	0.998634
686.265401	0.999153
686.603137	0.998518
686.940824	0.998109
687.278460	0.999206
687.616046	0.998156
687.953582	0.999001
688.291068	0.999063
688.628504	0.998584
688.965889	0.999362
689.303224	0.997670
689.640510	0.998847
689.977745	0.998698
690.314930	0.998797
690.652065	0.998811
690.989150	0.998490
691.326185	0.999085
691.663170	0.999454
692.000105	0.999684
692.336990	0.998992
692.673825	0.999511
693.010610	0.998432
693.347345	0.998381
693.684030	0.998575
694.020665	0.998504
694.357251	0.998735
694.693786	1.000067
695.030272	0.997778
695.366707	0.998693
695.703093	0.998774
696.039429	0.997470
696.375716	0.998971
696.711952	0.998559
697.048139	0.999252
697.384276	0.998754
697.720363	0.998902
698.056400	0.997855
698.392388	0.998448
698.728326	0.998614
699.064214	0.999689
699.400053	0.999117
699.735842	0.998928
700.071581	0.998323
700.407270	0.998132
700.742910	0.999121
701.078501	0.999008
701.414042	0.999361
701.749533	0.998268
702.084974	0.999012
702.420366	0.998488
702.755709	0.998728
703.091002	0.998484
703.426246	0.999490
703.761440	0.999127
704.096584	0.997731
704.431679	0.998032
704.766725	0.997662
705.101721	0.998956
705.436668	0.999070
705.771565	0.997775
706.106413	0.997363
706.441212	0.998318
706.775961	0.998690
707.110661	0.998498
707.445311	1.000183
707.779913	0.998802
708.114465	0.999686
708.448967	1.000026
708.783421	0.999592
709.117825	0.999083
709.452180	0.999407
709.786485	0.999517
710.120742	0.998800
710.454949	0.998025
710.789107	0.998401
711.123216	0.998129
711.457275	0.998281
711.791286	0.999096
712.125247	0.999786
712.459159	0.998064
712.793023	0.998656
713.126837	0.998882
713.460602	0.997950
713.794318	0.997843
714.127985	0.997848
714.461602	0.998311
714.795171	0.998418
715.128691	0.998421
715.462162	0.998851
715.795584	0.998657
716.128957	0.999250
716.462281	0.999285
716.795556	0.997829
717.128782	0.998184
717.461960	0.998597
717.795088	0.998353
718.128167	0.999207
718.461198	0.998746
718.794180	0.998909
719.127113	0.998267
719.459997	0.997738
719.792833	0.998434
720.125619	0.997569
720.458357	0.998297
720.791046	0.998605
721.123686	0.998427
721.456278	0.998207
721.788821	0.998882
722.121315	0.999146
722.453761	0.999299
722.786158	0.998298
723.118506	0.998993
723.450805	0.997875
723.783056	0.998895
724.115259	0.998478
724.447412	0.998456
724.779518	0.998890
725.111574	0.997452
725.443582	0.998329
725.775542	0.998603
726.107453	0.998587
726.439315	0.998603
726.771129	0.999289
727.102895	0.998855
727.434612	0.997491
727.766281	0.998615
728.097901	0.998149
728.429473	0.999124
728.760996	0.998111
729.092471	0.999010
729.423897	0.997794
729.755276	0.998782
730.086606	0.997811
730.417887	0.999650
730.749120	0.998760
731.080305	0.998056
731.411442	0.998071
731.742530	0.998124
732.073570	0.998072
732.404562	0.998325
732.735506	0.998539
733.066401	0.998219
733.397249	0.998268
733.728048	0.997898
734.058798	0.999005
734.389501	0.999595
734.720156	0.998480
735.050762	0.999468
735.381320	0.998550
735.711831	0.997694
736.042293	0.998439
736.372707	0.999125
736.703073	0.997509
737.033391	0.998683
737.363661	0.999118
737.693883	0.998324
738.024056	0.997853
738.354182	0.998286
738.684260	0.999414
739.014290	0.997860
739.344272	0.998352
739.674207	0.997606
740.004093	0.999180
740.333931	0.998852
740.663722	0.997939
740.993464	0.998279
741.323159	0.998379
741.652806	0.998882
741.982405	0.998364
742.311956	0.998475
742.641460	0.998431
742.970915	0.998067
743.300323	0.998371
743.629683	0.997819
743.958996	0.999396
744.288260	0.998312
744.617477	0.997593
744.946647	0.998075
745.275768	0.998969
745.604842	0.998909
745.933869	0.998690
746.262847	0.998802
746.591778	0.997300
746.920662	0.999828
747.249498	0.999349
747.578286	0.999845
747.907027	0.999503
748.235720	0.998528
748.564365	0.998687
748.892963	0.998653
749.221514	0.997969
749.550017	0.997933
749.878473	0.999051
750.206881	0.999514
750.535242	1.000103
750.863555	0.997652
751.191821	0.998480
751.520039	0.998191
751.848210	0.996104
752.176334	0.997675
752.504411	0.999309
752.832440	0.997675
753.160421	0.998961
753.488356	0.998819
753.816243	0.998751
754.144082	0.997905
754.471875	0.998181
754.799620	0.998471
755.127318	0.997559
755.454969	0.998353
755.782572	0.999084
756.110129	0.998215
756.437638	1.000125
756.765100	0.998407
757.092515	0.999586
757.419882	0.999044
757.747203	0.998186
758.074477	1.000008
758.401703	0.999210
758.728882	0.999456
759.056014	0.997580
759.383099	0.998873
759.710138	0.998182
760.037129	0.997707
760.364073	0.998467
760.690970	0.997818
761.017820	0.997422
761.344623	0.999404
761.671379	0.999140
761.998088	0.998244
762.324751	0.999629
762.651366	0.998380
762.977935	0.997491
763.304456	0.998561
763.630931	0.997577
763.957359	0.997431
764.283740	0.997299
764.610074	0.997699
764.936362	0.997652
765.262602	0.998596
765.588796	0.999486
765.914943	0.997358
766.241044	0.998196
766.567097	0.998117
766.893104	0.998521
767.219064	0.997351
767.544978	0.998727
767.870845	0.998862
768.196665	0.997852
768.522438	0.998539
768.848165	0.998208
769.173846	0.999665
769.499479	0.999929
769.825066	0.998823
770.150607	0.999418
770.476101	0.998581
770.801548	0.999710
771.126949	1.000051
771.452303	0.998872
771.777611	0.998965
772.102872	0.998658
772.428087	0.999186
772.753256	0.999413
773.078378	0.999105
773.403453	0.997806
773.728482	1.000272
774.053465	0.997343
774.378401	0.998388
774.703291	0.999136
775.028135	0.999722
775.352932	0.997540
775.677683	0.999858
776.002388	0.998278
776.327046	0.998956
776.651658	1.000058
776.976224	0.999085
777.300743	0.999221
777.625216	0.997933
777.949643	0.999045
778.274024	0.998662
778.598359	0.999903
778.922647	0.998171
779.246889	0.999487
779.571086	0.998905
779.895236	0.998798
780.219339	0.999232
780.543397	0.998035
780.867409	0.999776
781.191374	0.998213
781.515294	0.999398
781.839167	0.999102
782.162995	0.999068
782.486776	0.999126
782.810511	0.998868
783.134201	0.999579
783.457844	0.998371
783.781441	0.998415
784.104993	0.998599
784.428498	0.998631
784.751958	0.999953
785.075372	1.000183
785.398739	0.999632
785.722061	0.998690
786.045337	0.998828
786.368568	0.998500
786.691752	0.998192
787.014891	0.998805
787.337983	0.998122
787.661030	0.999174
787.984031	0.999181
788.306987	0.999435
788.629897	0.997754
788.952760	0.999094
789.275579	1.000018
789.598351	0.998783
789.921078	0.999446
790.243759	0.998680
790.566395	0.998334
790.888984	0.999763
791.211529	0.999338
791.534027	0.998631
791.856480	0.999281
792.178888	0.998818
792.501249	0.999435
792.823566	0.999529
793.145836	0.999653
793.468062	0.999097
793.790241	1.000210
794.112375	0.998552
794.434464	0.999345
794.756507	1.000022
795.078505	0.999870
795.400457	0.999740
795.722364	0.998393
796.044226	0.999721
796.366042	0.998519
796.687812	0.998044
797.009538	0.998937
797.331218	0.999908
797.652852	0.999346
797.974442	0.998724
798.295986	0.999254
798.617484	0.998710
798.938938	0.999046
799.260346	0.998342
799.581709	0.998678
799.903026	0.999396
800.224299	0.998582
800.545526	0.998056
800.866708	0.998746
801.187845	0.998910
801.508936	0.998644
801.829983	0.998304
802.150984	0.999323
802.471940	0.999318
802.792851	0.998211
803.113717	0.999976
803.434538	1.000468
803.755314	1.000284
804.076045	0.997819
804.396731	0.998065
804.717372	0.997376
805.037967	1.000374
805.358518	0.999555
805.679024	0.998188
805.999485	0.999254
806.319901	0.997877
806.640272	0.999544
806.960598	0.999155
807.280879	0.999046
807.601115	0.999324
807.921306	1.000890
808.241453	0.999432
808.561554	0.999412
808.881611	0.999139
809.201623	0.998466
809.521590	0.998693
809.841513	0.998750
810.161390	0.998505
810.481223	0.998252
810.801011	0.999027
811.120755	1.000516
811.440453	0.998940
811.760107	0.999261
812.079716	0.999287
812.399281	0.999147
812.718801	0.998817
813.038276	0.998194
813.357707	0.999222
813.677093	0.999587
813.996434	0.999455
814.315731	1.000332
814.634983	0.999354
814.954191	1.000098
815.273354	0.997805
815.592473	0.997865
815.911547	0.999048
816.230577	0.999151
816.549562	0.999266
816.868502	0.997518
817.187399	0.999824
817.506250	1.000008
817.825058	0.998210
818.143821	0.999964
818.462539	0.999090
818.781213	0.999705
819.099843	1.000141
819.418429	0.998403
819.736970	0.998911
820.055466	0.998706
820.373919	0.998957
820.692327	0.997250
821.010691	0.997693
821.329011	0.997507
821.647286	0.996831
821.965517	0.996486
822.283704	0.996548
822.601847	0.995778
822.919945	0.996222
823.237999	0.995437
823.556010	0.996459
823.873976	0.997750
824.191897	0.996788
824.509775	0.997713
824.827609	0.997208
825.145398	0.997878
825.463144	0.996060
825.780845	0.996848
826.098502	0.997047
826.416116	0.998610
826.733685	0.997604
827.051210	0.995928
827.368692	0.996424
827.686129	0.996506
828.003522	0.997948
828.320872	0.997014
828.638177	0.998477
828.955439	0.999192
829.272656	0.998364
829.589830	0.999091
829.906960	0.999190
830.224046	0.998640
830.541088	0.999292
830.858086	0.998303
831.175041	0.999085
831.491952	0.998914
831.808819	0.999520
832.125642	0.999184
832.442421	0.999880
832.759157	1.000232
833.075849	0.998973
833.392497	0.997550
833.709101	0.997396
834.025662	0.998367
834.342179	0.997939
834.658653	0.998826
834.975083	0.998296
835.291469	0.998600
835.607811	0.998199
835.924110	0.998325
836.240366	0.999705
836.556578	0.999431
836.872746	0.999378
837.188871	0.999251
837.504952	0.999015
837.820990	0.999506
838.136984	0.998480
838.452935	0.998981
838.768842	0.998849
839.084706	0.998404
839.400526	0.998336
839.716303	0.997645
840.032037	0.999886
840.347727	0.998791
840.663373	0.998126
840.978977	0.998673
841.294537	1.000076
841.610054	0.999106
841.925527	0.999002
842.240957	0.998556
842.556344	0.999378
842.871687	0.998801
843.186987	0.999079
843.502244	0.999154
843.817458	0.997753
844.132629	0.999083
844.447756	0.999852
844.762840	0.999986
845.077881	1.000098
845.392879	0.997643
845.707833	0.999524
846.022745	0.998276
846.337613	0.999121
846.652438	0.998527
846.967221	0.998471
847.281960	1.000083
847.596656	1.000837
847.911309	0.998350
848.225919	0.997556
848.540485	0.999477
848.855009	0.999189
849.169490	0.999533
849.483928	0.999296
849.798323	0.998838
850.112675	0.999314
850.426984	1.000094
850.741251	0.999855
851.055474	0.999782
851.369654	0.999753
851.683792	0.999140
851.997887	0.998701
852.311938	0.999790
852.625947	0.998214
852.939914	0.998498
853.253837	1.000313
853.567718	1.000817
853.881555	0.999821
854.195350	0.999451
854.509103	0.999686
854.822812	0.999557
855.136479	0.999712
855.450103	0.999225
855.763685	1.000544
856.077224	0.999669
856.390720	0.999604
856.704173	0.999355
857.017584	1.000306
857.330953	0.999419
857.644278	1.000199
857.957561	1.000718
858.270802	1.000469
858.584000	0.998845
858.897155	0.999461
859.210268	0.998744
859.523339	0.999777
859.836367	0.999703
860.149352	0.998998
860.462295	0.998685
860.775195	1.000132
861.088054	0.998783
861.400869	0.999602
861.713642	0.997902
862.026373	0.999890
862.339062	0.999940
862.651708	0.999141
862.964312	0.999974
863.276873	0.999561
863.589392	0.999075
863.901869	0.998656
864.214303	0.998954
864.526696	0.999853
864.839045	1.000543
865.151353	0.998782
865.463619	0.998809
865.775842	0.999081
866.088023	1.001497
866.400162	0.999191
866.712258	1.000258
867.024313	0.998672
867.336325	1.000611
867.648296	0.999290
867.960224	1.000333
868.272110	1.000155
868.583954	0.999916
868.895755	1.000108
869.207515	0.999103
869.519233	1.000245
869.830909	0.999378
870.142542	0.997705
870.454134	0.997890
870.765684	0.998550
871.077191	0.999361
871.388657	0.998939
871.700081	1.001106
872.011463	0.999921
872.322803	0.999245
872.634101	0.999246
872.945357	0.999972
873.256571	0.998405
873.567744	1.000189
873.878874	0.999742
874.189963	0.999512
874.501010	1.001609
874.812015	0.999548
875.122979	0.999081
875.433900	0.999872
875.744780	0.999819
876.055618	0.998849
876.366415	0.998414
876.677169	0.999402
876.987882	0.999258
877.298554	0.999600
877.609183	1.000120
877.919771	1.000395
878.230317	0.998764
878.540822	0.998354
878.851285	0.999637
879.161707	0.999443
879.472087	1.000773
879.782425	0.998559
880.092722	0.999213
880.402977	0.997789
880.713191	0.997676
881.023363	0.997231
881.333494	0.996464
881.643583	0.997837
881.953631	0.997838
882.263637	0.997247
882.573602	0.997370
882.883526	0.997405
883.193408	0.998529
883.503248	0.998413
883.813048	0.998122
884.122806	0.999241
884.432522	0.997756
884.742197	0.998770
885.051831	0.998218
885.361424	0.997807
885.670975	0.998636
885.980485	0.998053
886.289954	0.998802
886.599382	0.999461
886.908768	0.999447
887.218113	0.998782
887.527417	0.998938
887.836680	0.999734
888.145901	1.000068
888.455082	0.999978
888.764221	0.999899
889.073319	0.999523
889.382376	0.999967
889.691392	0.999414
890.000366	0.999878
890.309300	0.999235
890.618193	0.999868
890.927044	0.999380
891.235855	0.999016
891.544625	0.999162
891.853353	0.999135
892.162041	0.999106
892.470687	1.000393
892.779293	0.999313
893.087858	0.998944
893.396381	0.999876
893.704864	0.998253
894.013306	0.999205
894.321707	0.999121
894.630068	0.999977
894.938387	0.998715
895.246665	0.998448
895.554903	0.997912
895.863100	0.999154
896.171256	0.998261
896.479371	0.998977
896.787446	0.998792
897.095480	0.998559
897.403473	0.999256
897.711425	0.998783
898.019336	0.998933
898.327207	0.999860
898.635038	0.998172
898.942827	0.999654
899.250576	0.999000
899.558284	0.999522
899.865952	0.998656
900.173579	0.999747
900.481165	0.999051
900.788711	0.998845
901.096216	0.998638
901.403681	0.999623
901.711105	0.999736
902.018489	0.999225
902.325832	0.998779
902.633135	1.000093
902.940397	1.000000
903.247619	0.999619
903.554800	0.998550
903.861941	1.000150
904.169041	0.999339
904.476101	0.998454
904.783121	0.998318
905.090100	0.998644
905.397039	0.999037
905.703938	0.998792
906.010796	0.998689
906.317614	0.998845
906.624391	0.999384
906.931129	0.999282
907.237826	0.999038
907.544483	0.999205
907.851099	1.000278
908.157675	0.998332
908.464211	0.999369
908.770707	0.998886
909.077163	0.999551
909.383578	0.999665
909.689954	0.999016
909.996289	0.999294
910.302584	0.999775
910.608839	0.999957
910.915054	0.998373
911.221229	1.000843
911.527363	0.998862
911.833458	0.999413
912.139513	0.999594
912.445527	1.000023
912.751502	0.999582
913.057436	1.000753
913.363331	1.000123
913.669186	0.999924
913.975000	0.999409
914.280775	0.999280
914.586510	0.999085
914.892205	0.998851
915.197859	0.999103
915.503475	0.998512
915.809050	0.998251
916.114585	0.998466
916.420081	0.998890
916.725536	0.998681
917.030952	0.998538
917.336328	0.998628
917.641665	0.997124
917.946961	0.997487
918.252218	0.998561
918.557435	0.998437
918.862612	0.999457
919.167750	0.999618
919.472848	1.000088
919.777906	0.999813
920.082925	1.001035
920.387904	1.000497
920.692843	0.998067
920.997743	0.998922
921.302603	0.999488
921.607423	0.998663
921.912204	1.000180
922.216946	1.000440
922.521647	0.998653
922.826310	0.998506
923.130932	0.999192
923.435516	0.999742
923.740059	0.998787
924.044564	0.999235
924.349028	0.999189
924.653454	0.998932
924.957840	0.998862
925.262186	0.999161
925.566493	0.999048
925.870761	0.998986
926.174989	0.999078
926.479178	1.000146
926.783328	1.000541
927.087438	1.000352
927.391509	0.998679
927.695541	0.999714
927.999533	0.998973
928.303486	1.000077
928.607400	1.000202
928.911275	1.000032
929.215110	1.000257
929.518906	0.998861
929.822663	0.999960
930.126381	1.000247
930.430060	1.000738
930.733699	0.999552
931.037299	0.999360
931.340861	0.999449
931.644383	0.998432
931.947866	1.000537
932.251309	1.000370
932.554714	0.999483
932.858080	0.999417
933.161407	0.999081
933.464694	0.999083
933.767943	1.000359
934.071153	0.999546
934.374323	1.000685
934.677455	0.999830
934.980548	0.998802
935.283602	1.000189
935.586617	0.997722
935.889593	1.000526
936.192530	0.999814
936.495428	0.999646
936.798287	0.999045
937.101108	0.999833
937.403890	0.999418
937.706632	1.001843
938.009336	0.998820
938.312002	0.999432
938.614628	1.000410
938.917216	0.998936
939.219765	0.999620
939.522275	1.000168
939.824747	0.998828
940.127179	1.000294
940.429573	1.001293
940.731929	0.998674
941.034246	0.998757
941.336524	0.998833
941.638763	0.998448
941.940964	0.998721
942.243126	0.998711
942.545250	1.000429
942.847335	1.000270
943.149381	0.999775
943.451389	0.998766
943.753359	1.000021
944.055290	0.999937
944.357182	0.999855
944.659036	0.999613
944.960851	1.000272
945.262628	1.000557
945.564367	0.998846
945.866067	0.998713
946.167729	0.999976
946.469352	0.998529
946.770937	0.997951
947.072484	1.000248
947.373992	0.999946
947.675462	1.000266
947.976893	0.999477
948.278286	0.999746
948.579641	1.000291
948.880958	0.998952
949.182236	0.999662
949.483476	1.000650
949.784678	0.999642
950.085841	0.999753
950.386967	0.999578
950.688054	1.000056
950.989103	0.997855
951.290114	0.997847
951.591087	0.999943
951.892021	0.998615
952.192917	0.998427
952.493776	0.999986
952.794596	0.999615
953.095378	0.999692
953.396122	0.999090
953.696828	0.999314
953.997496	1.001030
954.298126	1.001163
954.598718	0.998835
954.899272	1.000837
955.199788	0.998683
955.500266	1.000151
955.800706	0.999714
956.101108	0.999825
956.401472	1.000283
956.701798	1.000119
957.002087	0.998781
957.302337	0.999465
957.602550	1.000576
957.902724	0.999050
958.202861	0.999406
958.502960	0.999044
958.803022	1.000258
959.103045	0.998962
959.403031	1.000958
959.702979	1.000403
960.002889	0.999745
960.302762	0.998810
960.602596	1.000391
960.902393	0.999226
961.202153	0.999014
961.501875	1.000567
961.801559	0.999061
962.101205	0.998979
962.400814	1.001386
962.700385	1.000372
962.999918	1.000528
963.299414	0.999193
963.598873	1.000510
963.898293	1.000192
964.197677	0.999536
964.497022	0.999508
964.796331	0.998988
965.095601	1.000004
965.394835	0.998321
965.694030	1.000733
965.993189	0.999519
966.292309	0.999656
966.591393	0.998377
966.890439	1.000450
967.189447	1.000505
967.488419	0.998514
967.787353	1.000174
968.086249	0.999759
968.385108	0.998927
968.683930	1.001080
968.982714	0.997944
969.281462	0.999863
969.580172	0.999538
969.878844	1.000495
970.177480	0.998680
970.476078	1.000818
970.774639	1.000836
971.073162	0.999432
971.371649	0.999084
971.670098	0.998406
971.968510	0.998652
972.266885	0.999553
972.565223	0.999948
972.863524	0.999152
973.161788	1.000127
973.460014	1.000514
973.758204	0.998591
974.056356	0.999948
974.354471	0.998785
974.652550	0.999852
974.950591	0.998905
975.248595	0.999318
975.546563	0.999884
975.844493	1.000523
976.142386	0.998711
976.440243	1.000889
976.738062	0.999407
977.035845	0.998614
977.333590	1.001243
977.631299	0.999032
977.928971	0.999194
978.226606	0.998598
978.524204	0.998780
978.821765	1.000646
979.119290	1.001316
979.416777	0.998703
979.714228	1.000113
980.011642	1.000450
980.309020	1.000124
980.606360	0.999505
980.903664	1.000212
981.200931	1.000029
981.498162	0.999632
981.795356	0.999759
982.092513	0.999310
982.389633	1.000304
982.686717	0.998030
982.983764	0.998667
983.280775	0.999640
983.577749	1.000292
983.874686	0.998371
984.171587	0.998788
984.468451	0.999324
984.765279	0.999624
985.062070	0.999551
985.358824	0.998611
985.655543	1.000318
985.952224	1.000923
986.248869	1.000556
986.545478	1.000981
986.842050	0.999759
987.138586	0.997801
987.435086	0.998750
987.731549	1.001201
988.027975	0.999870
988.324366	0.998846
988.620719	1.000365
988.917037	1.000402
989.213318	1.000572
989.509563	0.998924
989.805772	1.000400
990.101944	1.000029
990.398080	1.000170
990.694180	0.999806
990.990244	0.997997
991.286271	1.000118
991.582262	1.000089
991.878217	1.000852
992.174136	1.000578
992.470019	1.000117
992.765865	1.001726
993.061676	1.000139
993.357450	1.000112
993.653188	1.000486
993.948890	1.000535
994.244556	0.999387
994.540186	0.999494
994.835780	0.999370
995.131337	1.000043
995.426859	0.999418
995.722345	1.000520
996.017795	0.999108
996.313208	1.000018
996.608586	0.999996
996.903928	1.000900
997.199234	1.000180
997.494504	1.000773
997.789738	0.997879
998.084936	1.000243
998.380099	0.998899
998.675225	1.000547
998.970316	1.000516
999.265371	0.999752
999.560390	0.999744
999.855373	0.999547
1000.150320	1.000624
1000.445232	0.999825
1000.740108	0.999571
1001.034948	0.999086
1001.329752	1.000528
1001.624521	0.999187
1001.919254	0.999552
1002.213951	0.999754
1002.508613	0.999606
1002.803239	0.999427
1003.097829	1.000556
1003.392384	0.999277
1003.686903	0.999258
1003.981386	1.000176
1004.275834	1.000706
1004.570246	0.999130
1004.864623	1.000260
1005.158964	0.999867
1005.453270	0.997858
1005.747540	0.999824
1006.041775	1.000489
1006.335974	1.000129
1006.630138	0.999297
1006.924266	0.999145
1007.218359	0.997420
1007.512416	1.000568
1007.806438	0.999494
1008.100425	1.001090
1008.394376	1.000483
1008.688292	0.999181
1008.982172	0.998260
1009.276017	1.000752
1009.569827	0.999974
1009.863602	0.998374
1010.157341	0.999773
1010.451045	1.000066
1010.744714	1.000531
1011.038347	0.999817
1011.331945	0.998610
1011.625508	0.999196
1011.919036	1.000141
1012.212528	0.999761
1012.505986	0.998794
1012.799408	1.001494
1013.092795	1.000471
1013.386147	0.999367
1013.679464	1.000122
1013.972745	0.999454
1014.265992	0.999378
1014.559204	0.999745
1014.852380	1.000824
1015.145521	1.000176
1015.438628	0.998525
1015.731699	0.999442
1016.024736	1.000081
1016.317737	1.000128
1016.610703	1.000160
1016.903635	0.999988
1017.196531	0.999295
1017.489393	0.998938
1017.782219	0.999655
1018.075011	0.999966
1018.367768	0.998827
1018.660490	0.999279
1018.953177	0.999279
1019.245829	0.999279
