Dividing Wavelength (nm)	Counts (n)	Blue Motor Position (mm): 33.800000	Red Motor Position (mm): 0.000000	
326.493990	1.000329
326.888308	1.000329
327.282561	1.000329
327.676750	0.999650
328.070874	1.001067
328.464933	1.001649
328.858929	1.000516
329.252859	0.999367
329.646726	1.000239
330.040528	1.000310
330.434265	1.001385
330.827938	0.999207
331.221547	1.000506
331.615091	1.000542
332.008571	1.001068
332.401986	0.999841
332.795338	1.000345
333.188625	1.000664
333.581847	1.000114
333.975006	0.999128
334.368100	1.000023
334.761129	0.999327
335.154095	1.000516
335.546996	1.000316
335.939833	0.998544
336.332606	0.999520
336.725315	0.998565
337.117960	0.999708
337.510540	0.998434
337.903056	0.999449
338.295508	1.000353
338.687896	0.999239
339.080220	0.999529
339.472480	0.999001
339.864676	0.999512
340.256807	0.998919
340.648875	1.000538
341.040879	0.999565
341.432818	1.000441
341.824694	1.000239
342.216506	1.000423
342.608253	0.999654
342.999937	0.998931
343.391557	0.999626
343.783113	1.001326
344.174605	0.998793
344.566033	0.999640
344.957397	1.000320
345.348697	1.000299
345.739934	0.999957
346.131106	0.999337
346.522215	0.998810
346.913260	0.999989
347.304241	0.999125
347.695159	0.999500
348.086012	0.999033
348.476802	0.999519
348.867528	0.998014
349.258191	0.999495
349.648789	0.999510
350.039324	0.999736
350.429796	0.999050
350.820203	0.997955
351.210548	0.998814
351.600828	0.999777
351.991045	0.999148
352.381198	1.000272
352.771288	0.998478
353.161314	0.999623
353.551276	0.998219
353.941175	0.997501
354.331010	0.998003
354.720782	0.998506
355.110490	0.998189
355.500135	0.998908
355.889717	0.997096
356.279235	0.998827
356.668689	1.000215
357.058080	0.997873
357.447408	0.997173
357.836672	0.998413
358.225873	0.998298
358.615010	0.997951
359.004084	0.996975
359.393095	0.997363
359.782043	0.997853
360.170927	0.998790
360.559748	0.998995
360.948505	0.998004
361.337199	0.998766
361.725830	0.998979
362.114398	0.998598
362.502903	0.997610
362.891344	0.997059
363.279722	0.998184
363.668037	0.999038
364.056289	0.997872
364.444478	0.999194
364.832603	0.997432
365.220665	0.997731
365.608665	0.997547
365.996601	0.997213
366.384474	0.995989
366.772284	0.996983
367.160031	0.995100
367.547715	0.997273
367.935336	0.993788
368.322893	0.992365
368.710388	0.993534
369.097820	0.990394
369.485189	0.989285
369.872495	0.987350
370.259738	0.985135
370.646918	0.982154
371.034035	0.980716
371.421090	0.976657
371.808081	0.971763
372.195010	0.969835
372.581875	0.964990
372.968678	0.959646
373.355418	0.956881
373.742096	0.949805
374.128710	0.944390
374.515262	0.940715
374.901751	0.934444
375.288177	0.929861
375.674540	0.923766
376.060841	0.917117
376.447079	0.910034
376.833254	0.904124
377.219367	0.898103
377.605417	0.888306
377.991404	0.883715
378.377329	0.877930
378.763191	0.871325
379.148991	0.861831
379.534727	0.854991
379.920402	0.846395
380.306013	0.842627
380.691563	0.829557
381.077049	0.823862
381.462474	0.818908
381.847835	0.808560
382.233134	0.803340
382.618371	0.803561
383.003545	0.786653
383.388657	0.783831
383.773706	0.776628
384.158693	0.772142
384.543618	0.766953
384.928480	0.757880
385.313280	0.748761
385.698017	0.747925
386.082692	0.736809
386.467305	0.734784
386.851856	0.729090
387.236344	0.724342
387.620770	0.719144
388.005133	0.712890
388.389435	0.707809
388.773674	0.705374
389.157851	0.696341
389.541965	0.693596
389.926018	0.700649
390.310008	0.687716
390.693936	0.685011
391.077802	0.677313
391.461606	0.679283
391.845348	0.667460
392.229027	0.667395
392.612645	0.664724
392.996200	0.652291
393.379694	0.645505
393.763125	0.636388
394.146494	0.640273
394.529801	0.631330
394.913047	0.623324
395.296230	0.629397
395.679351	0.620693
396.062410	0.616797
396.445408	0.619968
396.828343	0.615454
397.211217	0.610380
397.594028	0.622423
397.976778	0.612709
398.359466	0.609722
398.742092	0.605048
399.124656	0.618086
399.507158	0.604650
399.889598	0.602569
400.271977	0.592972
400.654294	0.597626
401.036549	0.596896
401.418742	0.601094
401.800874	0.587168
402.182944	0.583688
402.564952	0.575465
402.946898	0.577270
403.328783	0.578582
403.710606	0.589294
404.092367	0.564145
404.474067	0.569635
404.855705	0.568809
405.237282	0.577549
405.618797	0.563495
406.000250	0.559938
406.381642	0.549626
406.762972	0.554910
407.144240	0.554867
407.525447	0.554607
407.906593	0.548421
408.287677	0.544357
408.668700	0.553870
409.049661	0.548748
409.430560	0.544787
409.811399	0.554470
410.192176	0.537671
410.572891	0.546671
410.953545	0.536992
411.334138	0.551866
411.714669	0.546655
412.095139	0.561152
412.475547	0.547363
412.855894	0.552175
413.236180	0.553702
413.616405	0.561882
413.996568	0.555926
414.376670	0.565204
414.756711	0.572783
415.136691	0.573295
415.516609	0.569418
415.896466	0.569965
416.276262	0.570471
416.655997	0.576740
417.035670	0.565482
417.415283	0.563532
417.794834	0.572820
418.174324	0.582551
418.553753	0.595276
418.933121	0.585943
419.312428	0.587404
419.691674	0.598458
420.070859	0.595702
420.449983	0.608667
420.829045	0.607312
421.208047	0.620505
421.586988	0.623345
421.965867	0.629560
422.344686	0.630654
422.723444	0.646294
423.102141	0.666520
423.480777	0.655153
423.859352	0.678384
424.237866	0.671857
424.616319	0.680750
424.994712	0.682538
425.373044	0.698290
425.751314	0.700681
426.129524	0.720050
426.507673	0.718832
426.885762	0.723625
427.263789	0.736723
427.641756	0.748411
428.019662	0.753388
428.397508	0.762027
428.775292	0.773966
429.153016	0.778056
429.530679	0.789969
429.908282	0.796427
430.285824	0.807169
430.663305	0.809038
431.040726	0.824258
431.418086	0.832492
431.795385	0.837813
432.172624	0.845458
432.549802	0.852733
432.926920	0.860047
433.303977	0.866734
433.680974	0.872470
434.057910	0.879541
434.434786	0.885851
434.811601	0.893292
435.188355	0.896695
435.565050	0.904367
435.941683	0.909012
436.318257	0.911983
436.694770	0.918407
437.071222	0.923672
437.447614	0.929437
437.823946	0.934790
438.200218	0.938676
438.576429	0.944174
438.952580	0.947325
439.328670	0.951288
439.704700	0.954237
440.080670	0.959417
440.456580	0.961682
440.832429	0.965250
441.208218	0.968054
441.583947	0.970453
441.959616	0.972073
442.335224	0.975690
442.710773	0.978002
443.086261	0.979641
443.461689	0.980729
443.837057	0.982951
444.212365	0.985003
444.587612	0.986296
444.962800	0.987481
445.337927	0.989152
445.712995	0.989815
446.088002	0.990008
446.462949	0.990847
446.837837	0.992978
447.212664	0.991857
447.587431	0.994201
447.962139	0.993998
448.336786	0.993686
448.711374	0.993976
449.085901	0.995576
449.460369	0.995740
449.834776	0.995582
450.209124	0.995802
450.583412	0.996797
450.957640	0.996190
451.331808	0.996835
451.705917	0.997541
452.079965	0.997268
452.453954	0.997400
452.827883	0.997497
453.201752	0.997867
453.575562	0.997090
453.949311	0.998239
454.323001	0.997788
454.696632	0.998296
455.070202	0.998012
455.443713	0.997737
455.817164	0.997891
456.190556	0.998477
456.563888	0.998480
456.937160	0.998809
457.310373	0.997251
457.683526	0.998744
458.056619	0.999130
458.429653	0.998034
458.802628	0.997698
459.175542	0.998348
459.548398	0.999409
459.921194	0.998471
460.293930	1.000188
460.666607	0.998921
461.039224	0.998726
461.411782	0.998608
461.784280	0.998629
462.156719	0.998675
462.529099	0.999346
462.901419	0.998742
463.273680	0.998075
463.645882	0.998630
464.018024	0.999049
464.390106	0.998852
464.762130	0.998326
465.134094	0.999116
465.505999	0.998405
465.877845	0.998777
466.249631	0.998461
466.621358	0.998007
466.993026	0.998191
467.364634	0.997954
467.736184	0.998650
468.107674	0.998205
468.479105	0.997795
468.850477	0.999072
469.221790	0.998947
469.593043	0.998262
469.964238	0.998743
470.335373	0.998181
470.706449	0.998709
471.077467	0.998515
471.448425	0.998453
471.819324	0.998844
472.190164	0.998003
472.560945	0.997978
472.931667	0.998258
473.302330	0.998334
473.672934	0.998679
474.043479	0.998195
474.413965	0.998363
474.784393	0.998538
475.154761	0.997909
475.525070	0.998101
475.895321	0.998797
476.265513	0.999013
476.635645	0.998872
477.005719	0.998161
477.375734	0.998016
477.745691	0.997900
478.115588	0.997434
478.485427	0.998654
478.855207	0.998612
479.224928	0.998426
479.594591	0.998022
479.964194	0.997741
480.333739	0.997642
480.703226	0.997292
481.072653	0.997264
481.442022	0.997958
481.811333	0.998088
482.180584	0.998041
482.549777	0.997662
482.918912	0.998282
483.287988	0.997946
483.657005	0.997554
484.025964	0.997675
484.394864	0.997766
484.763706	0.998033
485.132489	0.998415
485.501213	0.998472
485.869879	0.997917
486.238487	0.997336
486.607036	0.998799
486.975527	0.997689
487.343959	0.997587
487.712333	0.997696
488.080648	0.997785
488.448905	0.998069
488.817104	0.997675
489.185244	0.997942
489.553326	0.998035
489.921350	0.998088
490.289315	0.997797
490.657222	0.997935
491.025070	0.998363
491.392861	0.997978
491.760593	0.997680
492.128267	0.997652
492.495883	0.996808
492.863440	0.998346
493.230939	0.998306
493.598380	0.998394
493.965763	0.998277
494.333088	0.997487
494.700354	0.997843
495.067563	0.998251
495.434713	0.998573
495.801805	0.998161
496.168839	0.999033
496.535815	0.998154
496.902733	0.998065
497.269593	0.998455
497.636395	0.997604
498.003139	0.997633
498.369825	0.998532
498.736453	0.997477
499.103023	0.998754
499.469535	0.998611
499.835989	0.998502
500.202385	0.997692
500.568723	0.998257
500.935003	0.998214
501.301226	0.999038
501.667390	0.997932
502.033497	0.998564
502.399546	0.998687
502.765537	0.998331
503.131470	0.998599
503.497345	0.998570
503.863163	0.998477
504.228923	0.998722
504.594625	0.998164
504.960269	0.997874
505.325856	0.999320
505.691385	0.998454
506.056856	0.998288
506.422270	0.998584
506.787625	0.998555
507.152924	0.998373
507.518164	0.997720
507.883347	0.998085
508.248472	0.998500
508.613540	0.997800
508.978550	0.998520
509.343503	0.998315
509.708398	0.998546
510.073236	0.999114
510.438016	0.997491
510.802738	0.997561
511.167403	0.998546
511.532010	0.998050
511.896561	0.998419
512.261053	0.998561
512.625488	0.998221
512.989866	0.997844
513.354186	0.997655
513.718449	0.998112
514.082655	0.997311
514.446803	0.998206
514.810894	0.998240
515.174927	0.998042
515.538904	0.998542
515.902822	0.997866
516.266684	0.997936
516.630488	0.998672
516.994235	0.998215
517.357925	0.999034
517.721558	0.998588
518.085133	0.997953
518.448651	0.998764
518.812112	0.998568
519.175516	0.998050
519.538863	0.998179
519.902152	0.998750
520.265385	0.998138
520.628560	0.998278
520.991678	0.998372
521.354739	0.999130
521.717743	0.998359
522.080690	0.997878
522.443580	0.998014
522.806413	0.998078
523.169189	0.998702
523.531908	0.997552
523.894569	0.998262
524.257174	0.998184
524.619722	0.998224
524.982213	0.998029
525.344647	0.997924
525.707025	0.998051
526.069345	0.997572
526.431608	0.998320
526.793815	0.998072
527.155964	0.998205
527.518057	0.998560
527.880093	0.998066
528.242072	0.997873
528.603995	0.997610
528.965860	0.998296
529.327669	0.998352
529.689421	0.997802
530.051117	0.998350
530.412755	0.998030
530.774337	0.998211
531.135862	0.998119
531.497331	0.997554
531.858743	0.998020
532.220098	0.997550
532.581396	0.998109
532.942638	0.998870
533.303824	0.998541
533.664953	0.998185
534.026025	0.998818
534.387040	0.998942
534.747999	0.998143
535.108902	0.998347
535.469748	0.998631
535.830537	0.998232
536.191270	0.998925
536.551947	0.997738
536.912567	0.998205
537.273131	0.998874
537.633638	0.997773
537.994089	0.998549
538.354483	0.998605
538.714821	0.997825
539.075103	0.998729
539.435328	0.998825
539.795497	0.998394
540.155609	0.998043
540.515665	0.998482
540.875665	0.998268
541.235609	0.998730
541.595496	0.997831
541.955328	0.998106
542.315102	0.999029
542.674821	0.998671
543.034483	0.998300
543.394090	0.997688
543.753640	0.997542
544.113134	0.997449
544.472571	0.998740
544.831953	0.998828
545.191278	0.998538
545.550548	0.997936
545.909761	0.998298
546.268918	0.999237
546.628019	0.998504
546.987064	0.998179
547.346053	0.998503
547.704986	0.997671
548.063863	0.997781
548.422684	0.999069
548.781449	0.998408
549.140158	0.999092
549.498811	0.997680
549.857408	0.997624
550.215949	0.997258
550.574434	0.998219
550.932864	0.997848
551.291237	0.997825
551.649555	0.998719
552.007817	0.998263
552.366022	0.998096
552.724173	0.998544
553.082267	0.998301
553.440305	0.997860
553.798288	0.997739
554.156215	0.998259
554.514086	0.999321
554.871902	0.998084
555.229661	0.997933
555.587365	0.998133
555.945014	0.999202
556.302606	0.997690
556.660143	0.998939
557.017625	0.998516
557.375050	0.997570
557.732421	0.998687
558.089735	0.998313
558.446994	0.998197
558.804197	0.998929
559.161345	0.997690
559.518437	0.998515
559.875474	0.998934
560.232455	0.998778
560.589381	0.998379
560.946251	0.998022
561.303065	0.999109
561.659825	0.997934
562.016528	0.998816
562.373177	0.998515
562.729770	0.998256
563.086307	0.998002
563.442789	0.998478
563.799216	0.997950
564.155587	0.999351
564.511904	0.999087
564.868164	0.997779
565.224370	0.998230
565.580520	0.998196
565.936615	0.998284
566.292654	0.997908
566.648638	0.998857
567.004567	0.998272
567.360441	0.998999
567.716260	0.998576
568.072023	0.997768
568.427732	0.998171
568.783385	0.997901
569.138982	0.999238
569.494525	0.997626
569.850013	0.998834
570.205445	0.998161
570.560823	0.998546
570.916145	0.997561
571.271412	0.998366
571.626625	0.999021
571.981782	0.998886
572.336884	0.998387
572.691931	0.998520
573.046923	0.999047
573.401860	0.998485
573.756743	0.998825
574.111570	0.998392
574.466342	0.999092
574.821059	0.998318
575.175722	0.998479
575.530330	0.998056
575.884882	0.998326
576.239380	0.998541
576.593823	0.998619
576.948211	0.998850
577.302544	0.998419
577.656823	0.998223
578.011047	0.997430
578.365216	0.999012
578.719330	0.999008
579.073389	0.997585
579.427394	0.997715
579.781344	0.998551
580.135239	0.997698
580.489080	0.998000
580.842866	0.998713
581.196597	0.998493
581.550273	0.997815
581.903895	0.999255
582.257463	0.998507
582.610975	0.997746
582.964434	0.998481
583.317837	0.998071
583.671186	0.998604
584.024481	0.998450
584.377721	0.998018
584.730906	0.998743
585.084037	0.999127
585.437113	0.999063
585.790135	0.998648
586.143103	0.998324
586.496016	0.998533
586.848874	0.998521
587.201679	0.998762
587.554428	0.998275
587.907124	0.998704
588.259765	0.998466
588.612352	0.998972
588.964884	0.998868
589.317362	0.998092
589.669786	0.998422
590.022155	0.998554
590.374470	0.998346
590.726731	0.998775
591.078937	0.998572
591.431090	0.998895
591.783188	0.998618
592.135232	0.998888
592.487222	0.998545
592.839157	0.997834
593.191038	0.998418
593.542866	0.998676
593.894639	0.998368
594.246358	0.999124
594.598022	0.998536
594.949633	0.999665
595.301190	0.998608
595.652692	0.998620
596.004141	0.998857
596.355535	0.998367
596.706876	0.998936
597.058162	0.998348
597.409395	0.999025
597.760573	0.998350
598.111698	0.998369
598.462768	0.997738
598.813785	0.998346
599.164748	0.998410
599.515657	0.998053
599.866511	0.998883
600.217312	0.999059
600.568060	0.998254
600.918753	0.999718
601.269392	0.997836
601.619978	0.999222
601.970510	0.998413
602.320988	0.998707
602.671412	0.998041
603.021783	0.999096
603.372100	0.998769
603.722363	0.999193
604.072572	0.998639
604.422728	0.998015
604.772830	0.997794
605.122878	0.998901
605.472872	0.999213
605.822813	0.998343
606.172701	0.998802
606.522534	0.998873
606.872314	0.999030
607.222041	0.999135
607.571714	0.999028
607.921333	0.999022
608.270899	0.998311
608.620411	0.999188
608.969870	0.999392
609.319276	0.998731
609.668627	0.998704
610.017926	0.998421
610.367171	0.998696
610.716362	0.998747
611.065500	0.998604
611.414585	0.997857
611.763616	0.997954
612.112594	0.998865
612.461518	0.997458
612.810389	0.998079
613.159207	0.998833
613.507971	0.997902
613.856682	0.999617
614.205340	0.997777
614.553945	0.999156
614.902496	0.998592
615.250994	0.999357
615.599439	0.998725
615.947830	0.998962
616.296169	0.998722
616.644454	0.999179
616.992686	0.998481
617.340864	0.998787
617.688990	0.997770
618.037063	0.998746
618.385082	0.998284
618.733048	0.998478
619.080961	0.998091
619.428821	0.999344
619.776628	0.998183
620.124382	0.999198
620.472083	0.999224
620.819731	0.999304
621.167326	0.998549
621.514868	0.999368
621.862357	0.998955
622.209793	0.998636
622.557176	0.998711
622.904506	0.998106
623.251783	0.998631
623.599007	0.998978
623.946179	0.997726
624.293297	0.999523
624.640363	0.999932
624.987376	0.998498
625.334336	0.998613
625.681243	0.999301
626.028097	0.999144
626.374899	0.998813
626.721647	0.999774
627.068343	0.998777
627.414987	0.998597
627.761577	0.998128
628.108115	0.998816
628.454600	0.998613
628.801032	0.998418
629.147412	0.999100
629.493739	1.000258
629.840014	0.998675
630.186236	0.998532
630.532405	0.998690
630.878521	0.998013
631.224585	0.998713
631.570597	0.998639
631.916556	0.998664
632.262462	0.997928
632.608316	0.999014
632.954117	0.998509
633.299866	0.998136
633.645562	0.997830
633.991206	0.998978
634.336797	0.998675
634.682336	0.999516
635.027823	0.998868
635.373257	0.998867
635.718639	0.999832
636.063968	0.999220
636.409245	0.998443
636.754470	0.998615
637.099642	0.999021
637.444762	0.999530
637.789829	0.998673
638.134845	0.998690
638.479808	0.998132
638.824719	0.999137
639.169577	0.998789
639.514383	0.998976
639.859137	0.998962
640.203839	0.998501
640.548489	0.998748
640.893086	0.998028
641.237632	0.998511
641.582125	0.998158
641.926566	0.999296
642.270955	0.998474
642.615292	0.997908
642.959576	0.998588
643.303809	0.999739
643.647990	0.999877
643.992118	0.998918
644.336195	0.998134
644.680219	0.998225
645.024192	0.998715
645.368112	0.998317
645.711981	0.998300
646.055797	0.999892
646.399562	0.997290
646.743274	0.999168
647.086935	0.998263
647.430544	0.998403
647.774101	0.997955
648.117606	0.998555
648.461059	0.998870
648.804460	0.999116
649.147810	0.997868
649.491108	0.997961
649.834354	0.999157
650.177548	0.997987
650.520690	0.999115
650.863781	0.997793
651.206820	0.999146
651.549807	0.998799
651.892742	0.998894
652.235626	0.998256
652.578458	0.999362
652.921238	0.999233
653.263967	0.998843
653.606644	0.997846
653.949269	0.998965
654.291843	0.997520
654.634365	0.999339
654.976836	0.998242
655.319255	0.999292
655.661622	0.999179
656.003938	0.998189
656.346203	0.998065
656.688416	0.999057
657.030577	0.998340
657.372687	0.998815
657.714746	0.998915
658.056753	0.998688
658.398708	0.998209
658.740612	0.999637
659.082465	0.997473
659.424266	0.998656
659.766016	0.998526
660.107715	0.999284
660.449362	0.998062
660.790958	0.998739
661.132503	0.998779
661.473996	0.997856
661.815438	0.998999
662.156829	0.998839
662.498168	0.999070
662.839456	0.997768
663.180693	0.998793
663.521879	0.998989
663.863013	0.999023
664.204097	0.998027
664.545129	0.998316
664.886110	0.998930
665.227040	0.998211
665.567918	0.997894
665.908746	0.998066
666.249522	0.998265
666.590248	0.998283
666.930922	0.997680
667.271545	0.998672
667.612118	0.998271
667.952639	0.999024
668.293109	0.998191
668.633528	0.997821
668.973896	0.998697
669.314213	0.998477
669.654480	0.999269
669.994695	0.998446
670.334859	0.998046
670.674973	0.998091
671.015035	0.998787
671.355047	0.998770
671.695008	0.998008
672.034918	0.998255
672.374777	0.998267
672.714585	0.998113
673.054342	0.998598
673.394049	0.997924
673.733705	0.998039
674.073310	0.998881
674.412864	0.998102
674.752368	0.997965
675.091820	0.999327
675.431223	0.998161
675.770574	0.998425
676.109875	0.998889
676.449125	0.997904
676.788324	0.998142
677.127473	0.999953
677.466571	0.998149
677.805619	0.998560
678.144616	0.998922
678.483562	0.998747
678.822458	0.998753
679.161303	0.998207
679.500098	0.999023
679.838842	0.999109
680.177535	0.997166
680.516179	0.998072
680.854771	0.998397
681.193314	0.998604
681.531805	0.998401
681.870247	0.997345
682.208638	0.998581
682.546978	0.997363
682.885268	0.997887
683.223508	0.997197
683.561697	0.997653
683.899836	0.998726
684.237925	0.997381
684.575963	0.997855
684.913951	0.998290
685.251889	0.998463
685.589776	0.998614
685.927614	0.998236
686.265401	0.997630
686.603137	0.998295
686.940824	0.998023
687.278460	0.999086
687.616046	0.998221
687.953582	0.998038
688.291068	0.998480
688.628504	0.998670
688.965889	0.997397
689.303224	0.997090
689.640510	0.998437
689.977745	0.997344
690.314930	0.997911
690.652065	0.997705
690.989150	0.996903
691.326185	0.998592
691.663170	0.997850
692.000105	0.997995
692.336990	0.998518
692.673825	0.997901
693.010610	0.998448
693.347345	0.998264
693.684030	0.998390
694.020665	0.996990
694.357251	0.997205
694.693786	0.998007
695.030272	0.996917
695.366707	0.997944
695.703093	0.997760
696.039429	0.997479
696.375716	0.997849
696.711952	0.997489
697.048139	0.998312
697.384276	0.998566
697.720363	0.998430
698.056400	0.996669
698.392388	0.996826
698.728326	0.998785
699.064214	0.998814
699.400053	0.998280
699.735842	0.999040
700.071581	0.997383
700.407270	0.997123
700.742910	0.997848
701.078501	0.998023
701.414042	0.998785
701.749533	0.997795
702.084974	0.998180
702.420366	0.998313
702.755709	0.997788
703.091002	0.997774
703.426246	0.998580
703.761440	0.997855
704.096584	0.998166
704.431679	0.997455
704.766725	0.997202
705.101721	0.999049
705.436668	0.997831
705.771565	0.996539
706.106413	0.996574
706.441212	0.998175
706.775961	0.997416
707.110661	0.997685
707.445311	0.997543
707.779913	0.999463
708.114465	0.998120
708.448967	0.998644
708.783421	0.998266
709.117825	0.997657
709.452180	0.997987
709.786485	0.998166
710.120742	0.997855
710.454949	0.997778
710.789107	0.998380
711.123216	0.996936
711.457275	0.996966
711.791286	0.997989
712.125247	0.999620
712.459159	0.996754
712.793023	0.997371
713.126837	0.997642
713.460602	0.997744
713.794318	0.996261
714.127985	0.997469
714.461602	0.998135
714.795171	0.997663
715.128691	0.997313
715.462162	0.997979
715.795584	0.997458
716.128957	0.997910
716.462281	0.998036
716.795556	0.998070
717.128782	0.999452
717.461960	0.997414
717.795088	0.998392
718.128167	0.998599
718.461198	0.998204
718.794180	0.998171
719.127113	0.998852
719.459997	0.998277
719.792833	0.997712
720.125619	0.996976
720.458357	0.997932
720.791046	0.998895
721.123686	0.998381
721.456278	0.997586
721.788821	0.997755
722.121315	0.998917
722.453761	0.997165
722.786158	0.997967
723.118506	0.997454
723.450805	0.996874
723.783056	0.998296
724.115259	0.997769
724.447412	0.998708
724.779518	0.998152
725.111574	0.997800
725.443582	0.997219
725.775542	0.997978
726.107453	0.998461
726.439315	0.998254
726.771129	0.998498
727.102895	0.998043
727.434612	0.998093
727.766281	0.997364
728.097901	0.997480
728.429473	0.997933
728.760996	0.997915
729.092471	0.997380
729.423897	0.998840
729.755276	0.997198
730.086606	0.997479
730.417887	0.998479
730.749120	0.998296
731.080305	0.997537
731.411442	0.997018
731.742530	0.996767
732.073570	0.997668
732.404562	0.997818
732.735506	0.997544
733.066401	0.997303
733.397249	0.997523
733.728048	0.997735
734.058798	0.998950
734.389501	0.997894
734.720156	0.997703
735.050762	0.998843
735.381320	0.998194
735.711831	0.996600
736.042293	0.997958
736.372707	0.998505
736.703073	0.996821
737.033391	0.998375
737.363661	0.999137
737.693883	0.998055
738.024056	0.997718
738.354182	0.998620
738.684260	0.998141
739.014290	0.998211
739.344272	0.997465
739.674207	0.998145
740.004093	0.997931
740.333931	0.998187
740.663722	0.998264
740.993464	0.998432
741.323159	0.997126
741.652806	0.997041
741.982405	0.997982
742.311956	0.998730
742.641460	0.997264
742.970915	0.998168
743.300323	0.997533
743.629683	0.998215
743.958996	0.998993
744.288260	0.996722
744.617477	0.998336
744.946647	0.997917
745.275768	0.998430
745.604842	0.997382
745.933869	0.998885
746.262847	0.998854
746.591778	0.997258
746.920662	0.998097
747.249498	0.998826
747.578286	1.000031
747.907027	0.998055
748.235720	0.998310
748.564365	0.998418
748.892963	0.997396
749.221514	0.998294
749.550017	0.997482
749.878473	0.997751
750.206881	0.998705
750.535242	0.997891
750.863555	0.996558
751.191821	0.998616
751.520039	0.996852
751.848210	0.996955
752.176334	0.998531
752.504411	0.997788
752.832440	0.997648
753.160421	0.998468
753.488356	0.998019
753.816243	0.997627
754.144082	0.997415
754.471875	0.998496
754.799620	0.998376
755.127318	0.997500
755.454969	0.998250
755.782572	0.998921
756.110129	0.997417
756.437638	0.998949
756.765100	0.998077
757.092515	0.997599
757.419882	0.998230
757.747203	0.998193
758.074477	0.998818
758.401703	0.997625
758.728882	0.998124
759.056014	0.997566
759.383099	0.997624
759.710138	0.997614
760.037129	0.997431
760.364073	0.998518
760.690970	0.997082
761.017820	0.997212
761.344623	0.999026
761.671379	0.998996
761.998088	0.997720
762.324751	0.997120
762.651366	0.997459
762.977935	0.997533
763.304456	0.997624
763.630931	0.995829
763.957359	0.994767
764.283740	0.996488
764.610074	0.997087
764.936362	0.996732
765.262602	0.997528
765.588796	0.997301
765.914943	0.997227
766.241044	0.997881
766.567097	0.997622
766.893104	0.998137
767.219064	0.997534
767.544978	0.997307
767.870845	0.998077
768.196665	0.998294
768.522438	0.998143
768.848165	0.998519
769.173846	0.998760
769.499479	0.998809
769.825066	0.999293
770.150607	0.999886
770.476101	0.998256
770.801548	0.998512
771.126949	1.000154
771.452303	0.999164
771.777611	0.999567
772.102872	0.998521
772.428087	0.997724
772.753256	0.999087
773.078378	0.998427
773.403453	0.998447
773.728482	0.999861
774.053465	0.998137
774.378401	0.999373
774.703291	0.999209
775.028135	0.999012
775.352932	0.997593
775.677683	0.998834
776.002388	0.998788
776.327046	0.998182
776.651658	0.998977
776.976224	0.999264
777.300743	0.998986
777.625216	0.998475
777.949643	0.999060
778.274024	0.998630
778.598359	0.999170
778.922647	0.998873
779.246889	0.998657
779.571086	0.998319
779.895236	0.998860
780.219339	0.999978
780.543397	0.997585
780.867409	0.999792
781.191374	0.998501
781.515294	0.999546
781.839167	0.999742
782.162995	0.998728
782.486776	0.997719
782.810511	0.999203
783.134201	0.999935
783.457844	0.998725
783.781441	0.998585
784.104993	0.998282
784.428498	0.998534
784.751958	0.998884
785.075372	0.999927
785.398739	0.998285
785.722061	0.998200
786.045337	0.998561
786.368568	0.998564
786.691752	0.998656
787.014891	0.998925
787.337983	0.997789
787.661030	0.998034
787.984031	0.999093
788.306987	0.999603
788.629897	0.995965
788.952760	0.998211
789.275579	0.998642
789.598351	0.998763
789.921078	0.999564
790.243759	0.998917
790.566395	0.998616
790.888984	0.998731
791.211529	0.999753
791.534027	0.998700
791.856480	0.998838
792.178888	0.998688
792.501249	0.997473
792.823566	0.999385
793.145836	0.998790
793.468062	0.999225
793.790241	0.999647
794.112375	0.998357
794.434464	0.998895
794.756507	0.998879
795.078505	0.999430
795.400457	0.999605
795.722364	0.998971
796.044226	0.998957
796.366042	0.998693
796.687812	0.998222
797.009538	0.997881
797.331218	0.999627
797.652852	0.999159
797.974442	0.996626
798.295986	0.999066
798.617484	0.997588
798.938938	0.999183
799.260346	0.997774
799.581709	0.998160
799.903026	0.999224
800.224299	0.998404
800.545526	0.997881
800.866708	0.998579
801.187845	0.998793
801.508936	0.998127
801.829983	0.999241
802.150984	0.999091
802.471940	0.998444
802.792851	0.998018
803.113717	0.999444
803.434538	0.999733
803.755314	1.000269
804.076045	0.997493
804.396731	0.998280
804.717372	0.997051
805.037967	0.999597
805.358518	0.999107
805.679024	0.998532
805.999485	0.998680
806.319901	0.999684
806.640272	0.999612
806.960598	0.999065
807.280879	0.997908
807.601115	0.999182
807.921306	0.999193
808.241453	0.997481
808.561554	0.999137
808.881611	0.999018
809.201623	0.998649
809.521590	0.999056
809.841513	0.999939
810.161390	0.997477
810.481223	0.997963
810.801011	0.999209
811.120755	0.999860
811.440453	0.998682
811.760107	0.998698
812.079716	0.999604
812.399281	0.999110
812.718801	0.998745
813.038276	0.998605
813.357707	0.999403
813.677093	0.999300
813.996434	0.998929
814.315731	0.999159
814.634983	0.999251
814.954191	0.999968
815.273354	0.998650
815.592473	0.998665
815.911547	0.999084
816.230577	0.998408
816.549562	0.998624
816.868502	0.997853
817.187399	0.999391
817.506250	1.000108
817.825058	0.997667
818.143821	0.998652
818.462539	0.998052
818.781213	0.997890
819.099843	0.998614
819.418429	0.998299
819.736970	0.998601
820.055466	0.997031
820.373919	0.996267
820.692327	0.996213
821.010691	0.996296
821.329011	0.994250
821.647286	0.992443
821.965517	0.991007
822.283704	0.989384
822.601847	0.988921
822.919945	0.988522
823.237999	0.990411
823.556010	0.991316
823.873976	0.992159
824.191897	0.993083
824.509775	0.994069
824.827609	0.994382
825.145398	0.995229
825.463144	0.994124
825.780845	0.994222
826.098502	0.994525
826.416116	0.994794
826.733685	0.993117
827.051210	0.992242
827.368692	0.992464
827.686129	0.993409
828.003522	0.995013
828.320872	0.996280
828.638177	0.996522
828.955439	0.997443
829.272656	0.996438
829.589830	0.997011
829.906960	0.998085
830.224046	0.997768
830.541088	0.997490
830.858086	0.997652
831.175041	0.998871
831.491952	0.997863
831.808819	0.997970
832.125642	0.998014
832.442421	0.998202
832.759157	0.998804
833.075849	0.996507
833.392497	0.996781
833.709101	0.994586
834.025662	0.995011
834.342179	0.996001
834.658653	0.997299
834.975083	0.997500
835.291469	0.996442
835.607811	0.996471
835.924110	0.997311
836.240366	0.998543
836.556578	0.998727
836.872746	0.998879
837.188871	0.998952
837.504952	0.998343
837.820990	0.998399
838.136984	0.998292
838.452935	0.998829
838.768842	0.998671
839.084706	0.999667
839.400526	0.998689
839.716303	0.997313
840.032037	0.997986
840.347727	0.997313
840.663373	0.998360
840.978977	0.998445
841.294537	0.998385
841.610054	0.998648
841.925527	0.998975
842.240957	0.999092
842.556344	0.999030
842.871687	0.999137
843.186987	0.998367
843.502244	1.000128
843.817458	0.998531
844.132629	0.998680
844.447756	0.999045
844.762840	0.999310
845.077881	1.000323
845.392879	0.998860
845.707833	0.998312
846.022745	0.999062
846.337613	0.999280
846.652438	0.998915
846.967221	0.998678
847.281960	0.999145
847.596656	0.998920
847.911309	0.998995
848.225919	0.997316
848.540485	0.999211
848.855009	1.001035
849.169490	0.998458
849.483928	0.999189
849.798323	0.998858
850.112675	1.000208
850.426984	0.999307
850.741251	0.999537
851.055474	0.999968
851.369654	1.000354
851.683792	0.998541
851.997887	0.999245
852.311938	0.999843
852.625947	0.998511
852.939914	0.998590
853.253837	0.999218
853.567718	0.999580
853.881555	1.000298
854.195350	1.000733
854.509103	1.000675
854.822812	0.999999
855.136479	0.999315
855.450103	1.000413
855.763685	0.999827
856.077224	0.999919
856.390720	0.999414
856.704173	1.000234
857.017584	1.000615
857.330953	1.000501
857.644278	0.999388
857.957561	0.999049
858.270802	0.999669
858.584000	0.999321
858.897155	0.998402
859.210268	0.998746
859.523339	1.000065
859.836367	0.999154
860.149352	0.998328
860.462295	0.999228
860.775195	0.999564
861.088054	0.998474
861.400869	0.998680
861.713642	0.998585
862.026373	0.999548
862.339062	0.999718
862.651708	0.998704
862.964312	0.999241
863.276873	0.999918
863.589392	0.999572
863.901869	0.998415
864.214303	1.000535
864.526696	0.999549
864.839045	0.999231
865.151353	0.999687
865.463619	0.998467
865.775842	0.999404
866.088023	1.000188
866.400162	0.999370
866.712258	1.000213
867.024313	0.999866
867.336325	0.999858
867.648296	0.999452
867.960224	0.999465
868.272110	0.999311
868.583954	0.999490
868.895755	1.000975
869.207515	0.999054
869.519233	0.999736
869.830909	0.998128
870.142542	0.998817
870.454134	0.998541
870.765684	0.998426
871.077191	1.000869
871.388657	0.999206
871.700081	1.000186
872.011463	1.000190
872.322803	0.999038
872.634101	0.999192
872.945357	0.999085
873.256571	0.997435
873.567744	0.998765
873.878874	0.999334
874.189963	0.998783
874.501010	1.000775
874.812015	0.998940
875.122979	0.999546
875.433900	0.998878
875.744780	0.998793
876.055618	0.998075
876.366415	0.999418
876.677169	0.998833
876.987882	0.998023
877.298554	0.999855
877.609183	0.998862
877.919771	0.999167
878.230317	0.999503
878.540822	0.998748
878.851285	0.998046
879.161707	0.998713
879.472087	0.998747
879.782425	0.996867
880.092722	0.996210
880.402977	0.994619
880.713191	0.992363
881.023363	0.990452
881.333494	0.988927
881.643583	0.989857
881.953631	0.990872
882.263637	0.988843
882.573602	0.989998
882.883526	0.990348
883.193408	0.992364
883.503248	0.992724
883.813048	0.992795
884.122806	0.994660
884.432522	0.994949
884.742197	0.996944
885.051831	0.995541
885.361424	0.996439
885.670975	0.997363
885.980485	0.997307
886.289954	0.996685
886.599382	0.998453
886.908768	0.998701
887.218113	0.996826
887.527417	0.997250
887.836680	0.998744
888.145901	0.999011
888.455082	0.999854
888.764221	0.999148
889.073319	0.998172
889.382376	0.999000
889.691392	0.998354
890.000366	0.998657
890.309300	0.998942
890.618193	0.998840
890.927044	0.998374
891.235855	0.999414
891.544625	0.999147
891.853353	0.998991
892.162041	0.998520
892.470687	0.999408
892.779293	0.997584
893.087858	0.997651
893.396381	0.998032
893.704864	0.996806
894.013306	0.996747
894.321707	0.995904
894.630068	0.995256
894.938387	0.993860
895.246665	0.994678
895.554903	0.993992
895.863100	0.995750
896.171256	0.995701
896.479371	0.997280
896.787446	0.997407
897.095480	0.997247
897.403473	0.997924
897.711425	0.998299
898.019336	0.997861
898.327207	0.998218
898.635038	0.997738
898.942827	0.998706
899.250576	0.997971
899.558284	0.999123
899.865952	0.998626
900.173579	0.998883
900.481165	0.999000
900.788711	0.997492
901.096216	0.998375
901.403681	0.998440
901.711105	0.998403
902.018489	0.998293
902.325832	0.999247
902.633135	0.998589
902.940397	0.998714
903.247619	0.998070
903.554800	0.997485
903.861941	0.995903
904.169041	0.994809
904.476101	0.993902
904.783121	0.993093
905.090100	0.994564
905.397039	0.994395
905.703938	0.995133
906.010796	0.996558
906.317614	0.997597
906.624391	0.998205
906.931129	0.998110
907.237826	0.998190
907.544483	0.999180
907.851099	0.998658
908.157675	0.997398
908.464211	0.998302
908.770707	0.998645
909.077163	0.999480
909.383578	0.998736
909.689954	0.998088
909.996289	0.999332
910.302584	0.999613
910.608839	1.000781
910.915054	0.999710
911.221229	0.999345
911.527363	0.998183
911.833458	0.999464
912.139513	0.999008
912.445527	1.000226
912.751502	0.999145
913.057436	0.997999
913.363331	0.999016
913.669186	0.998260
913.975000	0.999105
914.280775	0.998966
914.586510	0.997626
914.892205	0.997307
915.197859	0.996373
915.503475	0.995221
915.809050	0.994408
916.114585	0.991960
916.420081	0.993574
916.725536	0.994894
917.030952	0.994470
917.336328	0.995197
917.641665	0.994518
917.946961	0.994896
918.252218	0.996249
918.557435	0.996298
918.862612	0.997082
919.167750	0.997355
919.472848	0.998444
919.777906	0.998464
920.082925	0.998723
920.387904	0.999762
920.692843	0.998507
920.997743	0.998217
921.302603	0.998375
921.607423	0.998481
921.912204	0.998711
922.216946	0.999600
922.521647	0.998726
922.826310	0.999007
923.130932	0.998052
923.435516	0.999600
923.740059	0.998260
924.044564	0.998172
924.349028	0.998018
924.653454	0.999551
924.957840	0.998749
925.262186	0.999576
925.566493	0.999285
925.870761	0.999484
926.174989	0.998870
926.479178	1.000111
926.783328	0.999004
927.087438	1.000024
927.391509	0.999674
927.695541	0.999771
927.999533	0.999184
928.303486	1.000061
928.607400	1.000960
928.911275	1.000012
929.215110	1.000059
929.518906	0.999485
929.822663	1.000494
930.126381	1.001665
930.430060	1.000037
930.733699	1.001418
931.037299	1.000179
931.340861	1.000329
931.644383	0.999159
931.947866	1.000105
932.251309	1.000089
932.554714	0.999537
932.858080	1.000777
933.161407	0.999380
933.464694	1.000446
933.767943	0.999122
934.071153	1.000392
934.374323	1.000512
934.677455	1.000201
934.980548	0.999576
935.283602	1.000568
935.586617	1.000608
935.889593	1.000812
936.192530	1.000806
936.495428	1.000398
936.798287	0.999386
937.101108	1.000047
937.403890	0.999963
937.706632	1.000337
938.009336	0.999762
938.312002	0.999220
938.614628	0.998674
938.917216	0.997890
939.219765	0.998706
939.522275	1.000538
939.824747	0.999318
940.127179	0.999520
940.429573	0.999866
940.731929	0.998457
941.034246	0.999238
941.336524	0.998531
941.638763	0.998757
941.940964	1.000148
942.243126	0.999299
942.545250	0.999652
942.847335	0.999468
943.149381	1.000241
943.451389	0.998897
943.753359	1.000420
944.055290	1.000350
944.357182	0.999952
944.659036	0.999487
944.960851	0.999885
945.262628	0.999062
945.564367	0.999801
945.866067	1.000366
946.167729	0.999989
946.469352	0.999348
946.770937	0.997605
947.072484	1.000541
947.373992	1.000242
947.675462	1.000304
947.976893	0.997790
948.278286	1.001183
948.579641	1.001538
948.880958	0.999613
949.182236	0.999290
949.483476	0.999978
949.784678	0.999683
950.085841	0.999397
950.386967	0.998963
950.688054	0.999575
950.989103	0.998646
951.290114	0.999476
951.591087	0.999062
951.892021	1.000148
952.192917	0.999352
952.493776	0.999171
952.794596	0.999988
953.095378	0.999700
953.396122	0.999956
953.696828	0.999459
953.997496	1.000522
954.298126	1.000489
954.598718	0.999722
954.899272	0.999961
955.199788	0.999713
955.500266	1.000799
955.800706	1.000190
956.101108	0.999787
956.401472	1.000201
956.701798	1.000184
957.002087	1.000150
957.302337	0.999080
957.602550	0.999621
957.902724	0.999165
958.202861	0.999166
958.502960	0.999909
958.803022	1.000435
959.103045	1.001305
959.403031	1.000492
959.702979	1.000823
960.002889	0.999378
960.302762	1.000021
960.602596	1.000418
960.902393	0.999719
961.202153	0.999959
961.501875	1.000431
961.801559	1.000192
962.101205	1.000036
962.400814	1.000936
962.700385	1.000213
962.999918	1.000114
963.299414	0.999655
963.598873	0.999982
963.898293	1.000522
964.197677	0.999785
964.497022	1.000626
964.796331	0.999637
965.095601	1.000645
965.394835	0.999866
965.694030	1.002041
965.993189	0.999075
966.292309	1.000389
966.591393	0.999308
966.890439	1.000963
967.189447	1.000691
967.488419	1.000566
967.787353	0.999817
968.086249	1.001508
968.385108	1.000153
968.683930	1.001252
968.982714	1.000854
969.281462	1.000359
969.580172	0.999852
969.878844	1.000603
970.177480	1.000588
970.476078	1.000397
970.774639	1.000152
971.073162	1.001198
971.371649	0.999470
971.670098	1.000400
971.968510	1.000524
972.266885	0.999659
972.565223	1.000362
972.863524	0.998404
973.161788	1.000396
973.460014	1.000593
973.758204	1.000061
974.056356	1.000442
974.354471	0.999947
974.652550	1.000160
974.950591	0.999694
975.248595	0.998387
975.546563	1.001456
975.844493	1.001088
976.142386	0.999117
976.440243	1.000020
976.738062	0.999371
977.035845	0.999410
977.333590	0.999844
977.631299	0.999199
977.928971	1.000499
978.226606	0.998832
978.524204	0.999377
978.821765	1.000320
979.119290	1.001525
979.416777	0.999641
979.714228	1.000213
980.011642	1.000744
980.309020	1.000188
980.606360	0.999775
980.903664	1.000739
981.200931	0.997994
981.498162	1.000180
981.795356	1.000137
982.092513	0.999776
982.389633	1.000730
982.686717	0.999351
982.983764	1.000096
983.280775	1.000873
983.577749	1.000797
983.874686	0.998203
984.171587	0.999376
984.468451	0.998484
984.765279	1.000357
985.062070	1.000390
985.358824	0.999693
985.655543	1.000034
985.952224	1.000590
986.248869	0.999247
986.545478	1.001863
986.842050	0.999057
987.138586	0.998627
987.435086	1.000257
987.731549	1.002333
988.027975	1.000710
988.324366	0.999266
988.620719	1.001750
988.917037	0.999262
989.213318	1.000190
989.509563	0.999537
989.805772	1.000807
990.101944	1.000678
990.398080	1.000008
990.694180	1.000340
990.990244	0.999837
991.286271	0.999800
991.582262	1.000948
991.878217	0.998866
992.174136	1.000667
992.470019	0.999969
992.765865	1.001704
993.061676	0.999798
993.357450	1.000798
993.653188	1.001265
993.948890	0.999474
994.244556	1.000005
994.540186	1.001357
994.835780	0.999909
995.131337	1.000958
995.426859	0.999953
995.722345	1.000094
996.017795	0.999473
996.313208	0.999991
996.608586	0.999142
996.903928	1.000732
997.199234	1.000014
997.494504	1.000321
997.789738	0.998982
998.084936	0.999562
998.380099	0.999519
998.675225	1.000968
998.970316	0.999985
999.265371	1.000965
999.560390	1.000725
999.855373	1.000447
1000.150320	1.000947
1000.445232	1.000792
1000.740108	0.999159
1001.034948	1.000230
1001.329752	1.000567
1001.624521	1.000028
1001.919254	0.999296
1002.213951	1.000782
1002.508613	0.999635
1002.803239	0.999448
1003.097829	1.000482
1003.392384	1.000092
1003.686903	0.999724
1003.981386	0.999444
1004.275834	1.001916
1004.570246	0.999613
1004.864623	0.999192
1005.158964	0.999687
1005.453270	1.000002
1005.747540	0.998887
1006.041775	1.001405
1006.335974	1.000378
1006.630138	1.000729
1006.924266	0.999643
1007.218359	0.998880
1007.512416	1.001488
1007.806438	1.000461
1008.100425	0.999579
1008.394376	1.000135
1008.688292	1.000269
1008.982172	0.998973
1009.276017	1.000911
1009.569827	1.000831
1009.863602	0.999272
1010.157341	1.000553
1010.451045	1.000024
1010.744714	1.001666
1011.038347	1.000849
1011.331945	1.000251
1011.625508	1.000382
1011.919036	0.999738
1012.212528	1.000669
1012.505986	1.000034
1012.799408	1.000050
1013.092795	1.000476
1013.386147	1.000288
1013.679464	1.000602
1013.972745	0.999489
1014.265992	1.000942
1014.559204	0.999669
1014.852380	1.001318
1015.145521	1.000676
1015.438628	1.000136
1015.731699	1.000152
1016.024736	0.999868
1016.317737	0.999382
1016.610703	1.001310
1016.903635	1.000094
1017.196531	1.000734
1017.489393	1.000350
1017.782219	0.999324
1018.075011	0.998548
1018.367768	0.998973
1018.660490	1.000967
1018.953177	1.000967
1019.245829	1.000967
