Dividing Wavelength (nm)	Counts (n)	Blue Motor Position (mm): 3.900000	Red Motor Position (mm): 0.000000	
326.493990	1.005268
326.888308	1.005268
327.282561	1.005268
327.676750	1.005719
328.070874	1.006543
328.464933	1.006856
328.858929	1.007900
329.252859	1.005913
329.646726	1.005603
330.040528	1.007617
330.434265	1.006130
330.827938	1.005558
331.221547	1.005346
331.615091	1.006103
332.008571	1.006505
332.401986	1.004644
332.795338	1.004917
333.188625	1.005838
333.581847	1.006221
333.975006	1.005409
334.368100	1.006526
334.761129	1.005041
335.154095	1.006111
335.546996	1.004334
335.939833	0.997782
336.332606	0.998058
336.725315	0.998392
337.117960	0.999521
337.510540	0.998984
337.903056	0.999659
338.295508	0.999823
338.687896	1.000882
339.080220	0.998603
339.472480	0.998680
339.864676	0.999622
340.256807	0.998189
340.648875	1.000292
341.040879	0.999068
341.432818	0.998861
341.824694	0.997207
342.216506	0.999503
342.608253	0.997828
342.999937	0.998153
343.391557	0.999041
343.783113	1.000213
344.174605	0.999259
344.566033	0.998256
344.957397	0.999780
345.348697	0.998895
345.739934	0.999083
346.131106	0.997761
346.522215	0.998636
346.913260	0.998604
347.304241	0.997024
347.695159	0.999096
348.086012	0.998245
348.476802	0.998489
348.867528	0.997907
349.258191	0.998497
349.648789	0.999737
350.039324	0.999302
350.429796	0.999316
350.820203	0.996457
351.210548	0.998826
351.600828	0.998473
351.991045	0.998261
352.381198	0.999152
352.771288	0.997603
353.161314	0.999362
353.551276	0.997831
353.941175	0.996795
354.331010	0.998983
354.720782	0.998159
355.110490	0.998937
355.500135	0.999342
355.889717	0.997099
356.279235	0.997844
356.668689	0.999580
357.058080	0.998109
357.447408	0.997940
357.836672	0.997566
358.225873	0.997794
358.615010	0.998614
359.004084	0.997335
359.393095	0.997033
359.782043	0.996737
360.170927	0.998199
360.559748	0.998602
360.948505	0.997350
361.337199	0.997898
361.725830	0.997647
362.114398	0.997949
362.502903	0.996925
362.891344	0.996664
363.279722	0.997606
363.668037	0.996774
364.056289	0.996731
364.444478	0.998842
364.832603	0.997310
365.220665	0.996787
365.608665	0.996543
365.996601	0.997606
366.384474	0.995780
366.772284	0.996837
367.160031	0.994429
367.547715	0.995108
367.935336	0.995626
368.322893	0.994182
368.710388	0.992430
369.097820	0.991134
369.485189	0.988153
369.872495	0.986654
370.259738	0.984842
370.646918	0.981803
371.034035	0.978601
371.421090	0.976781
371.808081	0.970559
372.195010	0.968790
372.581875	0.963763
372.968678	0.959123
373.355418	0.956105
373.742096	0.947555
374.128710	0.944343
374.515262	0.939123
374.901751	0.933997
375.288177	0.928324
375.674540	0.922381
376.060841	0.914736
376.447079	0.908942
376.833254	0.902769
377.219367	0.897400
377.605417	0.886076
377.991404	0.882982
378.377329	0.877618
378.763191	0.869606
379.148991	0.861901
379.534727	0.853691
379.920402	0.845433
380.306013	0.841948
380.691563	0.828561
381.077049	0.823494
381.462474	0.817910
381.847835	0.807504
382.233134	0.802435
382.618371	0.802692
383.003545	0.785411
383.388657	0.782650
383.773706	0.775671
384.158693	0.771348
384.543618	0.766681
384.928480	0.756883
385.313280	0.747951
385.698017	0.746624
386.082692	0.735798
386.467305	0.734117
386.851856	0.728056
387.236344	0.723761
387.620770	0.717661
388.005133	0.711071
388.389435	0.706044
388.773674	0.703428
389.157851	0.695247
389.541965	0.692959
389.926018	0.700105
390.310008	0.686438
390.693936	0.683980
391.077802	0.675401
391.461606	0.676889
391.845348	0.666132
392.229027	0.665725
392.612645	0.663358
392.996200	0.650618
393.379694	0.643282
393.763125	0.634451
394.146494	0.638800
394.529801	0.629543
394.913047	0.621475
395.296230	0.627368
395.679351	0.618886
396.062410	0.615001
396.445408	0.618255
396.828343	0.613146
397.211217	0.608919
397.594028	0.620998
397.976778	0.610448
398.359466	0.607267
398.742092	0.603206
399.124656	0.614493
399.507158	0.603271
399.889598	0.600355
400.271977	0.591727
400.654294	0.594455
401.036549	0.594650
401.418742	0.598279
401.800874	0.584945
402.182944	0.581627
402.564952	0.573517
402.946898	0.575375
403.328783	0.576184
403.710606	0.586551
404.092367	0.561857
404.474067	0.567282
404.855705	0.565516
405.237282	0.575444
405.618797	0.561479
406.000250	0.556956
406.381642	0.546399
406.762972	0.551368
407.144240	0.550216
407.525447	0.551026
407.906593	0.542793
408.287677	0.539312
408.668700	0.546608
409.049661	0.541282
409.430560	0.535780
409.811399	0.544718
410.192176	0.526447
410.572891	0.533422
410.953545	0.521092
411.334138	0.535264
411.714669	0.527266
412.095139	0.539319
412.475547	0.524063
412.855894	0.525759
413.236180	0.524637
413.616405	0.530083
413.996568	0.520327
414.376670	0.526470
414.756711	0.531201
415.136691	0.528202
415.516609	0.519813
415.896466	0.516192
416.276262	0.511517
416.655997	0.513621
417.035670	0.495207
417.415283	0.486770
417.794834	0.491969
418.174324	0.497508
418.553753	0.506614
418.933121	0.488865
419.312428	0.482888
419.691674	0.488478
420.070859	0.477024
420.449983	0.484392
420.829045	0.473477
421.208047	0.482693
421.586988	0.475317
421.965867	0.475395
422.344686	0.462830
422.723444	0.476805
423.102141	0.492977
423.480777	0.465368
423.859352	0.486633
424.237866	0.463745
424.616319	0.464904
424.994712	0.455855
425.373044	0.465719
425.751314	0.453777
426.129524	0.470322
426.507673	0.453904
426.885762	0.447099
427.263789	0.452770
427.641756	0.462562
428.019662	0.452626
428.397508	0.452225
428.775292	0.456390
429.153016	0.448221
429.530679	0.454299
429.908282	0.448417
430.285824	0.457949
430.663305	0.436229
431.040726	0.457179
431.418086	0.457253
431.795385	0.449232
432.172624	0.448384
432.549802	0.448076
432.926920	0.447473
433.303977	0.446656
433.680974	0.443975
434.057910	0.442604
434.434786	0.441926
434.811601	0.444770
435.188355	0.427047
435.565050	0.436590
435.941683	0.437524
436.318257	0.421609
436.694770	0.422260
437.071222	0.421014
437.447614	0.424842
437.823946	0.431791
438.200218	0.420847
438.576429	0.430561
438.952580	0.423496
439.328670	0.419717
439.704700	0.426357
440.080670	0.428149
440.456580	0.409131
440.832429	0.417441
441.208218	0.427811
441.583947	0.417386
441.959616	0.416558
442.335224	0.422606
442.710773	0.413228
443.086261	0.411189
443.461689	0.424879
443.837057	0.414574
444.212365	0.404383
444.587612	0.411630
444.962800	0.401691
445.337927	0.403093
445.712995	0.428942
446.088002	0.390861
446.462949	0.401322
446.837837	0.406418
447.212664	0.394636
447.587431	0.386579
447.962139	0.357065
448.336786	0.315937
448.711374	0.326386
449.085901	0.370919
449.460369	0.375465
449.834776	0.378541
450.209124	0.357819
450.583412	0.350387
450.957640	0.343683
451.331808	0.355237
451.705917	0.378238
452.079965	0.383512
452.453954	0.370964
452.827883	0.378239
453.201752	0.372719
453.575562	0.384152
453.949311	0.372143
454.323001	0.378472
454.696632	0.374342
455.070202	0.366851
455.443713	0.359034
455.817164	0.353638
456.190556	0.349396
456.563888	0.346407
456.937160	0.343880
457.310373	0.360959
457.683526	0.359943
458.056619	0.365557
458.429653	0.366059
458.802628	0.369813
459.175542	0.364034
459.548398	0.346521
459.921194	0.339255
460.293930	0.339276
460.666607	0.316730
461.039224	0.304961
461.411782	0.300463
461.784280	0.299771
462.156719	0.303975
462.529099	0.308253
462.901419	0.324542
463.273680	0.328612
463.645882	0.328261
464.018024	0.334274
464.390106	0.327312
464.762130	0.311270
465.134094	0.294022
465.505999	0.263510
465.877845	0.233462
466.249631	0.220571
466.621358	0.227816
466.993026	0.241790
467.364634	0.248236
467.736184	0.257084
468.107674	0.265984
468.479105	0.264698
468.850477	0.271475
469.221790	0.278858
469.593043	0.288758
469.964238	0.293656
470.335373	0.293159
470.706449	0.291136
471.077467	0.292006
471.448425	0.253743
471.819324	0.229331
472.190164	0.228694
472.560945	0.257518
472.931667	0.280130
473.302330	0.284434
473.672934	0.296442
474.043479	0.283974
474.413965	0.286099
474.784393	0.289468
475.154761	0.284458
475.525070	0.281905
475.895321	0.287541
476.265513	0.281273
476.635645	0.277129
477.005719	0.276582
477.375734	0.273443
477.745691	0.266328
478.115588	0.262921
478.485427	0.256417
478.855207	0.243389
479.224928	0.225737
479.594591	0.213622
479.964194	0.217268
480.333739	0.218336
480.703226	0.220087
481.072653	0.218034
481.442022	0.213987
481.811333	0.210632
482.180584	0.214064
482.549777	0.219573
482.918912	0.222575
483.287988	0.222412
483.657005	0.221906
484.025964	0.228643
484.394864	0.225751
484.763706	0.226536
485.132489	0.231554
485.501213	0.232219
485.869879	0.230597
486.238487	0.233751
486.607036	0.231679
486.975527	0.236488
487.343959	0.232074
487.712333	0.231323
488.080648	0.232562
488.448905	0.231867
488.817104	0.233416
489.185244	0.227584
489.553326	0.224507
489.921350	0.214307
490.289315	0.196520
490.657222	0.191670
491.025070	0.193085
491.392861	0.194908
491.760593	0.200623
492.128267	0.206292
492.495883	0.211905
492.863440	0.218610
493.230939	0.224758
493.598380	0.226295
493.965763	0.228414
494.333088	0.230483
494.700354	0.232002
495.067563	0.231072
495.434713	0.234496
495.801805	0.232048
496.168839	0.233855
496.535815	0.235288
496.902733	0.235122
497.269593	0.236595
497.636395	0.234417
498.003139	0.234491
498.369825	0.237614
498.736453	0.234159
499.103023	0.235995
499.469535	0.234996
499.835989	0.235099
500.202385	0.235881
500.568723	0.239287
500.935003	0.234543
501.301226	0.238716
501.667390	0.232920
502.033497	0.230995
502.399546	0.234111
502.765537	0.235921
503.131470	0.234426
503.497345	0.230605
503.863163	0.239281
504.228923	0.232455
504.594625	0.231087
504.960269	0.236404
505.325856	0.231824
505.691385	0.236193
506.056856	0.232783
506.422270	0.232197
506.787625	0.234693
507.152924	0.232287
507.518164	0.232865
507.883347	0.234139
508.248472	0.236246
508.613540	0.230867
508.978550	0.233601
509.343503	0.234108
509.708398	0.231729
510.073236	0.229264
510.438016	0.229238
510.802738	0.230019
511.167403	0.228874
511.532010	0.231327
511.896561	0.226468
512.261053	0.225157
512.625488	0.227297
512.989866	0.227615
513.354186	0.227873
513.718449	0.230029
514.082655	0.226267
514.446803	0.228454
514.810894	0.226023
515.174927	0.228802
515.538904	0.228370
515.902822	0.225125
516.266684	0.227732
516.630488	0.228517
516.994235	0.227730
517.357925	0.226249
517.721558	0.224527
518.085133	0.224055
518.448651	0.223952
518.812112	0.226545
519.175516	0.225965
519.538863	0.223683
519.902152	0.225567
520.265385	0.222080
520.628560	0.224032
520.991678	0.224322
521.354739	0.223375
521.717743	0.224394
522.080690	0.224813
522.443580	0.221943
522.806413	0.222902
523.169189	0.222179
523.531908	0.221147
523.894569	0.224874
524.257174	0.224641
524.619722	0.222484
524.982213	0.223506
525.344647	0.222526
525.707025	0.222991
526.069345	0.221459
526.431608	0.223224
526.793815	0.221157
527.155964	0.225428
527.518057	0.224273
527.880093	0.225264
528.242072	0.223690
528.603995	0.225897
528.965860	0.227337
529.327669	0.226512
529.689421	0.227342
530.051117	0.228160
530.412755	0.225596
530.774337	0.228201
531.135862	0.228570
531.497331	0.227950
531.858743	0.230927
532.220098	0.227358
532.581396	0.229782
532.942638	0.230614
533.303824	0.231588
533.664953	0.231217
534.026025	0.232969
534.387040	0.230901
534.747999	0.230809
535.108902	0.229350
535.469748	0.234977
535.830537	0.232384
536.191270	0.232832
536.551947	0.232215
536.912567	0.232374
537.273131	0.234218
537.633638	0.234604
537.994089	0.234774
538.354483	0.235925
538.714821	0.232702
539.075103	0.232955
539.435328	0.233331
539.795497	0.237282
540.155609	0.233612
540.515665	0.231903
540.875665	0.237552
541.235609	0.236081
541.595496	0.235953
541.955328	0.232739
542.315102	0.235157
542.674821	0.236364
543.034483	0.236628
543.394090	0.236208
543.753640	0.238334
544.113134	0.233176
544.472571	0.236360
544.831953	0.233268
545.191278	0.237522
545.550548	0.236564
545.909761	0.233501
546.268918	0.234050
546.628019	0.232594
546.987064	0.235547
547.346053	0.237019
547.704986	0.234888
548.063863	0.235082
548.422684	0.235455
548.781449	0.237380
549.140158	0.234786
549.498811	0.237566
549.857408	0.240842
550.215949	0.235544
550.574434	0.238564
550.932864	0.236698
551.291237	0.235142
551.649555	0.236792
552.007817	0.236368
552.366022	0.237352
552.724173	0.237643
553.082267	0.237665
553.440305	0.234916
553.798288	0.238831
554.156215	0.235684
554.514086	0.236419
554.871902	0.239464
555.229661	0.238623
555.587365	0.239338
555.945014	0.241982
556.302606	0.238502
556.660143	0.241170
557.017625	0.237862
557.375050	0.240215
557.732421	0.237179
558.089735	0.239037
558.446994	0.239175
558.804197	0.238345
559.161345	0.237976
559.518437	0.241450
559.875474	0.239548
560.232455	0.238996
560.589381	0.240173
560.946251	0.240177
561.303065	0.237747
561.659825	0.238948
562.016528	0.240619
562.373177	0.243449
562.729770	0.240785
563.086307	0.242814
563.442789	0.240866
563.799216	0.243199
564.155587	0.242531
564.511904	0.243581
564.868164	0.243143
565.224370	0.243335
565.580520	0.245033
565.936615	0.244994
566.292654	0.248066
566.648638	0.245379
567.004567	0.245850
567.360441	0.246202
567.716260	0.248361
568.072023	0.245811
568.427732	0.247035
568.783385	0.249213
569.138982	0.247413
569.494525	0.247080
569.850013	0.249997
570.205445	0.248429
570.560823	0.250744
570.916145	0.253082
571.271412	0.251251
571.626625	0.252995
571.981782	0.253211
572.336884	0.254437
572.691931	0.253820
573.046923	0.255214
573.401860	0.256510
573.756743	0.258018
574.111570	0.257060
574.466342	0.257729
574.821059	0.256770
575.175722	0.259448
575.530330	0.259135
575.884882	0.259403
576.239380	0.261298
576.593823	0.261959
576.948211	0.261579
577.302544	0.264811
577.656823	0.264306
578.011047	0.264217
578.365216	0.265329
578.719330	0.266942
579.073389	0.266420
579.427394	0.267738
579.781344	0.268916
580.135239	0.270295
580.489080	0.270110
580.842866	0.273265
581.196597	0.272579
581.550273	0.271472
581.903895	0.272599
582.257463	0.270690
582.610975	0.273916
582.964434	0.273254
583.317837	0.275688
583.671186	0.275769
584.024481	0.276238
584.377721	0.278696
584.730906	0.279196
585.084037	0.279130
585.437113	0.280698
585.790135	0.280085
586.143103	0.283005
586.496016	0.283907
586.848874	0.281538
587.201679	0.282348
587.554428	0.285546
587.907124	0.284447
588.259765	0.285150
588.612352	0.286064
588.964884	0.289759
589.317362	0.289046
589.669786	0.288811
590.022155	0.287197
590.374470	0.286871
590.726731	0.288750
591.078937	0.294105
591.431090	0.290062
591.783188	0.294370
592.135232	0.294701
592.487222	0.294578
592.839157	0.293019
593.191038	0.295001
593.542866	0.296916
593.894639	0.300219
594.246358	0.298579
594.598022	0.298048
594.949633	0.301591
595.301190	0.302573
595.652692	0.301458
596.004141	0.297583
596.355535	0.305588
596.706876	0.306220
597.058162	0.308865
597.409395	0.305896
597.760573	0.303488
598.111698	0.306863
598.462768	0.307571
598.813785	0.308295
599.164748	0.309818
599.515657	0.310554
599.866511	0.313971
600.217312	0.308972
600.568060	0.314353
600.918753	0.310454
601.269392	0.311594
601.619978	0.314705
601.970510	0.312294
602.320988	0.312590
602.671412	0.310425
603.021783	0.312929
603.372100	0.313978
603.722363	0.313996
604.072572	0.314803
604.422728	0.314482
604.772830	0.316593
605.122878	0.316229
605.472872	0.316890
605.822813	0.315327
606.172701	0.317684
606.522534	0.315088
606.872314	0.315615
607.222041	0.316408
607.571714	0.313842
607.921333	0.315735
608.270899	0.315368
608.620411	0.312172
608.969870	0.316034
609.319276	0.316229
609.668627	0.316120
610.017926	0.314968
610.367171	0.313079
610.716362	0.314156
611.065500	0.313537
611.414585	0.312740
611.763616	0.312993
612.112594	0.313935
612.461518	0.313177
612.810389	0.310819
613.159207	0.313133
613.507971	0.314965
613.856682	0.310676
614.205340	0.312089
614.553945	0.309488
614.902496	0.312845
615.250994	0.310906
615.599439	0.311603
615.947830	0.311295
616.296169	0.312121
616.644454	0.312030
616.992686	0.311656
617.340864	0.309659
617.688990	0.313181
618.037063	0.309982
618.385082	0.311509
618.733048	0.308492
619.080961	0.310445
619.428821	0.310259
619.776628	0.309650
620.124382	0.312567
620.472083	0.312519
620.819731	0.312037
621.167326	0.315346
621.514868	0.315506
621.862357	0.319598
622.209793	0.318868
622.557176	0.321623
622.904506	0.322514
623.251783	0.324997
623.599007	0.327394
623.946179	0.326585
624.293297	0.328711
624.640363	0.332558
624.987376	0.333261
625.334336	0.335522
625.681243	0.337807
626.028097	0.338533
626.374899	0.339421
626.721647	0.339895
627.068343	0.342668
627.414987	0.344152
627.761577	0.346257
628.108115	0.344430
628.454600	0.349838
628.801032	0.347392
629.147412	0.349439
629.493739	0.349736
629.840014	0.352320
630.186236	0.350148
630.532405	0.355737
630.878521	0.352889
631.224585	0.355311
631.570597	0.358703
631.916556	0.357611
632.262462	0.356916
632.608316	0.359587
632.954117	0.360481
633.299866	0.361405
633.645562	0.361634
633.991206	0.365999
634.336797	0.368811
634.682336	0.371393
635.027823	0.372657
635.373257	0.373090
635.718639	0.377349
636.063968	0.376334
636.409245	0.381786
636.754470	0.382655
637.099642	0.384681
637.444762	0.388422
637.789829	0.387524
638.134845	0.391059
638.479808	0.391934
638.824719	0.391543
639.169577	0.396339
639.514383	0.394975
639.859137	0.399567
640.203839	0.398968
640.548489	0.399532
640.893086	0.400621
641.237632	0.402545
641.582125	0.400754
641.926566	0.403077
642.270955	0.402050
642.615292	0.402333
642.959576	0.401714
643.303809	0.402660
643.647990	0.402287
643.992118	0.402805
644.336195	0.406005
644.680219	0.404652
645.024192	0.405437
645.368112	0.398797
645.711981	0.398153
646.055797	0.393173
646.399562	0.395236
646.743274	0.387972
647.086935	0.384775
647.430544	0.385157
647.774101	0.383907
648.117606	0.383575
648.461059	0.384575
648.804460	0.386211
649.147810	0.391765
649.491108	0.393337
649.834354	0.395084
650.177548	0.400128
650.520690	0.405170
650.863781	0.406584
651.206820	0.406351
651.549807	0.410745
651.892742	0.415362
652.235626	0.414388
652.578458	0.415350
652.921238	0.422117
653.263967	0.419517
653.606644	0.422920
653.949269	0.423369
654.291843	0.426717
654.634365	0.424175
654.976836	0.426590
655.319255	0.427296
655.661622	0.429182
656.003938	0.428977
656.346203	0.431566
656.688416	0.429769
657.030577	0.432603
657.372687	0.434890
657.714746	0.435337
658.056753	0.432388
658.398708	0.436507
658.740612	0.438255
659.082465	0.433740
659.424266	0.434881
659.766016	0.433920
660.107715	0.437147
660.449362	0.435732
660.790958	0.436019
661.132503	0.437042
661.473996	0.434023
661.815438	0.435415
662.156829	0.435655
662.498168	0.436719
662.839456	0.437502
663.180693	0.434841
663.521879	0.435076
663.863013	0.436006
664.204097	0.434409
664.545129	0.431118
664.886110	0.431655
665.227040	0.429701
665.567918	0.432111
665.908746	0.429663
666.249522	0.429629
666.590248	0.430713
666.930922	0.428241
667.271545	0.427362
667.612118	0.427538
667.952639	0.429078
668.293109	0.427559
668.633528	0.430658
668.973896	0.430404
669.314213	0.431220
669.654480	0.432298
669.994695	0.432815
670.334859	0.433308
670.674973	0.434412
671.015035	0.433922
671.355047	0.434400
671.695008	0.435196
672.034918	0.436716
672.374777	0.436463
672.714585	0.437398
673.054342	0.437603
673.394049	0.437220
673.733705	0.435208
674.073310	0.436413
674.412864	0.439290
674.752368	0.439422
675.091820	0.439672
675.431223	0.444478
675.770574	0.444223
676.109875	0.447926
676.449125	0.447083
676.788324	0.449293
677.127473	0.454717
677.466571	0.454957
677.805619	0.456465
678.144616	0.457889
678.483562	0.459791
678.822458	0.462239
679.161303	0.462829
679.500098	0.463004
679.838842	0.464673
680.177535	0.464316
680.516179	0.462706
680.854771	0.461911
681.193314	0.455622
681.531805	0.446800
681.870247	0.435036
682.208638	0.427704
682.546978	0.426653
682.885268	0.428570
683.223508	0.434475
683.561697	0.438495
683.899836	0.441126
684.237925	0.444344
684.575963	0.447244
684.913951	0.450334
685.251889	0.445914
685.589776	0.447961
685.927614	0.450548
686.265401	0.444483
686.603137	0.445887
686.940824	0.439514
687.278460	0.438845
687.616046	0.437447
687.953582	0.432097
688.291068	0.433627
688.628504	0.428949
688.965889	0.431393
689.303224	0.435178
689.640510	0.439519
689.977745	0.445112
690.314930	0.452799
690.652065	0.457699
690.989150	0.465234
691.326185	0.472345
691.663170	0.476455
692.000105	0.484195
692.336990	0.490333
692.673825	0.493166
693.010610	0.500010
693.347345	0.506137
693.684030	0.507139
694.020665	0.511368
694.357251	0.520667
694.693786	0.520467
695.030272	0.523973
695.366707	0.528502
695.703093	0.531448
696.039429	0.529288
696.375716	0.531723
696.711952	0.533829
697.048139	0.535951
697.384276	0.538000
697.720363	0.536854
698.056400	0.535309
698.392388	0.540655
698.728326	0.543513
699.064214	0.546217
699.400053	0.546299
699.735842	0.551642
700.071581	0.553536
700.407270	0.556912
700.742910	0.559298
701.078501	0.565242
701.414042	0.565997
701.749533	0.568959
702.084974	0.578087
702.420366	0.571062
702.755709	0.578151
703.091002	0.586581
703.426246	0.579728
703.761440	0.584960
704.096584	0.590170
704.431679	0.586928
704.766725	0.589700
705.101721	0.590515
705.436668	0.586893
705.771565	0.593960
706.106413	0.590084
706.441212	0.585444
706.775961	0.585249
707.110661	0.587415
707.445311	0.584313
707.779913	0.581203
708.114465	0.579360
708.448967	0.576633
708.783421	0.567956
709.117825	0.563030
709.452180	0.562635
709.786485	0.557316
710.120742	0.546334
710.454949	0.548127
710.789107	0.539888
711.123216	0.531020
711.457275	0.532067
711.791286	0.524254
712.125247	0.522750
712.459159	0.534177
712.793023	0.525642
713.126837	0.530034
713.460602	0.530408
713.794318	0.539363
714.127985	0.537920
714.461602	0.548429
714.795171	0.552227
715.128691	0.560136
715.462162	0.568013
715.795584	0.574145
716.128957	0.576436
716.462281	0.583370
716.795556	0.586224
717.128782	0.591670
717.461960	0.601366
717.795088	0.600243
718.128167	0.606556
718.461198	0.614621
718.794180	0.615786
719.127113	0.617348
719.459997	0.621266
719.792833	0.627641
720.125619	0.628775
720.458357	0.634183
720.791046	0.634288
721.123686	0.638614
721.456278	0.645077
721.788821	0.642060
722.121315	0.646471
722.453761	0.650787
722.786158	0.647880
723.118506	0.644387
723.450805	0.651782
723.783056	0.648606
724.115259	0.645573
724.447412	0.646064
724.779518	0.647778
725.111574	0.645286
725.443582	0.641490
725.775542	0.643643
726.107453	0.635862
726.439315	0.635576
726.771129	0.634249
727.102895	0.627263
727.434612	0.620109
727.766281	0.619072
728.097901	0.617710
728.429473	0.617064
728.760996	0.615523
729.092471	0.615990
729.423897	0.619952
729.755276	0.618637
730.086606	0.617480
730.417887	0.612820
730.749120	0.603543
731.080305	0.594466
731.411442	0.590642
731.742530	0.594692
732.073570	0.594470
732.404562	0.586525
732.735506	0.588521
733.066401	0.593234
733.397249	0.602588
733.728048	0.613542
734.058798	0.626947
734.389501	0.637759
734.720156	0.647430
735.050762	0.655258
735.381320	0.656517
735.711831	0.664001
736.042293	0.670052
736.372707	0.665846
736.703073	0.669848
737.033391	0.672394
737.363661	0.668750
737.693883	0.665518
738.024056	0.663251
738.354182	0.664025
738.684260	0.653128
739.014290	0.649434
739.344272	0.649945
739.674207	0.643294
740.004093	0.643762
740.333931	0.643772
740.663722	0.643581
740.993464	0.644056
741.323159	0.647576
741.652806	0.653154
741.982405	0.657723
742.311956	0.662706
742.641460	0.664861
742.970915	0.668876
743.300323	0.675372
743.629683	0.681586
743.958996	0.684336
744.288260	0.688382
744.617477	0.694437
744.946647	0.695803
745.275768	0.702374
745.604842	0.701647
745.933869	0.711416
746.262847	0.712884
746.591778	0.705768
746.920662	0.712699
747.249498	0.719097
747.578286	0.709658
747.907027	0.705921
748.235720	0.706037
748.564365	0.701666
748.892963	0.700744
749.221514	0.704975
749.550017	0.708865
749.878473	0.709955
750.206881	0.716723
750.535242	0.716836
750.863555	0.715716
751.191821	0.717055
751.520039	0.720194
751.848210	0.724694
752.176334	0.718748
752.504411	0.717529
752.832440	0.725685
753.160421	0.728938
753.488356	0.727643
753.816243	0.724492
754.144082	0.732936
754.471875	0.736841
754.799620	0.733195
755.127318	0.732875
755.454969	0.734632
755.782572	0.734136
756.110129	0.738051
756.437638	0.740952
756.765100	0.738179
757.092515	0.734562
757.419882	0.734289
757.747203	0.739195
758.074477	0.739503
758.401703	0.736107
758.728882	0.731431
759.056014	0.729490
759.383099	0.729258
759.710138	0.729466
760.037129	0.726194
760.364073	0.720190
760.690970	0.722344
761.017820	0.727258
761.344623	0.723279
761.671379	0.714929
761.998088	0.703209
762.324751	0.680375
762.651366	0.636820
762.977935	0.569815
763.304456	0.517446
763.630931	0.507386
763.957359	0.547182
764.283740	0.591165
764.610074	0.619544
764.936362	0.650973
765.262602	0.678763
765.588796	0.699845
765.914943	0.716658
766.241044	0.735305
766.567097	0.742595
766.893104	0.752733
767.219064	0.758187
767.544978	0.765455
767.870845	0.778394
768.196665	0.782590
768.522438	0.780509
768.848165	0.782821
769.173846	0.791588
769.499479	0.796093
769.825066	0.799684
770.150607	0.804596
770.476101	0.800384
770.801548	0.801374
771.126949	0.812593
771.452303	0.817203
771.777611	0.815784
772.102872	0.814059
772.428087	0.820074
772.753256	0.823982
773.078378	0.825686
773.403453	0.834414
773.728482	0.837669
774.053465	0.831979
774.378401	0.835362
774.703291	0.843468
775.028135	0.844309
775.352932	0.844280
775.677683	0.848786
776.002388	0.850309
776.327046	0.848720
776.651658	0.853209
776.976224	0.856103
777.300743	0.854685
777.625216	0.857352
777.949643	0.859526
778.274024	0.858747
778.598359	0.860054
778.922647	0.858993
779.246889	0.859901
779.571086	0.864173
779.895236	0.866310
780.219339	0.864179
780.543397	0.859457
780.867409	0.858060
781.191374	0.860718
781.515294	0.863054
781.839167	0.862193
782.162995	0.865076
782.486776	0.861065
782.810511	0.862414
783.134201	0.867726
783.457844	0.865003
783.781441	0.866817
784.104993	0.873355
784.428498	0.873497
784.751958	0.869673
785.075372	0.870506
785.398739	0.874668
785.722061	0.869682
786.045337	0.867025
786.368568	0.871591
786.691752	0.874190
787.014891	0.859962
787.337983	0.849794
787.661030	0.842990
787.984031	0.825121
788.306987	0.812689
788.629897	0.812672
788.952760	0.819516
789.275579	0.823571
789.598351	0.838707
789.921078	0.852497
790.243759	0.853002
790.566395	0.857948
790.888984	0.866562
791.211529	0.871244
791.534027	0.873116
791.856480	0.877061
792.178888	0.881393
792.501249	0.883727
792.823566	0.886541
793.145836	0.885768
793.468062	0.887523
793.790241	0.887117
794.112375	0.885156
794.434464	0.882350
794.756507	0.881638
795.078505	0.878474
795.400457	0.874334
795.722364	0.862927
796.044226	0.856146
796.366042	0.854354
796.687812	0.857139
797.009538	0.853554
797.331218	0.857401
797.652852	0.862266
797.974442	0.865016
798.295986	0.867347
798.617484	0.868662
798.938938	0.873703
799.260346	0.878597
799.581709	0.879432
799.903026	0.881949
800.224299	0.883431
800.545526	0.886041
800.866708	0.891145
801.187845	0.895261
801.508936	0.893832
801.829983	0.891391
802.150984	0.895606
802.471940	0.900116
802.792851	0.899502
803.113717	0.900391
803.434538	0.899209
803.755314	0.901230
804.076045	0.903524
804.396731	0.902271
804.717372	0.901792
805.037967	0.905703
805.358518	0.902864
805.679024	0.897810
805.999485	0.899378
806.319901	0.897852
806.640272	0.901758
806.960598	0.900017
807.280879	0.895837
807.601115	0.894770
807.921306	0.898208
808.241453	0.898445
808.561554	0.897465
808.881611	0.896936
809.201623	0.898360
809.521590	0.899649
809.841513	0.901018
810.161390	0.898570
810.481223	0.900278
810.801011	0.904413
811.120755	0.906195
811.440453	0.905083
811.760107	0.904563
812.079716	0.904648
812.399281	0.907075
812.718801	0.908656
813.038276	0.909551
813.357707	0.911050
813.677093	0.906758
813.996434	0.910563
814.315731	0.911721
814.634983	0.911433
814.954191	0.911897
815.273354	0.907351
815.592473	0.904281
815.911547	0.905169
816.230577	0.902341
816.549562	0.898414
816.868502	0.897748
817.187399	0.896672
817.506250	0.890175
817.825058	0.891463
818.143821	0.888117
818.462539	0.883338
818.781213	0.875912
819.099843	0.865089
819.418429	0.846694
819.736970	0.831176
820.055466	0.809875
820.373919	0.783936
820.692327	0.750832
821.010691	0.714865
821.329011	0.633950
821.647286	0.517229
821.965517	0.402661
822.283704	0.358914
822.601847	0.359934
822.919945	0.395890
823.237999	0.430186
823.556010	0.478879
823.873976	0.535568
824.191897	0.586950
824.509775	0.630524
824.827609	0.677030
825.145398	0.700213
825.463144	0.701413
825.780845	0.683711
826.098502	0.665913
826.416116	0.620019
826.733685	0.574303
827.051210	0.565027
827.368692	0.581233
827.686129	0.618888
828.003522	0.673556
828.320872	0.722707
828.638177	0.766439
828.955439	0.800134
829.272656	0.821474
829.589830	0.839679
829.906960	0.855551
830.224046	0.867907
830.541088	0.878661
830.858086	0.884444
831.175041	0.889953
831.491952	0.887806
831.808819	0.885355
832.125642	0.877642
832.442421	0.864441
832.759157	0.841005
833.075849	0.793123
833.392497	0.728259
833.709101	0.687524
834.025662	0.696986
834.342179	0.729287
834.658653	0.769594
834.975083	0.805633
835.291469	0.833054
835.607811	0.856507
835.924110	0.873746
836.240366	0.889905
836.556578	0.903291
836.872746	0.910524
837.188871	0.918313
837.504952	0.923963
837.820990	0.926877
838.136984	0.930421
838.452935	0.933137
838.768842	0.935092
839.084706	0.928444
839.400526	0.901621
839.716303	0.859308
840.032037	0.837698
840.347727	0.841191
840.663373	0.859388
840.978977	0.881613
841.294537	0.905702
841.610054	0.920015
841.925527	0.930146
842.240957	0.936197
842.556344	0.944558
842.871687	0.949484
843.186987	0.953014
843.502244	0.954587
843.817458	0.955255
844.132629	0.959789
844.447756	0.963202
844.762840	0.964744
845.077881	0.963793
845.392879	0.962420
845.707833	0.966556
846.022745	0.968741
846.337613	0.968547
846.652438	0.969102
846.967221	0.970273
847.281960	0.970489
847.596656	0.970986
847.911309	0.970769
848.225919	0.971634
848.540485	0.972717
848.855009	0.974044
849.169490	0.972157
849.483928	0.972601
849.798323	0.972296
850.112675	0.974597
850.426984	0.973251
850.741251	0.973797
851.055474	0.973965
851.369654	0.973556
851.683792	0.972632
851.997887	0.973558
852.311938	0.973521
852.625947	0.972775
852.939914	0.972001
853.253837	0.973370
853.567718	0.975051
853.881555	0.974683
854.195350	0.972469
854.509103	0.973945
854.822812	0.975326
855.136479	0.976106
855.450103	0.973356
855.763685	0.972856
856.077224	0.974245
856.390720	0.974244
856.704173	0.974125
857.017584	0.972743
857.330953	0.971477
857.644278	0.972206
857.957561	0.973385
858.270802	0.974272
858.584000	0.974387
858.897155	0.971971
859.210268	0.971416
859.523339	0.974007
859.836367	0.974684
860.149352	0.972973
860.462295	0.974423
860.775195	0.974094
861.088054	0.972179
861.400869	0.974914
861.713642	0.974049
862.026373	0.976460
862.339062	0.975536
862.651708	0.972955
862.964312	0.972524
863.276873	0.973133
863.589392	0.971768
863.901869	0.969818
864.214303	0.970507
864.526696	0.967367
864.839045	0.967912
865.151353	0.965627
865.463619	0.964601
865.775842	0.967083
866.088023	0.968050
866.400162	0.966274
866.712258	0.968514
867.024313	0.966777
867.336325	0.969025
867.648296	0.968220
867.960224	0.965926
868.272110	0.965630
868.583954	0.968501
868.895755	0.968611
869.207515	0.965291
869.519233	0.965326
869.830909	0.963641
870.142542	0.965956
870.454134	0.965908
870.765684	0.964307
871.077191	0.963480
871.388657	0.962417
871.700081	0.963248
872.011463	0.962896
872.322803	0.962248
872.634101	0.960972
872.945357	0.957070
873.256571	0.955508
873.567744	0.956923
873.878874	0.958289
874.189963	0.956468
874.501010	0.956916
874.812015	0.953619
875.122979	0.953966
875.433900	0.955758
875.744780	0.957285
876.055618	0.953712
876.366415	0.954339
876.677169	0.953465
876.987882	0.954383
877.298554	0.954704
877.609183	0.950525
877.919771	0.948277
878.230317	0.946753
878.540822	0.942879
878.851285	0.938491
879.161707	0.928224
879.472087	0.918129
879.782425	0.898716
880.092722	0.865308
880.402977	0.811254
880.713191	0.746870
881.023363	0.685073
881.333494	0.651413
881.643583	0.623507
881.953631	0.623708
882.263637	0.652277
882.573602	0.692600
882.883526	0.718470
883.193408	0.744018
883.503248	0.767288
883.813048	0.795185
884.122806	0.825802
884.432522	0.850826
884.742197	0.870810
885.051831	0.882121
885.361424	0.892725
885.670975	0.904772
885.980485	0.914608
886.289954	0.920923
886.599382	0.924768
886.908768	0.930815
887.218113	0.935688
887.527417	0.941529
887.836680	0.944040
888.145901	0.946963
888.455082	0.949888
888.764221	0.954013
889.073319	0.956240
889.382376	0.957164
889.691392	0.955535
890.000366	0.956135
890.309300	0.958187
890.618193	0.956201
890.927044	0.954329
891.235855	0.954965
891.544625	0.955382
891.853353	0.954894
892.162041	0.952664
892.470687	0.946618
892.779293	0.940945
893.087858	0.935327
893.396381	0.928088
893.704864	0.914527
894.013306	0.889394
894.321707	0.863889
894.630068	0.847152
894.938387	0.841650
895.246665	0.843669
895.554903	0.856176
895.863100	0.870181
896.171256	0.887972
896.479371	0.907409
896.787446	0.921388
897.095480	0.926741
897.403473	0.930834
897.711425	0.935156
898.019336	0.942444
898.327207	0.947070
898.635038	0.946323
898.942827	0.948713
899.250576	0.952229
899.558284	0.956832
899.865952	0.956937
900.173579	0.957529
900.481165	0.959228
900.788711	0.962007
901.096216	0.964045
901.403681	0.966146
901.711105	0.966566
902.018489	0.967381
902.325832	0.965770
902.633135	0.965366
902.940397	0.959145
903.247619	0.944402
903.554800	0.920770
903.861941	0.878791
904.169041	0.840530
904.476101	0.823289
904.783121	0.824411
905.090100	0.840263
905.397039	0.862397
905.703938	0.885426
906.010796	0.906635
906.317614	0.923803
906.624391	0.936749
906.931129	0.947236
907.237826	0.954369
907.544483	0.961633
907.851099	0.967307
908.157675	0.971245
908.464211	0.973534
908.770707	0.975934
909.077163	0.978418
909.383578	0.978750
909.689954	0.980055
909.996289	0.979912
910.302584	0.981835
910.608839	0.983592
910.915054	0.982494
911.221229	0.982538
911.527363	0.980499
911.833458	0.981640
912.139513	0.980991
912.445527	0.981235
912.751502	0.977010
913.057436	0.975454
913.363331	0.975660
913.669186	0.971985
913.975000	0.965306
914.280775	0.958497
914.586510	0.949852
914.892205	0.937028
915.197859	0.913593
915.503475	0.887061
915.809050	0.866203
916.114585	0.860493
916.420081	0.856746
916.725536	0.854064
917.030952	0.862469
917.336328	0.876096
917.641665	0.891640
917.946961	0.908448
918.252218	0.918998
918.557435	0.929103
918.862612	0.937510
919.167750	0.943540
919.472848	0.950570
919.777906	0.956876
920.082925	0.960718
920.387904	0.963940
920.692843	0.966163
920.997743	0.968073
921.302603	0.971374
921.607423	0.972632
921.912204	0.975411
922.216946	0.978206
922.521647	0.977254
922.826310	0.979848
923.130932	0.981825
923.435516	0.983898
923.740059	0.982710
924.044564	0.983141
924.349028	0.983627
924.653454	0.986827
924.957840	0.988591
925.262186	0.987698
925.566493	0.988582
925.870761	0.988500
926.174989	0.989921
926.479178	0.992297
926.783328	0.991798
927.087438	0.991868
927.391509	0.991936
927.695541	0.993491
927.999533	0.994683
928.303486	0.995154
928.607400	0.994054
928.911275	0.995317
929.215110	0.995473
929.518906	0.995912
929.822663	0.995060
930.126381	0.995849
930.430060	0.994841
930.733699	0.996481
931.037299	0.994405
931.340861	0.994394
931.644383	0.993171
931.947866	0.994625
932.251309	0.994964
932.554714	0.995620
932.858080	0.995430
933.161407	0.994385
933.464694	0.995446
933.767943	0.996137
934.071153	0.995603
934.374323	0.997188
934.677455	0.995790
934.980548	0.995515
935.283602	0.997476
935.586617	0.996894
935.889593	0.997257
936.192530	0.996171
936.495428	0.994734
936.798287	0.994862
937.101108	0.995406
937.403890	0.993167
937.706632	0.994014
938.009336	0.991296
938.312002	0.989990
938.614628	0.988953
938.917216	0.987879
939.219765	0.985784
939.522275	0.987128
939.824747	0.986238
940.127179	0.987647
940.429573	0.989755
940.731929	0.989177
941.034246	0.988677
941.336524	0.988737
941.638763	0.989026
941.940964	0.990110
942.243126	0.990515
942.545250	0.992272
942.847335	0.992125
943.149381	0.993705
943.451389	0.992387
943.753359	0.993435
944.055290	0.995481
944.357182	0.995027
944.659036	0.994925
944.960851	0.994336
945.262628	0.994227
945.564367	0.994359
945.866067	0.994057
946.167729	0.994739
946.469352	0.994630
946.770937	0.993382
947.072484	0.994045
947.373992	0.994853
947.675462	0.993851
947.976893	0.995131
948.278286	0.996224
948.579641	0.997039
948.880958	0.994675
949.182236	0.995846
949.483476	0.996216
949.784678	0.996349
950.085841	0.995335
950.386967	0.995264
950.688054	0.995279
950.989103	0.994084
951.290114	0.993420
951.591087	0.994426
951.892021	0.993346
952.192917	0.994049
952.493776	0.993104
952.794596	0.992601
953.095378	0.992329
953.396122	0.992597
953.696828	0.992869
953.997496	0.993959
954.298126	0.994973
954.598718	0.994101
954.899272	0.995378
955.199788	0.995177
955.500266	0.997590
955.800706	0.996967
956.101108	0.996819
956.401472	0.998929
956.701798	0.997913
957.002087	0.998080
957.302337	0.998289
957.602550	0.999040
957.902724	0.999665
958.202861	0.999210
958.502960	0.999673
958.803022	1.000549
959.103045	1.000139
959.403031	1.001002
959.702979	1.002355
960.002889	1.000622
960.302762	0.999958
960.602596	1.002376
960.902393	1.001314
961.202153	1.001622
961.501875	1.001608
961.801559	1.002143
962.101205	1.002061
962.400814	1.002724
962.700385	1.001915
962.999918	1.000339
963.299414	1.002075
963.598873	1.001899
963.898293	1.001536
964.197677	1.001818
964.497022	1.002704
964.796331	1.001737
965.095601	1.003946
965.394835	1.001582
965.694030	1.003054
965.993189	1.000806
966.292309	1.002717
966.591393	1.000426
966.890439	1.003080
967.189447	1.002106
967.488419	1.002553
967.787353	1.001725
968.086249	1.001874
968.385108	1.001948
968.683930	1.002682
968.982714	1.002523
969.281462	1.002314
969.580172	1.003797
969.878844	1.002000
970.177480	1.001496
970.476078	1.003390
970.774639	1.002380
971.073162	1.001268
971.371649	1.000327
971.670098	0.999932
971.968510	1.001914
972.266885	1.001110
972.565223	1.001474
972.863524	1.000853
973.161788	1.001366
973.460014	1.002036
973.758204	1.001856
974.056356	1.000953
974.354471	1.001584
974.652550	1.001859
974.950591	0.999767
975.248595	1.001190
975.546563	1.002757
975.844493	1.002001
976.142386	1.000767
976.440243	1.002326
976.738062	1.001307
977.035845	1.001574
977.333590	1.002333
977.631299	1.002576
977.928971	1.002526
978.226606	1.001914
978.524204	1.001343
978.821765	1.003362
979.119290	1.003087
979.416777	1.001554
979.714228	1.002955
980.011642	1.003581
980.309020	1.001310
980.606360	1.002229
980.903664	1.001572
981.200931	1.000980
981.498162	1.001308
981.795356	1.001015
982.092513	0.998533
982.389633	0.999320
982.686717	0.995956
982.983764	0.994683
983.280775	0.995337
983.577749	0.995634
983.874686	0.995534
984.171587	0.996335
984.468451	1.000227
984.765279	0.998755
985.062070	1.000269
985.358824	1.000322
985.655543	1.002402
985.952224	1.002069
986.248869	1.001072
986.545478	1.004058
986.842050	1.002523
987.138586	1.001212
987.435086	1.002017
987.731549	1.003709
988.027975	1.004423
988.324366	1.003072
988.620719	1.004273
988.917037	1.002546
989.213318	1.004364
989.509563	1.003512
989.805772	1.003452
990.101944	1.004437
990.398080	1.003879
990.694180	1.004267
990.990244	1.003217
991.286271	1.003307
991.582262	1.004260
991.878217	1.002676
992.174136	1.005079
992.470019	1.002673
992.765865	1.004788
993.061676	1.001922
993.357450	1.003089
993.653188	1.004007
993.948890	1.003204
994.244556	1.001667
994.540186	1.002809
994.835780	1.002424
995.131337	1.002311
995.426859	1.002806
995.722345	1.002255
996.017795	1.001612
996.313208	1.001014
996.608586	1.001318
996.903928	1.000156
997.199234	1.002513
997.494504	1.002596
997.789738	1.001148
998.084936	1.002023
998.380099	1.000593
998.675225	1.003464
998.970316	1.003798
999.265371	1.003322
999.560390	1.003287
999.855373	1.002526
1000.150320	1.003404
1000.445232	1.002922
1000.740108	1.004037
1001.034948	1.002093
1001.329752	1.003877
1001.624521	1.003677
1001.919254	1.004123
1002.213951	1.003956
1002.508613	1.003184
1002.803239	1.003642
1003.097829	1.004402
1003.392384	1.003664
1003.686903	1.003855
1003.981386	1.004118
1004.275834	1.006134
1004.570246	1.002554
1004.864623	1.005006
1005.158964	1.003760
1005.453270	1.003925
1005.747540	1.003529
1006.041775	1.004703
1006.335974	1.003853
1006.630138	1.005433
1006.924266	1.003333
1007.218359	1.003013
1007.512416	1.004986
1007.806438	1.004422
1008.100425	1.004780
1008.394376	1.005227
1008.688292	1.003947
1008.982172	1.003625
1009.276017	1.004908
1009.569827	1.005643
1009.863602	1.003445
1010.157341	1.005167
1010.451045	1.002787
1010.744714	1.005162
1011.038347	1.004787
1011.331945	1.003855
1011.625508	1.003863
1011.919036	1.005042
1012.212528	1.003965
1012.505986	1.004076
1012.799408	1.005565
1013.092795	1.004488
1013.386147	1.004407
1013.679464	1.004942
1013.972745	1.005199
1014.265992	1.004533
1014.559204	1.004470
1014.852380	1.004376
1015.145521	1.004625
1015.438628	1.004159
1015.731699	1.004346
1016.024736	1.003914
1016.317737	1.005195
1016.610703	1.004880
1016.903635	1.003526
1017.196531	1.004309
1017.489393	1.004324
1017.782219	1.002830
1018.075011	1.003522
1018.367768	1.004343
1018.660490	1.004988
1018.953177	1.004988
1019.245829	1.004988
