Dividing Wavelength (nm)	Counts (n)	Blue Motor Position (mm): 12.000000	Red Motor Position (mm): 0.000000	
326.493990	1.003539
326.888308	1.003539
327.282561	1.003539
327.676750	1.005278
328.070874	1.004952
328.464933	1.006116
328.858929	1.006324
329.252859	1.003900
329.646726	1.003207
330.040528	1.003847
330.434265	1.004695
330.827938	1.003996
331.221547	1.004431
331.615091	1.004494
332.008571	1.004326
332.401986	1.003305
332.795338	1.002644
333.188625	1.004584
333.581847	1.003058
333.975006	1.004050
334.368100	1.004760
334.761129	1.002944
335.154095	1.002983
335.546996	1.004277
335.939833	0.999458
336.332606	0.999370
336.725315	0.997949
337.117960	1.000743
337.510540	0.998236
337.903056	0.999928
338.295508	1.000441
338.687896	0.998659
339.080220	0.999549
339.472480	0.997534
339.864676	0.999958
340.256807	0.999458
340.648875	1.000621
341.040879	0.999453
341.432818	0.999708
341.824694	0.998960
342.216506	0.999947
342.608253	0.998477
342.999937	0.999778
343.391557	0.999154
343.783113	1.000772
344.174605	0.999550
344.566033	0.999077
344.957397	0.999336
345.348697	1.000665
345.739934	0.999181
346.131106	0.998634
346.522215	0.998857
346.913260	0.999345
347.304241	0.998584
347.695159	1.000679
348.086012	0.998248
348.476802	0.998903
348.867528	0.996669
349.258191	1.000085
349.648789	0.998912
350.039324	0.998921
350.429796	0.998482
350.820203	0.998731
351.210548	0.998831
351.600828	0.998156
351.991045	0.998367
352.381198	0.999129
352.771288	0.998743
353.161314	0.998344
353.551276	0.997731
353.941175	0.997072
354.331010	0.998681
354.720782	0.998308
355.110490	0.998116
355.500135	0.998798
355.889717	0.997218
356.279235	0.996970
356.668689	0.999663
357.058080	0.998165
357.447408	0.997346
357.836672	0.999261
358.225873	0.997237
358.615010	0.997094
359.004084	0.996238
359.393095	0.998586
359.782043	0.997383
360.170927	0.998248
360.559748	0.997457
360.948505	0.997062
361.337199	0.996814
361.725830	0.997587
362.114398	0.996997
362.502903	0.996589
362.891344	0.996911
363.279722	0.996829
363.668037	0.997786
364.056289	0.996480
364.444478	0.997837
364.832603	0.996765
365.220665	0.997265
365.608665	0.997176
365.996601	0.996370
366.384474	0.995763
366.772284	0.996262
367.160031	0.995729
367.547715	0.996267
367.935336	0.994452
368.322893	0.994570
368.710388	0.992335
369.097820	0.991062
369.485189	0.988292
369.872495	0.987663
370.259738	0.985059
370.646918	0.982339
371.034035	0.979260
371.421090	0.976775
371.808081	0.971717
372.195010	0.969889
372.581875	0.963860
372.968678	0.959986
373.355418	0.957188
373.742096	0.947619
374.128710	0.944206
374.515262	0.939100
374.901751	0.933754
375.288177	0.929536
375.674540	0.921831
376.060841	0.916172
376.447079	0.909083
376.833254	0.903266
377.219367	0.897483
377.605417	0.886262
377.991404	0.882630
378.377329	0.876937
378.763191	0.870846
379.148991	0.861201
379.534727	0.853441
379.920402	0.846154
380.306013	0.841871
380.691563	0.830002
381.077049	0.822105
381.462474	0.818645
381.847835	0.807718
382.233134	0.802443
382.618371	0.803011
383.003545	0.785562
383.388657	0.784028
383.773706	0.775065
384.158693	0.772799
384.543618	0.765115
384.928480	0.757511
385.313280	0.747457
385.698017	0.747438
386.082692	0.735580
386.467305	0.733814
386.851856	0.728853
387.236344	0.722920
387.620770	0.718109
388.005133	0.711757
388.389435	0.706596
388.773674	0.703760
389.157851	0.695787
389.541965	0.693268
389.926018	0.699706
390.310008	0.686819
390.693936	0.683640
391.077802	0.675542
391.461606	0.676995
391.845348	0.666635
392.229027	0.664895
392.612645	0.664402
392.996200	0.651610
393.379694	0.643434
393.763125	0.634537
394.146494	0.638128
394.529801	0.629775
394.913047	0.621209
395.296230	0.627580
395.679351	0.619129
396.062410	0.615776
396.445408	0.618065
396.828343	0.613745
397.211217	0.608418
397.594028	0.621022
397.976778	0.611195
398.359466	0.607746
398.742092	0.602647
399.124656	0.615347
399.507158	0.602929
399.889598	0.600350
400.271977	0.592030
400.654294	0.595236
401.036549	0.594583
401.418742	0.598817
401.800874	0.584647
402.182944	0.581635
402.564952	0.572874
402.946898	0.575145
403.328783	0.576709
403.710606	0.586543
404.092367	0.561825
404.474067	0.566630
404.855705	0.565907
405.237282	0.574639
405.618797	0.561099
406.000250	0.556960
406.381642	0.546760
406.762972	0.551871
407.144240	0.550530
407.525447	0.550196
407.906593	0.543292
408.287677	0.538718
408.668700	0.546839
409.049661	0.540779
409.430560	0.536467
409.811399	0.545187
410.192176	0.526555
410.572891	0.533897
410.953545	0.521820
411.334138	0.535389
411.714669	0.527148
412.095139	0.539682
412.475547	0.523792
412.855894	0.526279
413.236180	0.524747
413.616405	0.530423
413.996568	0.520816
414.376670	0.527081
414.756711	0.531371
415.136691	0.528244
415.516609	0.519721
415.896466	0.516317
416.276262	0.512170
416.655997	0.513783
417.035670	0.495373
417.415283	0.487706
417.794834	0.492031
418.174324	0.497226
418.553753	0.506742
418.933121	0.488653
419.312428	0.482913
419.691674	0.488140
420.070859	0.476427
420.449983	0.484722
420.829045	0.473457
421.208047	0.482862
421.586988	0.475510
421.965867	0.474784
422.344686	0.462708
422.723444	0.475589
423.102141	0.493266
423.480777	0.465664
423.859352	0.486315
424.237866	0.463988
424.616319	0.464610
424.994712	0.455744
425.373044	0.465552
425.751314	0.453346
426.129524	0.470516
426.507673	0.453626
426.885762	0.447260
427.263789	0.453023
427.641756	0.462618
428.019662	0.452878
428.397508	0.451930
428.775292	0.456469
429.153016	0.447986
429.530679	0.454029
429.908282	0.447860
430.285824	0.458150
430.663305	0.436665
431.040726	0.457801
431.418086	0.457112
431.795385	0.449219
432.172624	0.448405
432.549802	0.448781
432.926920	0.447317
433.303977	0.446780
433.680974	0.443760
434.057910	0.442235
434.434786	0.442372
434.811601	0.444858
435.188355	0.427112
435.565050	0.436555
435.941683	0.437353
436.318257	0.421176
436.694770	0.422640
437.071222	0.420463
437.447614	0.425218
437.823946	0.431543
438.200218	0.420694
438.576429	0.430678
438.952580	0.423856
439.328670	0.419940
439.704700	0.426633
440.080670	0.427544
440.456580	0.409277
440.832429	0.417526
441.208218	0.427958
441.583947	0.417283
441.959616	0.416710
442.335224	0.422668
442.710773	0.413197
443.086261	0.410749
443.461689	0.424806
443.837057	0.414463
444.212365	0.404461
444.587612	0.411701
444.962800	0.401321
445.337927	0.402922
445.712995	0.428995
446.088002	0.391457
446.462949	0.401659
446.837837	0.406453
447.212664	0.395134
447.587431	0.387052
447.962139	0.356772
448.336786	0.316134
448.711374	0.326888
449.085901	0.370831
449.460369	0.374952
449.834776	0.378823
450.209124	0.357995
450.583412	0.350465
450.957640	0.343388
451.331808	0.354789
451.705917	0.378407
452.079965	0.383317
452.453954	0.371439
452.827883	0.377784
453.201752	0.372835
453.575562	0.383761
453.949311	0.372848
454.323001	0.379012
454.696632	0.374725
455.070202	0.367887
455.443713	0.358981
455.817164	0.353487
456.190556	0.349419
456.563888	0.346475
456.937160	0.344218
457.310373	0.361073
457.683526	0.360017
458.056619	0.365849
458.429653	0.366526
458.802628	0.369882
459.175542	0.364117
459.548398	0.346564
459.921194	0.338733
460.293930	0.339267
460.666607	0.316843
461.039224	0.304744
461.411782	0.300063
461.784280	0.299426
462.156719	0.304001
462.529099	0.308277
462.901419	0.324516
463.273680	0.328815
463.645882	0.328232
464.018024	0.333846
464.390106	0.327165
464.762130	0.311596
465.134094	0.294496
465.505999	0.263514
465.877845	0.233591
466.249631	0.220479
466.621358	0.228316
466.993026	0.242056
467.364634	0.248212
467.736184	0.257227
468.107674	0.265859
468.479105	0.265055
468.850477	0.271650
469.221790	0.278826
469.593043	0.289214
469.964238	0.293690
470.335373	0.293039
470.706449	0.291439
471.077467	0.291871
471.448425	0.253848
471.819324	0.229299
472.190164	0.228807
472.560945	0.257865
472.931667	0.279962
473.302330	0.284479
473.672934	0.296246
474.043479	0.284183
474.413965	0.286014
474.784393	0.289770
475.154761	0.284373
475.525070	0.281734
475.895321	0.287544
476.265513	0.281620
476.635645	0.277192
477.005719	0.276833
477.375734	0.273585
477.745691	0.266906
478.115588	0.262996
478.485427	0.256696
478.855207	0.243426
479.224928	0.225991
479.594591	0.214151
479.964194	0.217395
480.333739	0.218530
480.703226	0.220118
481.072653	0.218600
481.442022	0.214183
481.811333	0.210789
482.180584	0.214124
482.549777	0.219591
482.918912	0.223010
483.287988	0.222715
483.657005	0.222370
484.025964	0.228536
484.394864	0.225917
484.763706	0.226456
485.132489	0.231570
485.501213	0.232838
485.869879	0.230972
486.238487	0.233922
486.607036	0.231881
486.975527	0.236695
487.343959	0.232359
487.712333	0.231360
488.080648	0.232801
488.448905	0.232104
488.817104	0.233264
489.185244	0.227626
489.553326	0.224588
489.921350	0.214717
490.289315	0.196735
490.657222	0.191709
491.025070	0.193283
491.392861	0.195155
491.760593	0.200904
492.128267	0.206725
492.495883	0.212358
492.863440	0.218519
493.230939	0.224664
493.598380	0.226261
493.965763	0.228449
494.333088	0.230510
494.700354	0.232050
495.067563	0.231073
495.434713	0.234312
495.801805	0.232243
496.168839	0.233979
496.535815	0.235528
496.902733	0.235251
497.269593	0.236675
497.636395	0.234402
498.003139	0.234891
498.369825	0.237719
498.736453	0.234222
499.103023	0.236092
499.469535	0.235401
499.835989	0.235626
500.202385	0.236200
500.568723	0.239624
500.935003	0.234877
501.301226	0.239047
501.667390	0.233262
502.033497	0.231267
502.399546	0.234297
502.765537	0.236145
503.131470	0.234843
503.497345	0.231016
503.863163	0.239319
504.228923	0.232881
504.594625	0.231208
504.960269	0.236503
505.325856	0.232019
505.691385	0.236626
506.056856	0.233098
506.422270	0.232517
506.787625	0.234979
507.152924	0.232475
507.518164	0.232834
507.883347	0.234624
508.248472	0.236321
508.613540	0.231352
508.978550	0.233680
509.343503	0.234342
509.708398	0.231861
510.073236	0.229399
510.438016	0.229474
510.802738	0.230300
511.167403	0.229237
511.532010	0.231682
511.896561	0.226775
512.261053	0.225141
512.625488	0.227916
512.989866	0.227993
513.354186	0.228405
513.718449	0.230028
514.082655	0.226313
514.446803	0.228655
514.810894	0.226397
515.174927	0.229352
515.538904	0.228665
515.902822	0.225598
516.266684	0.228006
516.630488	0.229065
516.994235	0.228092
517.357925	0.226855
517.721558	0.224877
518.085133	0.224765
518.448651	0.224521
518.812112	0.226890
519.175516	0.226384
519.538863	0.224136
519.902152	0.226133
520.265385	0.222695
520.628560	0.224496
520.991678	0.224918
521.354739	0.223968
521.717743	0.225046
522.080690	0.225479
522.443580	0.223220
522.806413	0.223730
523.169189	0.223375
523.531908	0.222178
523.894569	0.225547
524.257174	0.225495
524.619722	0.223167
524.982213	0.224439
525.344647	0.223022
525.707025	0.224059
526.069345	0.222331
526.431608	0.224348
526.793815	0.221968
527.155964	0.226441
527.518057	0.225204
527.880093	0.226459
528.242072	0.224921
528.603995	0.226894
528.965860	0.228561
529.327669	0.227705
529.689421	0.228331
530.051117	0.229160
530.412755	0.226994
530.774337	0.229273
531.135862	0.229874
531.497331	0.228844
531.858743	0.232191
532.220098	0.228580
532.581396	0.231037
532.942638	0.231853
533.303824	0.232673
533.664953	0.232439
534.026025	0.234401
534.387040	0.232244
534.747999	0.232224
535.108902	0.230918
535.469748	0.236353
535.830537	0.234130
536.191270	0.234254
536.551947	0.233890
536.912567	0.233825
537.273131	0.235879
537.633638	0.235866
537.994089	0.236262
538.354483	0.237439
538.714821	0.234407
539.075103	0.234192
539.435328	0.235210
539.795497	0.238904
540.155609	0.235598
540.515665	0.233757
540.875665	0.239200
541.235609	0.238012
541.595496	0.237815
541.955328	0.234620
542.315102	0.237080
542.674821	0.238333
543.034483	0.238218
543.394090	0.238248
543.753640	0.240028
544.113134	0.234866
544.472571	0.238464
544.831953	0.235085
545.191278	0.239349
545.550548	0.238547
545.909761	0.235539
546.268918	0.236403
546.628019	0.234410
546.987064	0.237350
547.346053	0.238906
547.704986	0.236826
548.063863	0.237191
548.422684	0.237505
548.781449	0.239464
549.140158	0.237106
549.498811	0.239950
549.857408	0.242842
550.215949	0.237294
550.574434	0.240881
550.932864	0.238815
551.291237	0.237079
551.649555	0.239151
552.007817	0.238423
552.366022	0.239482
552.724173	0.239393
553.082267	0.239747
553.440305	0.236916
553.798288	0.240820
554.156215	0.237721
554.514086	0.238447
554.871902	0.241700
555.229661	0.240718
555.587365	0.241367
555.945014	0.243954
556.302606	0.241061
556.660143	0.243511
557.017625	0.240071
557.375050	0.242289
557.732421	0.239188
558.089735	0.241073
558.446994	0.241435
558.804197	0.240512
559.161345	0.240227
559.518437	0.243652
559.875474	0.241946
560.232455	0.240969
560.589381	0.242092
560.946251	0.242658
561.303065	0.239795
561.659825	0.241478
562.016528	0.242961
562.373177	0.245575
562.729770	0.243100
563.086307	0.244989
563.442789	0.243032
563.799216	0.245782
564.155587	0.244461
564.511904	0.245984
564.868164	0.245583
565.224370	0.245334
565.580520	0.247362
565.936615	0.247279
566.292654	0.250599
566.648638	0.247244
567.004567	0.248010
567.360441	0.248655
567.716260	0.250656
568.072023	0.248345
568.427732	0.249265
568.783385	0.251670
569.138982	0.250073
569.494525	0.249700
569.850013	0.252508
570.205445	0.250925
570.560823	0.253436
570.916145	0.255579
571.271412	0.253670
571.626625	0.255458
571.981782	0.255722
572.336884	0.256885
572.691931	0.256435
573.046923	0.257841
573.401860	0.259090
573.756743	0.260912
574.111570	0.259376
574.466342	0.259974
574.821059	0.258973
575.175722	0.262210
575.530330	0.261943
575.884882	0.262374
576.239380	0.264335
576.593823	0.264435
576.948211	0.264336
577.302544	0.267418
577.656823	0.267206
578.011047	0.267300
578.365216	0.268124
578.719330	0.270242
579.073389	0.269802
579.427394	0.271383
579.781344	0.272078
580.135239	0.273577
580.489080	0.273183
580.842866	0.276341
581.196597	0.276622
581.550273	0.275269
581.903895	0.276582
582.257463	0.274577
582.610975	0.277938
582.964434	0.277681
583.317837	0.280142
583.671186	0.280470
584.024481	0.280353
584.377721	0.283272
584.730906	0.284023
585.084037	0.283701
585.437113	0.285504
585.790135	0.284751
586.143103	0.288401
586.496016	0.289134
586.848874	0.286876
587.201679	0.287821
587.554428	0.291083
587.907124	0.290346
588.259765	0.290992
588.612352	0.291644
588.964884	0.295757
589.317362	0.295732
589.669786	0.295372
590.022155	0.294101
590.374470	0.293833
590.726731	0.295680
591.078937	0.301085
591.431090	0.297769
591.783188	0.301652
592.135232	0.302467
592.487222	0.302608
592.839157	0.300971
593.191038	0.303419
593.542866	0.305370
593.894639	0.309098
594.246358	0.307779
594.598022	0.307311
594.949633	0.311093
595.301190	0.312469
595.652692	0.311279
596.004141	0.307847
596.355535	0.316015
596.706876	0.316801
597.058162	0.319694
597.409395	0.317093
597.760573	0.315048
598.111698	0.318437
598.462768	0.319477
598.813785	0.320745
599.164748	0.322314
599.515657	0.322769
599.866511	0.327020
600.217312	0.322430
600.568060	0.328354
600.918753	0.325317
601.269392	0.326122
601.619978	0.330054
601.970510	0.328201
602.320988	0.328622
602.671412	0.327090
603.021783	0.329491
603.372100	0.331336
603.722363	0.331965
604.072572	0.333172
604.422728	0.332980
604.772830	0.336018
605.122878	0.336101
605.472872	0.336961
605.822813	0.336211
606.172701	0.338973
606.522534	0.336984
606.872314	0.337791
607.222041	0.339170
607.571714	0.337658
607.921333	0.339974
608.270899	0.340060
608.620411	0.337717
608.969870	0.342177
609.319276	0.343318
609.668627	0.343755
610.017926	0.342874
610.367171	0.342906
610.716362	0.343758
611.065500	0.344972
611.414585	0.345047
611.763616	0.345603
612.112594	0.347194
612.461518	0.347335
612.810389	0.346361
613.159207	0.349470
613.507971	0.351862
613.856682	0.349511
614.205340	0.351268
614.553945	0.349959
614.902496	0.355019
615.250994	0.353687
615.599439	0.356015
615.947830	0.356048
616.296169	0.358499
616.644454	0.359229
616.992686	0.360722
617.340864	0.360624
617.688990	0.364429
618.037063	0.362490
618.385082	0.365734
618.733048	0.364546
619.080961	0.367787
619.428821	0.368872
619.776628	0.369916
620.124382	0.373208
620.472083	0.375190
620.819731	0.375267
621.167326	0.379987
621.514868	0.381178
621.862357	0.386102
622.209793	0.386199
622.557176	0.390244
622.904506	0.392176
623.251783	0.395471
623.599007	0.398858
623.946179	0.399042
624.293297	0.402864
624.640363	0.407196
624.987376	0.408592
625.334336	0.411975
625.681243	0.416199
626.028097	0.417826
626.374899	0.420271
626.721647	0.422484
627.068343	0.426067
627.414987	0.428866
627.761577	0.431987
628.108115	0.431593
628.454600	0.438353
628.801032	0.438547
629.147412	0.440335
629.493739	0.443752
629.840014	0.447280
630.186236	0.446646
630.532405	0.453690
630.878521	0.452699
631.224585	0.456792
631.570597	0.460951
631.916556	0.462099
632.262462	0.463101
632.608316	0.467373
632.954117	0.469712
633.299866	0.471489
633.645562	0.473416
633.991206	0.478610
634.336797	0.482047
634.682336	0.486135
635.027823	0.489218
635.373257	0.490106
635.718639	0.495305
636.063968	0.496334
636.409245	0.501880
636.754470	0.504258
637.099642	0.508115
637.444762	0.512570
637.789829	0.513739
638.134845	0.517679
638.479808	0.520378
638.824719	0.521787
639.169577	0.526384
639.514383	0.527283
639.859137	0.532818
640.203839	0.533765
640.548489	0.536239
640.893086	0.538235
641.237632	0.542148
641.582125	0.542916
641.926566	0.545704
642.270955	0.547453
642.615292	0.549462
642.959576	0.551179
643.303809	0.553349
643.647990	0.555116
643.992118	0.556976
644.336195	0.560425
644.680219	0.562509
645.024192	0.563632
645.368112	0.561648
645.711981	0.562964
646.055797	0.561122
646.399562	0.565105
646.743274	0.563415
647.086935	0.562243
647.430544	0.564553
647.774101	0.565906
648.117606	0.567049
648.461059	0.569150
648.804460	0.572886
649.147810	0.577061
649.491108	0.580361
649.834354	0.583206
650.177548	0.588896
650.520690	0.594170
650.863781	0.596417
651.206820	0.598305
651.549807	0.603078
651.892742	0.607991
652.235626	0.609020
652.578458	0.611761
652.921238	0.617445
653.263967	0.616905
653.606644	0.621222
653.949269	0.624712
654.291843	0.627480
654.634365	0.627841
654.976836	0.631677
655.319255	0.633084
655.661622	0.637075
656.003938	0.639140
656.346203	0.641583
656.688416	0.643207
657.030577	0.645869
657.372687	0.649553
657.714746	0.651399
658.056753	0.650887
658.398708	0.655844
658.740612	0.657243
659.082465	0.658058
659.424266	0.658859
659.766016	0.660544
660.107715	0.664866
660.449362	0.665103
660.790958	0.667691
661.132503	0.670717
661.473996	0.671178
661.815438	0.673220
662.156829	0.674072
662.498168	0.677184
662.839456	0.678285
663.180693	0.679966
663.521879	0.681159
663.863013	0.683441
664.204097	0.685378
664.545129	0.685277
664.886110	0.687765
665.227040	0.688924
665.567918	0.689328
665.908746	0.691480
666.249522	0.692088
666.590248	0.693907
666.930922	0.694808
667.271545	0.697555
667.612118	0.698337
667.952639	0.700418
668.293109	0.702256
668.633528	0.705266
668.973896	0.706352
669.314213	0.707959
669.654480	0.711461
669.994695	0.712434
670.334859	0.714904
670.674973	0.717531
671.015035	0.718106
671.355047	0.720236
671.695008	0.722419
672.034918	0.723707
672.374777	0.725794
672.714585	0.728148
673.054342	0.728956
673.394049	0.730567
673.733705	0.731616
674.073310	0.735213
674.412864	0.735767
674.752368	0.738170
675.091820	0.740829
675.431223	0.743760
675.770574	0.745744
676.109875	0.748651
676.449125	0.750361
676.788324	0.753307
677.127473	0.756737
677.466571	0.758126
677.805619	0.761599
678.144616	0.762757
678.483562	0.766025
678.822458	0.768592
679.161303	0.769570
679.500098	0.771989
679.838842	0.773646
680.177535	0.774379
680.516179	0.774650
680.854771	0.776592
681.193314	0.774709
681.531805	0.771622
681.870247	0.769265
682.208638	0.766835
682.546978	0.767856
682.885268	0.770256
683.223508	0.774519
683.561697	0.777945
683.899836	0.780979
684.237925	0.782995
684.575963	0.784437
684.913951	0.787262
685.251889	0.787855
685.589776	0.787835
685.927614	0.789984
686.265401	0.789655
686.603137	0.790612
686.940824	0.790107
687.278460	0.790401
687.616046	0.790369
687.953582	0.789126
688.291068	0.790067
688.628504	0.791096
688.965889	0.791394
689.303224	0.794557
689.640510	0.798175
689.977745	0.801568
690.314930	0.805770
690.652065	0.809518
690.989150	0.813542
691.326185	0.818494
691.663170	0.822482
692.000105	0.826213
692.336990	0.829806
692.673825	0.832255
693.010610	0.836172
693.347345	0.838496
693.684030	0.841278
694.020665	0.844980
694.357251	0.847537
694.693786	0.848649
695.030272	0.850104
695.366707	0.853720
695.703093	0.855166
696.039429	0.856224
696.375716	0.858586
696.711952	0.859324
697.048139	0.861396
697.384276	0.862241
697.720363	0.863261
698.056400	0.864024
698.392388	0.865317
698.728326	0.867548
699.064214	0.869895
699.400053	0.870610
699.735842	0.874248
700.071581	0.876030
700.407270	0.877068
700.742910	0.879780
701.078501	0.881750
701.414042	0.884728
701.749533	0.885881
702.084974	0.888323
702.420366	0.888522
702.755709	0.890595
703.091002	0.893647
703.426246	0.894440
703.761440	0.895239
704.096584	0.896332
704.431679	0.897305
704.766725	0.899263
705.101721	0.901373
705.436668	0.901512
705.771565	0.902664
706.106413	0.902310
706.441212	0.903488
706.775961	0.904192
707.110661	0.903849
707.445311	0.904052
707.779913	0.905730
708.114465	0.905261
708.448967	0.903790
708.783421	0.902559
709.117825	0.901226
709.452180	0.901911
709.786485	0.900862
710.120742	0.897377
710.454949	0.897498
710.789107	0.897203
711.123216	0.893514
711.457275	0.892857
711.791286	0.891858
712.125247	0.893052
712.459159	0.893541
712.793023	0.893410
713.126837	0.898396
713.460602	0.897467
713.794318	0.899717
714.127985	0.901898
714.461602	0.906480
714.795171	0.908069
715.128691	0.910863
715.462162	0.914950
715.795584	0.916807
716.128957	0.918139
716.462281	0.920328
716.795556	0.921288
717.128782	0.924355
717.461960	0.926262
717.795088	0.927375
718.128167	0.930112
718.461198	0.931036
718.794180	0.931975
719.127113	0.933057
719.459997	0.934303
719.792833	0.936190
720.125619	0.936125
720.458357	0.938577
720.791046	0.940532
721.123686	0.940582
721.456278	0.941094
721.788821	0.942483
722.121315	0.943304
722.453761	0.943882
722.786158	0.945142
723.118506	0.945075
723.450805	0.945125
723.783056	0.945778
724.115259	0.946424
724.447412	0.946412
724.779518	0.946776
725.111574	0.946851
725.443582	0.946799
725.775542	0.946195
726.107453	0.946834
726.439315	0.947178
726.771129	0.945669
727.102895	0.944923
727.434612	0.944771
727.766281	0.943114
728.097901	0.943900
728.429473	0.944764
728.760996	0.943569
729.092471	0.945094
729.423897	0.947009
729.755276	0.947311
730.086606	0.946485
730.417887	0.946589
730.749120	0.946191
731.080305	0.945865
731.411442	0.944418
731.742530	0.945051
732.073570	0.946339
732.404562	0.946417
732.735506	0.946355
733.066401	0.946299
733.397249	0.949093
733.728048	0.952012
734.058798	0.954585
734.389501	0.957332
734.720156	0.957813
735.050762	0.961209
735.381320	0.960454
735.711831	0.960993
736.042293	0.963181
736.372707	0.963867
736.703073	0.962746
737.033391	0.963444
737.363661	0.963857
737.693883	0.963340
738.024056	0.962306
738.354182	0.962569
738.684260	0.962154
739.014290	0.959597
739.344272	0.960575
739.674207	0.960920
740.004093	0.960068
740.333931	0.960664
740.663722	0.960814
740.993464	0.961021
741.323159	0.961705
741.652806	0.963253
741.982405	0.965034
742.311956	0.966481
742.641460	0.966392
742.970915	0.967060
743.300323	0.967564
743.629683	0.968575
743.958996	0.971251
744.288260	0.970014
744.617477	0.972014
744.946647	0.971547
745.275768	0.974314
745.604842	0.973402
745.933869	0.973909
746.262847	0.974961
746.591778	0.974402
746.920662	0.975057
747.249498	0.976299
747.578286	0.976397
747.907027	0.975060
748.235720	0.974456
748.564365	0.974979
748.892963	0.974737
749.221514	0.975039
749.550017	0.975326
749.878473	0.975907
750.206881	0.978002
750.535242	0.977188
750.863555	0.976324
751.191821	0.977568
751.520039	0.976779
751.848210	0.976691
752.176334	0.978347
752.504411	0.977277
752.832440	0.978078
753.160421	0.979390
753.488356	0.979964
753.816243	0.977718
754.144082	0.979307
754.471875	0.980151
754.799620	0.980079
755.127318	0.979602
755.454969	0.979753
755.782572	0.980867
756.110129	0.980300
756.437638	0.981558
756.765100	0.981163
757.092515	0.979619
757.419882	0.981296
757.747203	0.980407
758.074477	0.981162
758.401703	0.980779
758.728882	0.980364
759.056014	0.979901
759.383099	0.980327
759.710138	0.979367
760.037129	0.979719
760.364073	0.980587
760.690970	0.980400
761.017820	0.979622
761.344623	0.980753
761.671379	0.980500
761.998088	0.980401
762.324751	0.978694
762.651366	0.975489
762.977935	0.969319
763.304456	0.966314
763.630931	0.963221
763.957359	0.965927
764.283740	0.970478
764.610074	0.973562
764.936362	0.975244
765.262602	0.977291
765.588796	0.980119
765.914943	0.981230
766.241044	0.982287
766.567097	0.983015
766.893104	0.983915
767.219064	0.983445
767.544978	0.984412
767.870845	0.985818
768.196665	0.985454
768.522438	0.986550
768.848165	0.987781
769.173846	0.987794
769.499479	0.987221
769.825066	0.989306
770.150607	0.989397
770.476101	0.988044
770.801548	0.988310
771.126949	0.989862
771.452303	0.989967
771.777611	0.990014
772.102872	0.989312
772.428087	0.989671
772.753256	0.990009
773.078378	0.990312
773.403453	0.989935
773.728482	0.992705
774.053465	0.991275
774.378401	0.991653
774.703291	0.992682
775.028135	0.992468
775.352932	0.989908
775.677683	0.992098
776.002388	0.993193
776.327046	0.992599
776.651658	0.994347
776.976224	0.992769
777.300743	0.992732
777.625216	0.992685
777.949643	0.993611
778.274024	0.992282
778.598359	0.993566
778.922647	0.993652
779.246889	0.994098
779.571086	0.993215
779.895236	0.993167
780.219339	0.993616
780.543397	0.991936
780.867409	0.993634
781.191374	0.993550
781.515294	0.994071
781.839167	0.993918
782.162995	0.993232
782.486776	0.992968
782.810511	0.993428
783.134201	0.994349
783.457844	0.994389
783.781441	0.994095
784.104993	0.993050
784.428498	0.993631
784.751958	0.994499
785.075372	0.994865
785.398739	0.993504
785.722061	0.993595
786.045337	0.994743
786.368568	0.993515
786.691752	0.993837
787.014891	0.994646
787.337983	0.992239
787.661030	0.992539
787.984031	0.992412
788.306987	0.991382
788.629897	0.989682
788.952760	0.990734
789.275579	0.991711
789.598351	0.991245
789.921078	0.993474
790.243759	0.993749
790.566395	0.993737
790.888984	0.994762
791.211529	0.994309
791.534027	0.993942
791.856480	0.994982
792.178888	0.994308
792.501249	0.994945
792.823566	0.994690
793.145836	0.994988
793.468062	0.996274
793.790241	0.995172
794.112375	0.994105
794.434464	0.994684
794.756507	0.996165
795.078505	0.994392
795.400457	0.994611
795.722364	0.994126
796.044226	0.993758
796.366042	0.992116
796.687812	0.992493
797.009538	0.993384
797.331218	0.994665
797.652852	0.995074
797.974442	0.993073
798.295986	0.994756
798.617484	0.994809
798.938938	0.994497
799.260346	0.994274
799.581709	0.994728
799.903026	0.995390
800.224299	0.993651
800.545526	0.994231
800.866708	0.995110
801.187845	0.995901
801.508936	0.995785
801.829983	0.994387
802.150984	0.996319
802.471940	0.996477
802.792851	0.995688
803.113717	0.996832
803.434538	0.996249
803.755314	0.997312
804.076045	0.995864
804.396731	0.995706
804.717372	0.994474
805.037967	0.995171
805.358518	0.996250
805.679024	0.995495
805.999485	0.995191
806.319901	0.995920
806.640272	0.996551
806.960598	0.996195
807.280879	0.995660
807.601115	0.995557
807.921306	0.995729
808.241453	0.995487
808.561554	0.995292
808.881611	0.995814
809.201623	0.995609
809.521590	0.995032
809.841513	0.996225
810.161390	0.994879
810.481223	0.994470
810.801011	0.995726
811.120755	0.996884
811.440453	0.995095
811.760107	0.996595
812.079716	0.994466
812.399281	0.996980
812.718801	0.994776
813.038276	0.996428
813.357707	0.996228
813.677093	0.996873
813.996434	0.996351
814.315731	0.998223
814.634983	0.995614
814.954191	0.997208
815.273354	0.995871
815.592473	0.995857
815.911547	0.996333
816.230577	0.995151
816.549562	0.995902
816.868502	0.995330
817.187399	0.996303
817.506250	0.995659
817.825058	0.994279
818.143821	0.996091
818.462539	0.994913
818.781213	0.994973
819.099843	0.994129
819.418429	0.992688
819.736970	0.992984
820.055466	0.989826
820.373919	0.989925
820.692327	0.987066
821.010691	0.985929
821.329011	0.981136
821.647286	0.974596
821.965517	0.966762
822.283704	0.960751
822.601847	0.958105
822.919945	0.960511
823.237999	0.963954
823.556010	0.967295
823.873976	0.970796
824.191897	0.975344
824.509775	0.978075
824.827609	0.980053
825.145398	0.982879
825.463144	0.981089
825.780845	0.982249
826.098502	0.982531
826.416116	0.981828
826.733685	0.977762
827.051210	0.973072
827.368692	0.975922
827.686129	0.977108
828.003522	0.981870
828.320872	0.983410
828.638177	0.986728
828.955439	0.989304
829.272656	0.990327
829.589830	0.991037
829.906960	0.992865
830.224046	0.993677
830.541088	0.993303
830.858086	0.993161
831.175041	0.994706
831.491952	0.994443
831.808819	0.993027
832.125642	0.993698
832.442421	0.994232
832.759157	0.992746
833.075849	0.988438
833.392497	0.986730
833.709101	0.983230
834.025662	0.983035
834.342179	0.983674
834.658653	0.987210
834.975083	0.989365
835.291469	0.990871
835.607811	0.992487
835.924110	0.993149
836.240366	0.994613
836.556578	0.994825
836.872746	0.996610
837.188871	0.996085
837.504952	0.995881
837.820990	0.997080
838.136984	0.995897
838.452935	0.996207
838.768842	0.997263
839.084706	0.996193
839.400526	0.996302
839.716303	0.993345
840.032037	0.991969
840.347727	0.992027
840.663373	0.992360
840.978977	0.993676
841.294537	0.995853
841.610054	0.996656
841.925527	0.997008
842.240957	0.996936
842.556344	0.998233
842.871687	0.998016
843.186987	0.997737
843.502244	0.998265
843.817458	0.997099
844.132629	0.998801
844.447756	0.998162
844.762840	0.999267
845.077881	0.999615
845.392879	0.997976
845.707833	0.999242
846.022745	0.999222
846.337613	0.998801
846.652438	0.999299
846.967221	0.999631
847.281960	0.999918
847.596656	0.999336
847.911309	0.999140
848.225919	0.999045
848.540485	0.999260
848.855009	0.999165
849.169490	0.999268
849.483928	0.999619
849.798323	0.998130
850.112675	1.000258
850.426984	0.998596
850.741251	0.999685
851.055474	0.998657
851.369654	1.000032
851.683792	0.998364
851.997887	0.999752
852.311938	0.999497
852.625947	0.998883
852.939914	0.997422
853.253837	0.999021
853.567718	1.000291
853.881555	0.998683
854.195350	0.999107
854.509103	0.999967
854.822812	0.999824
855.136479	0.999668
855.450103	0.998954
855.763685	0.999725
856.077224	0.999658
856.390720	0.998861
856.704173	0.999174
857.017584	0.999456
857.330953	0.998905
857.644278	0.998486
857.957561	1.000011
858.270802	0.999028
858.584000	0.999106
858.897155	0.998563
859.210268	0.999227
859.523339	0.999795
859.836367	0.999180
860.149352	0.999017
860.462295	0.998979
860.775195	0.999820
861.088054	0.998237
861.400869	0.998378
861.713642	0.998053
862.026373	1.000134
862.339062	1.000119
862.651708	0.999223
862.964312	0.999656
863.276873	0.999405
863.589392	1.000315
863.901869	0.999810
864.214303	0.999582
864.526696	0.998402
864.839045	0.999789
865.151353	0.998438
865.463619	0.997985
865.775842	0.998195
866.088023	0.999122
866.400162	0.998625
866.712258	0.999917
867.024313	0.998779
867.336325	0.999484
867.648296	0.999283
867.960224	0.998506
868.272110	0.999843
868.583954	0.998551
868.895755	0.998678
869.207515	0.998717
869.519233	0.999803
869.830909	0.997871
870.142542	0.997980
870.454134	0.997489
870.765684	0.998488
871.077191	0.998600
871.388657	0.998558
871.700081	0.998478
872.011463	0.999196
872.322803	0.997948
872.634101	0.997403
872.945357	0.997506
873.256571	0.997513
873.567744	0.997079
873.878874	0.998096
874.189963	0.996596
874.501010	0.999281
874.812015	0.996933
875.122979	0.997536
875.433900	0.997765
875.744780	0.997062
876.055618	0.996549
876.366415	0.996566
876.677169	0.996906
876.987882	0.997433
877.298554	0.997384
877.609183	0.996455
877.919771	0.996880
878.230317	0.997375
878.540822	0.994785
878.851285	0.994875
879.161707	0.994793
879.472087	0.995567
879.782425	0.990932
880.092722	0.990145
880.402977	0.985939
880.713191	0.980085
881.023363	0.974316
881.333494	0.970838
881.643583	0.970201
881.953631	0.969903
882.263637	0.969870
882.573602	0.972758
882.883526	0.975389
883.193408	0.978331
883.503248	0.980227
883.813048	0.981701
884.122806	0.984293
884.432522	0.986617
884.742197	0.989303
885.051831	0.990587
885.361424	0.991785
885.670975	0.992081
885.980485	0.992873
886.289954	0.993902
886.599382	0.993745
886.908768	0.995382
887.218113	0.994082
887.527417	0.996002
887.836680	0.996875
888.145901	0.997184
888.455082	0.997978
888.764221	0.997123
889.073319	0.996836
889.382376	0.998369
889.691392	0.996026
890.000366	0.997472
890.309300	0.997220
890.618193	0.995824
890.927044	0.996571
891.235855	0.996581
891.544625	0.996645
891.853353	0.996268
892.162041	0.997047
892.470687	0.997305
892.779293	0.995585
893.087858	0.994010
893.396381	0.993947
893.704864	0.991607
894.013306	0.990948
894.321707	0.989211
894.630068	0.986754
894.938387	0.985684
895.246665	0.985394
895.554903	0.985874
895.863100	0.989296
896.171256	0.990541
896.479371	0.990411
896.787446	0.991626
897.095480	0.993495
897.403473	0.994412
897.711425	0.994240
898.019336	0.994570
898.327207	0.995196
898.635038	0.994614
898.942827	0.996412
899.250576	0.995837
899.558284	0.996276
899.865952	0.996108
900.173579	0.997237
900.481165	0.996531
900.788711	0.995563
901.096216	0.997841
901.403681	0.997575
901.711105	0.996431
902.018489	0.997465
902.325832	0.997136
902.633135	0.997324
902.940397	0.997383
903.247619	0.995429
903.554800	0.992891
903.861941	0.989137
904.169041	0.984859
904.476101	0.982200
904.783121	0.982080
905.090100	0.984236
905.397039	0.986463
905.703938	0.988835
906.010796	0.990722
906.317614	0.992805
906.624391	0.993750
906.931129	0.995823
907.237826	0.995294
907.544483	0.996603
907.851099	0.995902
908.157675	0.997080
908.464211	0.998463
908.770707	0.997669
909.077163	0.998883
909.383578	0.998166
909.689954	0.997534
909.996289	0.998352
910.302584	0.998250
910.608839	0.999591
910.915054	0.998421
911.221229	0.999797
911.527363	0.997512
911.833458	1.000817
912.139513	0.999739
912.445527	0.998934
912.751502	0.998041
913.057436	0.997461
913.363331	0.998998
913.669186	0.999087
913.975000	0.996759
914.280775	0.996688
914.586510	0.993930
914.892205	0.991904
915.197859	0.990651
915.503475	0.988757
915.809050	0.985493
916.114585	0.982766
916.420081	0.982946
916.725536	0.984034
917.030952	0.985104
917.336328	0.986245
917.641665	0.987708
917.946961	0.988270
918.252218	0.989917
918.557435	0.990458
918.862612	0.993219
919.167750	0.994101
919.472848	0.995585
919.777906	0.996182
920.082925	0.996448
920.387904	0.996481
920.692843	0.997197
920.997743	0.996744
921.302603	0.997279
921.607423	0.996825
921.912204	0.998406
922.216946	0.999046
922.521647	0.998478
922.826310	0.997603
923.130932	0.999013
923.435516	0.998888
923.740059	0.997663
924.044564	0.997709
924.349028	0.998023
924.653454	0.999401
924.957840	0.999641
925.262186	0.999596
925.566493	0.999296
925.870761	0.998939
926.174989	0.999468
926.479178	1.001288
926.783328	0.999653
927.087438	0.998622
927.391509	1.000317
927.695541	1.000173
927.999533	1.000218
928.303486	0.999622
928.607400	0.999472
928.911275	1.000869
929.215110	1.000817
929.518906	1.000342
929.822663	1.001241
930.126381	1.000844
930.430060	1.000831
930.733699	1.000639
931.037299	1.000191
931.340861	1.001651
931.644383	0.999111
931.947866	0.999914
932.251309	1.001098
932.554714	1.000540
932.858080	1.000282
933.161407	1.000000
933.464694	1.000512
933.767943	1.000131
934.071153	1.001210
934.374323	1.001323
934.677455	1.000412
934.980548	1.001362
935.283602	1.001359
935.586617	1.000251
935.889593	1.001091
936.192530	1.000313
936.495428	0.999525
936.798287	0.999038
937.101108	1.000110
937.403890	0.998944
937.706632	1.001585
938.009336	0.999445
938.312002	0.999397
938.614628	0.999478
938.917216	0.998683
939.219765	0.997664
939.522275	0.999449
939.824747	0.999138
940.127179	0.999315
940.429573	1.000891
940.731929	0.998269
941.034246	0.998580
941.336524	0.998732
941.638763	0.999038
941.940964	0.999312
942.243126	0.998464
942.545250	1.000016
942.847335	0.999637
943.149381	1.000149
943.451389	0.998445
943.753359	0.999706
944.055290	1.000725
944.357182	0.999836
944.659036	1.000843
944.960851	1.001306
945.262628	1.000854
945.564367	1.000315
945.866067	1.000193
946.167729	1.001315
946.469352	1.000183
946.770937	0.997027
947.072484	1.001316
947.373992	1.000127
947.675462	0.999745
947.976893	1.000219
948.278286	1.000634
948.579641	1.001388
948.880958	0.999894
949.182236	1.000640
949.483476	1.000958
949.784678	1.000637
950.085841	1.000757
950.386967	0.999767
950.688054	1.000869
950.989103	1.000401
951.290114	0.999440
951.591087	0.999434
951.892021	1.000313
952.192917	1.000655
952.493776	1.000797
952.794596	1.000057
953.095378	0.999437
953.396122	1.000309
953.696828	1.000195
953.997496	1.000271
954.298126	1.000613
954.598718	0.999221
954.899272	1.000609
955.199788	0.999777
955.500266	1.000902
955.800706	0.999778
956.101108	1.000417
956.401472	1.001796
956.701798	1.001370
957.002087	1.000817
957.302337	1.001397
957.602550	1.001567
957.902724	1.000216
958.202861	1.000196
958.502960	1.000429
958.803022	1.001624
959.103045	1.002513
959.403031	1.002396
959.702979	1.001695
960.002889	1.001298
960.302762	1.000700
960.602596	1.002521
960.902393	1.002137
961.202153	1.001779
961.501875	1.000868
961.801559	1.002615
962.101205	1.000547
962.400814	1.002326
962.700385	1.002431
962.999918	1.001511
963.299414	1.002431
963.598873	1.001849
963.898293	1.002029
964.197677	1.001063
964.497022	1.001858
964.796331	1.001421
965.095601	1.002880
965.394835	1.001862
965.694030	1.003394
965.993189	1.000952
966.292309	1.004072
966.591393	1.001050
966.890439	1.002680
967.189447	1.000501
967.488419	1.001242
967.787353	1.002907
968.086249	1.002670
968.385108	1.001631
968.683930	1.002924
968.982714	1.001618
969.281462	1.001773
969.580172	1.001939
969.878844	1.002243
970.177480	1.001280
970.476078	1.003289
970.774639	1.002735
971.073162	1.000907
971.371649	1.001258
971.670098	1.000944
971.968510	1.002634
972.266885	1.000539
972.565223	1.001795
972.863524	1.001313
973.161788	1.000801
973.460014	1.002402
973.758204	1.000822
974.056356	1.001718
974.354471	1.001927
974.652550	1.001082
974.950591	1.001917
975.248595	1.001134
975.546563	1.001359
975.844493	1.002988
976.142386	1.001113
976.440243	1.002301
976.738062	1.002023
977.035845	1.001716
977.333590	1.003072
977.631299	1.001833
977.928971	1.002388
978.226606	1.002160
978.524204	1.000661
978.821765	1.003208
979.119290	1.002495
979.416777	1.001163
979.714228	1.002574
980.011642	1.001510
980.309020	1.001450
980.606360	1.000893
980.903664	1.001429
981.200931	1.000944
981.498162	1.002474
981.795356	1.000993
982.092513	1.001555
982.389633	1.001280
982.686717	1.000735
982.983764	1.000568
983.280775	1.001266
983.577749	1.002118
983.874686	1.000467
984.171587	0.999987
984.468451	1.003088
984.765279	1.002776
985.062070	1.001756
985.358824	1.000887
985.655543	1.001748
985.952224	1.001703
986.248869	1.001493
986.545478	1.004005
986.842050	1.001884
987.138586	1.000712
987.435086	1.002937
987.731549	1.003315
988.027975	1.002670
988.324366	1.002257
988.620719	1.002869
988.917037	1.001932
989.213318	1.002734
989.509563	1.002707
989.805772	1.003022
990.101944	1.003064
990.398080	1.002136
990.694180	1.004427
990.990244	1.001449
991.286271	1.001826
991.582262	1.003060
991.878217	1.001643
992.174136	1.002758
992.470019	1.001390
992.765865	1.003773
993.061676	1.002571
993.357450	1.002594
993.653188	1.003345
993.948890	1.002088
994.244556	1.001375
994.540186	1.002467
994.835780	1.002032
995.131337	1.002665
995.426859	1.002638
995.722345	1.001980
996.017795	1.001941
996.313208	1.003242
996.608586	1.001726
996.903928	1.002055
997.199234	1.002495
997.494504	1.003561
997.789738	1.000317
998.084936	1.002280
998.380099	1.002155
998.675225	1.004068
998.970316	1.003167
999.265371	1.001831
999.560390	1.002538
999.855373	1.002184
1000.150320	1.003137
1000.445232	1.002983
1000.740108	1.002747
1001.034948	1.002057
1001.329752	1.003243
1001.624521	1.002608
1001.919254	1.002466
1002.213951	1.003433
1002.508613	1.002862
1002.803239	1.002610
1003.097829	1.003009
1003.392384	1.002180
1003.686903	1.003682
1003.981386	1.002934
1004.275834	1.003717
1004.570246	1.001126
1004.864623	1.003233
1005.158964	1.002737
1005.453270	1.001732
1005.747540	1.001987
1006.041775	1.003819
1006.335974	1.002794
1006.630138	1.003544
1006.924266	1.001829
1007.218359	1.001848
1007.512416	1.003456
1007.806438	1.002389
1008.100425	1.003033
1008.394376	1.003403
1008.688292	1.002457
1008.982172	1.002396
1009.276017	1.002767
1009.569827	1.003005
1009.863602	1.002500
1010.157341	1.004060
1010.451045	1.002779
1010.744714	1.004884
1011.038347	1.004180
1011.331945	1.003718
1011.625508	1.002120
1011.919036	1.003117
1012.212528	1.003746
1012.505986	1.002651
1012.799408	1.003343
1013.092795	1.002976
1013.386147	1.003501
1013.679464	1.003042
1013.972745	1.002905
1014.265992	1.003259
1014.559204	1.002278
1014.852380	1.004435
1015.145521	1.002766
1015.438628	1.002180
1015.731699	1.002418
1016.024736	1.003802
1016.317737	1.003886
1016.610703	1.003994
1016.903635	1.003405
1017.196531	1.002825
1017.489393	1.002188
1017.782219	1.002097
1018.075011	1.002624
1018.367768	1.002184
1018.660490	1.002963
1018.953177	1.002963
1019.245829	1.002963
