Dividing Wavelength (nm)	Counts (n)	Blue Motor Position (mm): 35.800000	Red Motor Position (mm): 0.000000	
326.493990	0.999644
326.888308	0.999644
327.282561	0.999644
327.676750	1.000435
328.070874	1.000072
328.464933	1.000701
328.858929	1.000919
329.252859	0.999235
329.646726	1.001294
330.040528	1.000975
330.434265	0.999490
330.827938	1.000209
331.221547	1.000061
331.615091	1.000500
332.008571	1.000542
332.401986	0.999296
332.795338	1.000277
333.188625	1.000423
333.581847	1.000285
333.975006	1.001650
334.368100	1.000859
334.761129	1.000466
335.154095	0.999756
335.546996	1.000293
335.939833	0.999420
336.332606	0.999658
336.725315	0.998655
337.117960	0.999830
337.510540	1.000231
337.903056	0.999718
338.295508	1.001110
338.687896	1.000177
339.080220	0.999839
339.472480	1.000201
339.864676	1.000676
340.256807	0.998943
340.648875	1.000826
341.040879	0.999288
341.432818	1.000753
341.824694	0.999856
342.216506	1.000656
342.608253	1.000373
342.999937	0.999207
343.391557	0.999874
343.783113	1.000978
344.174605	0.999967
344.566033	0.999664
344.957397	0.999883
345.348697	1.001008
345.739934	0.998786
346.131106	0.999394
346.522215	0.999182
346.913260	1.000382
347.304241	0.998726
347.695159	0.999589
348.086012	0.998652
348.476802	1.000167
348.867528	0.999743
349.258191	1.000013
349.648789	1.000108
350.039324	0.999206
350.429796	0.999310
350.820203	0.998633
351.210548	1.000274
351.600828	0.999336
351.991045	0.999669
352.381198	1.000292
352.771288	0.999761
353.161314	0.999878
353.551276	0.998682
353.941175	0.997947
354.331010	0.999082
354.720782	0.999295
355.110490	0.999499
355.500135	1.000189
355.889717	0.998331
356.279235	0.999030
356.668689	0.999296
357.058080	0.998621
357.447408	0.998300
357.836672	0.998946
358.225873	0.998603
358.615010	0.997932
359.004084	0.997246
359.393095	0.998865
359.782043	0.997678
360.170927	0.998988
360.559748	0.998676
360.948505	0.998233
361.337199	0.998858
361.725830	0.997792
362.114398	0.998454
362.502903	0.997446
362.891344	0.998045
363.279722	0.998044
363.668037	1.000091
364.056289	0.998667
364.444478	1.000168
364.832603	0.997970
365.220665	0.998568
365.608665	0.997910
365.996601	0.997836
366.384474	0.996741
366.772284	0.997566
367.160031	0.996360
367.547715	0.996958
367.935336	0.995361
368.322893	0.994982
368.710388	0.993659
369.097820	0.992010
369.485189	0.989579
369.872495	0.988958
370.259738	0.986046
370.646918	0.983063
371.034035	0.980715
371.421090	0.977583
371.808081	0.971239
372.195010	0.970697
372.581875	0.964661
372.968678	0.960490
373.355418	0.957015
373.742096	0.950134
374.128710	0.945377
374.515262	0.941862
374.901751	0.934085
375.288177	0.929701
375.674540	0.922915
376.060841	0.916835
376.447079	0.910816
376.833254	0.903289
377.219367	0.899261
377.605417	0.887023
377.991404	0.883968
378.377329	0.877438
378.763191	0.871670
379.148991	0.861594
379.534727	0.855850
379.920402	0.847243
380.306013	0.842830
380.691563	0.831153
381.077049	0.824134
381.462474	0.819626
381.847835	0.808262
382.233134	0.804017
382.618371	0.804073
383.003545	0.786188
383.388657	0.784650
383.773706	0.777656
384.158693	0.772866
384.543618	0.768470
384.928480	0.759161
385.313280	0.748984
385.698017	0.748897
386.082692	0.737483
386.467305	0.735760
386.851856	0.730861
387.236344	0.724797
387.620770	0.719596
388.005133	0.714022
388.389435	0.708504
388.773674	0.706206
389.157851	0.698345
389.541965	0.695418
389.926018	0.701247
390.310008	0.688410
390.693936	0.685152
391.077802	0.677709
391.461606	0.678435
391.845348	0.668925
392.229027	0.667936
392.612645	0.666396
392.996200	0.653740
393.379694	0.646428
393.763125	0.637434
394.146494	0.640658
394.529801	0.632080
394.913047	0.623777
395.296230	0.630111
395.679351	0.621076
396.062410	0.618837
396.445408	0.620669
396.828343	0.616867
397.211217	0.612194
397.594028	0.623327
397.976778	0.614155
398.359466	0.610835
398.742092	0.606186
399.124656	0.618341
399.507158	0.606777
399.889598	0.604886
400.271977	0.595667
400.654294	0.600796
401.036549	0.600644
401.418742	0.606259
401.800874	0.592343
402.182944	0.589879
402.564952	0.583371
402.946898	0.587565
403.328783	0.589558
403.710606	0.602589
404.092367	0.580537
404.474067	0.588086
404.855705	0.589172
405.237282	0.600418
405.618797	0.591095
406.000250	0.590543
406.381642	0.584740
406.762972	0.593564
407.144240	0.596106
407.525447	0.599970
407.906593	0.598190
408.287677	0.598595
408.668700	0.610898
409.049661	0.610628
409.430560	0.612213
409.811399	0.625593
410.192176	0.615739
410.572891	0.628478
410.953545	0.624530
411.334138	0.642071
411.714669	0.642844
412.095139	0.658614
412.475547	0.654232
412.855894	0.663634
413.236180	0.670246
413.616405	0.681286
413.996568	0.682677
414.376670	0.694709
414.756711	0.704962
415.136691	0.711621
415.516609	0.715361
415.896466	0.720895
416.276262	0.727302
416.655997	0.737458
417.035670	0.735164
417.415283	0.739588
417.794834	0.752013
418.174324	0.762676
418.553753	0.775276
418.933121	0.775974
419.312428	0.782922
419.691674	0.795074
420.070859	0.798965
420.449983	0.810571
420.829045	0.814151
421.208047	0.826663
421.586988	0.832726
421.965867	0.839487
422.344686	0.846051
422.723444	0.855790
423.102141	0.868427
423.480777	0.868043
423.859352	0.881355
424.237866	0.883582
424.616319	0.889925
424.994712	0.893755
425.373044	0.903178
425.751314	0.907775
426.129524	0.916921
426.507673	0.919271
426.885762	0.922558
427.263789	0.929484
427.641756	0.936307
428.019662	0.939842
428.397508	0.944342
428.775292	0.948112
429.153016	0.951957
429.530679	0.956497
429.908282	0.960662
430.285824	0.963382
430.663305	0.965066
431.040726	0.969541
431.418086	0.972192
431.795385	0.974387
432.172624	0.977071
432.549802	0.978471
432.926920	0.980374
433.303977	0.982399
433.680974	0.984541
434.057910	0.985533
434.434786	0.986144
434.811601	0.988404
435.188355	0.990339
435.565050	0.990879
435.941683	0.991794
436.318257	0.991203
436.694770	0.992443
437.071222	0.993860
437.447614	0.993848
437.823946	0.994864
438.200218	0.994533
438.576429	0.995585
438.952580	0.996332
439.328670	0.995343
439.704700	0.995713
440.080670	0.997009
440.456580	0.996646
440.832429	0.996922
441.208218	0.997510
441.583947	0.997832
441.959616	0.996479
442.335224	0.998031
442.710773	0.998573
443.086261	0.998158
443.461689	0.996384
443.837057	0.998297
444.212365	0.998033
444.587612	0.998680
444.962800	0.997478
445.337927	0.999072
445.712995	0.997962
446.088002	0.998091
446.462949	0.998300
446.837837	0.999687
447.212664	0.997891
447.587431	0.998569
447.962139	0.998015
448.336786	0.997667
448.711374	0.997837
449.085901	0.998489
449.460369	0.999079
449.834776	0.997846
450.209124	0.998558
450.583412	0.998671
450.957640	0.997553
451.331808	0.998720
451.705917	0.998043
452.079965	0.998358
452.453954	0.998888
452.827883	0.998452
453.201752	0.998682
453.575562	0.998495
453.949311	0.999459
454.323001	0.998582
454.696632	0.998707
455.070202	0.998094
455.443713	0.998436
455.817164	0.998719
456.190556	0.998374
456.563888	0.999799
456.937160	0.998674
457.310373	0.998188
457.683526	0.999392
458.056619	0.998425
458.429653	0.998541
458.802628	0.998681
459.175542	0.998410
459.548398	0.999124
459.921194	0.999024
460.293930	0.998845
460.666607	0.998877
461.039224	0.998798
461.411782	0.998576
461.784280	0.997995
462.156719	0.999346
462.529099	0.998607
462.901419	0.997838
463.273680	0.998215
463.645882	0.998209
464.018024	0.998740
464.390106	0.997336
464.762130	0.999042
465.134094	0.997669
465.505999	0.998348
465.877845	0.998218
466.249631	0.997771
466.621358	0.997233
466.993026	0.997726
467.364634	0.997911
467.736184	0.998252
468.107674	0.997563
468.479105	0.997991
468.850477	0.998211
469.221790	0.998537
469.593043	0.997595
469.964238	0.997684
470.335373	0.997584
470.706449	0.997743
471.077467	0.998396
471.448425	0.998228
471.819324	0.997384
472.190164	0.997924
472.560945	0.998256
472.931667	0.997368
473.302330	0.998262
473.672934	0.998386
474.043479	0.997624
474.413965	0.997880
474.784393	0.997289
475.154761	0.997157
475.525070	0.998256
475.895321	0.997693
476.265513	0.997675
476.635645	0.997947
477.005719	0.997822
477.375734	0.997197
477.745691	0.998011
478.115588	0.997066
478.485427	0.997463
478.855207	0.998119
479.224928	0.997830
479.594591	0.997002
479.964194	0.997272
480.333739	0.997083
480.703226	0.997282
481.072653	0.997134
481.442022	0.997291
481.811333	0.997396
482.180584	0.997770
482.549777	0.998056
482.918912	0.997340
483.287988	0.997541
483.657005	0.997261
484.025964	0.997039
484.394864	0.997343
484.763706	0.997094
485.132489	0.997953
485.501213	0.997934
485.869879	0.997367
486.238487	0.997472
486.607036	0.998229
486.975527	0.997352
487.343959	0.997174
487.712333	0.997628
488.080648	0.997560
488.448905	0.997640
488.817104	0.997817
489.185244	0.997622
489.553326	0.997880
489.921350	0.998111
490.289315	0.996991
490.657222	0.996951
491.025070	0.998157
491.392861	0.997169
491.760593	0.997880
492.128267	0.997699
492.495883	0.996945
492.863440	0.998121
493.230939	0.997611
493.598380	0.998595
493.965763	0.997741
494.333088	0.997228
494.700354	0.997311
495.067563	0.997663
495.434713	0.998355
495.801805	0.997776
496.168839	0.997930
496.535815	0.997925
496.902733	0.997836
497.269593	0.997649
497.636395	0.996823
498.003139	0.997491
498.369825	0.998460
498.736453	0.997819
499.103023	0.997902
499.469535	0.997799
499.835989	0.998188
500.202385	0.997681
500.568723	0.997797
500.935003	0.998282
501.301226	0.998234
501.667390	0.997138
502.033497	0.998262
502.399546	0.997729
502.765537	0.997842
503.131470	0.998205
503.497345	0.997941
503.863163	0.997663
504.228923	0.997685
504.594625	0.996965
504.960269	0.997710
505.325856	0.998866
505.691385	0.998027
506.056856	0.998016
506.422270	0.997604
506.787625	0.998043
507.152924	0.998052
507.518164	0.997701
507.883347	0.997906
508.248472	0.997664
508.613540	0.997382
508.978550	0.998304
509.343503	0.997591
509.708398	0.998254
510.073236	0.997915
510.438016	0.997468
510.802738	0.997267
511.167403	0.997624
511.532010	0.998304
511.896561	0.998201
512.261053	0.997509
512.625488	0.997758
512.989866	0.997249
513.354186	0.997295
513.718449	0.997813
514.082655	0.997286
514.446803	0.997923
514.810894	0.998451
515.174927	0.997878
515.538904	0.998375
515.902822	0.997847
516.266684	0.998550
516.630488	0.997950
516.994235	0.998184
517.357925	0.997886
517.721558	0.998595
518.085133	0.997612
518.448651	0.997960
518.812112	0.998194
519.175516	0.998177
519.538863	0.997616
519.902152	0.998210
520.265385	0.997678
520.628560	0.997898
520.991678	0.997983
521.354739	0.998382
521.717743	0.997904
522.080690	0.997459
522.443580	0.997674
522.806413	0.997304
523.169189	0.997675
523.531908	0.997429
523.894569	0.997779
524.257174	0.997919
524.619722	0.997875
524.982213	0.997616
525.344647	0.997846
525.707025	0.997820
526.069345	0.997951
526.431608	0.998258
526.793815	0.997847
527.155964	0.998577
527.518057	0.998474
527.880093	0.998054
528.242072	0.997429
528.603995	0.997614
528.965860	0.998575
529.327669	0.997988
529.689421	0.997538
530.051117	0.997729
530.412755	0.998266
530.774337	0.997933
531.135862	0.998286
531.497331	0.997619
531.858743	0.998495
532.220098	0.997937
532.581396	0.998238
532.942638	0.998095
533.303824	0.998511
533.664953	0.997521
534.026025	0.998808
534.387040	0.997743
534.747999	0.997598
535.108902	0.997717
535.469748	0.998353
535.830537	0.998787
536.191270	0.997785
536.551947	0.998345
536.912567	0.998138
537.273131	0.998604
537.633638	0.998115
537.994089	0.998975
538.354483	0.998205
538.714821	0.998677
539.075103	0.997606
539.435328	0.998464
539.795497	0.998245
540.155609	0.998486
540.515665	0.998556
540.875665	0.997935
541.235609	0.998476
541.595496	0.997627
541.955328	0.998092
542.315102	0.998287
542.674821	0.998646
543.034483	0.998379
543.394090	0.997472
543.753640	0.998330
544.113134	0.997986
544.472571	0.998133
544.831953	0.998611
545.191278	0.998566
545.550548	0.997523
545.909761	0.997151
546.268918	0.998986
546.628019	0.998981
546.987064	0.997937
547.346053	0.997719
547.704986	0.998227
548.063863	0.997987
548.422684	0.998841
548.781449	0.998301
549.140158	0.998339
549.498811	0.997644
549.857408	0.997939
550.215949	0.997651
550.574434	0.997860
550.932864	0.998255
551.291237	0.998361
551.649555	0.998437
552.007817	0.998306
552.366022	0.998279
552.724173	0.998906
553.082267	0.998189
553.440305	0.997616
553.798288	0.997512
554.156215	0.998110
554.514086	0.998339
554.871902	0.998542
555.229661	0.997791
555.587365	0.997998
555.945014	0.999118
556.302606	0.997639
556.660143	0.998699
557.017625	0.998631
557.375050	0.997843
557.732421	0.998167
558.089735	0.997933
558.446994	0.997759
558.804197	0.998470
559.161345	0.997939
559.518437	0.997748
559.875474	0.998596
560.232455	0.997973
560.589381	0.998446
560.946251	0.997926
561.303065	0.998557
561.659825	0.997843
562.016528	0.998627
562.373177	0.998330
562.729770	0.997915
563.086307	0.997226
563.442789	0.998795
563.799216	0.997657
564.155587	0.998529
564.511904	0.998822
564.868164	0.997768
565.224370	0.997546
565.580520	0.998089
565.936615	0.998143
566.292654	0.998313
566.648638	0.998608
567.004567	0.998009
567.360441	0.998240
567.716260	0.997607
568.072023	0.997362
568.427732	0.998166
568.783385	0.998371
569.138982	0.998757
569.494525	0.998064
569.850013	0.998519
570.205445	0.998460
570.560823	0.997901
570.916145	0.998286
571.271412	0.998307
571.626625	0.998829
571.981782	0.998286
572.336884	0.998605
572.691931	0.998655
573.046923	0.998520
573.401860	0.998276
573.756743	0.998191
574.111570	0.997981
574.466342	0.999167
574.821059	0.998498
575.175722	0.998691
575.530330	0.998305
575.884882	0.997813
576.239380	0.998351
576.593823	0.998485
576.948211	0.998590
577.302544	0.998142
577.656823	0.999129
578.011047	0.997987
578.365216	0.998976
578.719330	0.998886
579.073389	0.997477
579.427394	0.998485
579.781344	0.998571
580.135239	0.997744
580.489080	0.998138
580.842866	0.997599
581.196597	0.997649
581.550273	0.998574
581.903895	0.998254
582.257463	0.997734
582.610975	0.997930
582.964434	0.998291
583.317837	0.998944
583.671186	0.998398
584.024481	0.998609
584.377721	0.996990
584.730906	0.998583
585.084037	0.999374
585.437113	0.999363
585.790135	0.998330
586.143103	0.998423
586.496016	0.998836
586.848874	0.998254
587.201679	0.997896
587.554428	0.998194
587.907124	0.998341
588.259765	0.998295
588.612352	0.999042
588.964884	0.999048
589.317362	0.998013
589.669786	0.997828
590.022155	0.998326
590.374470	0.998192
590.726731	0.997717
591.078937	0.999129
591.431090	0.998698
591.783188	0.997694
592.135232	0.998997
592.487222	0.998534
592.839157	0.998182
593.191038	0.998838
593.542866	0.998623
593.894639	0.997769
594.246358	0.998801
594.598022	0.999029
594.949633	0.998844
595.301190	0.998295
595.652692	0.998398
596.004141	0.998558
596.355535	0.998101
596.706876	0.998902
597.058162	0.999194
597.409395	0.998681
597.760573	0.998122
598.111698	0.998432
598.462768	0.998393
598.813785	0.997833
599.164748	0.998275
599.515657	0.998289
599.866511	0.999046
600.217312	0.998810
600.568060	0.998323
600.918753	0.998846
601.269392	0.998996
601.619978	0.998473
601.970510	0.998191
602.320988	0.998197
602.671412	0.998534
603.021783	0.998388
603.372100	0.998734
603.722363	0.999006
604.072572	0.998650
604.422728	0.997868
604.772830	0.998367
605.122878	0.998417
605.472872	0.998418
605.822813	0.998644
606.172701	0.998590
606.522534	0.998900
606.872314	0.999312
607.222041	0.998695
607.571714	0.998610
607.921333	0.997874
608.270899	0.998223
608.620411	0.999095
608.969870	0.999564
609.319276	0.998744
609.668627	0.998906
610.017926	0.998625
610.367171	0.998454
610.716362	0.998298
611.065500	0.998806
611.414585	0.998188
611.763616	0.998036
612.112594	0.998366
612.461518	0.997433
612.810389	0.998892
613.159207	0.998172
613.507971	0.997696
613.856682	0.998429
614.205340	0.997877
614.553945	0.997857
614.902496	0.998264
615.250994	0.999007
615.599439	0.998608
615.947830	0.997701
616.296169	0.998929
616.644454	0.998768
616.992686	0.998857
617.340864	0.998371
617.688990	0.998569
618.037063	0.998489
618.385082	0.998101
618.733048	0.997477
619.080961	0.997716
619.428821	0.998704
619.776628	0.998332
620.124382	0.999518
620.472083	0.999439
620.819731	0.999225
621.167326	0.999041
621.514868	0.999409
621.862357	0.997958
622.209793	0.997813
622.557176	0.998958
622.904506	0.998498
623.251783	0.998526
623.599007	0.998886
623.946179	0.998012
624.293297	0.998753
624.640363	0.999064
624.987376	0.998161
625.334336	0.998668
625.681243	0.998778
626.028097	0.998531
626.374899	0.998427
626.721647	0.999221
627.068343	0.997978
627.414987	0.998621
627.761577	0.997755
628.108115	0.998049
628.454600	0.998929
628.801032	0.998945
629.147412	0.998452
629.493739	0.998861
629.840014	0.999099
630.186236	0.998530
630.532405	0.998812
630.878521	0.997520
631.224585	0.998759
631.570597	0.997431
631.916556	0.998849
632.262462	0.997453
632.608316	0.998911
632.954117	0.997917
633.299866	0.997851
633.645562	0.997954
633.991206	0.999113
634.336797	0.998150
634.682336	0.999103
635.027823	0.998766
635.373257	0.998366
635.718639	0.998992
636.063968	0.998205
636.409245	0.997617
636.754470	0.998553
637.099642	0.999540
637.444762	0.999500
637.789829	0.997895
638.134845	0.998054
638.479808	0.998724
638.824719	0.999138
639.169577	0.998545
639.514383	0.998462
639.859137	0.998408
640.203839	0.998656
640.548489	0.998128
640.893086	0.998716
641.237632	0.999000
641.582125	0.998201
641.926566	0.999450
642.270955	0.998841
642.615292	0.998522
642.959576	0.999245
643.303809	0.998846
643.647990	0.998627
643.992118	0.998925
644.336195	0.998651
644.680219	0.998886
645.024192	0.998741
645.368112	0.998397
645.711981	0.998672
646.055797	0.999171
646.399562	0.997653
646.743274	0.999312
647.086935	0.998443
647.430544	0.998667
647.774101	0.998185
648.117606	0.999161
648.461059	0.998783
648.804460	0.998897
649.147810	0.998235
649.491108	0.998290
649.834354	0.998585
650.177548	0.998650
650.520690	0.998849
650.863781	0.997803
651.206820	0.998315
651.549807	0.998793
651.892742	0.999068
652.235626	0.998967
652.578458	0.998907
652.921238	0.998928
653.263967	0.998960
653.606644	0.997986
653.949269	0.999144
654.291843	0.998352
654.634365	0.999331
654.976836	0.997704
655.319255	0.999311
655.661622	0.998388
656.003938	0.998897
656.346203	0.997231
656.688416	0.998903
657.030577	0.998767
657.372687	0.998676
657.714746	0.998137
658.056753	0.998031
658.398708	0.997829
658.740612	1.000413
659.082465	0.998035
659.424266	0.999200
659.766016	0.998091
660.107715	0.998291
660.449362	0.998007
660.790958	0.998470
661.132503	0.998541
661.473996	0.997571
661.815438	0.999312
662.156829	0.998827
662.498168	0.998804
662.839456	0.998346
663.180693	0.998977
663.521879	0.997913
663.863013	0.998830
664.204097	0.997913
664.545129	0.998632
664.886110	0.998470
665.227040	0.998440
665.567918	0.998193
665.908746	0.997838
666.249522	0.998536
666.590248	0.997514
666.930922	0.998422
667.271545	0.999012
667.612118	0.998077
667.952639	0.998306
668.293109	0.998603
668.633528	0.997821
668.973896	0.998894
669.314213	0.997183
669.654480	0.998702
669.994695	0.997153
670.334859	0.998593
670.674973	0.998502
671.015035	0.998387
671.355047	0.997941
671.695008	0.997659
672.034918	0.998653
672.374777	0.997847
672.714585	0.998437
673.054342	0.998837
673.394049	0.997223
673.733705	0.998132
674.073310	0.998181
674.412864	0.997582
674.752368	0.998368
675.091820	0.998829
675.431223	0.998225
675.770574	0.997508
676.109875	0.998143
676.449125	0.998026
676.788324	0.998642
677.127473	0.998850
677.466571	0.998756
677.805619	0.998510
678.144616	0.998933
678.483562	0.998899
678.822458	0.998044
679.161303	0.997847
679.500098	0.998630
679.838842	0.999101
680.177535	0.997412
680.516179	0.997284
680.854771	0.997222
681.193314	0.997976
681.531805	0.997736
681.870247	0.998039
682.208638	0.998860
682.546978	0.997515
682.885268	0.997519
683.223508	0.998349
683.561697	0.997582
683.899836	0.997879
684.237925	0.997093
684.575963	0.997779
684.913951	0.997198
685.251889	0.997362
685.589776	0.997637
685.927614	0.997565
686.265401	0.996938
686.603137	0.996659
686.940824	0.998220
687.278460	0.998146
687.616046	0.997703
687.953582	0.997621
688.291068	0.998048
688.628504	0.998208
688.965889	0.997520
689.303224	0.997315
689.640510	0.997671
689.977745	0.997406
690.314930	0.997554
690.652065	0.997779
690.989150	0.997591
691.326185	0.998146
691.663170	0.997848
692.000105	0.998290
692.336990	0.997114
692.673825	0.997701
693.010610	0.998277
693.347345	0.998290
693.684030	0.997509
694.020665	0.997690
694.357251	0.998261
694.693786	0.997989
695.030272	0.996637
695.366707	0.997622
695.703093	0.997181
696.039429	0.997326
696.375716	0.998731
696.711952	0.997939
697.048139	0.998429
697.384276	0.997877
697.720363	0.998026
698.056400	0.996990
698.392388	0.996793
698.728326	0.997831
699.064214	0.998164
699.400053	0.998093
699.735842	0.999145
700.071581	0.997224
700.407270	0.997277
700.742910	0.997579
701.078501	0.997091
701.414042	0.999097
701.749533	0.996239
702.084974	0.998286
702.420366	0.997523
702.755709	0.997203
703.091002	0.998565
703.426246	0.998546
703.761440	0.998027
704.096584	0.997443
704.431679	0.996977
704.766725	0.997072
705.101721	0.998424
705.436668	0.997143
705.771565	0.997488
706.106413	0.996915
706.441212	0.997840
706.775961	0.999055
707.110661	0.997980
707.445311	0.997336
707.779913	0.999016
708.114465	0.998087
708.448967	0.997920
708.783421	0.998049
709.117825	0.997627
709.452180	0.999024
709.786485	0.997912
710.120742	0.997856
710.454949	0.996834
710.789107	0.997842
711.123216	0.997293
711.457275	0.996561
711.791286	0.997318
712.125247	0.998524
712.459159	0.996790
712.793023	0.996900
713.126837	0.997702
713.460602	0.996967
713.794318	0.996478
714.127985	0.996461
714.461602	0.997194
714.795171	0.997123
715.128691	0.997180
715.462162	0.997999
715.795584	0.997076
716.128957	0.997699
716.462281	0.998762
716.795556	0.996255
717.128782	0.998076
717.461960	0.998121
717.795088	0.997390
718.128167	0.998035
718.461198	0.997834
718.794180	0.997757
719.127113	0.998077
719.459997	0.997880
719.792833	0.997990
720.125619	0.996896
720.458357	0.998189
720.791046	0.997340
721.123686	0.997731
721.456278	0.997182
721.788821	0.998010
722.121315	0.998820
722.453761	0.998290
722.786158	0.997060
723.118506	0.997470
723.450805	0.996863
723.783056	0.998536
724.115259	0.997348
724.447412	0.998565
724.779518	0.998399
725.111574	0.996838
725.443582	0.997868
725.775542	0.997768
726.107453	0.998419
726.439315	0.997557
726.771129	0.998285
727.102895	0.997450
727.434612	0.997713
727.766281	0.997292
728.097901	0.998289
728.429473	0.998258
728.760996	0.997278
729.092471	0.997872
729.423897	0.997366
729.755276	0.997440
730.086606	0.997250
730.417887	0.999486
730.749120	0.997613
731.080305	0.998138
731.411442	0.996414
731.742530	0.996015
732.073570	0.996677
732.404562	0.998402
732.735506	0.997750
733.066401	0.998754
733.397249	0.997336
733.728048	0.998874
734.058798	0.998303
734.389501	0.997640
734.720156	0.997554
735.050762	0.998176
735.381320	0.997602
735.711831	0.997747
736.042293	0.997376
736.372707	0.998390
736.703073	0.997813
737.033391	0.997667
737.363661	0.997768
737.693883	0.998048
738.024056	0.997277
738.354182	0.997812
738.684260	0.996760
739.014290	0.997947
739.344272	0.997179
739.674207	0.997419
740.004093	0.997712
740.333931	0.997483
740.663722	0.997109
740.993464	0.997787
741.323159	0.997646
741.652806	0.997754
741.982405	0.997069
742.311956	0.998132
742.641460	0.997992
742.970915	0.997305
743.300323	0.996894
743.629683	0.997259
743.958996	0.998557
744.288260	0.997284
744.617477	0.998589
744.946647	0.998196
745.275768	0.997820
745.604842	0.996993
745.933869	0.997673
746.262847	0.997655
746.591778	0.997019
746.920662	0.998237
747.249498	0.998847
747.578286	0.999179
747.907027	0.998069
748.235720	0.998301
748.564365	0.998721
748.892963	0.997535
749.221514	0.998548
749.550017	0.997454
749.878473	0.998742
750.206881	0.999296
750.535242	0.997114
750.863555	0.998456
751.191821	0.998183
751.520039	0.997713
751.848210	0.996016
752.176334	0.997703
752.504411	0.997935
752.832440	0.997392
753.160421	0.998011
753.488356	0.997898
753.816243	0.997800
754.144082	0.996487
754.471875	0.998813
754.799620	0.998558
755.127318	0.997045
755.454969	0.997977
755.782572	0.998424
756.110129	0.996279
756.437638	0.999004
756.765100	0.998779
757.092515	0.998743
757.419882	0.997810
757.747203	0.997433
758.074477	0.998679
758.401703	0.998125
758.728882	0.998005
759.056014	0.997786
759.383099	0.998784
759.710138	0.996976
760.037129	0.997248
760.364073	0.998628
760.690970	0.997674
761.017820	0.997616
761.344623	0.998268
761.671379	0.998937
761.998088	0.998315
762.324751	0.998732
762.651366	0.996572
762.977935	0.997097
763.304456	0.996565
763.630931	0.995168
763.957359	0.995597
764.283740	0.996665
764.610074	0.997210
764.936362	0.996800
765.262602	0.997135
765.588796	0.997278
765.914943	0.997081
766.241044	0.997335
766.567097	0.998016
766.893104	0.998207
767.219064	0.996946
767.544978	0.998244
767.870845	0.999185
768.196665	0.997309
768.522438	0.998045
768.848165	0.998983
769.173846	0.999057
769.499479	0.999072
769.825066	0.999086
770.150607	0.999905
770.476101	0.998878
770.801548	0.998812
771.126949	0.999432
771.452303	0.998067
771.777611	0.998551
772.102872	0.998502
772.428087	0.997810
772.753256	0.997935
773.078378	0.998889
773.403453	0.998640
773.728482	0.998918
774.053465	0.998776
774.378401	0.998033
774.703291	0.998637
775.028135	1.000056
775.352932	0.997667
775.677683	1.000092
776.002388	0.999081
776.327046	0.997714
776.651658	0.999458
776.976224	0.998223
777.300743	0.997538
777.625216	0.998433
777.949643	0.998997
778.274024	0.998086
778.598359	0.998532
778.922647	0.998260
779.246889	0.999307
779.571086	0.998487
779.895236	0.998639
780.219339	0.999462
780.543397	0.997913
780.867409	0.999535
781.191374	0.998135
781.515294	0.999652
781.839167	0.999585
782.162995	0.999264
782.486776	0.998252
782.810511	0.998158
783.134201	0.999975
783.457844	0.998213
783.781441	0.998364
784.104993	0.998538
784.428498	0.998238
784.751958	0.999849
785.075372	0.998572
785.398739	0.998520
785.722061	0.997923
786.045337	0.998308
786.368568	0.998954
786.691752	0.998911
787.014891	0.998101
787.337983	0.997143
787.661030	0.998718
787.984031	0.999182
788.306987	0.998847
788.629897	0.996947
788.952760	0.999107
789.275579	0.998595
789.598351	0.998338
789.921078	0.999519
790.243759	0.998736
790.566395	0.998535
790.888984	1.000246
791.211529	0.999405
791.534027	0.999501
791.856480	0.998324
792.178888	0.999004
792.501249	0.998481
792.823566	1.000506
793.145836	0.998478
793.468062	0.999448
793.790241	0.999656
794.112375	0.997721
794.434464	0.999193
794.756507	0.999396
795.078505	0.998423
795.400457	0.999165
795.722364	0.998121
796.044226	0.999066
796.366042	0.998057
796.687812	0.997910
797.009538	0.998387
797.331218	0.998922
797.652852	0.998558
797.974442	0.999517
798.295986	0.998182
798.617484	0.997312
798.938938	0.998989
799.260346	0.999076
799.581709	0.998105
799.903026	0.999623
800.224299	0.999237
800.545526	0.998336
800.866708	0.998521
801.187845	0.999115
801.508936	0.999308
801.829983	0.998865
802.150984	0.999248
802.471940	0.998950
802.792851	0.998669
803.113717	0.999726
803.434538	0.999405
803.755314	0.999431
804.076045	0.998012
804.396731	0.998732
804.717372	0.998128
805.037967	0.999492
805.358518	0.999096
805.679024	0.998006
805.999485	0.998367
806.319901	0.998597
806.640272	0.999273
806.960598	0.999272
807.280879	0.998270
807.601115	0.999079
807.921306	0.999838
808.241453	0.998483
808.561554	0.997622
808.881611	0.998789
809.201623	0.997975
809.521590	0.997768
809.841513	0.998680
810.161390	0.997871
810.481223	0.998467
810.801011	0.998737
811.120755	1.000599
811.440453	0.998488
811.760107	0.999181
812.079716	0.998863
812.399281	0.998906
812.718801	0.998173
813.038276	0.998188
813.357707	0.998790
813.677093	0.999440
813.996434	0.997968
814.315731	1.000089
814.634983	0.999584
814.954191	0.999290
815.273354	0.998659
815.592473	0.998570
815.911547	0.999454
816.230577	0.998884
816.549562	0.999273
816.868502	0.997573
817.187399	1.000324
817.506250	0.999375
817.825058	0.997494
818.143821	0.999320
818.462539	0.998022
818.781213	0.998827
819.099843	0.998631
819.418429	0.998340
819.736970	0.998606
820.055466	0.996869
820.373919	0.997130
820.692327	0.995890
821.010691	0.995813
821.329011	0.994845
821.647286	0.993054
821.965517	0.992009
822.283704	0.990990
822.601847	0.990000
822.919945	0.990099
823.237999	0.991811
823.556010	0.991938
823.873976	0.992322
824.191897	0.994323
824.509775	0.994266
824.827609	0.995109
825.145398	0.995762
825.463144	0.994727
825.780845	0.994222
826.098502	0.994572
826.416116	0.994914
826.733685	0.994272
827.051210	0.992603
827.368692	0.994555
827.686129	0.993533
828.003522	0.995369
828.320872	0.995446
828.638177	0.996937
828.955439	0.997337
829.272656	0.997670
829.589830	0.997030
829.906960	0.997341
830.224046	0.997624
830.541088	0.997110
830.858086	0.997858
831.175041	1.000068
831.491952	0.998101
831.808819	0.997854
832.125642	0.998766
832.442421	0.999237
832.759157	0.998917
833.075849	0.997698
833.392497	0.995969
833.709101	0.995194
834.025662	0.995666
834.342179	0.994982
834.658653	0.997124
834.975083	0.997292
835.291469	0.997250
835.607811	0.997879
835.924110	0.998028
836.240366	0.998998
836.556578	0.998958
836.872746	0.998948
837.188871	0.998664
837.504952	0.997962
837.820990	0.999401
838.136984	0.998522
838.452935	0.998732
838.768842	0.999226
839.084706	0.999150
839.400526	0.998517
839.716303	0.998127
840.032037	0.996980
840.347727	0.998013
840.663373	0.997570
840.978977	0.997733
841.294537	0.998137
841.610054	0.999659
841.925527	0.998622
842.240957	0.998638
842.556344	0.998861
842.871687	0.999372
843.186987	0.999426
843.502244	0.999219
843.817458	0.999703
844.132629	0.999585
844.447756	1.000085
844.762840	0.998677
845.077881	1.000540
845.392879	0.998264
845.707833	0.999510
846.022745	0.999015
846.337613	0.999610
846.652438	0.999373
846.967221	1.000635
847.281960	0.998835
847.596656	0.999454
847.911309	1.000554
848.225919	0.998412
848.540485	0.999413
848.855009	0.999965
849.169490	1.000923
849.483928	0.999794
849.798323	0.997870
850.112675	0.999949
850.426984	1.000468
850.741251	1.000438
851.055474	0.999807
851.369654	0.999946
851.683792	0.999759
851.997887	0.999987
852.311938	0.999821
852.625947	0.999748
852.939914	0.999364
853.253837	1.000473
853.567718	1.001405
853.881555	0.999886
854.195350	0.999663
854.509103	1.000526
854.822812	1.000164
855.136479	1.000238
855.450103	0.999924
855.763685	0.999798
856.077224	0.999107
856.390720	0.999464
856.704173	1.000078
857.017584	1.000107
857.330953	1.000132
857.644278	0.999418
857.957561	0.999516
858.270802	1.000221
858.584000	0.999532
858.897155	0.998933
859.210268	0.999884
859.523339	1.001573
859.836367	0.999397
860.149352	0.999574
860.462295	0.999495
860.775195	0.999856
861.088054	0.998201
861.400869	0.998862
861.713642	0.999333
862.026373	1.000407
862.339062	0.999860
862.651708	0.999642
862.964312	1.001151
863.276873	0.999418
863.589392	0.998959
863.901869	0.998931
864.214303	1.000002
864.526696	0.999486
864.839045	0.998573
865.151353	0.999812
865.463619	0.999441
865.775842	0.999850
866.088023	1.000925
866.400162	0.999055
866.712258	1.001089
867.024313	0.999484
867.336325	1.000290
867.648296	1.000353
867.960224	0.999578
868.272110	1.000153
868.583954	0.998547
868.895755	1.000157
869.207515	0.999337
869.519233	0.999673
869.830909	0.998946
870.142542	0.998689
870.454134	0.999433
870.765684	0.999878
871.077191	0.999767
871.388657	0.999767
871.700081	0.998824
872.011463	1.000002
872.322803	0.998839
872.634101	0.999237
872.945357	0.999192
873.256571	0.999093
873.567744	0.999209
873.878874	0.999855
874.189963	0.998304
874.501010	1.000350
874.812015	0.998457
875.122979	0.998250
875.433900	0.999397
875.744780	0.999172
876.055618	0.998139
876.366415	0.999395
876.677169	0.998305
876.987882	0.998659
877.298554	1.000238
877.609183	0.999271
877.919771	0.998361
878.230317	0.999411
878.540822	0.998269
878.851285	0.999177
879.161707	0.998358
879.472087	0.999540
879.782425	0.996878
880.092722	0.997192
880.402977	0.995727
880.713191	0.993381
881.023363	0.992187
881.333494	0.990964
881.643583	0.992154
881.953631	0.991994
882.263637	0.991536
882.573602	0.992763
882.883526	0.992574
883.193408	0.993630
883.503248	0.994362
883.813048	0.994356
884.122806	0.996737
884.432522	0.994942
884.742197	0.997578
885.051831	0.996657
885.361424	0.997827
885.670975	0.998300
885.980485	0.998719
886.289954	0.997660
886.599382	0.996839
886.908768	0.999829
887.218113	0.998083
887.527417	0.999048
887.836680	0.999323
888.145901	0.999576
888.455082	1.000573
888.764221	1.000508
889.073319	0.998138
889.382376	0.999482
889.691392	0.998048
890.000366	0.999655
890.309300	0.999113
890.618193	0.999767
890.927044	0.998472
891.235855	0.999053
891.544625	0.999311
891.853353	0.999388
892.162041	0.999371
892.470687	0.999760
892.779293	0.997472
893.087858	0.997573
893.396381	0.998580
893.704864	0.997193
894.013306	0.997962
894.321707	0.996746
894.630068	0.996236
894.938387	0.996246
895.246665	0.995315
895.554903	0.995131
895.863100	0.997119
896.171256	0.996840
896.479371	0.997452
896.787446	0.998237
897.095480	0.997665
897.403473	0.997817
897.711425	0.998191
898.019336	0.998976
898.327207	0.998643
898.635038	0.997336
898.942827	0.999192
899.250576	0.998202
899.558284	0.999655
899.865952	0.998200
900.173579	0.999091
900.481165	0.999845
900.788711	0.998952
901.096216	0.998708
901.403681	0.999582
901.711105	0.999226
902.018489	0.998047
902.325832	0.998825
902.633135	0.998739
902.940397	1.000468
903.247619	0.998991
903.554800	0.996959
903.861941	0.998069
904.169041	0.995606
904.476101	0.995039
904.783121	0.994783
905.090100	0.995311
905.397039	0.995621
905.703938	0.996755
906.010796	0.997645
906.317614	0.997663
906.624391	0.998137
906.931129	0.998599
907.237826	0.999463
907.544483	0.999000
907.851099	0.998896
908.157675	0.999492
908.464211	1.000150
908.770707	0.999003
909.077163	0.999307
909.383578	1.000186
909.689954	0.999308
909.996289	0.998701
910.302584	0.999965
910.608839	1.000721
910.915054	0.999417
911.221229	1.000521
911.527363	0.999338
911.833458	1.001020
912.139513	0.998514
912.445527	1.000159
912.751502	1.000086
913.057436	0.999261
913.363331	1.000427
913.669186	1.000147
913.975000	0.998790
914.280775	0.999092
914.586510	0.998223
914.892205	0.997659
915.197859	0.996807
915.503475	0.998040
915.809050	0.995617
916.114585	0.994066
916.420081	0.995064
916.725536	0.995782
917.030952	0.996140
917.336328	0.995755
917.641665	0.995993
917.946961	0.996151
918.252218	0.996522
918.557435	0.997962
918.862612	0.998398
919.167750	0.997981
919.472848	0.998199
919.777906	0.999391
920.082925	1.000711
920.387904	0.998920
920.692843	0.997720
920.997743	0.998748
921.302603	0.998614
921.607423	0.998141
921.912204	0.998171
922.216946	1.000290
922.521647	0.998692
922.826310	0.999356
923.130932	0.999996
923.435516	1.000159
923.740059	0.998561
924.044564	0.999428
924.349028	0.998667
924.653454	0.999477
924.957840	0.999822
925.262186	0.999597
925.566493	0.998940
925.870761	0.999310
926.174989	0.999080
926.479178	1.000573
926.783328	0.999641
927.087438	0.999246
927.391509	0.999542
927.695541	0.999602
927.999533	1.000381
928.303486	0.999780
928.607400	1.000282
928.911275	1.000744
929.215110	1.000898
929.518906	0.998512
929.822663	1.000131
930.126381	1.001506
930.430060	0.999321
930.733699	1.000329
931.037299	1.000604
931.340861	1.001251
931.644383	0.999314
931.947866	0.999917
932.251309	1.000252
932.554714	1.000222
932.858080	1.000626
933.161407	0.999877
933.464694	0.999964
933.767943	0.999843
934.071153	0.999115
934.374323	1.000961
934.677455	0.999511
934.980548	1.000175
935.283602	0.999919
935.586617	1.000350
935.889593	1.002106
936.192530	0.999769
936.495428	1.000641
936.798287	0.999160
937.101108	0.999904
937.403890	0.999697
937.706632	1.001178
938.009336	0.999963
938.312002	0.999665
938.614628	1.000125
938.917216	0.999457
939.219765	0.999574
939.522275	1.000042
939.824747	1.000418
940.127179	1.000277
940.429573	1.000994
940.731929	0.998596
941.034246	0.998149
941.336524	0.998703
941.638763	0.999641
941.940964	0.999226
942.243126	0.998995
942.545250	1.001215
942.847335	1.000635
943.149381	1.001097
943.451389	0.998756
943.753359	0.999010
944.055290	1.001691
944.357182	0.999970
944.659036	1.000307
944.960851	0.999280
945.262628	1.000097
945.564367	1.000048
945.866067	0.999326
946.167729	1.000849
946.469352	1.000213
946.770937	0.998043
947.072484	1.000717
947.373992	0.999187
947.675462	0.999765
947.976893	0.999191
948.278286	1.001229
948.579641	1.000589
948.880958	1.000261
949.182236	0.999331
949.483476	0.999695
949.784678	0.999736
950.085841	0.999391
950.386967	0.999565
950.688054	0.999699
950.989103	0.999122
951.290114	0.998749
951.591087	1.000171
951.892021	0.999937
952.192917	0.998818
952.493776	0.999334
952.794596	0.999649
953.095378	0.999840
953.396122	0.998264
953.696828	1.000467
953.997496	0.999918
954.298126	1.001975
954.598718	0.999974
954.899272	0.999630
955.199788	0.999785
955.500266	1.000987
955.800706	1.000089
956.101108	1.000306
956.401472	1.001329
956.701798	0.998697
957.002087	0.999849
957.302337	0.999295
957.602550	0.999901
957.902724	0.999428
958.202861	1.000155
958.502960	1.000932
958.803022	1.000484
959.103045	1.000233
959.403031	1.000487
959.702979	1.001379
960.002889	0.999666
960.302762	0.998023
960.602596	1.001666
960.902393	1.000480
961.202153	1.001293
961.501875	1.000705
961.801559	1.001139
962.101205	1.000382
962.400814	1.001688
962.700385	1.000800
962.999918	1.000290
963.299414	0.999918
963.598873	1.001777
963.898293	1.000466
964.197677	0.999632
964.497022	0.999804
964.796331	1.000153
965.095601	1.000814
965.394835	0.999379
965.694030	0.999882
965.993189	0.999873
966.292309	1.000554
966.591393	0.999262
966.890439	1.000026
967.189447	1.000347
967.488419	1.000369
967.787353	1.000237
968.086249	0.999602
968.385108	1.000045
968.683930	1.001602
968.982714	1.000738
969.281462	0.999748
969.580172	0.999552
969.878844	1.001873
970.177480	1.000137
970.476078	1.000868
970.774639	1.001291
971.073162	0.999772
971.371649	0.999908
971.670098	0.999873
971.968510	0.999952
972.266885	0.999391
972.565223	1.000031
972.863524	0.999704
973.161788	1.001768
973.460014	1.001320
973.758204	0.999819
974.056356	1.000152
974.354471	0.999916
974.652550	1.001223
974.950591	0.999823
975.248595	0.999730
975.546563	1.001219
975.844493	1.000842
976.142386	1.000246
976.440243	1.000647
976.738062	0.999793
977.035845	0.999811
977.333590	1.002428
977.631299	0.999716
977.928971	0.999932
978.226606	1.000030
978.524204	0.998842
978.821765	1.001607
979.119290	1.001085
979.416777	0.999930
979.714228	1.000572
980.011642	1.000045
980.309020	0.999786
980.606360	1.000735
980.903664	1.000921
981.200931	1.000146
981.498162	0.999852
981.795356	1.001017
982.092513	0.999849
982.389633	1.000021
982.686717	1.000330
982.983764	1.000585
983.280775	1.000370
983.577749	1.000913
983.874686	0.999748
984.171587	0.999415
984.468451	1.000529
984.765279	0.999368
985.062070	1.000696
985.358824	0.999833
985.655543	1.001155
985.952224	1.000445
986.248869	1.000332
986.545478	1.001056
986.842050	1.000937
987.138586	0.998637
987.435086	0.999777
987.731549	1.001234
988.027975	1.001279
988.324366	0.999827
988.620719	1.001355
988.917037	0.998910
989.213318	1.000594
989.509563	0.999940
989.805772	1.001031
990.101944	1.000251
990.398080	1.000156
990.694180	1.001579
990.990244	0.999954
991.286271	0.999915
991.582262	1.000364
991.878217	0.999349
992.174136	1.001546
992.470019	1.001035
992.765865	1.000614
993.061676	1.000375
993.357450	1.000997
993.653188	1.001815
993.948890	0.999479
994.244556	0.999732
994.540186	0.999470
994.835780	1.000302
995.131337	1.000551
995.426859	1.000661
995.722345	1.000482
996.017795	0.999119
996.313208	1.000938
996.608586	1.000255
996.903928	1.000472
997.199234	1.000939
997.494504	1.000819
997.789738	0.999228
998.084936	0.999611
998.380099	0.999877
998.675225	1.000225
998.970316	1.000279
999.265371	1.000062
999.560390	1.000834
999.855373	0.999616
1000.150320	1.000448
1000.445232	1.001155
1000.740108	1.000803
1001.034948	0.999291
1001.329752	1.000566
1001.624521	1.000596
1001.919254	1.000038
1002.213951	1.000352
1002.508613	0.999969
1002.803239	1.000459
1003.097829	1.001463
1003.392384	0.999767
1003.686903	1.000268
1003.981386	0.999826
1004.275834	1.001474
1004.570246	0.998528
1004.864623	1.000685
1005.158964	1.000135
1005.453270	1.000989
1005.747540	0.999399
1006.041775	1.000213
1006.335974	1.001048
1006.630138	1.000974
1006.924266	0.999955
1007.218359	0.999526
1007.512416	1.000986
1007.806438	0.998975
1008.100425	1.000926
1008.394376	1.001380
1008.688292	0.999189
1008.982172	0.999335
1009.276017	1.000471
1009.569827	1.001058
1009.863602	0.999661
1010.157341	1.001154
1010.451045	1.000162
1010.744714	1.001417
1011.038347	1.001573
1011.331945	0.999832
1011.625508	0.999732
1011.919036	1.000395
1012.212528	1.001132
1012.505986	0.999713
1012.799408	1.000555
1013.092795	1.000636
1013.386147	0.999501
1013.679464	1.000547
1013.972745	0.999740
1014.265992	1.000584
1014.559204	0.999292
1014.852380	1.001419
1015.145521	0.999002
1015.438628	1.000803
1015.731699	0.999984
1016.024736	1.000702
1016.317737	0.999995
1016.610703	1.001471
1016.903635	1.000034
1017.196531	0.999838
1017.489393	0.999953
1017.782219	1.000614
1018.075011	1.000432
1018.367768	1.000215
1018.660490	1.001374
1018.953177	1.001374
1019.245829	1.001374
