Dividing Wavelength (nm)	Counts (n)	Blue Motor Position (mm): 33.400000	Red Motor Position (mm): 0.000000	
326.493990	0.999899
326.888308	0.999899
327.282561	0.999899
327.676750	1.001252
328.070874	1.001471
328.464933	1.001001
328.858929	1.001669
329.252859	1.000501
329.646726	0.999166
330.040528	1.000680
330.434265	1.001742
330.827938	0.999932
331.221547	1.000182
331.615091	1.001746
332.008571	1.001724
332.401986	1.000643
332.795338	1.000069
333.188625	1.000960
333.581847	1.001153
333.975006	1.000147
334.368100	1.000417
334.761129	0.999742
335.154095	1.000347
335.546996	1.000712
335.939833	0.998786
336.332606	0.999709
336.725315	0.998700
337.117960	1.000758
337.510540	1.000049
337.903056	1.000922
338.295508	1.000003
338.687896	1.000147
339.080220	0.999658
339.472480	0.999401
339.864676	1.000350
340.256807	0.999515
340.648875	1.000063
341.040879	0.999405
341.432818	0.999858
341.824694	1.000397
342.216506	1.000021
342.608253	0.998717
342.999937	0.999091
343.391557	0.999094
343.783113	1.000610
344.174605	0.999328
344.566033	0.998401
344.957397	0.999933
345.348697	1.000274
345.739934	0.999993
346.131106	0.999786
346.522215	0.998906
346.913260	0.999266
347.304241	0.998510
347.695159	0.999729
348.086012	0.999819
348.476802	0.999497
348.867528	0.998691
349.258191	0.999173
349.648789	0.999550
350.039324	0.999315
350.429796	0.998793
350.820203	0.998600
351.210548	0.999339
351.600828	0.998373
351.991045	0.999427
352.381198	1.001168
352.771288	0.998151
353.161314	0.999893
353.551276	0.998659
353.941175	0.998338
354.331010	1.000640
354.720782	0.998635
355.110490	0.999399
355.500135	0.999760
355.889717	0.996976
356.279235	0.998496
356.668689	0.999400
357.058080	0.998862
357.447408	0.999734
357.836672	0.999511
358.225873	0.999179
358.615010	0.997975
359.004084	0.997136
359.393095	0.998346
359.782043	0.998988
360.170927	0.998939
360.559748	0.999667
360.948505	0.998012
361.337199	0.997027
361.725830	0.999097
362.114398	0.999189
362.502903	0.998105
362.891344	0.996345
363.279722	0.997551
363.668037	0.998770
364.056289	0.998384
364.444478	0.998552
364.832603	0.997614
365.220665	0.997663
365.608665	0.998150
365.996601	0.998057
366.384474	0.996878
366.772284	0.996828
367.160031	0.995856
367.547715	0.996286
367.935336	0.995011
368.322893	0.994817
368.710388	0.993465
369.097820	0.991394
369.485189	0.989556
369.872495	0.988329
370.259738	0.986137
370.646918	0.982871
371.034035	0.981604
371.421090	0.977829
371.808081	0.972387
372.195010	0.970213
372.581875	0.965112
372.968678	0.959971
373.355418	0.956283
373.742096	0.949144
374.128710	0.945257
374.515262	0.941014
374.901751	0.934740
375.288177	0.930284
375.674540	0.923179
376.060841	0.917209
376.447079	0.909610
376.833254	0.904023
377.219367	0.898007
377.605417	0.887550
377.991404	0.883580
378.377329	0.877611
378.763191	0.871107
379.148991	0.861922
379.534727	0.853765
379.920402	0.847239
380.306013	0.843173
380.691563	0.831328
381.077049	0.823668
381.462474	0.819084
381.847835	0.807950
382.233134	0.804182
382.618371	0.803926
383.003545	0.786651
383.388657	0.784455
383.773706	0.777257
384.158693	0.773050
384.543618	0.767417
384.928480	0.758306
385.313280	0.748137
385.698017	0.748711
386.082692	0.736711
386.467305	0.735151
386.851856	0.730017
387.236344	0.724979
387.620770	0.718401
388.005133	0.712597
388.389435	0.707772
388.773674	0.704935
389.157851	0.696726
389.541965	0.695118
389.926018	0.701734
390.310008	0.687336
390.693936	0.684640
391.077802	0.676786
391.461606	0.678609
391.845348	0.667450
392.229027	0.667292
392.612645	0.665324
392.996200	0.652663
393.379694	0.645660
393.763125	0.635767
394.146494	0.640976
394.529801	0.631288
394.913047	0.623325
395.296230	0.628604
395.679351	0.620530
396.062410	0.617520
396.445408	0.619681
396.828343	0.614988
397.211217	0.610453
397.594028	0.622092
397.976778	0.613250
398.359466	0.609638
398.742092	0.604578
399.124656	0.617613
399.507158	0.604897
399.889598	0.602821
400.271977	0.594335
400.654294	0.597578
401.036549	0.596634
401.418742	0.601100
401.800874	0.586758
402.182944	0.583933
402.564952	0.576012
402.946898	0.577279
403.328783	0.578119
403.710606	0.589040
404.092367	0.565070
404.474067	0.569667
404.855705	0.569127
405.237282	0.577370
405.618797	0.563497
406.000250	0.559834
406.381642	0.549879
406.762972	0.554910
407.144240	0.553242
407.525447	0.553436
407.906593	0.546490
408.287677	0.542426
408.668700	0.550885
409.049661	0.546467
409.430560	0.541285
409.811399	0.550774
410.192176	0.533662
410.572891	0.541532
410.953545	0.530127
411.334138	0.545412
411.714669	0.538953
412.095139	0.552267
412.475547	0.538606
412.855894	0.542683
413.236180	0.543158
413.616405	0.550234
413.996568	0.543681
414.376670	0.552164
414.756711	0.559215
415.136691	0.558975
415.516609	0.553709
415.896466	0.553684
416.276262	0.553445
416.655997	0.558020
417.035670	0.545701
417.415283	0.541717
417.794834	0.550567
418.174324	0.559182
418.553753	0.571282
418.933121	0.560801
419.312428	0.560771
419.691674	0.571323
420.070859	0.566263
420.449983	0.579027
420.829045	0.575158
421.208047	0.588626
421.586988	0.589266
421.965867	0.594815
422.344686	0.594602
422.723444	0.609986
423.102141	0.629580
423.480777	0.615811
423.859352	0.639967
424.237866	0.631360
424.616319	0.639241
424.994712	0.641484
425.373044	0.656247
425.751314	0.656704
426.129524	0.676798
426.507673	0.673608
426.885762	0.677736
427.263789	0.691547
427.641756	0.704402
428.019662	0.708578
428.397508	0.716564
428.775292	0.729383
429.153016	0.733325
429.530679	0.744598
429.908282	0.751032
430.285824	0.763378
430.663305	0.762683
431.040726	0.781495
431.418086	0.789592
431.795385	0.794696
432.172624	0.803208
432.549802	0.809952
432.926920	0.818562
433.303977	0.826562
433.680974	0.833634
434.057910	0.841505
434.434786	0.848955
434.811601	0.856849
435.188355	0.859294
435.565050	0.868459
435.941683	0.874525
436.318257	0.878013
436.694770	0.885386
437.071222	0.892437
437.447614	0.898900
437.823946	0.905990
438.200218	0.909525
438.576429	0.916663
438.952580	0.922201
439.328670	0.925961
439.704700	0.931223
440.080670	0.936860
440.456580	0.939674
440.832429	0.944923
441.208218	0.950063
441.583947	0.952444
441.959616	0.955700
442.335224	0.960705
442.710773	0.963001
443.086261	0.966513
443.461689	0.968915
443.837057	0.971349
444.212365	0.973935
444.587612	0.976330
444.962800	0.978243
445.337927	0.980548
445.712995	0.982991
446.088002	0.982639
446.462949	0.984690
446.837837	0.987750
447.212664	0.987061
447.587431	0.988779
447.962139	0.988489
448.336786	0.988477
448.711374	0.988984
449.085901	0.991583
449.460369	0.992789
449.834776	0.993587
450.209124	0.994035
450.583412	0.994575
450.957640	0.994444
451.331808	0.995754
451.705917	0.995403
452.079965	0.996337
452.453954	0.996383
452.827883	0.996920
453.201752	0.997254
453.575562	0.996286
453.949311	0.997112
454.323001	0.997518
454.696632	0.996906
455.070202	0.997042
455.443713	0.997586
455.817164	0.997681
456.190556	0.997697
456.563888	0.998427
456.937160	0.998268
457.310373	0.998175
457.683526	0.997623
458.056619	0.998628
458.429653	0.998055
458.802628	0.998137
459.175542	0.999172
459.548398	0.999093
459.921194	0.999040
460.293930	0.999450
460.666607	0.998695
461.039224	0.998355
461.411782	0.999607
461.784280	0.998509
462.156719	0.999622
462.529099	0.998590
462.901419	0.999252
463.273680	0.998134
463.645882	0.998649
464.018024	0.999451
464.390106	0.999102
464.762130	0.999042
465.134094	0.998483
465.505999	0.998658
465.877845	0.997748
466.249631	0.998421
466.621358	0.997716
466.993026	0.998572
467.364634	0.999118
467.736184	0.998579
468.107674	0.998386
468.479105	0.998289
468.850477	0.999414
469.221790	0.999166
469.593043	0.998819
469.964238	0.998903
470.335373	0.998042
470.706449	0.999002
471.077467	0.998461
471.448425	0.998845
471.819324	0.998878
472.190164	0.998395
472.560945	0.998405
472.931667	0.998067
473.302330	0.998546
473.672934	0.998554
474.043479	0.998011
474.413965	0.998900
474.784393	0.998309
475.154761	0.997933
475.525070	0.998643
475.895321	0.998673
476.265513	0.999263
476.635645	0.998889
477.005719	0.998071
477.375734	0.998333
477.745691	0.997930
478.115588	0.998029
478.485427	0.998392
478.855207	0.998790
479.224928	0.998633
479.594591	0.998342
479.964194	0.998345
480.333739	0.998671
480.703226	0.997109
481.072653	0.998142
481.442022	0.998572
481.811333	0.998242
482.180584	0.998408
482.549777	0.997643
482.918912	0.997707
483.287988	0.998255
483.657005	0.998286
484.025964	0.998224
484.394864	0.997825
484.763706	0.997824
485.132489	0.998630
485.501213	0.998299
485.869879	0.998345
486.238487	0.997336
486.607036	0.998745
486.975527	0.998413
487.343959	0.998273
487.712333	0.997950
488.080648	0.997789
488.448905	0.998498
488.817104	0.997676
489.185244	0.997716
489.553326	0.998388
489.921350	0.998590
490.289315	0.997755
490.657222	0.997883
491.025070	0.998257
491.392861	0.998222
491.760593	0.997584
492.128267	0.998564
492.495883	0.997426
492.863440	0.998350
493.230939	0.998738
493.598380	0.999158
493.965763	0.998415
494.333088	0.997853
494.700354	0.998309
495.067563	0.998384
495.434713	0.999054
495.801805	0.998740
496.168839	0.998294
496.535815	0.998481
496.902733	0.998276
497.269593	0.998018
497.636395	0.997718
498.003139	0.998069
498.369825	0.998923
498.736453	0.998393
499.103023	0.998577
499.469535	0.998834
499.835989	0.998586
500.202385	0.998835
500.568723	0.997913
500.935003	0.998896
501.301226	0.998982
501.667390	0.998078
502.033497	0.998757
502.399546	0.998268
502.765537	0.998338
503.131470	0.998630
503.497345	0.998086
503.863163	0.998312
504.228923	0.998144
504.594625	0.998566
504.960269	0.998545
505.325856	0.999228
505.691385	0.998840
506.056856	0.998423
506.422270	0.998340
506.787625	0.998411
507.152924	0.998246
507.518164	0.997983
507.883347	0.998744
508.248472	0.998674
508.613540	0.998544
508.978550	0.998997
509.343503	0.998622
509.708398	0.999728
510.073236	0.998716
510.438016	0.997950
510.802738	0.998164
511.167403	0.997679
511.532010	0.998405
511.896561	0.998716
512.261053	0.997762
512.625488	0.998413
512.989866	0.998193
513.354186	0.998027
513.718449	0.998633
514.082655	0.998094
514.446803	0.998416
514.810894	0.999422
515.174927	0.997956
515.538904	0.998966
515.902822	0.998289
516.266684	0.998864
516.630488	0.998621
516.994235	0.998245
517.357925	0.998873
517.721558	0.998724
518.085133	0.998786
518.448651	0.998655
518.812112	0.999189
519.175516	0.998052
519.538863	0.997422
519.902152	0.998932
520.265385	0.999044
520.628560	0.997866
520.991678	0.997987
521.354739	0.998651
521.717743	0.998409
522.080690	0.998482
522.443580	0.998219
522.806413	0.998412
523.169189	0.999090
523.531908	0.998377
523.894569	0.998436
524.257174	0.999193
524.619722	0.997607
524.982213	0.997784
525.344647	0.998409
525.707025	0.997816
526.069345	0.997724
526.431608	0.998308
526.793815	0.998663
527.155964	0.999045
527.518057	0.998559
527.880093	0.998045
528.242072	0.998109
528.603995	0.998703
528.965860	0.999201
529.327669	0.999210
529.689421	0.997825
530.051117	0.999072
530.412755	0.998032
530.774337	0.998110
531.135862	0.998643
531.497331	0.998545
531.858743	0.998729
532.220098	0.998450
532.581396	0.998683
532.942638	0.998683
533.303824	0.998921
533.664953	0.998113
534.026025	0.999319
534.387040	0.998347
534.747999	0.998461
535.108902	0.998047
535.469748	0.999267
535.830537	0.999333
536.191270	0.998690
536.551947	0.997812
536.912567	0.998725
537.273131	0.998578
537.633638	0.997792
537.994089	0.998382
538.354483	0.998649
538.714821	0.998196
539.075103	0.998850
539.435328	0.998801
539.795497	0.998634
540.155609	0.998008
540.515665	0.998660
540.875665	0.998625
541.235609	0.998475
541.595496	0.997893
541.955328	0.998689
542.315102	0.998539
542.674821	0.999061
543.034483	0.999001
543.394090	0.997871
543.753640	0.998455
544.113134	0.998197
544.472571	0.999290
544.831953	0.998671
545.191278	0.998976
545.550548	0.998291
545.909761	0.998603
546.268918	0.998646
546.628019	0.998925
546.987064	0.998357
547.346053	0.998114
547.704986	0.998641
548.063863	0.997968
548.422684	0.998709
548.781449	0.998396
549.140158	0.999000
549.498811	0.998243
549.857408	0.998194
550.215949	0.997198
550.574434	0.997580
550.932864	0.998635
551.291237	0.998352
551.649555	0.998348
552.007817	0.998845
552.366022	0.998810
552.724173	0.999236
553.082267	0.998585
553.440305	0.998337
553.798288	0.998246
554.156215	0.998514
554.514086	0.998919
554.871902	0.998136
555.229661	0.997904
555.587365	0.997792
555.945014	0.999161
556.302606	0.998577
556.660143	0.998811
557.017625	0.998348
557.375050	0.997721
557.732421	0.998565
558.089735	0.997807
558.446994	0.998306
558.804197	0.998500
559.161345	0.998341
559.518437	0.998591
559.875474	0.998509
560.232455	0.999359
560.589381	0.998844
560.946251	0.998846
561.303065	0.998556
561.659825	0.997823
562.016528	0.998953
562.373177	0.998824
562.729770	0.998330
563.086307	0.997437
563.442789	0.999280
563.799216	0.998553
564.155587	0.998701
564.511904	0.998637
564.868164	0.997244
565.224370	0.998200
565.580520	0.998552
565.936615	0.998201
566.292654	0.998251
566.648638	0.999635
567.004567	0.998602
567.360441	0.998924
567.716260	0.997787
568.072023	0.998031
568.427732	0.998832
568.783385	0.998421
569.138982	0.998403
569.494525	0.998283
569.850013	0.998928
570.205445	0.999278
570.560823	0.998374
570.916145	0.997973
571.271412	0.999006
571.626625	0.998449
571.981782	0.998696
572.336884	0.998558
572.691931	0.998275
573.046923	0.999122
573.401860	0.997774
573.756743	0.999103
574.111570	0.998502
574.466342	0.999312
574.821059	0.998247
575.175722	0.999136
575.530330	0.998468
575.884882	0.998389
576.239380	0.998411
576.593823	0.998099
576.948211	0.999271
577.302544	0.998880
577.656823	0.998804
578.011047	0.998172
578.365216	0.998968
578.719330	0.999245
579.073389	0.997621
579.427394	0.998352
579.781344	0.998509
580.135239	0.997269
580.489080	0.998677
580.842866	0.998605
581.196597	0.998265
581.550273	0.998841
581.903895	0.998364
582.257463	0.998551
582.610975	0.998970
582.964434	0.998520
583.317837	0.998241
583.671186	0.998351
584.024481	0.998172
584.377721	0.998526
584.730906	0.998651
585.084037	0.999360
585.437113	0.999499
585.790135	0.998476
586.143103	0.998612
586.496016	0.998384
586.848874	0.998866
587.201679	0.998671
587.554428	0.998498
587.907124	0.998836
588.259765	0.999185
588.612352	0.998996
588.964884	0.999229
589.317362	0.998359
589.669786	0.998686
590.022155	0.998423
590.374470	0.998979
590.726731	0.998587
591.078937	0.998734
591.431090	0.998874
591.783188	0.998090
592.135232	0.999300
592.487222	0.998848
592.839157	0.998267
593.191038	0.998623
593.542866	0.998311
593.894639	0.998422
594.246358	0.999022
594.598022	0.999024
594.949633	0.998391
595.301190	0.997741
595.652692	0.998708
596.004141	0.998967
596.355535	0.998396
596.706876	0.998611
597.058162	0.998961
597.409395	0.999225
597.760573	0.998231
598.111698	0.998835
598.462768	0.997935
598.813785	0.998348
599.164748	0.997871
599.515657	0.998418
599.866511	0.998860
600.217312	0.999039
600.568060	0.998451
600.918753	0.998764
601.269392	0.998801
601.619978	0.999234
601.970510	0.998100
602.320988	0.998544
602.671412	0.998437
603.021783	0.998799
603.372100	0.998814
603.722363	0.999368
604.072572	0.998455
604.422728	0.998788
604.772830	0.998112
605.122878	0.999176
605.472872	0.999297
605.822813	0.998034
606.172701	0.998645
606.522534	0.999532
606.872314	0.998838
607.222041	0.998521
607.571714	0.999090
607.921333	0.998611
608.270899	0.998189
608.620411	0.997862
608.969870	0.999699
609.319276	0.998124
609.668627	0.999825
610.017926	0.998723
610.367171	0.999256
610.716362	0.998785
611.065500	0.997914
611.414585	0.999494
611.763616	0.997166
612.112594	0.998785
612.461518	0.997930
612.810389	0.998904
613.159207	0.999156
613.507971	0.998512
613.856682	0.999069
614.205340	0.997959
614.553945	0.998355
614.902496	0.998763
615.250994	0.998784
615.599439	0.999117
615.947830	0.998102
616.296169	0.998359
616.644454	0.999248
616.992686	0.998950
617.340864	0.999272
617.688990	0.998182
618.037063	0.998842
618.385082	0.997973
618.733048	0.998235
619.080961	0.998529
619.428821	0.999102
619.776628	0.997972
620.124382	0.999666
620.472083	0.999261
620.819731	0.999902
621.167326	0.999295
621.514868	0.998793
621.862357	0.998676
622.209793	0.998327
622.557176	0.998211
622.904506	0.997920
623.251783	0.999051
623.599007	0.999375
623.946179	0.997942
624.293297	0.999054
624.640363	0.999192
624.987376	0.997962
625.334336	0.998092
625.681243	0.998109
626.028097	0.998434
626.374899	0.998088
626.721647	0.999221
627.068343	0.998523
627.414987	0.998660
627.761577	0.998422
628.108115	0.997761
628.454600	0.999426
628.801032	0.998986
629.147412	0.998710
629.493739	0.999212
629.840014	0.998239
630.186236	0.998462
630.532405	0.998980
630.878521	0.998405
631.224585	0.999255
631.570597	0.998274
631.916556	0.999201
632.262462	0.997552
632.608316	0.998261
632.954117	0.997972
633.299866	0.998596
633.645562	0.998074
633.991206	0.998363
634.336797	0.998108
634.682336	0.999123
635.027823	0.998736
635.373257	0.998902
635.718639	0.999308
636.063968	0.998479
636.409245	0.998171
636.754470	0.998722
637.099642	0.999280
637.444762	0.999841
637.789829	0.997804
638.134845	0.999205
638.479808	0.998761
638.824719	0.999185
639.169577	0.998941
639.514383	0.998792
639.859137	0.998571
640.203839	0.998361
640.548489	0.998207
640.893086	0.998418
641.237632	0.998447
641.582125	0.998360
641.926566	0.999516
642.270955	0.998404
642.615292	0.998153
642.959576	0.998805
643.303809	0.999563
643.647990	0.999048
643.992118	0.998389
644.336195	0.997689
644.680219	0.998299
645.024192	0.998404
645.368112	0.998221
645.711981	0.998281
646.055797	0.998557
646.399562	0.997351
646.743274	0.999518
647.086935	0.998210
647.430544	0.997655
647.774101	0.997890
648.117606	0.998820
648.461059	0.998634
648.804460	0.998383
649.147810	0.998661
649.491108	0.998458
649.834354	0.998674
650.177548	0.998607
650.520690	0.998640
650.863781	0.997758
651.206820	0.998690
651.549807	0.998440
651.892742	0.998699
652.235626	0.998527
652.578458	0.998015
652.921238	0.999229
653.263967	0.998835
653.606644	0.998436
653.949269	0.999649
654.291843	0.997897
654.634365	0.998879
654.976836	0.997611
655.319255	0.999094
655.661622	0.998435
656.003938	0.998108
656.346203	0.997594
656.688416	0.999062
657.030577	0.998497
657.372687	0.998669
657.714746	0.997832
658.056753	0.998303
658.398708	0.997835
658.740612	0.999758
659.082465	0.998441
659.424266	0.998326
659.766016	0.997863
660.107715	0.998261
660.449362	0.998902
660.790958	0.997406
661.132503	0.998907
661.473996	0.998232
661.815438	0.999204
662.156829	0.999269
662.498168	0.999257
662.839456	0.998195
663.180693	0.998349
663.521879	0.997462
663.863013	0.999072
664.204097	0.998267
664.545129	0.998211
664.886110	0.997960
665.227040	0.998338
665.567918	0.998810
665.908746	0.998190
666.249522	0.997934
666.590248	0.997773
666.930922	0.997675
667.271545	0.997836
667.612118	0.997961
667.952639	0.997630
668.293109	0.997438
668.633528	0.997155
668.973896	0.998356
669.314213	0.998404
669.654480	0.997988
669.994695	0.997614
670.334859	0.997981
670.674973	0.998289
671.015035	0.998233
671.355047	0.998559
671.695008	0.998009
672.034918	0.998193
672.374777	0.998211
672.714585	0.998626
673.054342	0.998943
673.394049	0.997129
673.733705	0.998007
674.073310	0.997886
674.412864	0.997783
674.752368	0.996862
675.091820	0.998522
675.431223	0.998776
675.770574	0.997864
676.109875	0.997943
676.449125	0.997935
676.788324	0.997845
677.127473	0.998489
677.466571	0.998679
677.805619	0.998315
678.144616	0.998776
678.483562	0.998460
678.822458	0.997687
679.161303	0.997400
679.500098	0.998795
679.838842	0.998640
680.177535	0.998114
680.516179	0.997355
680.854771	0.997567
681.193314	0.997602
681.531805	0.997765
681.870247	0.997401
682.208638	0.998048
682.546978	0.997019
682.885268	0.997397
683.223508	0.997557
683.561697	0.998138
683.899836	0.998352
684.237925	0.996976
684.575963	0.998399
684.913951	0.997644
685.251889	0.997599
685.589776	0.997707
685.927614	0.997475
686.265401	0.998049
686.603137	0.997241
686.940824	0.997627
687.278460	0.998395
687.616046	0.997399
687.953582	0.997740
688.291068	0.997706
688.628504	0.997635
688.965889	0.996825
689.303224	0.996654
689.640510	0.997803
689.977745	0.996903
690.314930	0.997174
690.652065	0.996856
690.989150	0.997009
691.326185	0.998299
691.663170	0.997933
692.000105	0.997774
692.336990	0.997801
692.673825	0.997027
693.010610	0.997253
693.347345	0.997983
693.684030	0.997774
694.020665	0.996938
694.357251	0.997236
694.693786	0.998162
695.030272	0.997369
695.366707	0.997529
695.703093	0.997204
696.039429	0.997441
696.375716	0.997210
696.711952	0.997896
697.048139	0.997379
697.384276	0.997438
697.720363	0.997453
698.056400	0.996638
698.392388	0.997271
698.728326	0.997360
699.064214	0.998031
699.400053	0.997752
699.735842	0.998027
700.071581	0.998261
700.407270	0.997423
700.742910	0.998583
701.078501	0.997696
701.414042	0.998364
701.749533	0.996294
702.084974	0.997736
702.420366	0.998422
702.755709	0.997264
703.091002	0.998175
703.426246	0.998591
703.761440	0.996994
704.096584	0.997240
704.431679	0.997264
704.766725	0.997926
705.101721	0.997656
705.436668	0.997277
705.771565	0.997232
706.106413	0.997017
706.441212	0.997736
706.775961	0.998155
707.110661	0.996686
707.445311	0.997929
707.779913	0.998360
708.114465	0.998481
708.448967	0.997707
708.783421	0.997925
709.117825	0.997763
709.452180	0.997574
709.786485	0.997079
710.120742	0.997025
710.454949	0.997061
710.789107	0.998031
711.123216	0.996047
711.457275	0.996353
711.791286	0.997430
712.125247	0.998008
712.459159	0.996772
712.793023	0.996970
713.126837	0.998031
713.460602	0.996824
713.794318	0.996350
714.127985	0.996196
714.461602	0.996424
714.795171	0.996440
715.128691	0.996850
715.462162	0.997367
715.795584	0.996896
716.128957	0.997536
716.462281	0.997435
716.795556	0.996600
717.128782	0.997460
717.461960	0.997575
717.795088	0.999215
718.128167	0.998469
718.461198	0.997922
718.794180	0.998001
719.127113	0.998206
719.459997	0.997353
719.792833	0.996676
720.125619	0.997248
720.458357	0.997852
720.791046	0.997994
721.123686	0.997540
721.456278	0.997114
721.788821	0.997305
722.121315	0.997810
722.453761	0.997492
722.786158	0.997325
723.118506	0.997531
723.450805	0.997154
723.783056	0.997403
724.115259	0.996600
724.447412	0.998181
724.779518	0.998060
725.111574	0.997449
725.443582	0.997115
725.775542	0.997820
726.107453	0.997821
726.439315	0.998207
726.771129	0.997749
727.102895	0.997536
727.434612	0.997689
727.766281	0.996576
728.097901	0.997352
728.429473	0.997630
728.760996	0.996818
729.092471	0.997213
729.423897	0.997108
729.755276	0.997138
730.086606	0.997055
730.417887	0.997850
730.749120	0.997548
731.080305	0.997146
731.411442	0.996181
731.742530	0.997254
732.073570	0.996882
732.404562	0.996689
732.735506	0.996650
733.066401	0.996413
733.397249	0.996697
733.728048	0.996981
734.058798	0.998452
734.389501	0.998089
734.720156	0.997299
735.050762	0.997870
735.381320	0.997989
735.711831	0.997674
736.042293	0.997391
736.372707	0.997325
736.703073	0.996632
737.033391	0.996942
737.363661	0.997698
737.693883	0.996922
738.024056	0.996649
738.354182	0.997622
738.684260	0.998076
739.014290	0.997839
739.344272	0.997590
739.674207	0.997364
740.004093	0.998114
740.333931	0.997062
740.663722	0.997743
740.993464	0.997889
741.323159	0.996362
741.652806	0.997701
741.982405	0.997732
742.311956	0.997750
742.641460	0.997346
742.970915	0.996635
743.300323	0.996575
743.629683	0.996877
743.958996	0.998669
744.288260	0.996281
744.617477	0.996565
744.946647	0.996845
745.275768	0.997762
745.604842	0.996581
745.933869	0.997533
746.262847	0.997826
746.591778	0.996469
746.920662	0.998097
747.249498	0.998497
747.578286	0.999198
747.907027	0.997971
748.235720	0.997154
748.564365	0.998227
748.892963	0.996861
749.221514	0.997697
749.550017	0.996360
749.878473	0.997351
750.206881	0.998122
750.535242	0.996881
750.863555	0.996261
751.191821	0.997909
751.520039	0.997206
751.848210	0.996090
752.176334	0.996614
752.504411	0.996805
752.832440	0.996311
753.160421	0.997566
753.488356	0.998072
753.816243	0.997591
754.144082	0.996538
754.471875	0.998341
754.799620	0.998684
755.127318	0.997701
755.454969	0.997611
755.782572	0.998359
756.110129	0.996724
756.437638	0.998354
756.765100	0.998078
757.092515	0.997841
757.419882	0.999124
757.747203	0.997633
758.074477	0.997958
758.401703	0.997656
758.728882	0.997104
759.056014	0.997631
759.383099	0.997744
759.710138	0.996939
760.037129	0.997334
760.364073	0.997838
760.690970	0.997405
761.017820	0.996565
761.344623	0.997524
761.671379	0.998253
761.998088	0.998260
762.324751	0.997653
762.651366	0.996332
762.977935	0.995766
763.304456	0.995923
763.630931	0.994948
763.957359	0.995058
764.283740	0.995329
764.610074	0.995636
764.936362	0.996725
765.262602	0.996807
765.588796	0.997098
765.914943	0.997600
766.241044	0.997129
766.567097	0.997191
766.893104	0.997312
767.219064	0.996890
767.544978	0.996863
767.870845	0.998013
768.196665	0.997650
768.522438	0.998237
768.848165	0.997772
769.173846	0.998071
769.499479	0.998740
769.825066	0.998603
770.150607	0.998442
770.476101	0.997259
770.801548	0.999180
771.126949	0.997684
771.452303	0.997853
771.777611	0.998330
772.102872	0.998252
772.428087	0.997805
772.753256	0.997578
773.078378	0.997999
773.403453	0.997092
773.728482	0.999723
774.053465	0.997805
774.378401	0.997959
774.703291	0.999242
775.028135	0.999358
775.352932	0.997430
775.677683	0.999306
776.002388	0.998179
776.327046	0.997685
776.651658	0.999356
776.976224	0.998379
777.300743	0.998270
777.625216	0.998027
777.949643	0.999170
778.274024	0.998239
778.598359	0.999299
778.922647	0.997626
779.246889	0.998785
779.571086	0.999104
779.895236	0.998336
780.219339	0.998690
780.543397	0.996813
780.867409	0.999634
781.191374	0.997996
781.515294	0.998264
781.839167	0.999213
782.162995	1.000147
782.486776	0.998368
782.810511	0.998627
783.134201	0.999016
783.457844	0.999150
783.781441	0.998224
784.104993	0.997817
784.428498	0.998708
784.751958	0.999404
785.075372	0.999870
785.398739	0.997801
785.722061	0.998475
786.045337	0.998582
786.368568	0.998233
786.691752	0.998407
787.014891	0.997897
787.337983	0.997013
787.661030	0.996893
787.984031	0.998033
788.306987	0.998092
788.629897	0.996236
788.952760	0.996799
789.275579	0.998538
789.598351	0.998283
789.921078	0.999410
790.243759	0.999156
790.566395	0.996991
790.888984	0.998606
791.211529	0.998014
791.534027	0.998713
791.856480	0.998601
792.178888	0.999170
792.501249	0.998758
792.823566	0.999594
793.145836	0.998347
793.468062	0.999321
793.790241	0.998479
794.112375	0.997830
794.434464	0.999537
794.756507	0.999949
795.078505	0.998433
795.400457	1.000085
795.722364	0.997956
796.044226	0.998672
796.366042	0.997380
796.687812	0.997583
797.009538	0.998028
797.331218	0.999446
797.652852	0.999464
797.974442	0.997857
798.295986	0.998348
798.617484	0.996714
798.938938	0.998807
799.260346	0.997895
799.581709	0.997742
799.903026	0.998964
800.224299	0.998079
800.545526	0.998360
800.866708	0.997286
801.187845	0.999086
801.508936	0.998715
801.829983	0.999175
802.150984	0.998749
802.471940	0.998118
802.792851	0.998908
803.113717	0.999337
803.434538	0.999523
803.755314	0.999342
804.076045	0.998215
804.396731	0.998115
804.717372	0.997199
805.037967	0.999757
805.358518	0.999473
805.679024	0.998132
805.999485	0.999051
806.319901	0.999298
806.640272	0.999675
806.960598	0.998947
807.280879	0.999477
807.601115	0.999454
807.921306	0.998170
808.241453	0.998323
808.561554	0.998593
808.881611	0.998110
809.201623	0.999119
809.521590	0.998020
809.841513	0.999159
810.161390	0.996680
810.481223	0.998496
810.801011	0.998933
811.120755	0.999240
811.440453	0.998339
811.760107	0.998654
812.079716	0.999385
812.399281	0.999855
812.718801	0.998262
813.038276	0.997930
813.357707	0.998240
813.677093	0.998995
813.996434	0.998971
814.315731	1.000829
814.634983	0.998919
814.954191	0.999227
815.273354	0.997546
815.592473	0.999095
815.911547	0.998971
816.230577	0.997764
816.549562	0.998094
816.868502	0.997695
817.187399	0.999688
817.506250	0.998833
817.825058	0.996858
818.143821	0.998794
818.462539	0.998908
818.781213	0.999309
819.099843	0.998577
819.418429	0.997410
819.736970	0.997578
820.055466	0.996172
820.373919	0.995971
820.692327	0.995095
821.010691	0.995334
821.329011	0.993239
821.647286	0.991166
821.965517	0.989711
822.283704	0.988731
822.601847	0.988070
822.919945	0.987884
823.237999	0.989327
823.556010	0.990379
823.873976	0.990566
824.191897	0.991681
824.509775	0.993130
824.827609	0.994243
825.145398	0.993822
825.463144	0.992964
825.780845	0.994608
826.098502	0.994076
826.416116	0.993465
826.733685	0.992225
827.051210	0.991244
827.368692	0.992055
827.686129	0.992371
828.003522	0.994233
828.320872	0.994488
828.638177	0.995376
828.955439	0.996176
829.272656	0.997352
829.589830	0.996720
829.906960	0.997545
830.224046	0.996873
830.541088	0.996426
830.858086	0.998591
831.175041	0.998754
831.491952	0.998539
831.808819	0.997594
832.125642	0.997887
832.442421	0.998465
832.759157	0.999177
833.075849	0.996729
833.392497	0.995117
833.709101	0.994048
834.025662	0.994164
834.342179	0.995046
834.658653	0.997206
834.975083	0.995786
835.291469	0.996364
835.607811	0.996909
835.924110	0.997480
836.240366	0.998318
836.556578	0.998786
836.872746	0.999630
837.188871	0.998189
837.504952	0.998218
837.820990	0.998123
838.136984	0.998102
838.452935	0.999032
838.768842	0.999493
839.084706	0.997575
839.400526	0.998457
839.716303	0.996533
840.032037	0.997503
840.347727	0.997075
840.663373	0.997727
840.978977	0.997731
841.294537	0.997850
841.610054	0.998726
841.925527	0.998851
842.240957	0.998496
842.556344	0.999137
842.871687	0.997993
843.186987	0.998866
843.502244	0.999188
843.817458	0.999223
844.132629	0.999105
844.447756	0.998495
844.762840	0.998309
845.077881	1.000512
845.392879	0.998283
845.707833	0.998250
846.022745	0.999620
846.337613	0.997804
846.652438	0.999418
846.967221	0.999884
847.281960	0.999692
847.596656	0.999606
847.911309	0.999609
848.225919	0.998773
848.540485	1.000286
848.855009	1.000920
849.169490	0.999686
849.483928	1.000954
849.798323	0.998818
850.112675	0.999911
850.426984	0.999370
850.741251	0.999754
851.055474	0.999349
851.369654	0.998211
851.683792	0.998826
851.997887	0.999212
852.311938	1.000193
852.625947	0.999139
852.939914	0.999639
853.253837	1.000445
853.567718	0.999939
853.881555	1.000007
854.195350	1.000101
854.509103	0.998684
854.822812	1.000803
855.136479	0.999845
855.450103	1.000157
855.763685	0.999785
856.077224	1.000258
856.390720	0.999426
856.704173	1.000062
857.017584	1.000260
857.330953	0.999121
857.644278	1.000145
857.957561	0.999145
858.270802	1.000175
858.584000	1.000089
858.897155	0.998239
859.210268	0.999653
859.523339	0.999876
859.836367	0.999332
860.149352	0.999425
860.462295	0.998846
860.775195	0.999162
861.088054	0.998226
861.400869	0.999645
861.713642	0.998076
862.026373	0.999232
862.339062	0.999405
862.651708	0.999606
862.964312	0.999629
863.276873	0.999431
863.589392	0.998967
863.901869	0.999126
864.214303	0.999079
864.526696	1.000210
864.839045	0.999087
865.151353	0.999909
865.463619	0.999223
865.775842	0.999764
866.088023	1.000922
866.400162	0.999364
866.712258	1.000017
867.024313	0.999689
867.336325	1.001040
867.648296	0.999822
867.960224	0.999959
868.272110	1.000062
868.583954	0.999633
868.895755	1.000032
869.207515	0.998451
869.519233	1.000388
869.830909	0.998397
870.142542	0.998543
870.454134	0.999369
870.765684	0.999257
871.077191	0.998945
871.388657	0.999379
871.700081	0.999101
872.011463	0.999680
872.322803	0.999032
872.634101	0.998734
872.945357	0.998247
873.256571	0.997595
873.567744	1.000350
873.878874	0.998280
874.189963	0.998747
874.501010	0.999805
874.812015	0.998663
875.122979	0.998434
875.433900	0.998942
875.744780	0.999368
876.055618	0.998379
876.366415	0.998765
876.677169	0.998275
876.987882	0.998530
877.298554	1.000205
877.609183	0.998924
877.919771	0.998969
878.230317	0.998634
878.540822	0.998161
878.851285	0.998634
879.161707	0.997634
879.472087	0.999841
879.782425	0.996896
880.092722	0.995552
880.402977	0.994091
880.713191	0.991130
881.023363	0.990115
881.333494	0.988693
881.643583	0.989133
881.953631	0.989514
882.263637	0.988818
882.573602	0.990177
882.883526	0.990098
883.193408	0.991814
883.503248	0.992592
883.813048	0.993076
884.122806	0.994868
884.432522	0.994386
884.742197	0.997246
885.051831	0.995636
885.361424	0.996712
885.670975	0.997983
885.980485	0.997530
886.289954	0.997777
886.599382	0.997699
886.908768	0.998431
887.218113	0.997757
887.527417	0.997727
887.836680	0.998541
888.145901	0.999610
888.455082	0.999951
888.764221	0.998872
889.073319	0.998228
889.382376	0.998145
889.691392	0.997842
890.000366	0.999376
890.309300	0.998383
890.618193	1.000429
890.927044	0.998278
891.235855	0.998687
891.544625	0.998154
891.853353	0.998389
892.162041	0.998410
892.470687	0.998699
892.779293	0.997396
893.087858	0.996964
893.396381	0.997663
893.704864	0.996847
894.013306	0.996332
894.321707	0.995711
894.630068	0.994450
894.938387	0.993415
895.246665	0.993766
895.554903	0.993496
895.863100	0.995899
896.171256	0.995972
896.479371	0.995617
896.787446	0.995662
897.095480	0.997363
897.403473	0.997556
897.711425	0.997254
898.019336	0.998368
898.327207	0.998114
898.635038	0.996634
898.942827	0.998848
899.250576	0.997828
899.558284	0.998646
899.865952	0.998135
900.173579	0.998986
900.481165	0.998624
900.788711	0.998390
901.096216	0.999994
901.403681	0.998841
901.711105	0.997405
902.018489	0.998822
902.325832	0.999001
902.633135	0.997694
902.940397	0.998707
903.247619	0.998212
903.554800	0.996609
903.861941	0.995535
904.169041	0.994187
904.476101	0.993738
904.783121	0.993099
905.090100	0.993566
905.397039	0.994554
905.703938	0.996250
906.010796	0.996298
906.317614	0.996499
906.624391	0.996696
906.931129	0.998251
907.237826	0.998303
907.544483	0.999078
907.851099	0.999238
908.157675	0.997959
908.464211	0.998880
908.770707	0.998088
909.077163	0.999206
909.383578	0.999960
909.689954	0.998239
909.996289	0.998679
910.302584	0.998637
910.608839	0.999753
910.915054	0.998422
911.221229	1.000703
911.527363	0.999963
911.833458	0.998793
912.139513	0.999381
912.445527	0.999728
912.751502	0.999313
913.057436	0.997903
913.363331	0.999416
913.669186	1.000275
913.975000	0.998761
914.280775	0.999088
914.586510	0.996946
914.892205	0.995942
915.197859	0.996115
915.503475	0.995547
915.809050	0.993565
916.114585	0.992039
916.420081	0.992941
916.725536	0.994170
917.030952	0.994274
917.336328	0.994337
917.641665	0.994594
917.946961	0.995212
918.252218	0.995260
918.557435	0.997035
918.862612	0.996904
919.167750	0.997711
919.472848	0.998560
919.777906	0.998842
920.082925	0.998482
920.387904	0.998471
920.692843	0.998247
920.997743	0.997616
921.302603	0.999559
921.607423	0.998707
921.912204	0.999109
922.216946	0.999704
922.521647	0.998868
922.826310	0.998949
923.130932	0.999651
923.435516	1.000383
923.740059	0.998845
924.044564	0.998697
924.349028	0.999868
924.653454	0.999644
924.957840	0.999619
925.262186	0.998357
925.566493	0.999130
925.870761	0.998663
926.174989	0.998982
926.479178	1.000141
926.783328	0.999155
927.087438	0.999198
927.391509	0.998935
927.695541	0.999744
927.999533	1.001006
928.303486	0.999597
928.607400	1.000740
928.911275	0.999828
929.215110	1.001570
929.518906	1.000379
929.822663	1.000923
930.126381	1.000006
930.430060	0.999142
930.733699	0.999741
931.037299	1.000580
931.340861	1.000788
931.644383	0.998301
931.947866	1.000988
932.251309	0.999942
932.554714	1.001110
932.858080	1.000640
933.161407	0.998939
933.464694	0.999473
933.767943	1.000112
934.071153	1.000132
934.374323	0.999357
934.677455	1.000393
934.980548	0.998928
935.283602	0.999851
935.586617	0.999794
935.889593	1.001458
936.192530	1.000398
936.495428	0.999452
936.798287	0.999088
937.101108	1.000602
937.403890	0.999264
937.706632	1.000451
938.009336	0.999720
938.312002	0.999800
938.614628	1.000222
938.917216	0.998889
939.219765	0.998494
939.522275	1.001089
939.824747	0.997993
940.127179	0.998357
940.429573	0.999772
940.731929	0.999621
941.034246	0.998432
941.336524	0.998640
941.638763	0.998946
941.940964	0.998703
942.243126	0.999001
942.545250	0.999852
942.847335	0.999361
943.149381	1.000740
943.451389	0.998974
943.753359	0.999597
944.055290	1.000736
944.357182	0.999222
944.659036	0.999380
944.960851	1.000555
945.262628	1.000055
945.564367	0.999749
945.866067	0.999675
946.167729	1.000555
946.469352	0.999860
946.770937	0.998741
947.072484	1.000990
947.373992	1.000364
947.675462	0.999260
947.976893	1.000192
948.278286	1.000272
948.579641	1.001194
948.880958	0.999743
949.182236	0.999635
949.483476	0.999842
949.784678	1.000777
950.085841	0.998931
950.386967	0.999293
950.688054	1.000045
950.989103	0.998272
951.290114	0.998857
951.591087	0.999597
951.892021	0.999201
952.192917	0.999921
952.493776	0.999111
952.794596	1.000554
953.095378	0.999570
953.396122	0.999164
953.696828	0.999309
953.997496	0.999266
954.298126	1.000595
954.598718	0.999651
954.899272	1.000780
955.199788	0.999600
955.500266	1.001594
955.800706	0.999677
956.101108	1.000627
956.401472	1.001522
956.701798	1.000185
957.002087	1.000833
957.302337	0.999508
957.602550	1.000665
957.902724	0.999898
958.202861	1.000635
958.502960	0.999947
958.803022	1.001204
959.103045	1.000919
959.403031	1.001257
959.702979	1.000059
960.002889	0.999406
960.302762	0.999100
960.602596	1.001066
960.902393	1.000219
961.202153	1.000252
961.501875	1.000400
961.801559	1.000011
962.101205	0.999937
962.400814	1.001007
962.700385	1.000585
962.999918	1.000898
963.299414	0.999581
963.598873	1.000407
963.898293	1.000441
964.197677	1.000117
964.497022	0.999742
964.796331	1.000747
965.095601	1.000734
965.394835	0.999999
965.694030	0.999830
965.993189	0.999528
966.292309	1.000945
966.591393	0.998546
966.890439	1.000844
967.189447	1.000219
967.488419	1.000870
967.787353	0.999145
968.086249	1.000156
968.385108	0.999772
968.683930	1.002159
968.982714	1.000429
969.281462	1.000264
969.580172	1.000186
969.878844	1.000973
970.177480	1.000160
970.476078	1.000893
970.774639	1.000757
971.073162	0.999190
971.371649	1.000650
971.670098	0.999670
971.968510	1.000649
972.266885	0.998802
972.565223	1.000837
972.863524	0.998734
973.161788	0.999196
973.460014	1.001473
973.758204	1.000601
974.056356	1.000152
974.354471	0.999502
974.652550	1.000882
974.950591	1.000109
975.248595	0.999480
975.546563	1.001039
975.844493	1.000747
976.142386	0.999208
976.440243	0.999657
976.738062	1.000514
977.035845	0.999548
977.333590	1.001345
977.631299	1.000512
977.928971	1.000783
978.226606	0.999777
978.524204	0.999363
978.821765	1.000273
979.119290	1.001875
979.416777	0.999134
979.714228	0.999759
980.011642	0.999800
980.309020	1.000391
980.606360	0.998851
980.903664	1.000048
981.200931	0.999855
981.498162	0.999443
981.795356	1.000091
982.092513	0.999555
982.389633	1.001130
982.686717	0.999372
982.983764	1.000030
983.280775	0.998716
983.577749	1.000807
983.874686	0.998914
984.171587	0.998156
984.468451	0.999338
984.765279	1.000961
985.062070	0.999492
985.358824	0.999370
985.655543	1.000631
985.952224	1.000004
986.248869	0.999996
986.545478	1.002212
986.842050	0.999122
987.138586	1.000694
987.435086	1.000192
987.731549	1.001055
988.027975	1.001417
988.324366	0.999165
988.620719	1.002195
988.917037	1.000200
989.213318	1.000213
989.509563	1.000057
989.805772	1.001430
990.101944	1.000881
990.398080	1.001766
990.694180	1.001250
990.990244	0.999883
991.286271	1.000309
991.582262	1.000301
991.878217	1.000682
992.174136	1.001790
992.470019	1.000502
992.765865	1.002057
993.061676	1.000216
993.357450	1.000795
993.653188	1.001446
993.948890	1.000148
994.244556	0.999504
994.540186	0.999845
994.835780	0.999659
995.131337	1.002200
995.426859	1.000518
995.722345	0.999557
996.017795	1.000373
996.313208	1.001321
996.608586	0.999548
996.903928	1.000861
997.199234	1.000330
997.494504	1.001288
997.789738	0.999330
998.084936	1.001166
998.380099	0.999185
998.675225	1.001263
998.970316	1.000790
999.265371	1.000092
999.560390	1.001065
999.855373	0.999651
1000.150320	1.000978
1000.445232	1.000058
1000.740108	1.000153
1001.034948	0.999686
1001.329752	1.001106
1001.624521	0.999321
1001.919254	1.000141
1002.213951	1.000738
1002.508613	0.999895
1002.803239	0.999848
1003.097829	1.001386
1003.392384	1.000312
1003.686903	1.000685
1003.981386	1.000297
1004.275834	1.001276
1004.570246	0.999162
1004.864623	1.000692
1005.158964	1.000414
1005.453270	0.999977
1005.747540	0.999893
1006.041775	1.001434
1006.335974	1.000435
1006.630138	1.000106
1006.924266	0.999374
1007.218359	0.999217
1007.512416	1.001257
1007.806438	0.999767
1008.100425	1.001028
1008.394376	1.000776
1008.688292	0.999975
1008.982172	0.999860
1009.276017	1.000608
1009.569827	1.001304
1009.863602	1.000111
1010.157341	1.000894
1010.451045	0.999099
1010.744714	1.001629
1011.038347	1.001031
1011.331945	0.998737
1011.625508	1.000623
1011.919036	1.000598
1012.212528	1.000185
1012.505986	1.000361
1012.799408	1.001198
1013.092795	1.001015
1013.386147	1.000808
1013.679464	1.000873
1013.972745	1.001334
1014.265992	0.999905
1014.559204	0.999862
1014.852380	1.000845
1015.145521	1.000121
1015.438628	1.000957
1015.731699	1.000334
1016.024736	1.001233
1016.317737	1.000336
1016.610703	1.000465
1016.903635	1.000167
1017.196531	1.000565
1017.489393	0.999117
1017.782219	1.001149
1018.075011	1.000146
1018.367768	0.999854
1018.660490	1.000760
1018.953177	1.000760
1019.245829	1.000760
