Dividing Wavelength (nm)	Counts (n)	Blue Motor Position (mm): 20.400000	Red Motor Position (mm): 0.000000	
326.493990	1.000513
326.888308	1.000513
327.282561	1.000513
327.676750	1.002221
328.070874	1.002707
328.464933	1.003129
328.858929	1.002514
329.252859	1.001937
329.646726	1.001390
330.040528	1.001615
330.434265	1.002046
330.827938	1.001387
331.221547	1.001685
331.615091	1.002249
332.008571	1.003872
332.401986	1.000795
332.795338	1.001552
333.188625	1.002515
333.581847	1.002077
333.975006	1.002304
334.368100	1.001702
334.761129	1.000814
335.154095	1.002544
335.546996	1.001484
335.939833	0.998956
336.332606	0.999873
336.725315	0.998469
337.117960	1.000152
337.510540	0.998255
337.903056	0.999319
338.295508	0.999868
338.687896	0.999635
339.080220	0.999741
339.472480	0.998867
339.864676	0.998916
340.256807	0.998189
340.648875	1.000407
341.040879	0.999329
341.432818	0.999641
341.824694	0.999361
342.216506	0.999267
342.608253	0.998677
342.999937	0.998594
343.391557	0.999713
343.783113	1.000271
344.174605	0.999458
344.566033	0.998016
344.957397	1.000471
345.348697	1.000294
345.739934	1.000065
346.131106	0.998674
346.522215	1.000215
346.913260	0.998780
347.304241	0.998195
347.695159	0.999126
348.086012	0.999552
348.476802	0.999836
348.867528	0.999707
349.258191	1.000170
349.648789	0.999104
350.039324	0.999417
350.429796	0.998588
350.820203	0.997816
351.210548	0.999089
351.600828	0.998857
351.991045	0.999001
352.381198	0.998753
352.771288	0.998071
353.161314	0.999669
353.551276	0.997732
353.941175	0.997621
354.331010	0.997988
354.720782	0.999100
355.110490	0.998700
355.500135	0.999533
355.889717	0.996978
356.279235	0.998077
356.668689	0.999387
357.058080	0.998725
357.447408	0.998366
357.836672	0.998343
358.225873	0.997880
358.615010	0.997718
359.004084	0.998046
359.393095	0.998776
359.782043	0.997243
360.170927	0.999147
360.559748	0.999135
360.948505	0.997136
361.337199	0.997504
361.725830	0.997430
362.114398	0.997787
362.502903	0.996985
362.891344	0.996294
363.279722	0.997160
363.668037	0.998455
364.056289	0.995601
364.444478	0.998493
364.832603	0.997370
365.220665	0.997588
365.608665	0.996958
365.996601	0.997190
366.384474	0.995858
366.772284	0.996378
367.160031	0.994513
367.547715	0.994486
367.935336	0.995270
368.322893	0.993540
368.710388	0.992730
369.097820	0.990553
369.485189	0.989403
369.872495	0.987146
370.259738	0.985441
370.646918	0.982346
371.034035	0.979585
371.421090	0.976348
371.808081	0.972194
372.195010	0.970323
372.581875	0.964089
372.968678	0.958889
373.355418	0.956797
373.742096	0.949241
374.128710	0.944587
374.515262	0.938774
374.901751	0.933638
375.288177	0.929892
375.674540	0.921244
376.060841	0.916019
376.447079	0.908903
376.833254	0.901646
377.219367	0.898734
377.605417	0.887132
377.991404	0.882324
378.377329	0.877535
378.763191	0.870199
379.148991	0.861260
379.534727	0.854193
379.920402	0.846173
380.306013	0.842221
380.691563	0.828903
381.077049	0.822409
381.462474	0.818628
381.847835	0.807439
382.233134	0.801921
382.618371	0.802925
383.003545	0.785112
383.388657	0.783609
383.773706	0.775699
384.158693	0.771799
384.543618	0.766965
384.928480	0.756935
385.313280	0.747889
385.698017	0.747404
386.082692	0.735793
386.467305	0.734436
386.851856	0.729181
387.236344	0.723194
387.620770	0.717775
388.005133	0.711701
388.389435	0.706808
388.773674	0.704519
389.157851	0.696113
389.541965	0.693019
389.926018	0.699995
390.310008	0.685786
390.693936	0.684081
391.077802	0.675700
391.461606	0.678050
391.845348	0.666600
392.229027	0.666019
392.612645	0.663358
392.996200	0.651276
393.379694	0.643490
393.763125	0.634481
394.146494	0.638949
394.529801	0.629650
394.913047	0.622040
395.296230	0.627711
395.679351	0.618407
396.062410	0.615524
396.445408	0.618480
396.828343	0.614466
397.211217	0.608792
397.594028	0.620888
397.976778	0.611159
398.359466	0.607902
398.742092	0.603329
399.124656	0.615417
399.507158	0.603245
399.889598	0.600666
400.271977	0.592318
400.654294	0.595598
401.036549	0.594111
401.418742	0.599425
401.800874	0.583857
402.182944	0.581863
402.564952	0.572975
402.946898	0.575020
403.328783	0.575950
403.710606	0.587245
404.092367	0.562063
404.474067	0.567185
404.855705	0.565651
405.237282	0.575612
405.618797	0.560808
406.000250	0.556724
406.381642	0.546784
406.762972	0.551963
407.144240	0.550952
407.525447	0.550341
407.906593	0.542945
408.287677	0.538530
408.668700	0.547307
409.049661	0.541385
409.430560	0.536066
409.811399	0.544422
410.192176	0.526802
410.572891	0.533930
410.953545	0.522404
411.334138	0.535687
411.714669	0.527455
412.095139	0.540310
412.475547	0.523903
412.855894	0.526590
413.236180	0.525073
413.616405	0.530137
413.996568	0.520847
414.376670	0.526512
414.756711	0.531531
415.136691	0.528527
415.516609	0.519453
415.896466	0.516538
416.276262	0.512898
416.655997	0.514152
417.035670	0.496070
417.415283	0.487332
417.794834	0.492064
418.174324	0.497989
418.553753	0.507148
418.933121	0.489182
419.312428	0.482249
419.691674	0.488879
420.070859	0.476926
420.449983	0.485422
420.829045	0.474127
421.208047	0.483004
421.586988	0.475789
421.965867	0.475061
422.344686	0.463764
422.723444	0.476501
423.102141	0.493385
423.480777	0.466153
423.859352	0.487330
424.237866	0.464027
424.616319	0.464611
424.994712	0.455906
425.373044	0.465431
425.751314	0.454096
426.129524	0.471131
426.507673	0.454418
426.885762	0.447602
427.263789	0.453015
427.641756	0.462958
428.019662	0.453074
428.397508	0.452881
428.775292	0.456192
429.153016	0.448840
429.530679	0.455002
429.908282	0.448267
430.285824	0.457946
430.663305	0.436387
431.040726	0.457711
431.418086	0.457459
431.795385	0.449586
432.172624	0.448226
432.549802	0.448336
432.926920	0.447868
433.303977	0.447026
433.680974	0.444092
434.057910	0.442803
434.434786	0.442423
434.811601	0.444714
435.188355	0.427456
435.565050	0.436870
435.941683	0.437988
436.318257	0.421886
436.694770	0.422282
437.071222	0.420833
437.447614	0.425154
437.823946	0.431788
438.200218	0.421276
438.576429	0.431383
438.952580	0.423893
439.328670	0.420207
439.704700	0.426746
440.080670	0.428496
440.456580	0.409602
440.832429	0.417291
441.208218	0.428423
441.583947	0.417295
441.959616	0.417254
442.335224	0.423046
442.710773	0.412602
443.086261	0.411390
443.461689	0.425373
443.837057	0.415387
444.212365	0.404969
444.587612	0.412721
444.962800	0.401638
445.337927	0.403314
445.712995	0.429517
446.088002	0.391315
446.462949	0.402127
446.837837	0.406962
447.212664	0.395688
447.587431	0.387370
447.962139	0.357426
448.336786	0.316462
448.711374	0.326695
449.085901	0.371292
449.460369	0.375492
449.834776	0.379370
450.209124	0.358436
450.583412	0.350878
450.957640	0.344259
451.331808	0.355422
451.705917	0.379037
452.079965	0.383545
452.453954	0.371685
452.827883	0.378462
453.201752	0.373325
453.575562	0.384410
453.949311	0.373166
454.323001	0.379254
454.696632	0.374971
455.070202	0.367859
455.443713	0.360099
455.817164	0.354363
456.190556	0.350329
456.563888	0.347247
456.937160	0.344120
457.310373	0.361802
457.683526	0.360441
458.056619	0.366351
458.429653	0.367146
458.802628	0.370093
459.175542	0.365207
459.548398	0.347015
459.921194	0.339449
460.293930	0.339765
460.666607	0.317391
461.039224	0.305755
461.411782	0.301287
461.784280	0.300377
462.156719	0.304620
462.529099	0.308909
462.901419	0.324847
463.273680	0.329449
463.645882	0.328915
464.018024	0.334869
464.390106	0.327363
464.762130	0.312165
465.134094	0.295069
465.505999	0.263945
465.877845	0.234475
466.249631	0.221379
466.621358	0.228572
466.993026	0.242764
467.364634	0.249090
467.736184	0.257900
468.107674	0.266687
468.479105	0.265970
468.850477	0.272496
469.221790	0.279433
469.593043	0.289546
469.964238	0.294319
470.335373	0.293860
470.706449	0.292249
471.077467	0.292910
471.448425	0.254839
471.819324	0.230454
472.190164	0.229782
472.560945	0.258907
472.931667	0.280915
473.302330	0.285576
473.672934	0.297089
474.043479	0.284940
474.413965	0.287205
474.784393	0.290809
475.154761	0.285739
475.525070	0.282904
475.895321	0.288532
476.265513	0.282638
476.635645	0.278124
477.005719	0.278145
477.375734	0.274901
477.745691	0.268084
478.115588	0.264276
478.485427	0.257791
478.855207	0.245145
479.224928	0.227292
479.594591	0.215531
479.964194	0.218902
480.333739	0.220246
480.703226	0.221779
481.072653	0.220179
481.442022	0.216214
481.811333	0.212703
482.180584	0.216221
482.549777	0.222052
482.918912	0.225492
483.287988	0.225351
483.657005	0.225246
484.025964	0.232059
484.394864	0.229232
484.763706	0.230149
485.132489	0.235606
485.501213	0.236479
485.869879	0.235201
486.238487	0.238698
486.607036	0.236977
486.975527	0.241793
487.343959	0.238183
487.712333	0.237746
488.080648	0.239197
488.448905	0.238778
488.817104	0.240754
489.185244	0.235768
489.553326	0.233626
489.921350	0.224378
490.289315	0.207686
490.657222	0.203004
491.025070	0.205333
491.392861	0.207770
491.760593	0.214273
492.128267	0.220434
492.495883	0.226740
492.863440	0.233875
493.230939	0.240962
493.598380	0.243560
493.965763	0.246841
494.333088	0.249913
494.700354	0.252588
495.067563	0.252398
495.434713	0.257336
495.801805	0.255969
496.168839	0.259134
496.535815	0.261992
496.902733	0.262825
497.269593	0.265969
497.636395	0.264647
498.003139	0.267251
498.369825	0.271647
498.736453	0.270298
499.103023	0.273384
499.469535	0.274739
499.835989	0.276560
500.202385	0.279503
500.568723	0.284695
500.935003	0.281863
501.301226	0.289195
501.667390	0.285122
502.033497	0.286079
502.399546	0.290740
502.765537	0.294944
503.131470	0.296120
503.497345	0.295092
503.863163	0.305931
504.228923	0.302068
504.594625	0.303324
504.960269	0.311443
505.325856	0.309933
505.691385	0.317717
506.056856	0.316981
506.422270	0.319909
506.787625	0.325234
507.152924	0.326219
507.518164	0.329865
507.883347	0.334602
508.248472	0.339797
508.613540	0.339070
508.978550	0.345467
509.343503	0.349402
509.708398	0.351326
510.073236	0.353116
510.438016	0.356396
510.802738	0.361602
511.167403	0.365323
511.532010	0.372081
511.896561	0.371463
512.261053	0.374908
512.625488	0.381749
512.989866	0.386645
513.354186	0.391603
513.718449	0.398039
514.082655	0.399118
514.446803	0.406462
514.810894	0.409759
515.174927	0.417522
515.538904	0.421072
515.902822	0.423816
516.266684	0.430761
516.630488	0.437091
516.994235	0.440497
517.357925	0.446083
517.721558	0.449112
518.085133	0.455226
518.448651	0.459301
518.812112	0.467072
519.175516	0.472643
519.538863	0.476031
519.902152	0.482130
520.265385	0.486560
520.628560	0.491657
520.991678	0.499301
521.354739	0.503156
521.717743	0.509596
522.080690	0.515349
522.443580	0.520639
522.806413	0.526265
523.169189	0.531888
523.531908	0.536917
523.894569	0.545198
524.257174	0.550893
524.619722	0.555793
524.982213	0.560927
525.344647	0.567240
525.707025	0.572582
526.069345	0.577105
526.431608	0.585762
526.793815	0.589563
527.155964	0.598037
527.518057	0.602333
527.880093	0.609294
528.242072	0.614083
528.603995	0.621351
528.965860	0.628065
529.327669	0.633532
529.689421	0.638566
530.051117	0.645269
530.412755	0.650900
530.774337	0.656523
531.135862	0.663547
531.497331	0.666548
531.858743	0.676044
532.220098	0.679044
532.581396	0.686547
532.942638	0.691797
533.303824	0.697542
533.664953	0.703288
534.026025	0.709481
534.387040	0.713623
534.747999	0.718472
535.108902	0.723784
535.469748	0.731407
535.830537	0.735430
536.191270	0.740473
536.551947	0.745556
536.912567	0.750319
537.273131	0.755785
537.633638	0.760384
537.994089	0.766152
538.354483	0.771450
538.714821	0.774421
539.075103	0.779220
539.435328	0.785285
539.795497	0.789464
540.155609	0.793682
540.515665	0.797302
540.875665	0.803494
541.235609	0.808163
541.595496	0.811339
541.955328	0.816224
542.315102	0.820771
542.674821	0.824685
543.034483	0.829108
543.394090	0.832744
543.753640	0.837499
544.113134	0.840141
544.472571	0.844657
544.831953	0.848041
545.191278	0.853009
545.550548	0.855671
545.909761	0.858472
546.268918	0.863040
546.628019	0.866124
546.987064	0.870609
547.346053	0.872451
547.704986	0.876660
548.063863	0.880177
548.422684	0.883353
548.781449	0.886472
549.140158	0.889649
549.498811	0.892647
549.857408	0.894961
550.215949	0.897573
550.574434	0.900726
550.932864	0.904145
551.291237	0.906088
551.649555	0.909557
552.007817	0.910980
552.366022	0.913563
552.724173	0.916456
553.082267	0.918154
553.440305	0.921037
553.798288	0.923109
554.156215	0.924566
554.514086	0.928099
554.871902	0.929782
555.229661	0.931437
555.587365	0.933551
555.945014	0.936294
556.302606	0.937809
556.660143	0.940288
557.017625	0.942284
557.375050	0.943206
557.732421	0.945418
558.089735	0.946398
558.446994	0.948189
558.804197	0.950576
559.161345	0.951856
559.518437	0.953156
559.875474	0.955401
560.232455	0.956033
560.589381	0.957184
560.946251	0.958723
561.303065	0.959678
561.659825	0.960948
562.016528	0.962685
562.373177	0.963418
562.729770	0.964641
563.086307	0.965563
563.442789	0.967370
563.799216	0.967900
564.155587	0.969185
564.511904	0.971089
564.868164	0.970302
565.224370	0.971820
565.580520	0.972847
565.936615	0.973300
566.292654	0.974242
566.648638	0.975565
567.004567	0.976036
567.360441	0.976861
567.716260	0.977097
568.072023	0.977813
568.427732	0.978196
568.783385	0.979302
569.138982	0.979966
569.494525	0.980133
569.850013	0.981994
570.205445	0.982215
570.560823	0.982038
570.916145	0.982552
571.271412	0.983536
571.626625	0.983535
571.981782	0.984234
572.336884	0.985118
572.691931	0.984843
573.046923	0.985782
573.401860	0.985152
573.756743	0.986114
574.111570	0.986144
574.466342	0.986658
574.821059	0.986477
575.175722	0.987448
575.530330	0.987527
575.884882	0.987939
576.239380	0.988256
576.593823	0.987762
576.948211	0.988340
577.302544	0.987878
577.656823	0.988791
578.011047	0.988388
578.365216	0.989678
578.719330	0.989754
579.073389	0.988809
579.427394	0.989221
579.781344	0.990195
580.135239	0.988988
580.489080	0.989337
580.842866	0.989874
581.196597	0.989873
581.550273	0.990069
581.903895	0.990742
582.257463	0.990235
582.610975	0.989915
582.964434	0.990712
583.317837	0.991652
583.671186	0.991747
584.024481	0.990629
584.377721	0.990866
584.730906	0.991030
585.084037	0.991420
585.437113	0.992199
585.790135	0.991069
586.143103	0.991235
586.496016	0.991812
586.848874	0.992120
587.201679	0.991277
587.554428	0.991720
587.907124	0.992188
588.259765	0.992344
588.612352	0.992219
588.964884	0.991826
589.317362	0.991894
589.669786	0.991493
590.022155	0.991790
590.374470	0.992603
590.726731	0.991585
591.078937	0.992112
591.431090	0.992622
591.783188	0.992224
592.135232	0.993239
592.487222	0.992085
592.839157	0.992857
593.191038	0.992970
593.542866	0.992862
593.894639	0.991820
594.246358	0.992463
594.598022	0.993003
594.949633	0.992923
595.301190	0.992522
595.652692	0.992992
596.004141	0.992458
596.355535	0.992681
596.706876	0.993152
597.058162	0.992783
597.409395	0.992798
597.760573	0.992341
598.111698	0.992865
598.462768	0.991731
598.813785	0.991461
599.164748	0.992622
599.515657	0.992642
599.866511	0.993505
600.217312	0.993897
600.568060	0.992644
600.918753	0.993320
601.269392	0.993488
601.619978	0.993505
601.970510	0.992789
602.320988	0.993110
602.671412	0.992625
603.021783	0.993908
603.372100	0.993731
603.722363	0.993761
604.072572	0.992607
604.422728	0.992938
604.772830	0.993678
605.122878	0.993290
605.472872	0.993799
605.822813	0.993185
606.172701	0.993522
606.522534	0.993294
606.872314	0.994367
607.222041	0.993677
607.571714	0.993801
607.921333	0.993729
608.270899	0.993395
608.620411	0.993639
608.969870	0.994278
609.319276	0.993746
609.668627	0.994410
610.017926	0.993502
610.367171	0.993578
610.716362	0.993384
611.065500	0.993019
611.414585	0.993943
611.763616	0.993066
612.112594	0.993084
612.461518	0.992530
612.810389	0.994341
613.159207	0.993101
613.507971	0.992592
613.856682	0.994268
614.205340	0.992063
614.553945	0.993539
614.902496	0.992926
615.250994	0.993362
615.599439	0.994129
615.947830	0.991770
616.296169	0.993294
616.644454	0.993912
616.992686	0.993320
617.340864	0.993212
617.688990	0.993014
618.037063	0.993385
618.385082	0.992488
618.733048	0.993311
619.080961	0.994184
619.428821	0.993707
619.776628	0.993049
620.124382	0.993749
620.472083	0.994204
620.819731	0.994325
621.167326	0.993384
621.514868	0.993557
621.862357	0.994063
622.209793	0.993571
622.557176	0.993681
622.904506	0.993394
623.251783	0.993530
623.599007	0.994245
623.946179	0.992388
624.293297	0.994439
624.640363	0.994077
624.987376	0.993117
625.334336	0.993894
625.681243	0.992979
626.028097	0.993776
626.374899	0.993333
626.721647	0.994222
627.068343	0.993577
627.414987	0.993695
627.761577	0.993535
628.108115	0.993031
628.454600	0.994142
628.801032	0.994154
629.147412	0.994037
629.493739	0.994151
629.840014	0.993634
630.186236	0.993483
630.532405	0.994159
630.878521	0.993191
631.224585	0.993691
631.570597	0.993307
631.916556	0.993811
632.262462	0.993318
632.608316	0.994609
632.954117	0.993507
633.299866	0.993588
633.645562	0.992865
633.991206	0.994065
634.336797	0.993524
634.682336	0.994315
635.027823	0.994366
635.373257	0.994058
635.718639	0.994203
636.063968	0.993470
636.409245	0.993472
636.754470	0.993704
637.099642	0.993493
637.444762	0.994613
637.789829	0.993358
638.134845	0.993552
638.479808	0.994165
638.824719	0.994986
639.169577	0.994012
639.514383	0.994641
639.859137	0.994993
640.203839	0.994575
640.548489	0.993087
640.893086	0.993795
641.237632	0.994824
641.582125	0.993161
641.926566	0.994728
642.270955	0.993943
642.615292	0.993348
642.959576	0.994046
643.303809	0.994834
643.647990	0.994610
643.992118	0.994528
644.336195	0.993559
644.680219	0.994260
645.024192	0.994895
645.368112	0.993578
645.711981	0.994157
646.055797	0.994549
646.399562	0.993045
646.743274	0.994903
647.086935	0.993244
647.430544	0.993709
647.774101	0.993103
648.117606	0.994360
648.461059	0.994741
648.804460	0.993260
649.147810	0.993245
649.491108	0.993722
649.834354	0.993391
650.177548	0.993975
650.520690	0.993791
650.863781	0.992839
651.206820	0.993859
651.549807	0.993441
651.892742	0.993833
652.235626	0.994558
652.578458	0.993500
652.921238	0.994772
653.263967	0.994765
653.606644	0.994021
653.949269	0.994320
654.291843	0.993511
654.634365	0.994274
654.976836	0.993794
655.319255	0.994226
655.661622	0.994632
656.003938	0.993656
656.346203	0.993275
656.688416	0.994842
657.030577	0.993794
657.372687	0.994047
657.714746	0.993514
658.056753	0.994253
658.398708	0.993863
658.740612	0.994474
659.082465	0.994060
659.424266	0.993990
659.766016	0.993683
660.107715	0.994610
660.449362	0.994425
660.790958	0.994634
661.132503	0.994152
661.473996	0.993890
661.815438	0.994090
662.156829	0.994411
662.498168	0.994654
662.839456	0.993227
663.180693	0.994409
663.521879	0.993797
663.863013	0.994581
664.204097	0.994165
664.545129	0.993063
664.886110	0.995055
665.227040	0.994389
665.567918	0.994078
665.908746	0.992896
666.249522	0.993498
666.590248	0.993924
666.930922	0.993683
667.271545	0.993932
667.612118	0.994004
667.952639	0.993403
668.293109	0.993815
668.633528	0.992852
668.973896	0.994213
669.314213	0.993425
669.654480	0.993190
669.994695	0.993183
670.334859	0.994026
670.674973	0.993601
671.015035	0.994404
671.355047	0.993709
671.695008	0.993266
672.034918	0.993129
672.374777	0.994047
672.714585	0.993539
673.054342	0.993775
673.394049	0.993324
673.733705	0.993039
674.073310	0.993339
674.412864	0.993178
674.752368	0.992841
675.091820	0.994092
675.431223	0.993778
675.770574	0.992728
676.109875	0.992926
676.449125	0.993594
676.788324	0.993338
677.127473	0.993827
677.466571	0.993843
677.805619	0.993214
678.144616	0.993738
678.483562	0.993796
678.822458	0.993574
679.161303	0.993457
679.500098	0.993685
679.838842	0.994605
680.177535	0.993221
680.516179	0.993233
680.854771	0.994369
681.193314	0.993539
681.531805	0.993834
681.870247	0.994274
682.208638	0.993792
682.546978	0.992396
682.885268	0.993082
683.223508	0.994067
683.561697	0.992992
683.899836	0.992521
684.237925	0.993141
684.575963	0.993760
684.913951	0.993775
685.251889	0.992573
685.589776	0.992835
685.927614	0.993500
686.265401	0.992533
686.603137	0.993018
686.940824	0.992653
687.278460	0.993705
687.616046	0.993431
687.953582	0.992871
688.291068	0.993909
688.628504	0.992618
688.965889	0.992265
689.303224	0.991712
689.640510	0.992307
689.977745	0.992537
690.314930	0.993180
690.652065	0.992777
690.989150	0.992057
691.326185	0.992853
691.663170	0.993686
692.000105	0.994443
692.336990	0.993329
692.673825	0.993247
693.010610	0.992689
693.347345	0.993066
693.684030	0.993273
694.020665	0.993851
694.357251	0.993384
694.693786	0.993531
695.030272	0.992587
695.366707	0.993654
695.703093	0.994053
696.039429	0.993092
696.375716	0.994044
696.711952	0.993892
697.048139	0.993920
697.384276	0.993402
697.720363	0.994409
698.056400	0.993042
698.392388	0.992918
698.728326	0.994103
699.064214	0.994335
699.400053	0.993857
699.735842	0.994748
700.071581	0.992948
700.407270	0.993510
700.742910	0.994141
701.078501	0.993619
701.414042	0.993900
701.749533	0.993321
702.084974	0.994679
702.420366	0.994847
702.755709	0.993244
703.091002	0.994761
703.426246	0.994521
703.761440	0.993982
704.096584	0.994508
704.431679	0.993235
704.766725	0.993387
705.101721	0.994706
705.436668	0.994380
705.771565	0.993923
706.106413	0.992986
706.441212	0.994449
706.775961	0.995173
707.110661	0.993299
707.445311	0.994291
707.779913	0.994912
708.114465	0.995146
708.448967	0.994034
708.783421	0.994279
709.117825	0.994069
709.452180	0.993645
709.786485	0.994217
710.120742	0.993525
710.454949	0.992746
710.789107	0.993486
711.123216	0.992511
711.457275	0.992960
711.791286	0.993504
712.125247	0.994281
712.459159	0.993219
712.793023	0.993314
713.126837	0.993515
713.460602	0.992366
713.794318	0.991796
714.127985	0.992473
714.461602	0.993561
714.795171	0.992540
715.128691	0.993079
715.462162	0.993469
715.795584	0.993396
716.128957	0.994371
716.462281	0.994288
716.795556	0.992717
717.128782	0.994811
717.461960	0.993440
717.795088	0.993954
718.128167	0.994462
718.461198	0.993914
718.794180	0.994762
719.127113	0.993613
719.459997	0.993148
719.792833	0.994052
720.125619	0.993287
720.458357	0.994916
720.791046	0.994802
721.123686	0.994267
721.456278	0.993883
721.788821	0.994362
722.121315	0.994715
722.453761	0.994727
722.786158	0.994315
723.118506	0.994032
723.450805	0.993575
723.783056	0.994125
724.115259	0.993386
724.447412	0.994983
724.779518	0.994352
725.111574	0.994531
725.443582	0.994608
725.775542	0.994070
726.107453	0.994241
726.439315	0.994793
726.771129	0.994243
727.102895	0.994988
727.434612	0.993888
727.766281	0.993138
728.097901	0.993347
728.429473	0.994349
728.760996	0.992674
729.092471	0.992736
729.423897	0.994638
729.755276	0.993849
730.086606	0.993932
730.417887	0.994372
730.749120	0.993756
731.080305	0.993212
731.411442	0.992143
731.742530	0.992168
732.073570	0.992420
732.404562	0.993009
732.735506	0.992730
733.066401	0.993421
733.397249	0.993264
733.728048	0.993303
734.058798	0.993725
734.389501	0.994340
734.720156	0.994348
735.050762	0.994331
735.381320	0.993565
735.711831	0.994413
736.042293	0.993407
736.372707	0.995203
736.703073	0.993037
737.033391	0.994252
737.363661	0.994481
737.693883	0.994095
738.024056	0.993921
738.354182	0.995126
738.684260	0.993801
739.014290	0.993271
739.344272	0.993088
739.674207	0.994421
740.004093	0.994179
740.333931	0.993615
740.663722	0.992373
740.993464	0.994073
741.323159	0.993865
741.652806	0.994161
741.982405	0.994268
742.311956	0.993964
742.641460	0.993953
742.970915	0.994051
743.300323	0.993334
743.629683	0.993398
743.958996	0.995030
744.288260	0.993450
744.617477	0.994234
744.946647	0.994050
745.275768	0.995088
745.604842	0.993766
745.933869	0.993985
746.262847	0.994983
746.591778	0.993757
746.920662	0.994445
747.249498	0.995499
747.578286	0.994992
747.907027	0.995196
748.235720	0.995396
748.564365	0.995377
748.892963	0.994508
749.221514	0.994671
749.550017	0.994996
749.878473	0.994551
750.206881	0.995292
750.535242	0.994075
750.863555	0.994039
751.191821	0.994090
751.520039	0.995249
751.848210	0.992323
752.176334	0.994764
752.504411	0.994178
752.832440	0.994056
753.160421	0.995054
753.488356	0.994360
753.816243	0.994216
754.144082	0.994499
754.471875	0.994675
754.799620	0.995988
755.127318	0.995922
755.454969	0.993821
755.782572	0.995876
756.110129	0.994415
756.437638	0.995814
756.765100	0.995228
757.092515	0.994676
757.419882	0.995325
757.747203	0.993878
758.074477	0.996751
758.401703	0.995402
758.728882	0.994193
759.056014	0.994091
759.383099	0.994076
759.710138	0.994841
760.037129	0.993885
760.364073	0.994665
760.690970	0.994261
761.017820	0.993318
761.344623	0.994603
761.671379	0.994881
761.998088	0.994977
762.324751	0.993472
762.651366	0.992826
762.977935	0.992415
763.304456	0.990812
763.630931	0.988636
763.957359	0.988997
764.283740	0.989693
764.610074	0.991132
764.936362	0.991528
765.262602	0.993068
765.588796	0.993078
765.914943	0.993548
766.241044	0.993493
766.567097	0.993396
766.893104	0.995203
767.219064	0.994333
767.544978	0.994155
767.870845	0.994470
768.196665	0.994660
768.522438	0.995718
768.848165	0.995663
769.173846	0.995741
769.499479	0.996398
769.825066	0.996599
770.150607	0.996470
770.476101	0.996180
770.801548	0.997082
771.126949	0.995865
771.452303	0.996121
771.777611	0.996077
772.102872	0.995707
772.428087	0.996418
772.753256	0.995732
773.078378	0.997047
773.403453	0.996531
773.728482	0.997565
774.053465	0.996060
774.378401	0.996209
774.703291	0.997632
775.028135	0.996834
775.352932	0.995106
775.677683	0.997936
776.002388	0.996476
776.327046	0.995327
776.651658	0.998047
776.976224	0.997132
777.300743	0.996661
777.625216	0.996126
777.949643	0.997265
778.274024	0.996517
778.598359	0.997698
778.922647	0.998248
779.246889	0.997977
779.571086	0.996981
779.895236	0.996475
780.219339	0.997737
780.543397	0.996273
780.867409	0.997108
781.191374	0.997092
781.515294	0.997068
781.839167	0.998483
782.162995	0.997102
782.486776	0.996174
782.810511	0.996951
783.134201	0.997819
783.457844	0.997996
783.781441	0.997575
784.104993	0.996733
784.428498	0.997586
784.751958	0.998713
785.075372	0.998423
785.398739	0.997357
785.722061	0.996770
786.045337	0.996865
786.368568	0.996945
786.691752	0.997135
787.014891	0.997327
787.337983	0.995626
787.661030	0.996868
787.984031	0.995757
788.306987	0.996951
788.629897	0.993693
788.952760	0.995511
789.275579	0.996407
789.598351	0.996021
789.921078	0.996137
790.243759	0.996072
790.566395	0.995812
790.888984	0.996631
791.211529	0.996341
791.534027	0.997030
791.856480	0.996884
792.178888	0.997156
792.501249	0.996852
792.823566	0.998436
793.145836	0.998069
793.468062	0.997873
793.790241	0.997359
794.112375	0.996728
794.434464	0.996648
794.756507	0.997313
795.078505	0.996759
795.400457	0.996875
795.722364	0.997317
796.044226	0.996256
796.366042	0.995965
796.687812	0.995220
797.009538	0.995567
797.331218	0.997218
797.652852	0.997116
797.974442	0.995954
798.295986	0.996518
798.617484	0.995683
798.938938	0.996942
799.260346	0.996413
799.581709	0.995940
799.903026	0.996185
800.224299	0.996887
800.545526	0.996574
800.866708	0.997161
801.187845	0.997055
801.508936	0.998134
801.829983	0.996719
802.150984	0.997458
802.471940	0.998581
802.792851	0.997817
803.113717	0.997382
803.434538	0.998236
803.755314	0.998712
804.076045	0.997290
804.396731	0.996493
804.717372	0.996764
805.037967	0.997496
805.358518	0.998610
805.679024	0.997265
805.999485	0.998053
806.319901	0.997956
806.640272	0.997776
806.960598	0.998393
807.280879	0.997295
807.601115	0.996986
807.921306	0.997666
808.241453	0.996768
808.561554	0.997675
808.881611	0.997719
809.201623	0.997256
809.521590	0.997474
809.841513	0.997720
810.161390	0.997259
810.481223	0.997323
810.801011	0.997412
811.120755	0.998061
811.440453	0.997290
811.760107	0.997134
812.079716	0.996378
812.399281	0.997176
812.718801	0.996978
813.038276	0.996936
813.357707	0.997748
813.677093	0.998413
813.996434	0.997239
814.315731	0.999180
814.634983	0.998011
814.954191	0.998526
815.273354	0.996760
815.592473	0.997425
815.911547	0.998571
816.230577	0.996944
816.549562	0.997571
816.868502	0.996985
817.187399	0.996990
817.506250	0.998043
817.825058	0.995537
818.143821	0.997841
818.462539	0.996534
818.781213	0.996235
819.099843	0.996853
819.418429	0.995081
819.736970	0.994925
820.055466	0.993356
820.373919	0.992971
820.692327	0.991898
821.010691	0.990541
821.329011	0.987400
821.647286	0.982797
821.965517	0.980133
822.283704	0.976122
822.601847	0.973723
822.919945	0.974220
823.237999	0.976917
823.556010	0.978930
823.873976	0.980587
824.191897	0.983655
824.509775	0.986157
824.827609	0.986383
825.145398	0.987518
825.463144	0.987254
825.780845	0.988260
826.098502	0.988221
826.416116	0.987944
826.733685	0.984608
827.051210	0.981883
827.368692	0.983022
827.686129	0.982825
828.003522	0.986996
828.320872	0.988447
828.638177	0.990629
828.955439	0.992176
829.272656	0.992691
829.589830	0.993570
829.906960	0.995523
830.224046	0.995119
830.541088	0.995655
830.858086	0.996044
831.175041	0.996672
831.491952	0.995981
831.808819	0.995464
832.125642	0.995835
832.442421	0.996407
832.759157	0.995000
833.075849	0.992299
833.392497	0.990584
833.709101	0.987469
834.025662	0.988977
834.342179	0.988752
834.658653	0.991545
834.975083	0.991795
835.291469	0.992781
835.607811	0.994952
835.924110	0.995149
836.240366	0.996686
836.556578	0.997196
836.872746	0.996607
837.188871	0.996403
837.504952	0.996302
837.820990	0.997799
838.136984	0.996454
838.452935	0.997217
838.768842	0.997640
839.084706	0.997939
839.400526	0.996471
839.716303	0.994696
840.032037	0.993307
840.347727	0.994133
840.663373	0.995761
840.978977	0.994579
841.294537	0.997163
841.610054	0.997595
841.925527	0.997524
842.240957	0.997907
842.556344	0.998242
842.871687	0.998869
843.186987	0.998785
843.502244	0.999573
843.817458	0.997677
844.132629	0.998825
844.447756	0.999353
844.762840	0.998430
845.077881	0.999824
845.392879	0.998428
845.707833	0.998326
846.022745	0.999339
846.337613	1.000079
846.652438	0.999084
846.967221	0.999703
847.281960	1.000235
847.596656	1.000513
847.911309	1.000097
848.225919	0.998142
848.540485	0.999089
848.855009	1.000172
849.169490	0.999225
849.483928	0.998632
849.798323	0.998128
850.112675	0.999266
850.426984	0.999315
850.741251	0.999417
851.055474	0.999626
851.369654	1.000096
851.683792	0.999555
851.997887	0.999894
852.311938	1.000502
852.625947	0.998779
852.939914	0.999359
853.253837	1.001141
853.567718	0.999386
853.881555	0.999690
854.195350	0.999962
854.509103	0.999338
854.822812	0.999936
855.136479	0.999872
855.450103	0.999518
855.763685	0.999523
856.077224	0.999686
856.390720	0.999776
856.704173	0.998994
857.017584	1.000610
857.330953	0.999723
857.644278	0.998837
857.957561	0.999520
858.270802	0.999451
858.584000	0.999434
858.897155	0.999069
859.210268	0.999073
859.523339	0.999052
859.836367	0.999232
860.149352	0.999462
860.462295	1.000059
860.775195	1.000250
861.088054	0.998043
861.400869	0.999843
861.713642	0.998559
862.026373	1.000284
862.339062	1.000227
862.651708	0.999444
862.964312	0.999573
863.276873	0.999248
863.589392	0.999430
863.901869	0.999634
864.214303	0.999131
864.526696	0.998250
864.839045	0.999241
865.151353	0.999328
865.463619	0.999083
865.775842	0.999806
866.088023	1.000977
866.400162	0.999582
866.712258	0.999569
867.024313	1.000351
867.336325	0.998687
867.648296	1.000239
867.960224	0.999068
868.272110	0.998601
868.583954	0.998396
868.895755	0.999473
869.207515	0.998885
869.519233	0.999696
869.830909	0.998380
870.142542	0.997752
870.454134	0.998230
870.765684	0.999378
871.077191	0.999128
871.388657	0.999169
871.700081	0.999892
872.011463	0.999735
872.322803	0.998376
872.634101	0.998231
872.945357	0.998875
873.256571	0.997655
873.567744	0.999100
873.878874	0.998341
874.189963	0.998913
874.501010	0.999899
874.812015	0.999104
875.122979	0.998808
875.433900	0.998434
875.744780	0.999128
876.055618	0.997842
876.366415	0.997226
876.677169	0.996800
876.987882	0.997445
877.298554	0.998631
877.609183	0.997978
877.919771	0.997217
878.230317	0.998005
878.540822	0.997249
878.851285	0.997100
879.161707	0.995477
879.472087	0.996794
879.782425	0.992953
880.092722	0.992440
880.402977	0.988021
880.713191	0.984175
881.023363	0.979632
881.333494	0.976859
881.643583	0.977574
881.953631	0.977720
882.263637	0.977422
882.573602	0.978526
882.883526	0.980735
883.193408	0.983506
883.503248	0.984282
883.813048	0.986294
884.122806	0.988801
884.432522	0.989586
884.742197	0.992022
885.051831	0.993015
885.361424	0.992618
885.670975	0.995550
885.980485	0.993919
886.289954	0.995496
886.599382	0.995578
886.908768	0.996766
887.218113	0.995686
887.527417	0.997715
887.836680	0.997829
888.145901	0.997946
888.455082	0.999538
888.764221	0.998151
889.073319	0.996906
889.382376	0.999497
889.691392	0.996681
890.000366	0.999078
890.309300	0.998003
890.618193	0.999235
890.927044	0.998122
891.235855	0.997272
891.544625	0.997908
891.853353	0.996818
892.162041	0.997930
892.470687	0.998101
892.779293	0.996903
893.087858	0.995282
893.396381	0.995531
893.704864	0.994316
894.013306	0.993321
894.321707	0.991278
894.630068	0.989726
894.938387	0.988329
895.246665	0.988581
895.554903	0.989291
895.863100	0.991553
896.171256	0.990810
896.479371	0.992502
896.787446	0.992735
897.095480	0.995338
897.403473	0.995918
897.711425	0.996089
898.019336	0.997043
898.327207	0.995983
898.635038	0.996578
898.942827	0.997200
899.250576	0.996803
899.558284	0.998703
899.865952	0.997179
900.173579	0.998002
900.481165	0.997567
900.788711	0.998603
901.096216	0.998461
901.403681	0.998235
901.711105	0.998180
902.018489	0.998031
902.325832	0.997537
902.633135	0.998183
902.940397	0.998145
903.247619	0.997006
903.554800	0.994695
903.861941	0.991800
904.169041	0.988072
904.476101	0.986420
904.783121	0.986282
905.090100	0.987798
905.397039	0.989194
905.703938	0.991344
906.010796	0.992499
906.317614	0.993559
906.624391	0.995680
906.931129	0.995908
907.237826	0.998150
907.544483	0.997397
907.851099	0.998468
908.157675	0.998877
908.464211	0.999227
908.770707	0.997126
909.077163	0.999088
909.383578	0.998635
909.689954	0.998426
909.996289	0.999682
910.302584	1.000083
910.608839	1.000468
910.915054	0.999223
911.221229	1.000805
911.527363	0.999088
911.833458	0.999701
912.139513	0.999969
912.445527	0.999733
912.751502	0.999205
913.057436	0.998809
913.363331	0.999256
913.669186	0.999800
913.975000	0.998290
914.280775	0.997593
914.586510	0.995453
914.892205	0.994607
915.197859	0.992789
915.503475	0.991278
915.809050	0.989631
916.114585	0.986468
916.420081	0.986976
916.725536	0.987311
917.030952	0.988364
917.336328	0.989051
917.641665	0.989275
917.946961	0.990560
918.252218	0.992434
918.557435	0.993735
918.862612	0.995033
919.167750	0.995149
919.472848	0.996296
919.777906	0.997913
920.082925	0.998298
920.387904	0.998344
920.692843	0.998205
920.997743	0.997537
921.302603	0.998132
921.607423	0.998086
921.912204	0.997751
922.216946	0.999609
922.521647	0.998527
922.826310	0.998609
923.130932	0.999456
923.435516	0.998596
923.740059	0.999207
924.044564	0.999441
924.349028	0.999364
924.653454	0.999254
924.957840	0.999839
925.262186	0.999786
925.566493	0.999272
925.870761	1.000046
926.174989	0.999213
926.479178	1.000967
926.783328	1.000255
927.087438	1.000613
927.391509	0.999848
927.695541	0.999446
927.999533	1.001544
928.303486	0.999997
928.607400	0.999816
928.911275	1.002175
929.215110	1.001706
929.518906	1.001476
929.822663	1.001368
930.126381	1.001883
930.430060	1.000942
930.733699	1.001030
931.037299	1.001186
931.340861	1.001684
931.644383	1.000077
931.947866	1.001339
932.251309	1.000859
932.554714	1.000019
932.858080	1.000873
933.161407	1.000520
933.464694	1.001109
933.767943	1.000536
934.071153	0.999891
934.374323	1.000992
934.677455	1.000053
934.980548	1.001599
935.283602	1.001397
935.586617	0.999824
935.889593	1.002557
936.192530	1.001570
936.495428	0.999979
936.798287	0.999928
937.101108	1.000433
937.403890	1.000717
937.706632	1.000164
938.009336	0.999543
938.312002	0.999021
938.614628	0.999642
938.917216	1.000224
939.219765	0.998628
939.522275	1.000022
939.824747	1.000339
940.127179	0.999778
940.429573	1.001219
940.731929	0.998751
941.034246	0.998965
941.336524	0.997999
941.638763	0.999696
941.940964	0.999315
942.243126	0.999974
942.545250	1.000932
942.847335	1.000013
943.149381	1.000363
943.451389	0.999377
943.753359	1.001166
944.055290	1.001924
944.357182	0.999972
944.659036	1.000501
944.960851	1.001915
945.262628	1.000521
945.564367	1.000485
945.866067	1.000490
946.167729	1.001434
946.469352	1.000643
946.770937	0.998670
947.072484	1.001556
947.373992	1.000819
947.675462	0.999965
947.976893	0.999746
948.278286	1.001777
948.579641	1.001673
948.880958	0.999658
949.182236	1.001475
949.483476	1.000935
949.784678	1.000471
950.085841	1.000873
950.386967	1.000019
950.688054	1.000735
950.989103	0.999942
951.290114	0.999777
951.591087	0.999847
951.892021	1.000165
952.192917	1.001164
952.493776	1.000529
952.794596	1.000172
953.095378	0.999469
953.396122	1.000853
953.696828	1.000500
953.997496	1.000224
954.298126	1.001106
954.598718	0.999808
954.899272	1.000546
955.199788	1.000920
955.500266	1.000483
955.800706	1.000924
956.101108	1.000187
956.401472	1.001703
956.701798	1.000094
957.002087	1.000246
957.302337	1.000377
957.602550	1.002177
957.902724	1.001565
958.202861	1.000162
958.502960	1.000707
958.803022	1.001982
959.103045	1.001992
959.403031	1.001758
959.702979	1.002030
960.002889	1.001027
960.302762	1.000830
960.602596	1.001925
960.902393	1.001910
961.202153	1.001028
961.501875	1.001722
961.801559	1.002095
962.101205	1.000359
962.400814	1.002304
962.700385	1.002228
962.999918	1.002134
963.299414	1.001420
963.598873	1.002073
963.898293	1.001177
964.197677	1.001228
964.497022	1.000770
964.796331	1.001687
965.095601	1.002133
965.394835	1.000992
965.694030	1.001785
965.993189	1.001997
966.292309	1.001388
966.591393	1.000927
966.890439	1.002730
967.189447	1.001342
967.488419	1.001159
967.787353	1.001901
968.086249	1.001909
968.385108	1.001887
968.683930	1.001920
968.982714	1.002133
969.281462	1.000217
969.580172	1.001487
969.878844	1.002261
970.177480	1.000834
970.476078	1.002544
970.774639	1.002308
971.073162	1.000852
971.371649	1.000794
971.670098	1.000909
971.968510	1.001754
972.266885	1.000900
972.565223	1.001026
972.863524	0.999253
973.161788	1.001385
973.460014	1.001881
973.758204	1.000725
974.056356	1.000846
974.354471	1.000208
974.652550	1.002011
974.950591	1.001034
975.248595	1.001527
975.546563	1.002928
975.844493	1.002268
976.142386	1.001090
976.440243	1.002182
976.738062	1.001273
977.035845	1.001298
977.333590	1.003311
977.631299	1.000815
977.928971	1.001211
978.226606	1.001743
978.524204	1.000630
978.821765	1.002132
979.119290	1.001873
979.416777	1.002066
979.714228	1.001312
980.011642	1.000900
980.309020	1.001213
980.606360	1.000865
980.903664	1.001603
981.200931	1.001192
981.498162	1.002256
981.795356	1.001900
982.092513	1.001621
982.389633	1.002563
982.686717	0.999499
982.983764	1.000690
983.280775	1.001387
983.577749	1.000999
983.874686	1.000745
984.171587	1.000012
984.468451	1.000982
984.765279	1.001263
985.062070	1.001796
985.358824	1.001862
985.655543	1.001818
985.952224	1.000595
986.248869	1.001289
986.545478	1.002254
986.842050	1.000433
987.138586	1.001698
987.435086	1.001265
987.731549	1.002957
988.027975	1.002556
988.324366	1.002175
988.620719	1.002920
988.917037	1.002282
989.213318	1.001565
989.509563	1.003058
989.805772	1.001424
990.101944	1.003405
990.398080	1.002255
990.694180	1.002204
990.990244	1.001367
991.286271	1.002166
991.582262	1.002446
991.878217	1.001559
992.174136	1.001899
992.470019	1.001190
992.765865	1.003605
993.061676	1.003236
993.357450	1.002038
993.653188	1.002471
993.948890	1.001380
994.244556	1.001528
994.540186	1.001189
994.835780	1.002074
995.131337	1.002289
995.426859	1.002407
995.722345	1.001019
996.017795	1.001907
996.313208	1.001908
996.608586	1.001599
996.903928	1.002360
997.199234	1.002176
997.494504	1.001473
997.789738	1.000472
998.084936	1.002132
998.380099	1.000986
998.675225	1.002155
998.970316	1.002552
999.265371	1.002031
999.560390	1.001488
999.855373	1.001587
1000.150320	1.001152
1000.445232	1.002743
1000.740108	1.002761
1001.034948	1.001326
1001.329752	1.002572
1001.624521	1.001630
1001.919254	1.000808
1002.213951	1.001873
1002.508613	1.001002
1002.803239	1.002171
1003.097829	1.001905
1003.392384	1.001429
1003.686903	1.001997
1003.981386	1.001494
1004.275834	1.004025
1004.570246	1.000495
1004.864623	1.002890
1005.158964	1.000529
1005.453270	1.002052
1005.747540	1.001726
1006.041775	1.002562
1006.335974	1.002363
1006.630138	1.001526
1006.924266	1.001317
1007.218359	1.000521
1007.512416	1.002522
1007.806438	1.001893
1008.100425	1.002315
1008.394376	1.001623
1008.688292	1.002839
1008.982172	1.001139
1009.276017	1.000928
1009.569827	1.001920
1009.863602	1.000880
1010.157341	1.002594
1010.451045	1.002035
1010.744714	1.002754
1011.038347	1.002363
1011.331945	1.000852
1011.625508	1.000907
1011.919036	1.002236
1012.212528	1.001844
1012.505986	1.001626
1012.799408	1.002732
1013.092795	1.002274
1013.386147	1.002038
1013.679464	1.003353
1013.972745	1.002320
1014.265992	1.002989
1014.559204	1.000854
1014.852380	1.001117
1015.145521	1.001664
1015.438628	1.001895
1015.731699	1.001831
1016.024736	1.003224
1016.317737	1.001802
1016.610703	1.002086
1016.903635	1.002485
1017.196531	1.000808
1017.489393	1.001537
1017.782219	1.001608
1018.075011	1.001530
1018.367768	1.001193
1018.660490	1.002141
1018.953177	1.002141
1019.245829	1.002141
