Dividing Wavelength (nm)	Counts (n)	Blue Motor Position (mm): 42.100000	Red Motor Position (mm): 0.000000	
326.493990	1.000149
326.888308	1.000149
327.282561	1.000149
327.676750	0.999633
328.070874	0.999153
328.464933	1.001795
328.858929	1.001286
329.252859	0.999647
329.646726	1.000615
330.040528	0.999240
330.434265	1.000620
330.827938	0.999565
331.221547	1.000582
331.615091	1.000963
332.008571	1.001805
332.401986	0.999422
332.795338	0.999037
333.188625	1.000511
333.581847	0.999993
333.975006	0.999915
334.368100	1.000971
334.761129	0.999343
335.154095	1.001469
335.546996	1.000559
335.939833	0.998795
336.332606	0.999672
336.725315	0.998660
337.117960	1.001011
337.510540	0.999094
337.903056	0.999957
338.295508	1.001255
338.687896	1.001848
339.080220	0.999708
339.472480	1.000277
339.864676	1.000344
340.256807	0.998829
340.648875	1.001759
341.040879	0.999194
341.432818	1.000520
341.824694	0.999489
342.216506	1.000606
342.608253	1.000252
342.999937	0.999880
343.391557	1.000401
343.783113	1.002097
344.174605	0.998711
344.566033	0.998839
344.957397	1.000611
345.348697	0.999125
345.739934	1.000451
346.131106	0.999565
346.522215	0.998987
346.913260	0.999881
347.304241	0.999091
347.695159	1.000413
348.086012	0.998393
348.476802	0.999714
348.867528	0.999022
349.258191	0.999189
349.648789	0.999550
350.039324	1.000241
350.429796	0.998739
350.820203	0.999000
351.210548	1.000097
351.600828	0.999083
351.991045	0.999542
352.381198	0.999847
352.771288	0.999683
353.161314	0.999316
353.551276	0.998180
353.941175	0.998865
354.331010	0.999682
354.720782	0.999220
355.110490	0.999443
355.500135	0.999354
355.889717	0.998890
356.279235	0.998269
356.668689	0.999908
357.058080	0.998789
357.447408	0.998510
357.836672	0.999273
358.225873	0.998160
358.615010	0.999714
359.004084	0.998160
359.393095	0.999060
359.782043	0.999107
360.170927	0.999160
360.559748	0.998519
360.948505	0.997655
361.337199	0.998736
361.725830	0.999694
362.114398	0.998994
362.502903	0.998969
362.891344	0.997582
363.279722	0.998536
363.668037	0.999438
364.056289	0.998835
364.444478	0.999956
364.832603	0.999110
365.220665	0.998608
365.608665	0.998873
365.996601	0.998625
366.384474	0.998004
366.772284	0.999163
367.160031	0.997877
367.547715	0.997849
367.935336	0.996455
368.322893	0.994801
368.710388	0.995047
369.097820	0.992480
369.485189	0.991479
369.872495	0.989244
370.259738	0.986947
370.646918	0.984618
371.034035	0.981781
371.421090	0.979470
371.808081	0.973885
372.195010	0.972332
372.581875	0.967635
372.968678	0.961233
373.355418	0.958013
373.742096	0.951614
374.128710	0.947666
374.515262	0.943781
374.901751	0.936892
375.288177	0.932825
375.674540	0.925517
376.060841	0.919843
376.447079	0.912121
376.833254	0.906286
377.219367	0.900774
377.605417	0.890116
377.991404	0.885748
378.377329	0.880388
378.763191	0.873694
379.148991	0.865076
379.534727	0.856584
379.920402	0.850085
380.306013	0.846245
380.691563	0.832866
381.077049	0.827003
381.462474	0.823737
381.847835	0.813736
382.233134	0.809854
382.618371	0.810906
383.003545	0.795836
383.388657	0.795278
383.773706	0.790757
384.158693	0.789359
384.543618	0.786286
384.928480	0.780105
385.313280	0.774774
385.698017	0.778091
386.082692	0.771018
386.467305	0.773657
386.851856	0.772937
387.236344	0.772197
387.620770	0.772484
388.005133	0.772274
388.389435	0.773145
388.773674	0.775867
389.157851	0.775380
389.541965	0.779862
389.926018	0.789865
390.310008	0.787631
390.693936	0.790326
391.077802	0.792166
391.461606	0.800802
391.845348	0.800703
392.229027	0.807335
392.612645	0.814001
392.996200	0.813998
393.379694	0.817889
393.763125	0.820108
394.146494	0.830107
394.529801	0.834502
394.913047	0.839089
395.296230	0.848863
395.679351	0.853000
396.062410	0.860673
396.445408	0.870215
396.828343	0.876087
397.211217	0.882013
397.594028	0.892928
397.976778	0.898752
398.359466	0.904293
398.742092	0.910204
399.124656	0.918024
399.507158	0.921366
399.889598	0.928294
400.271977	0.931955
400.654294	0.937914
401.036549	0.943356
401.418742	0.948529
401.800874	0.951407
402.182944	0.955011
402.564952	0.959170
402.946898	0.963521
403.328783	0.967844
403.710606	0.970431
404.092367	0.973561
404.474067	0.976321
404.855705	0.980067
405.237282	0.981314
405.618797	0.982858
406.000250	0.984617
406.381642	0.985562
406.762972	0.988206
407.144240	0.989818
407.525447	0.989792
407.906593	0.991090
408.287677	0.992374
408.668700	0.994260
409.049661	0.994674
409.430560	0.995094
409.811399	0.994935
410.192176	0.995986
410.572891	0.998184
410.953545	0.995982
411.334138	0.996694
411.714669	0.996630
412.095139	0.998304
412.475547	0.997773
412.855894	0.998134
413.236180	0.998004
413.616405	0.998326
413.996568	0.998366
414.376670	0.997896
414.756711	0.997986
415.136691	0.998092
415.516609	0.998256
415.896466	0.998058
416.276262	0.998066
416.655997	0.999350
417.035670	0.998785
417.415283	0.998878
417.794834	0.998493
418.174324	0.998982
418.553753	0.998281
418.933121	0.999141
419.312428	0.999920
419.691674	0.999416
420.070859	0.999761
420.449983	0.999582
420.829045	0.997869
421.208047	0.999647
421.586988	0.998620
421.965867	0.998625
422.344686	0.999690
422.723444	0.998056
423.102141	0.999260
423.480777	0.998306
423.859352	0.998964
424.237866	0.998555
424.616319	0.999035
424.994712	0.999122
425.373044	0.998794
425.751314	0.999002
426.129524	0.999021
426.507673	0.998099
426.885762	0.998752
427.263789	0.998777
427.641756	0.998475
428.019662	0.999851
428.397508	0.999073
428.775292	0.998591
429.153016	0.998515
429.530679	0.998652
429.908282	0.999896
430.285824	0.998320
430.663305	0.998643
431.040726	0.998792
431.418086	0.999304
431.795385	1.000147
432.172624	1.000333
432.549802	0.999261
432.926920	0.999000
433.303977	0.998840
433.680974	0.999915
434.057910	0.999227
434.434786	0.999020
434.811601	0.999394
435.188355	1.000195
435.565050	0.999768
435.941683	0.998684
436.318257	0.998391
436.694770	0.999844
437.071222	0.999819
437.447614	0.999106
437.823946	0.998820
438.200218	0.999490
438.576429	0.998604
438.952580	0.998861
439.328670	0.998141
439.704700	0.998425
440.080670	0.999667
440.456580	0.999540
440.832429	0.998744
441.208218	1.000305
441.583947	0.999380
441.959616	0.998149
442.335224	1.000138
442.710773	0.999740
443.086261	0.999008
443.461689	0.999370
443.837057	0.998631
444.212365	1.000032
444.587612	0.999120
444.962800	0.999229
445.337927	1.000070
445.712995	0.999029
446.088002	0.998127
446.462949	0.999552
446.837837	1.000289
447.212664	0.999023
447.587431	0.999843
447.962139	0.998540
448.336786	0.998636
448.711374	0.999421
449.085901	1.000166
449.460369	0.999495
449.834776	0.999271
450.209124	0.999801
450.583412	0.999579
450.957640	0.999314
451.331808	0.999903
451.705917	0.998628
452.079965	0.999393
452.453954	0.999780
452.827883	0.999311
453.201752	0.999661
453.575562	0.998849
453.949311	0.999815
454.323001	0.999298
454.696632	1.000080
455.070202	0.999378
455.443713	0.998954
455.817164	0.999009
456.190556	0.998916
456.563888	0.999404
456.937160	0.999209
457.310373	0.998807
457.683526	0.999389
458.056619	0.998538
458.429653	0.998688
458.802628	0.998699
459.175542	0.998919
459.548398	0.998570
459.921194	0.999344
460.293930	0.999844
460.666607	0.999437
461.039224	0.999336
461.411782	0.998627
461.784280	0.999127
462.156719	0.999617
462.529099	0.998497
462.901419	0.998838
463.273680	0.998079
463.645882	0.999202
464.018024	0.999511
464.390106	0.998827
464.762130	0.999726
465.134094	0.999301
465.505999	0.998794
465.877845	0.999176
466.249631	0.998577
466.621358	0.997835
466.993026	0.998597
467.364634	0.999325
467.736184	0.999142
468.107674	0.999101
468.479105	0.999066
468.850477	0.998751
469.221790	0.998974
469.593043	0.998360
469.964238	0.998729
470.335373	0.998532
470.706449	0.998938
471.077467	0.998679
471.448425	0.999442
471.819324	0.999144
472.190164	0.999122
472.560945	0.998804
472.931667	0.999097
473.302330	0.998926
473.672934	0.999143
474.043479	0.998858
474.413965	0.998665
474.784393	0.998941
475.154761	0.998464
475.525070	0.999127
475.895321	0.999579
476.265513	0.999106
476.635645	0.999608
477.005719	0.999049
477.375734	0.998481
477.745691	0.999079
478.115588	0.998264
478.485427	0.999250
478.855207	0.999301
479.224928	0.999169
479.594591	0.998640
479.964194	0.999241
480.333739	0.999074
480.703226	0.998199
481.072653	0.998397
481.442022	0.999192
481.811333	0.998970
482.180584	0.998604
482.549777	0.998746
482.918912	0.998420
483.287988	0.999107
483.657005	0.998405
484.025964	0.998950
484.394864	0.998617
484.763706	0.998588
485.132489	0.998947
485.501213	0.998534
485.869879	0.998884
486.238487	0.998323
486.607036	0.999205
486.975527	0.998864
487.343959	0.998080
487.712333	0.998460
488.080648	0.998298
488.448905	0.999248
488.817104	0.999005
489.185244	0.998798
489.553326	0.998921
489.921350	0.999029
490.289315	0.998659
490.657222	0.998328
491.025070	0.999021
491.392861	0.999051
491.760593	0.998930
492.128267	0.998954
492.495883	0.998525
492.863440	0.999286
493.230939	0.998788
493.598380	0.998992
493.965763	0.998794
494.333088	0.998665
494.700354	0.998657
495.067563	0.999401
495.434713	0.999016
495.801805	0.998528
496.168839	0.998917
496.535815	0.998909
496.902733	0.998779
497.269593	0.998413
497.636395	0.998410
498.003139	0.997876
498.369825	0.999193
498.736453	0.998953
499.103023	0.999325
499.469535	0.998665
499.835989	0.999299
500.202385	0.998452
500.568723	0.999058
500.935003	0.998678
501.301226	0.999358
501.667390	0.997981
502.033497	0.998451
502.399546	0.998767
502.765537	0.998924
503.131470	0.999403
503.497345	0.999141
503.863163	0.998991
504.228923	0.998304
504.594625	0.998746
504.960269	0.998952
505.325856	0.999153
505.691385	0.999500
506.056856	0.999292
506.422270	0.998810
506.787625	0.998805
507.152924	0.999317
507.518164	0.998155
507.883347	0.998944
508.248472	0.998513
508.613540	0.998153
508.978550	0.999337
509.343503	0.998573
509.708398	0.999458
510.073236	0.999380
510.438016	0.998626
510.802738	0.999066
511.167403	0.998446
511.532010	0.999020
511.896561	0.998675
512.261053	0.998886
512.625488	0.998778
512.989866	0.998836
513.354186	0.998158
513.718449	0.998984
514.082655	0.998787
514.446803	0.998994
514.810894	0.999436
515.174927	0.999258
515.538904	0.999515
515.902822	0.998554
516.266684	0.999464
516.630488	0.999503
516.994235	0.998974
517.357925	0.999177
517.721558	0.999297
518.085133	0.999064
518.448651	0.998749
518.812112	0.999621
519.175516	0.998384
519.538863	0.998425
519.902152	0.998850
520.265385	0.998392
520.628560	0.998298
520.991678	0.998855
521.354739	0.999130
521.717743	0.998795
522.080690	0.997678
522.443580	0.999079
522.806413	0.998041
523.169189	0.999949
523.531908	0.998808
523.894569	0.999344
524.257174	0.999241
524.619722	0.998473
524.982213	0.999163
525.344647	0.998828
525.707025	0.998911
526.069345	0.997959
526.431608	0.998739
526.793815	0.999426
527.155964	0.999553
527.518057	0.998921
527.880093	0.998441
528.242072	0.999017
528.603995	0.998874
528.965860	0.999517
529.327669	0.999342
529.689421	0.998201
530.051117	0.998953
530.412755	0.999473
530.774337	0.999161
531.135862	0.999697
531.497331	0.998690
531.858743	0.998863
532.220098	0.998675
532.581396	0.999590
532.942638	0.999479
533.303824	0.999432
533.664953	0.998676
534.026025	0.999775
534.387040	0.999417
534.747999	0.998499
535.108902	0.998575
535.469748	0.999872
535.830537	0.999290
536.191270	0.998684
536.551947	0.998603
536.912567	0.999123
537.273131	0.999150
537.633638	0.998860
537.994089	0.999891
538.354483	0.998726
538.714821	0.998843
539.075103	0.999112
539.435328	0.999355
539.795497	0.999166
540.155609	0.999036
540.515665	0.999065
540.875665	0.998490
541.235609	0.999903
541.595496	0.998478
541.955328	0.998973
542.315102	0.999288
542.674821	0.999363
543.034483	0.999176
543.394090	0.998408
543.753640	0.998748
544.113134	0.999028
544.472571	0.999593
544.831953	0.999233
545.191278	0.999727
545.550548	0.998552
545.909761	0.998529
546.268918	0.999315
546.628019	0.999185
546.987064	0.999028
547.346053	0.998627
547.704986	0.999340
548.063863	0.998791
548.422684	0.998788
548.781449	0.999285
549.140158	0.998731
549.498811	0.998703
549.857408	0.998726
550.215949	0.998315
550.574434	0.999071
550.932864	0.999403
551.291237	0.999120
551.649555	0.998739
552.007817	0.998877
552.366022	0.999052
552.724173	0.999843
553.082267	0.998937
553.440305	0.998916
553.798288	0.998426
554.156215	0.999193
554.514086	0.998604
554.871902	0.998373
555.229661	0.998060
555.587365	0.998937
555.945014	0.999597
556.302606	0.998337
556.660143	0.999174
557.017625	0.998713
557.375050	0.998507
557.732421	0.999155
558.089735	0.998412
558.446994	0.999057
558.804197	0.998909
559.161345	0.998378
559.518437	0.998532
559.875474	0.999210
560.232455	0.999508
560.589381	0.999363
560.946251	0.998875
561.303065	0.999116
561.659825	0.999041
562.016528	0.999088
562.373177	0.999627
562.729770	0.999050
563.086307	0.998222
563.442789	0.999006
563.799216	0.998358
564.155587	0.998764
564.511904	0.998624
564.868164	0.998107
565.224370	0.999207
565.580520	0.998954
565.936615	0.999169
566.292654	0.998377
566.648638	0.999996
567.004567	0.999159
567.360441	0.999344
567.716260	0.999010
568.072023	0.998097
568.427732	0.999150
568.783385	0.999233
569.138982	0.998966
569.494525	0.998603
569.850013	0.999842
570.205445	0.999884
570.560823	0.999221
570.916145	0.998731
571.271412	0.998941
571.626625	0.999124
571.981782	0.999658
572.336884	0.999488
572.691931	0.998756
573.046923	0.999538
573.401860	0.998503
573.756743	0.999546
574.111570	0.998875
574.466342	0.999761
574.821059	0.999246
575.175722	1.000044
575.530330	0.999027
575.884882	0.999056
576.239380	0.998382
576.593823	0.998699
576.948211	0.998991
577.302544	0.999492
577.656823	0.999700
578.011047	0.998381
578.365216	0.999400
578.719330	0.998906
579.073389	0.998175
579.427394	0.998932
579.781344	0.999623
580.135239	0.998677
580.489080	0.999307
580.842866	0.998876
581.196597	0.998199
581.550273	0.998343
581.903895	0.999491
582.257463	0.998953
582.610975	0.998474
582.964434	0.999188
583.317837	0.999805
583.671186	0.999243
584.024481	0.999036
584.377721	0.998648
584.730906	0.999232
585.084037	1.000061
585.437113	0.999856
585.790135	0.999314
586.143103	0.999417
586.496016	0.998895
586.848874	0.999386
587.201679	0.998902
587.554428	0.998647
587.907124	0.999332
588.259765	0.999002
588.612352	1.000041
588.964884	0.999786
589.317362	0.999413
589.669786	0.998825
590.022155	0.998567
590.374470	0.999019
590.726731	0.998604
591.078937	0.999730
591.431090	0.999417
591.783188	0.999327
592.135232	0.999477
592.487222	0.999154
592.839157	0.998940
593.191038	0.998961
593.542866	0.999053
593.894639	0.998355
594.246358	0.999430
594.598022	0.999719
594.949633	0.999716
595.301190	0.999392
595.652692	0.998506
596.004141	0.998456
596.355535	0.998534
596.706876	0.999150
597.058162	0.999188
597.409395	0.999434
597.760573	0.998359
598.111698	0.999576
598.462768	0.998478
598.813785	0.998087
599.164748	0.998435
599.515657	0.998856
599.866511	1.000042
600.217312	1.000124
600.568060	0.998761
600.918753	0.999266
601.269392	0.998877
601.619978	0.999485
601.970510	0.998984
602.320988	0.999302
602.671412	0.998774
603.021783	0.999218
603.372100	0.999690
603.722363	0.998685
604.072572	0.999442
604.422728	0.999179
604.772830	0.999137
605.122878	0.999442
605.472872	0.999730
605.822813	0.999165
606.172701	0.999536
606.522534	0.999124
606.872314	1.000186
607.222041	0.999582
607.571714	0.999571
607.921333	0.999050
608.270899	0.998987
608.620411	0.997998
608.969870	0.999782
609.319276	0.999245
609.668627	1.000169
610.017926	0.998775
610.367171	0.998631
610.716362	0.998769
611.065500	0.999127
611.414585	0.998981
611.763616	0.998183
612.112594	0.998971
612.461518	0.998439
612.810389	0.999089
613.159207	0.998966
613.507971	0.998637
613.856682	0.999604
614.205340	0.998210
614.553945	0.998961
614.902496	0.999537
615.250994	0.998885
615.599439	0.998882
615.947830	0.998380
616.296169	0.998965
616.644454	1.000114
616.992686	0.999236
617.340864	0.999650
617.688990	0.999636
618.037063	0.999316
618.385082	0.998397
618.733048	0.998453
619.080961	0.999315
619.428821	0.999760
619.776628	0.998700
620.124382	0.999424
620.472083	0.999759
620.819731	1.000612
621.167326	0.999799
621.514868	0.999833
621.862357	0.999223
622.209793	0.999074
622.557176	0.999190
622.904506	0.998693
623.251783	0.999075
623.599007	0.999741
623.946179	0.998259
624.293297	0.999873
624.640363	0.999179
624.987376	0.998015
625.334336	0.998739
625.681243	0.999065
626.028097	1.000138
626.374899	0.998997
626.721647	0.999890
627.068343	0.998670
627.414987	0.999931
627.761577	0.999076
628.108115	0.999266
628.454600	0.999662
628.801032	0.999848
629.147412	0.999436
629.493739	1.000381
629.840014	0.999169
630.186236	0.999547
630.532405	0.999550
630.878521	0.999028
631.224585	0.999011
631.570597	0.998682
631.916556	0.998842
632.262462	0.998783
632.608316	0.999343
632.954117	0.999717
633.299866	0.999140
633.645562	0.999104
633.991206	0.998787
634.336797	0.998893
634.682336	0.999548
635.027823	0.999393
635.373257	0.999125
635.718639	0.999229
636.063968	0.999219
636.409245	0.998824
636.754470	0.999594
637.099642	0.999583
637.444762	0.999911
637.789829	0.998893
638.134845	0.999100
638.479808	0.999364
638.824719	0.999502
639.169577	0.998992
639.514383	1.000147
639.859137	0.999992
640.203839	0.998675
640.548489	0.998777
640.893086	0.998960
641.237632	0.998827
641.582125	0.998925
641.926566	1.000376
642.270955	0.999516
642.615292	0.998539
642.959576	0.999553
643.303809	1.000056
643.647990	0.999666
643.992118	0.999590
644.336195	0.999310
644.680219	0.998850
645.024192	0.998930
645.368112	0.998981
645.711981	0.998556
646.055797	0.999227
646.399562	0.998573
646.743274	0.999748
647.086935	0.998786
647.430544	0.998327
647.774101	0.998349
648.117606	1.000305
648.461059	0.999755
648.804460	0.998778
649.147810	0.998619
649.491108	0.998367
649.834354	0.998736
650.177548	0.999290
650.520690	0.998867
650.863781	0.998996
651.206820	0.999194
651.549807	0.998727
651.892742	0.999833
652.235626	0.999616
652.578458	0.999380
652.921238	1.000338
653.263967	0.999172
653.606644	0.999130
653.949269	1.000105
654.291843	0.998832
654.634365	1.000129
654.976836	0.998831
655.319255	0.999971
655.661622	0.999312
656.003938	0.998712
656.346203	0.999078
656.688416	1.000159
657.030577	0.998837
657.372687	0.999549
657.714746	0.998952
658.056753	0.998591
658.398708	0.998809
658.740612	1.000388
659.082465	0.998741
659.424266	1.000024
659.766016	0.998600
660.107715	0.999802
660.449362	0.999956
660.790958	0.998394
661.132503	0.999616
661.473996	0.998605
661.815438	0.999732
662.156829	1.000014
662.498168	0.999987
662.839456	0.998856
663.180693	0.999335
663.521879	0.998585
663.863013	0.999877
664.204097	0.999174
664.545129	0.998378
664.886110	0.999418
665.227040	0.998873
665.567918	0.998250
665.908746	0.998097
666.249522	0.998617
666.590248	0.998342
666.930922	0.997861
667.271545	0.999311
667.612118	0.998876
667.952639	0.999443
668.293109	0.999390
668.633528	0.998388
668.973896	0.999132
669.314213	0.998722
669.654480	0.998800
669.994695	0.998447
670.334859	0.998930
670.674973	0.998133
671.015035	0.998579
671.355047	0.999033
671.695008	0.998611
672.034918	0.998700
672.374777	0.998851
672.714585	0.999920
673.054342	0.999693
673.394049	0.998244
673.733705	0.998705
674.073310	0.998790
674.412864	0.999025
674.752368	0.997968
675.091820	1.000418
675.431223	0.999640
675.770574	0.998104
676.109875	0.998817
676.449125	0.998145
676.788324	0.998374
677.127473	0.999359
677.466571	0.999310
677.805619	0.998475
678.144616	0.999681
678.483562	0.999607
678.822458	0.999140
679.161303	0.998742
679.500098	0.999572
679.838842	0.998721
680.177535	0.999580
680.516179	0.998399
680.854771	0.998162
681.193314	0.999289
681.531805	0.999154
681.870247	0.998838
682.208638	0.999061
682.546978	0.997931
682.885268	0.998827
683.223508	0.997749
683.561697	0.998697
683.899836	0.998397
684.237925	0.998504
684.575963	0.998981
684.913951	0.998520
685.251889	0.997696
685.589776	0.999119
685.927614	0.998227
686.265401	0.998860
686.603137	0.998192
686.940824	0.998040
687.278460	0.999573
687.616046	0.998252
687.953582	0.998490
688.291068	0.999700
688.628504	0.998837
688.965889	0.998356
689.303224	0.997232
689.640510	0.998629
689.977745	0.997472
690.314930	0.998048
690.652065	0.999013
690.989150	0.998273
691.326185	0.998631
691.663170	0.998544
692.000105	0.999355
692.336990	0.998022
692.673825	0.998868
693.010610	0.998184
693.347345	0.999530
693.684030	0.998172
694.020665	0.998358
694.357251	0.998344
694.693786	0.998941
695.030272	0.997601
695.366707	0.998741
695.703093	0.998113
696.039429	0.998176
696.375716	0.998666
696.711952	0.998266
697.048139	0.998737
697.384276	0.998487
697.720363	0.998612
698.056400	0.996430
698.392388	0.998434
698.728326	0.998760
699.064214	0.999444
699.400053	0.998540
699.735842	0.999062
700.071581	0.998418
700.407270	0.998176
700.742910	0.998793
701.078501	0.997903
701.414042	0.998300
701.749533	0.997537
702.084974	0.999012
702.420366	0.998771
702.755709	0.998212
703.091002	0.999114
703.426246	0.998566
703.761440	0.999414
704.096584	0.997858
704.431679	0.998572
704.766725	0.997810
705.101721	0.998940
705.436668	0.998897
705.771565	0.997707
706.106413	0.996745
706.441212	0.999209
706.775961	0.998107
707.110661	0.997568
707.445311	0.998215
707.779913	0.998552
708.114465	0.998956
708.448967	0.999501
708.783421	0.998197
709.117825	0.998539
709.452180	0.997833
709.786485	0.998787
710.120742	0.997851
710.454949	0.997411
710.789107	0.998031
711.123216	0.997605
711.457275	0.996530
711.791286	0.997848
712.125247	0.999700
712.459159	0.997989
712.793023	0.997801
713.126837	0.998144
713.460602	0.997249
713.794318	0.997817
714.127985	0.996121
714.461602	0.998516
714.795171	0.998021
715.128691	0.997838
715.462162	0.997985
715.795584	0.997743
716.128957	0.998773
716.462281	0.998601
716.795556	0.998229
717.128782	0.998898
717.461960	0.999114
717.795088	0.998553
718.128167	0.998762
718.461198	0.998209
718.794180	0.998270
719.127113	0.997973
719.459997	0.997842
719.792833	0.998652
720.125619	0.998802
720.458357	0.998398
720.791046	0.999152
721.123686	0.998442
721.456278	0.998951
721.788821	0.997757
722.121315	0.998859
722.453761	0.997836
722.786158	0.997718
723.118506	0.998664
723.450805	0.997860
723.783056	0.998108
724.115259	0.997617
724.447412	0.999556
724.779518	0.998761
725.111574	0.997463
725.443582	0.997932
725.775542	0.998379
726.107453	0.998610
726.439315	0.999120
726.771129	0.999169
727.102895	0.998277
727.434612	0.997640
727.766281	0.997515
728.097901	0.998564
728.429473	0.998691
728.760996	0.997735
729.092471	0.998431
729.423897	0.998231
729.755276	0.997663
730.086606	0.997587
730.417887	0.999585
730.749120	0.997662
731.080305	0.998314
731.411442	0.996947
731.742530	0.996863
732.073570	0.997075
732.404562	0.998112
732.735506	0.997863
733.066401	0.998020
733.397249	0.998189
733.728048	0.997732
734.058798	0.997932
734.389501	0.999226
734.720156	0.998186
735.050762	0.999305
735.381320	0.997676
735.711831	0.997215
736.042293	0.998276
736.372707	0.999256
736.703073	0.997357
737.033391	0.999133
737.363661	0.998801
737.693883	0.998546
738.024056	0.997034
738.354182	0.998703
738.684260	0.998828
739.014290	0.998083
739.344272	0.997914
739.674207	0.998991
740.004093	0.999142
740.333931	0.997906
740.663722	0.998172
740.993464	0.998472
741.323159	0.997529
741.652806	0.998482
741.982405	0.998610
742.311956	0.998892
742.641460	0.998854
742.970915	0.998066
743.300323	0.997600
743.629683	0.998055
743.958996	0.999374
744.288260	0.997443
744.617477	0.998430
744.946647	0.998523
745.275768	0.998148
745.604842	0.996990
745.933869	0.998713
746.262847	0.998941
746.591778	0.996372
746.920662	0.998444
747.249498	0.999150
747.578286	0.998633
747.907027	0.998318
748.235720	0.998847
748.564365	0.998147
748.892963	0.997651
749.221514	0.999130
749.550017	0.996419
749.878473	0.999027
750.206881	0.998690
750.535242	0.998874
750.863555	0.998902
751.191821	0.998601
751.520039	0.998046
751.848210	0.997069
752.176334	0.997263
752.504411	0.998376
752.832440	0.997984
753.160421	0.997616
753.488356	0.998066
753.816243	0.997633
754.144082	0.998195
754.471875	0.998009
754.799620	0.998652
755.127318	0.998462
755.454969	0.998007
755.782572	0.999369
756.110129	0.997514
756.437638	0.998981
756.765100	0.998923
757.092515	0.998217
757.419882	0.998939
757.747203	0.998433
758.074477	0.998974
758.401703	0.999382
758.728882	0.999528
759.056014	0.998195
759.383099	0.998158
759.710138	0.998328
760.037129	0.999508
760.364073	0.998052
760.690970	0.998771
761.017820	0.998073
761.344623	0.998672
761.671379	0.998910
761.998088	0.997883
762.324751	0.998603
762.651366	0.997550
762.977935	0.997514
763.304456	0.997474
763.630931	0.996816
763.957359	0.995814
764.283740	0.996927
764.610074	0.997993
764.936362	0.997327
765.262602	0.997938
765.588796	0.998412
765.914943	0.998417
766.241044	0.998217
766.567097	0.998407
766.893104	0.998206
767.219064	0.997281
767.544978	0.998487
767.870845	0.998758
768.196665	0.998039
768.522438	0.998782
768.848165	0.999723
769.173846	0.999112
769.499479	0.999418
769.825066	0.998868
770.150607	0.999726
770.476101	0.998665
770.801548	0.999304
771.126949	1.000368
771.452303	0.998405
771.777611	0.999122
772.102872	0.998709
772.428087	0.998695
772.753256	0.998647
773.078378	0.999848
773.403453	0.997899
773.728482	0.999599
774.053465	0.998528
774.378401	0.999725
774.703291	0.999243
775.028135	1.000261
775.352932	0.997269
775.677683	0.999842
776.002388	0.999094
776.327046	0.998284
776.651658	1.000279
776.976224	0.998591
777.300743	0.999178
777.625216	0.997978
777.949643	0.998843
778.274024	0.998915
778.598359	0.999320
778.922647	0.999070
779.246889	0.999238
779.571086	0.999525
779.895236	0.999036
780.219339	0.999759
780.543397	0.998629
780.867409	0.998883
781.191374	0.999351
781.515294	0.999927
781.839167	0.999499
782.162995	0.998847
782.486776	0.998383
782.810511	0.999345
783.134201	0.999478
783.457844	0.999149
783.781441	0.998568
784.104993	0.998078
784.428498	0.998746
784.751958	0.999441
785.075372	0.999086
785.398739	0.998713
785.722061	0.998094
786.045337	0.998586
786.368568	0.997977
786.691752	0.999194
787.014891	0.998220
787.337983	0.997407
787.661030	0.998591
787.984031	0.998694
788.306987	0.999078
788.629897	0.997674
788.952760	0.998316
789.275579	0.999743
789.598351	0.998210
789.921078	1.000053
790.243759	0.998426
790.566395	0.998344
790.888984	0.999800
791.211529	0.998954
791.534027	0.998304
791.856480	0.999236
792.178888	0.999292
792.501249	0.998909
792.823566	1.000328
793.145836	0.999662
793.468062	1.000215
793.790241	0.999362
794.112375	0.998651
794.434464	0.999221
794.756507	1.000489
795.078505	0.999587
795.400457	1.000311
795.722364	0.998555
796.044226	0.999363
796.366042	0.998566
796.687812	0.997269
797.009538	0.999104
797.331218	1.000072
797.652852	0.999180
797.974442	0.998114
798.295986	0.998402
798.617484	0.997274
798.938938	0.999604
799.260346	0.998594
799.581709	0.997527
799.903026	1.000121
800.224299	0.997667
800.545526	0.998323
800.866708	0.999237
801.187845	0.999204
801.508936	0.998336
801.829983	0.998485
802.150984	0.999897
802.471940	0.998670
802.792851	0.999140
803.113717	0.999986
803.434538	0.999312
803.755314	1.000826
804.076045	0.999106
804.396731	0.997673
804.717372	0.998179
805.037967	0.999189
805.358518	0.999976
805.679024	0.998746
805.999485	0.998451
806.319901	0.998916
806.640272	0.999755
806.960598	0.998938
807.280879	0.999949
807.601115	0.999638
807.921306	0.999789
808.241453	0.998937
808.561554	0.999263
808.881611	0.999593
809.201623	0.998171
809.521590	0.998634
809.841513	0.999536
810.161390	0.997705
810.481223	0.998352
810.801011	0.999853
811.120755	1.000329
811.440453	0.999324
811.760107	0.999723
812.079716	0.998673
812.399281	0.998870
812.718801	0.998963
813.038276	0.998903
813.357707	0.999528
813.677093	0.999326
813.996434	0.998689
814.315731	1.000486
814.634983	0.999212
814.954191	0.999364
815.273354	0.998874
815.592473	0.998394
815.911547	0.999073
816.230577	0.998650
816.549562	0.999813
816.868502	0.998951
817.187399	0.999792
817.506250	0.999982
817.825058	0.997795
818.143821	0.999475
818.462539	0.998365
818.781213	0.998992
819.099843	0.999630
819.418429	0.998672
819.736970	0.999151
820.055466	0.997836
820.373919	0.997605
820.692327	0.997403
821.010691	0.997448
821.329011	0.995453
821.647286	0.995673
821.965517	0.994573
822.283704	0.994091
822.601847	0.994443
822.919945	0.994092
823.237999	0.994911
823.556010	0.995628
823.873976	0.995699
824.191897	0.995798
824.509775	0.996692
824.827609	0.997400
825.145398	0.997115
825.463144	0.996417
825.780845	0.995790
826.098502	0.996033
826.416116	0.996486
826.733685	0.996308
827.051210	0.995348
827.368692	0.995941
827.686129	0.996290
828.003522	0.998404
828.320872	0.996711
828.638177	0.997470
828.955439	0.999082
829.272656	0.998513
829.589830	0.998556
829.906960	0.998919
830.224046	0.997868
830.541088	0.998099
830.858086	0.999166
831.175041	0.999319
831.491952	0.998299
831.808819	0.998419
832.125642	0.997827
832.442421	1.000048
832.759157	1.000429
833.075849	0.998896
833.392497	0.998015
833.709101	0.997283
834.025662	0.997036
834.342179	0.997862
834.658653	0.999759
834.975083	0.998346
835.291469	0.999210
835.607811	0.998048
835.924110	0.998357
836.240366	1.000968
836.556578	0.999643
836.872746	0.998760
837.188871	0.999891
837.504952	0.999116
837.820990	0.999098
838.136984	0.998345
838.452935	0.999142
838.768842	0.999747
839.084706	0.999653
839.400526	0.999162
839.716303	0.997794
840.032037	0.998506
840.347727	0.998832
840.663373	0.998851
840.978977	0.998596
841.294537	0.999401
841.610054	0.998967
841.925527	0.999828
842.240957	0.998414
842.556344	0.998397
842.871687	0.999757
843.186987	0.999055
843.502244	1.000004
843.817458	0.998762
844.132629	0.998569
844.447756	1.000057
844.762840	0.999537
845.077881	1.000068
845.392879	0.998337
845.707833	0.998342
846.022745	1.000429
846.337613	1.000075
846.652438	0.999302
846.967221	0.999712
847.281960	0.999870
847.596656	0.999209
847.911309	1.000162
848.225919	0.998767
848.540485	0.999659
848.855009	0.999643
849.169490	1.000759
849.483928	0.999901
849.798323	0.999193
850.112675	1.000664
850.426984	1.000968
850.741251	1.000390
851.055474	0.999813
851.369654	1.000366
851.683792	0.998640
851.997887	0.999787
852.311938	1.000282
852.625947	0.998751
852.939914	0.999363
853.253837	0.999098
853.567718	1.000603
853.881555	1.000360
854.195350	0.999429
854.509103	0.999516
854.822812	1.000144
855.136479	1.000096
855.450103	1.000554
855.763685	1.000581
856.077224	1.000127
856.390720	0.999395
856.704173	0.999975
857.017584	0.999588
857.330953	1.000101
857.644278	0.998823
857.957561	0.999690
858.270802	1.000146
858.584000	0.999920
858.897155	0.999115
859.210268	0.999925
859.523339	0.999656
859.836367	1.001020
860.149352	0.998768
860.462295	0.999332
860.775195	1.000266
861.088054	0.998394
861.400869	0.999622
861.713642	1.000012
862.026373	1.000741
862.339062	0.998983
862.651708	1.000730
862.964312	1.000223
863.276873	0.999135
863.589392	0.998790
863.901869	0.999629
864.214303	1.000725
864.526696	1.000033
864.839045	0.999898
865.151353	0.999767
865.463619	0.999458
865.775842	1.000332
866.088023	0.999897
866.400162	1.000241
866.712258	1.000209
867.024313	1.000590
867.336325	1.000541
867.648296	1.000201
867.960224	1.000770
868.272110	1.001024
868.583954	0.999592
868.895755	1.000609
869.207515	0.999336
869.519233	1.000206
869.830909	0.999298
870.142542	0.999062
870.454134	0.998859
870.765684	0.999427
871.077191	1.000773
871.388657	1.000209
871.700081	0.999268
872.011463	1.000877
872.322803	0.999544
872.634101	0.998866
872.945357	0.998977
873.256571	1.000370
873.567744	0.999478
873.878874	0.999042
874.189963	0.999149
874.501010	1.000495
874.812015	0.999686
875.122979	0.999722
875.433900	1.000329
875.744780	0.999101
876.055618	0.999284
876.366415	0.999444
876.677169	0.998731
876.987882	0.999085
877.298554	1.001359
877.609183	0.999044
877.919771	0.999333
878.230317	1.000784
878.540822	0.998739
878.851285	0.999472
879.161707	0.998601
879.472087	1.000761
879.782425	0.999399
880.092722	0.998947
880.402977	0.997423
880.713191	0.997601
881.023363	0.996003
881.333494	0.994783
881.643583	0.996608
881.953631	0.996334
882.263637	0.994980
882.573602	0.996456
882.883526	0.996598
883.193408	0.997376
883.503248	0.997324
883.813048	0.996571
884.122806	0.997301
884.432522	0.998013
884.742197	0.999693
885.051831	0.998703
885.361424	0.998817
885.670975	0.999754
885.980485	0.998952
886.289954	0.998796
886.599382	0.998586
886.908768	0.999609
887.218113	0.998107
887.527417	1.000708
887.836680	0.999073
888.145901	1.000083
888.455082	1.000644
888.764221	0.999973
889.073319	0.998542
889.382376	1.000777
889.691392	0.997814
890.000366	0.998731
890.309300	0.998860
890.618193	0.999639
890.927044	0.998973
891.235855	0.999293
891.544625	0.999412
891.853353	0.998983
892.162041	0.999390
892.470687	0.999659
892.779293	0.998225
893.087858	0.998736
893.396381	0.999436
893.704864	0.998130
894.013306	0.998554
894.321707	0.998744
894.630068	0.997914
894.938387	0.997280
895.246665	0.997900
895.554903	0.996621
895.863100	0.998954
896.171256	0.999021
896.479371	0.999753
896.787446	0.998599
897.095480	0.999711
897.403473	0.999384
897.711425	0.998443
898.019336	0.998776
898.327207	0.999180
898.635038	0.998971
898.942827	1.000193
899.250576	0.998972
899.558284	1.000296
899.865952	0.998432
900.173579	0.998601
900.481165	0.999340
900.788711	0.999137
901.096216	0.999472
901.403681	0.999898
901.711105	1.000636
902.018489	0.999128
902.325832	0.999519
902.633135	0.998698
902.940397	0.999258
903.247619	0.999222
903.554800	0.999198
903.861941	0.999653
904.169041	0.998278
904.476101	0.998670
904.783121	0.997843
905.090100	0.997984
905.397039	0.998511
905.703938	0.998191
906.010796	0.998083
906.317614	0.998853
906.624391	0.999206
906.931129	0.999989
907.237826	0.999053
907.544483	1.000749
907.851099	0.999567
908.157675	0.999498
908.464211	0.999779
908.770707	0.999508
909.077163	0.999721
909.383578	1.000006
909.689954	0.998782
909.996289	1.000311
910.302584	0.999030
910.608839	1.000390
910.915054	0.999746
911.221229	1.000263
911.527363	0.999340
911.833458	1.000122
912.139513	0.999481
912.445527	1.000115
912.751502	1.000663
913.057436	0.998274
913.363331	1.000360
913.669186	0.999460
913.975000	0.999960
914.280775	1.000628
914.586510	0.999192
914.892205	0.999024
915.197859	0.997943
915.503475	0.998506
915.809050	0.998422
916.114585	0.996279
916.420081	0.998504
916.725536	0.997798
917.030952	0.997714
917.336328	0.998162
917.641665	0.997965
917.946961	0.997903
918.252218	0.998217
918.557435	0.997469
918.862612	0.999071
919.167750	0.999380
919.472848	0.999287
919.777906	0.999354
920.082925	0.999403
920.387904	0.999305
920.692843	0.999945
920.997743	0.998792
921.302603	0.999799
921.607423	0.998542
921.912204	0.998954
922.216946	1.000914
922.521647	1.000191
922.826310	0.999065
923.130932	1.000463
923.435516	1.001148
923.740059	0.999427
924.044564	0.999331
924.349028	0.999989
924.653454	1.000374
924.957840	0.999733
925.262186	0.999513
925.566493	1.000199
925.870761	0.998572
926.174989	0.998469
926.479178	1.000091
926.783328	1.000014
927.087438	0.999900
927.391509	0.998445
927.695541	0.999727
927.999533	0.998577
928.303486	0.999734
928.607400	1.000363
928.911275	1.000147
929.215110	1.000339
929.518906	1.000633
929.822663	1.001236
930.126381	1.001114
930.430060	1.000154
930.733699	1.000416
931.037299	1.001873
931.340861	1.000296
931.644383	0.998768
931.947866	1.000118
932.251309	1.000875
932.554714	0.999078
932.858080	1.001376
933.161407	0.999078
933.464694	1.000608
933.767943	1.000396
934.071153	0.999523
934.374323	1.000333
934.677455	0.999629
934.980548	1.000505
935.283602	1.000329
935.586617	1.000108
935.889593	1.001008
936.192530	1.000134
936.495428	1.000348
936.798287	0.999567
937.101108	1.000341
937.403890	1.000100
937.706632	1.001012
938.009336	1.000882
938.312002	0.999205
938.614628	0.999448
938.917216	0.999322
939.219765	0.999241
939.522275	0.999771
939.824747	1.000826
940.127179	0.999644
940.429573	1.001103
940.731929	0.998881
941.034246	0.999522
941.336524	0.999069
941.638763	0.999707
941.940964	0.998817
942.243126	0.998983
942.545250	1.000832
942.847335	0.999214
943.149381	1.000571
943.451389	1.000180
943.753359	1.000154
944.055290	1.001062
944.357182	1.000228
944.659036	0.999401
944.960851	1.001137
945.262628	1.000421
945.564367	0.999098
945.866067	0.999500
946.167729	1.000194
946.469352	1.000057
946.770937	0.998531
947.072484	1.000599
947.373992	0.999984
947.675462	0.998868
947.976893	0.999868
948.278286	1.001273
948.579641	1.001113
948.880958	1.000038
949.182236	0.999881
949.483476	1.001271
949.784678	0.999525
950.085841	0.999488
950.386967	0.999557
950.688054	1.000534
950.989103	0.999371
951.290114	0.998591
951.591087	1.001000
951.892021	0.999395
952.192917	0.999581
952.493776	1.000278
952.794596	1.000020
953.095378	0.999134
953.396122	0.998932
953.696828	1.000199
953.997496	0.999850
954.298126	1.000784
954.598718	0.998872
954.899272	0.999191
955.199788	0.999220
955.500266	1.000555
955.800706	1.000045
956.101108	0.999648
956.401472	1.000992
956.701798	0.999562
957.002087	0.999017
957.302337	0.999673
957.602550	0.999587
957.902724	0.999117
958.202861	0.999214
958.502960	0.999695
958.803022	1.001406
959.103045	0.999314
959.403031	1.002140
959.702979	1.000481
960.002889	0.999167
960.302762	0.999195
960.602596	0.999820
960.902393	0.999705
961.202153	1.000063
961.501875	1.000749
961.801559	1.000038
962.101205	1.000106
962.400814	1.000565
962.700385	1.001026
962.999918	1.000126
963.299414	0.999056
963.598873	0.999839
963.898293	0.999550
964.197677	0.999804
964.497022	0.999931
964.796331	0.999490
965.095601	1.001119
965.394835	0.999392
965.694030	1.000494
965.993189	1.000135
966.292309	0.999868
966.591393	0.998724
966.890439	1.000370
967.189447	0.999995
967.488419	1.000200
967.787353	1.000355
968.086249	1.000450
968.385108	0.999878
968.683930	1.001295
968.982714	1.001155
969.281462	1.001346
969.580172	0.999911
969.878844	1.001137
970.177480	0.999957
970.476078	1.001756
970.774639	1.000787
971.073162	1.000390
971.371649	0.999123
971.670098	0.999571
971.968510	1.000928
972.266885	0.999976
972.565223	0.999286
972.863524	0.999253
973.161788	0.999546
973.460014	1.000859
973.758204	1.000780
974.056356	0.999941
974.354471	0.998993
974.652550	1.000670
974.950591	1.000119
975.248595	0.998782
975.546563	1.000511
975.844493	1.001069
976.142386	0.999867
976.440243	1.000460
976.738062	0.999873
977.035845	0.999220
977.333590	1.000123
977.631299	0.998762
977.928971	1.000437
978.226606	0.999696
978.524204	1.000159
978.821765	1.000384
979.119290	1.002188
979.416777	0.999362
979.714228	0.999912
980.011642	1.000367
980.309020	0.999892
980.606360	0.999676
980.903664	1.000365
981.200931	0.998715
981.498162	0.998500
981.795356	0.999256
982.092513	1.000192
982.389633	1.001282
982.686717	0.999956
982.983764	0.999661
983.280775	1.000815
983.577749	1.000468
983.874686	0.999282
984.171587	1.000544
984.468451	1.000297
984.765279	1.000690
985.062070	0.999615
985.358824	1.001097
985.655543	1.000728
985.952224	1.000240
986.248869	1.000557
986.545478	1.000554
986.842050	0.999683
987.138586	0.998437
987.435086	0.999881
987.731549	1.000960
988.027975	1.000841
988.324366	1.000110
988.620719	1.000289
988.917037	1.000116
989.213318	1.000755
989.509563	1.000104
989.805772	0.999883
990.101944	1.001037
990.398080	0.999988
990.694180	1.000564
990.990244	1.000320
991.286271	0.999754
991.582262	1.000096
991.878217	0.999932
992.174136	1.001112
992.470019	1.000987
992.765865	1.001059
993.061676	1.001217
993.357450	1.000256
993.653188	1.001024
993.948890	0.999783
994.244556	1.000573
994.540186	0.999875
994.835780	1.000504
995.131337	1.001350
995.426859	1.000420
995.722345	0.999793
996.017795	0.999475
996.313208	1.000422
996.608586	0.999895
996.903928	1.000470
997.199234	1.000811
997.494504	1.000413
997.789738	0.998367
998.084936	0.999978
998.380099	0.999551
998.675225	1.000448
998.970316	1.000746
999.265371	1.000542
999.560390	1.000452
999.855373	1.001039
1000.150320	1.000266
1000.445232	1.000558
1000.740108	0.999935
1001.034948	0.999829
1001.329752	1.000975
1001.624521	0.998562
1001.919254	0.999215
1002.213951	0.999999
1002.508613	0.999978
1002.803239	1.000230
1003.097829	1.000808
1003.392384	0.999383
1003.686903	1.000254
1003.981386	0.999828
1004.275834	1.000082
1004.570246	0.998606
1004.864623	1.001571
1005.158964	1.000425
1005.453270	1.000151
1005.747540	0.998972
1006.041775	1.000329
1006.335974	1.001662
1006.630138	1.001078
1006.924266	0.998992
1007.218359	0.998878
1007.512416	1.001749
1007.806438	0.999558
1008.100425	1.000701
1008.394376	1.001254
1008.688292	0.999156
1008.982172	1.000282
1009.276017	1.001964
1009.569827	0.999738
1009.863602	0.998805
1010.157341	1.000329
1010.451045	1.000154
1010.744714	1.001730
1011.038347	1.000509
1011.331945	0.999263
1011.625508	0.999706
1011.919036	1.000329
1012.212528	0.999679
1012.505986	0.999768
1012.799408	1.000441
1013.092795	0.999469
1013.386147	1.000607
1013.679464	1.001993
1013.972745	0.999887
1014.265992	0.999961
1014.559204	0.999924
1014.852380	1.000212
1015.145521	0.999637
1015.438628	0.999371
1015.731699	1.000029
1016.024736	1.000442
1016.317737	1.000087
1016.610703	1.000541
1016.903635	1.001015
1017.196531	1.000501
1017.489393	1.000408
1017.782219	1.000703
1018.075011	0.999375
1018.367768	0.998649
1018.660490	1.000683
1018.953177	1.000683
1019.245829	1.000683
