Dividing Wavelength (nm)	Counts (n)	Blue Motor Position (mm): 36.900000	Red Motor Position (mm): 0.000000	
326.493990	0.999145
326.888308	0.999145
327.282561	0.999145
327.676750	1.000057
328.070874	0.999664
328.464933	0.999903
328.858929	1.000007
329.252859	1.000259
329.646726	0.998741
330.040528	1.000564
330.434265	0.998651
330.827938	0.998968
331.221547	1.000152
331.615091	0.999912
332.008571	1.001507
332.401986	0.998893
332.795338	0.999325
333.188625	1.000201
333.581847	0.999410
333.975006	1.000987
334.368100	1.000578
334.761129	0.998609
335.154095	1.000058
335.546996	0.998890
335.939833	0.998797
336.332606	1.000372
336.725315	0.999190
337.117960	0.999873
337.510540	0.998480
337.903056	0.999470
338.295508	1.000821
338.687896	0.999894
339.080220	0.999249
339.472480	0.998727
339.864676	1.000221
340.256807	0.997955
340.648875	1.000306
341.040879	0.998940
341.432818	1.000406
341.824694	0.998693
342.216506	1.000232
342.608253	1.000131
342.999937	0.999439
343.391557	0.999342
343.783113	0.999730
344.174605	0.999156
344.566033	0.997834
344.957397	0.999959
345.348697	0.999630
345.739934	0.999008
346.131106	0.999809
346.522215	0.998839
346.913260	1.000036
347.304241	0.999718
347.695159	0.999144
348.086012	0.998849
348.476802	0.998943
348.867528	0.998301
349.258191	0.999039
349.648789	1.000221
350.039324	0.999223
350.429796	0.998380
350.820203	0.997919
351.210548	0.999243
351.600828	0.998938
351.991045	0.999455
352.381198	0.999505
352.771288	0.998008
353.161314	0.999578
353.551276	0.998629
353.941175	0.997222
354.331010	0.998946
354.720782	0.997927
355.110490	0.998970
355.500135	0.998310
355.889717	0.996627
356.279235	0.997716
356.668689	0.998389
357.058080	0.998774
357.447408	0.998065
357.836672	0.998714
358.225873	0.998106
358.615010	0.998159
359.004084	0.996598
359.393095	0.998358
359.782043	0.997765
360.170927	0.999783
360.559748	0.998989
360.948505	0.998162
361.337199	0.996956
361.725830	0.998625
362.114398	0.998049
362.502903	0.996622
362.891344	0.996140
363.279722	0.996921
363.668037	0.998311
364.056289	0.997759
364.444478	0.997957
364.832603	0.996920
365.220665	0.999026
365.608665	0.997389
365.996601	0.997621
366.384474	0.997527
366.772284	0.997160
367.160031	0.995707
367.547715	0.995010
367.935336	0.995223
368.322893	0.994156
368.710388	0.993793
369.097820	0.990604
369.485189	0.988163
369.872495	0.987725
370.259738	0.985433
370.646918	0.982726
371.034035	0.979495
371.421090	0.977212
371.808081	0.972201
372.195010	0.970421
372.581875	0.964022
372.968678	0.960367
373.355418	0.957044
373.742096	0.948704
374.128710	0.945351
374.515262	0.940978
374.901751	0.934787
375.288177	0.929845
375.674540	0.923396
376.060841	0.916134
376.447079	0.910698
376.833254	0.903761
377.219367	0.899245
377.605417	0.888139
377.991404	0.883351
378.377329	0.877408
378.763191	0.871978
379.148991	0.862677
379.534727	0.855400
379.920402	0.846435
380.306013	0.842896
380.691563	0.830286
381.077049	0.823453
381.462474	0.819972
381.847835	0.808273
382.233134	0.803886
382.618371	0.804027
383.003545	0.787414
383.388657	0.784396
383.773706	0.777135
384.158693	0.772939
384.543618	0.767823
384.928480	0.759256
385.313280	0.748589
385.698017	0.748790
386.082692	0.737864
386.467305	0.735511
386.851856	0.730351
387.236344	0.725558
387.620770	0.720281
388.005133	0.714110
388.389435	0.708241
388.773674	0.705655
389.157851	0.698022
389.541965	0.695524
389.926018	0.701840
390.310008	0.687912
390.693936	0.686116
391.077802	0.679155
391.461606	0.678902
391.845348	0.668488
392.229027	0.668364
392.612645	0.667402
392.996200	0.653183
393.379694	0.646616
393.763125	0.637069
394.146494	0.641463
394.529801	0.632145
394.913047	0.623990
395.296230	0.630673
395.679351	0.621718
396.062410	0.619340
396.445408	0.622230
396.828343	0.617849
397.211217	0.614259
397.594028	0.626800
397.976778	0.619255
398.359466	0.614926
398.742092	0.612235
399.124656	0.625749
399.507158	0.616058
399.889598	0.615226
400.271977	0.608931
400.654294	0.615778
401.036549	0.617718
401.418742	0.625313
401.800874	0.614946
402.182944	0.615166
402.564952	0.611175
402.946898	0.617503
403.328783	0.623047
403.710606	0.637163
404.092367	0.619943
404.474067	0.628973
404.855705	0.633620
405.237282	0.646072
405.618797	0.640737
406.000250	0.643149
406.381642	0.641968
406.762972	0.653091
407.144240	0.658346
407.525447	0.664537
407.906593	0.666696
408.287677	0.670396
408.668700	0.683952
409.049661	0.687815
409.430560	0.691847
409.811399	0.706642
410.192176	0.702526
410.572891	0.715571
410.953545	0.717285
411.334138	0.733440
411.714669	0.737365
412.095139	0.752637
412.475547	0.753232
412.855894	0.763338
413.236180	0.771262
413.616405	0.782715
413.996568	0.786993
414.376670	0.798176
414.756711	0.808276
415.136691	0.815626
415.516609	0.819683
415.896466	0.827170
416.276262	0.834337
416.655997	0.843859
417.035670	0.845420
417.415283	0.850231
417.794834	0.859593
418.174324	0.868126
418.553753	0.878523
418.933121	0.881445
419.312428	0.888644
419.691674	0.896924
420.070859	0.900600
420.449983	0.908930
420.829045	0.910972
421.208047	0.920720
421.586988	0.924079
421.965867	0.929427
422.344686	0.934298
422.723444	0.939066
423.102141	0.946009
423.480777	0.946100
423.859352	0.953591
424.237866	0.955769
424.616319	0.959170
424.994712	0.961161
425.373044	0.965416
425.751314	0.968969
426.129524	0.972805
426.507673	0.973428
426.885762	0.976604
427.263789	0.978352
427.641756	0.980403
428.019662	0.982476
428.397508	0.984108
428.775292	0.985140
429.153016	0.986702
429.530679	0.988702
429.908282	0.989540
430.285824	0.989810
430.663305	0.990855
431.040726	0.992840
431.418086	0.992867
431.795385	0.994119
432.172624	0.995205
432.549802	0.994588
432.926920	0.995277
433.303977	0.995152
433.680974	0.996046
434.057910	0.995710
434.434786	0.995692
434.811601	0.996891
435.188355	0.996822
435.565050	0.996883
435.941683	0.996187
436.318257	0.995798
436.694770	0.997124
437.071222	0.997573
437.447614	0.997099
437.823946	0.997304
438.200218	0.997901
438.576429	0.996732
438.952580	0.998140
439.328670	0.997756
439.704700	0.998012
440.080670	0.998006
440.456580	0.998344
440.832429	0.998235
441.208218	0.998526
441.583947	0.997959
441.959616	0.997470
442.335224	0.999039
442.710773	0.999272
443.086261	0.999257
443.461689	0.998272
443.837057	0.997600
444.212365	0.999202
444.587612	0.998877
444.962800	0.999101
445.337927	0.999374
445.712995	0.999249
446.088002	0.997089
446.462949	0.997840
446.837837	0.999255
447.212664	0.998293
447.587431	0.998839
447.962139	0.997745
448.336786	0.998363
448.711374	0.997368
449.085901	0.998306
449.460369	0.998275
449.834776	0.998161
450.209124	0.998081
450.583412	0.999192
450.957640	0.998777
451.331808	0.998978
451.705917	0.998312
452.079965	0.998927
452.453954	0.998902
452.827883	0.999100
453.201752	0.998754
453.575562	0.997578
453.949311	0.999333
454.323001	0.998241
454.696632	0.997879
455.070202	0.998192
455.443713	0.998392
455.817164	0.998583
456.190556	0.998509
456.563888	0.999007
456.937160	0.998680
457.310373	0.998438
457.683526	0.998191
458.056619	0.998202
458.429653	0.997654
458.802628	0.998385
459.175542	0.998500
459.548398	0.998360
459.921194	0.998147
460.293930	0.999457
460.666607	0.998966
461.039224	0.998749
461.411782	0.998570
461.784280	0.997980
462.156719	0.998406
462.529099	0.998155
462.901419	0.997680
463.273680	0.997088
463.645882	0.997391
464.018024	0.998287
464.390106	0.998054
464.762130	0.998680
465.134094	0.998101
465.505999	0.998330
465.877845	0.997522
466.249631	0.997918
466.621358	0.997278
466.993026	0.997819
467.364634	0.997394
467.736184	0.997723
468.107674	0.997656
468.479105	0.997787
468.850477	0.997497
469.221790	0.997444
469.593043	0.997441
469.964238	0.997367
470.335373	0.997762
470.706449	0.997757
471.077467	0.997625
471.448425	0.997777
471.819324	0.998008
472.190164	0.997189
472.560945	0.996731
472.931667	0.997488
473.302330	0.998094
473.672934	0.997620
474.043479	0.997267
474.413965	0.997742
474.784393	0.997409
475.154761	0.997259
475.525070	0.997367
475.895321	0.997858
476.265513	0.998108
476.635645	0.997863
477.005719	0.997635
477.375734	0.997414
477.745691	0.996995
478.115588	0.996921
478.485427	0.997497
478.855207	0.997757
479.224928	0.997468
479.594591	0.997458
479.964194	0.996851
480.333739	0.997593
480.703226	0.996162
481.072653	0.997030
481.442022	0.997633
481.811333	0.997450
482.180584	0.997629
482.549777	0.997680
482.918912	0.997052
483.287988	0.997506
483.657005	0.997171
484.025964	0.997542
484.394864	0.996846
484.763706	0.997530
485.132489	0.997818
485.501213	0.997664
485.869879	0.997514
486.238487	0.997279
486.607036	0.998206
486.975527	0.997558
487.343959	0.997223
487.712333	0.997282
488.080648	0.997577
488.448905	0.997511
488.817104	0.997027
489.185244	0.997267
489.553326	0.998194
489.921350	0.998063
490.289315	0.997710
490.657222	0.996993
491.025070	0.997906
491.392861	0.997589
491.760593	0.997472
492.128267	0.997451
492.495883	0.996654
492.863440	0.997689
493.230939	0.997410
493.598380	0.998189
493.965763	0.997483
494.333088	0.996561
494.700354	0.996671
495.067563	0.997874
495.434713	0.998226
495.801805	0.998090
496.168839	0.997962
496.535815	0.997792
496.902733	0.996974
497.269593	0.998019
497.636395	0.997179
498.003139	0.997639
498.369825	0.998212
498.736453	0.997860
499.103023	0.997609
499.469535	0.998124
499.835989	0.998009
500.202385	0.997225
500.568723	0.997926
500.935003	0.998195
501.301226	0.997658
501.667390	0.997267
502.033497	0.997300
502.399546	0.997588
502.765537	0.997767
503.131470	0.997905
503.497345	0.997224
503.863163	0.997190
504.228923	0.997805
504.594625	0.997308
504.960269	0.997997
505.325856	0.998164
505.691385	0.998306
506.056856	0.997589
506.422270	0.998233
506.787625	0.997922
507.152924	0.997370
507.518164	0.997566
507.883347	0.997258
508.248472	0.997473
508.613540	0.997037
508.978550	0.998280
509.343503	0.997430
509.708398	0.998427
510.073236	0.998019
510.438016	0.997468
510.802738	0.997529
511.167403	0.997242
511.532010	0.998074
511.896561	0.998196
512.261053	0.997361
512.625488	0.997854
512.989866	0.998044
513.354186	0.996637
513.718449	0.997600
514.082655	0.996920
514.446803	0.997617
514.810894	0.997651
515.174927	0.997640
515.538904	0.998399
515.902822	0.997471
516.266684	0.998066
516.630488	0.997847
516.994235	0.998171
517.357925	0.997806
517.721558	0.998007
518.085133	0.997573
518.448651	0.997785
518.812112	0.998736
519.175516	0.997904
519.538863	0.997374
519.902152	0.997578
520.265385	0.997781
520.628560	0.996947
520.991678	0.997993
521.354739	0.998379
521.717743	0.997874
522.080690	0.997348
522.443580	0.997595
522.806413	0.996841
523.169189	0.998115
523.531908	0.996832
523.894569	0.997384
524.257174	0.998170
524.619722	0.997754
524.982213	0.997896
525.344647	0.996794
525.707025	0.997119
526.069345	0.997103
526.431608	0.998201
526.793815	0.998752
527.155964	0.997976
527.518057	0.997684
527.880093	0.997528
528.242072	0.997654
528.603995	0.997488
528.965860	0.997987
529.327669	0.998034
529.689421	0.997404
530.051117	0.998219
530.412755	0.997926
530.774337	0.998245
531.135862	0.998101
531.497331	0.997675
531.858743	0.998091
532.220098	0.997726
532.581396	0.997896
532.942638	0.998369
533.303824	0.998838
533.664953	0.997707
534.026025	0.998970
534.387040	0.998098
534.747999	0.997233
535.108902	0.997308
535.469748	0.997799
535.830537	0.998315
536.191270	0.997742
536.551947	0.997819
536.912567	0.997922
537.273131	0.998749
537.633638	0.997755
537.994089	0.998643
538.354483	0.997599
538.714821	0.997952
539.075103	0.997932
539.435328	0.998188
539.795497	0.997773
540.155609	0.998092
540.515665	0.998476
540.875665	0.998278
541.235609	0.997863
541.595496	0.998171
541.955328	0.997879
542.315102	0.997656
542.674821	0.998378
543.034483	0.998142
543.394090	0.997141
543.753640	0.997957
544.113134	0.996969
544.472571	0.998446
544.831953	0.998156
545.191278	0.998081
545.550548	0.997802
545.909761	0.996830
546.268918	0.998840
546.628019	0.998416
546.987064	0.997813
547.346053	0.997975
547.704986	0.998253
548.063863	0.997593
548.422684	0.998663
548.781449	0.997978
549.140158	0.997821
549.498811	0.997653
549.857408	0.997467
550.215949	0.997048
550.574434	0.997441
550.932864	0.998682
551.291237	0.997956
551.649555	0.998184
552.007817	0.998203
552.366022	0.998163
552.724173	0.998529
553.082267	0.997536
553.440305	0.997589
553.798288	0.997424
554.156215	0.997583
554.514086	0.998209
554.871902	0.998005
555.229661	0.997435
555.587365	0.998547
555.945014	0.998317
556.302606	0.998238
556.660143	0.998496
557.017625	0.998370
557.375050	0.997424
557.732421	0.997764
558.089735	0.997734
558.446994	0.998144
558.804197	0.998094
559.161345	0.997842
559.518437	0.997692
559.875474	0.997967
560.232455	0.997959
560.589381	0.997982
560.946251	0.997881
561.303065	0.997861
561.659825	0.997281
562.016528	0.998121
562.373177	0.997514
562.729770	0.998168
563.086307	0.997059
563.442789	0.998007
563.799216	0.997829
564.155587	0.998729
564.511904	0.998462
564.868164	0.997295
565.224370	0.997891
565.580520	0.997183
565.936615	0.998195
566.292654	0.998105
566.648638	0.998339
567.004567	0.997708
567.360441	0.998174
567.716260	0.997561
568.072023	0.997940
568.427732	0.998185
568.783385	0.997263
569.138982	0.997484
569.494525	0.997459
569.850013	0.997577
570.205445	0.997857
570.560823	0.997789
570.916145	0.997528
571.271412	0.997665
571.626625	0.998276
571.981782	0.998094
572.336884	0.998033
572.691931	0.997787
573.046923	0.998212
573.401860	0.997704
573.756743	0.998496
574.111570	0.997865
574.466342	0.998734
574.821059	0.997769
575.175722	0.998086
575.530330	0.997551
575.884882	0.997845
576.239380	0.998333
576.593823	0.997680
576.948211	0.997962
577.302544	0.997737
577.656823	0.997849
578.011047	0.997436
578.365216	0.998343
578.719330	0.997743
579.073389	0.996980
579.427394	0.998051
579.781344	0.997831
580.135239	0.997308
580.489080	0.997913
580.842866	0.997575
581.196597	0.996859
581.550273	0.996998
581.903895	0.998057
582.257463	0.997568
582.610975	0.997620
582.964434	0.997886
583.317837	0.998190
583.671186	0.997834
584.024481	0.997774
584.377721	0.997747
584.730906	0.998603
585.084037	0.997923
585.437113	0.998343
585.790135	0.997508
586.143103	0.997634
586.496016	0.998429
586.848874	0.997555
587.201679	0.997046
587.554428	0.997538
587.907124	0.998493
588.259765	0.998442
588.612352	0.998331
588.964884	0.998202
589.317362	0.997899
589.669786	0.997478
590.022155	0.997171
590.374470	0.997377
590.726731	0.997168
591.078937	0.998164
591.431090	0.997535
591.783188	0.997019
592.135232	0.998353
592.487222	0.997960
592.839157	0.998067
593.191038	0.998185
593.542866	0.997640
593.894639	0.998119
594.246358	0.997885
594.598022	0.997590
594.949633	0.997549
595.301190	0.998014
595.652692	0.997334
596.004141	0.997637
596.355535	0.997769
596.706876	0.998345
597.058162	0.997957
597.409395	0.997381
597.760573	0.997785
598.111698	0.997701
598.462768	0.996898
598.813785	0.996380
599.164748	0.997676
599.515657	0.997063
599.866511	0.998278
600.217312	0.998378
600.568060	0.997004
600.918753	0.998570
601.269392	0.997747
601.619978	0.997703
601.970510	0.997890
602.320988	0.997463
602.671412	0.997051
603.021783	0.998162
603.372100	0.997779
603.722363	0.997596
604.072572	0.997554
604.422728	0.997411
604.772830	0.997010
605.122878	0.998132
605.472872	0.998326
605.822813	0.997267
606.172701	0.997891
606.522534	0.997751
606.872314	0.998062
607.222041	0.997327
607.571714	0.997462
607.921333	0.998053
608.270899	0.997014
608.620411	0.997557
608.969870	0.998017
609.319276	0.997856
609.668627	0.998460
610.017926	0.997503
610.367171	0.998253
610.716362	0.997994
611.065500	0.997405
611.414585	0.998140
611.763616	0.997140
612.112594	0.997611
612.461518	0.996911
612.810389	0.998099
613.159207	0.997487
613.507971	0.996942
613.856682	0.998278
614.205340	0.996896
614.553945	0.997426
614.902496	0.997736
615.250994	0.997278
615.599439	0.997549
615.947830	0.996680
616.296169	0.997379
616.644454	0.997594
616.992686	0.997160
617.340864	0.997952
617.688990	0.996558
618.037063	0.997689
618.385082	0.996777
618.733048	0.997416
619.080961	0.997136
619.428821	0.998270
619.776628	0.996439
620.124382	0.998223
620.472083	0.997788
620.819731	0.999096
621.167326	0.997519
621.514868	0.997664
621.862357	0.997292
622.209793	0.997749
622.557176	0.996920
622.904506	0.997537
623.251783	0.998277
623.599007	0.997205
623.946179	0.996600
624.293297	0.998150
624.640363	0.997943
624.987376	0.996858
625.334336	0.996190
625.681243	0.997472
626.028097	0.996827
626.374899	0.997566
626.721647	0.998840
627.068343	0.997177
627.414987	0.997635
627.761577	0.996520
628.108115	0.997336
628.454600	0.997285
628.801032	0.997745
629.147412	0.998067
629.493739	0.998046
629.840014	0.997660
630.186236	0.997246
630.532405	0.997811
630.878521	0.996916
631.224585	0.997158
631.570597	0.997058
631.916556	0.997450
632.262462	0.995985
632.608316	0.997428
632.954117	0.996870
633.299866	0.997121
633.645562	0.997677
633.991206	0.997835
634.336797	0.997185
634.682336	0.997890
635.027823	0.996919
635.373257	0.997146
635.718639	0.998304
636.063968	0.996876
636.409245	0.996407
636.754470	0.998009
637.099642	0.997270
637.444762	0.997708
637.789829	0.997056
638.134845	0.997277
638.479808	0.996673
638.824719	0.997970
639.169577	0.997244
639.514383	0.997678
639.859137	0.997098
640.203839	0.997028
640.548489	0.997380
640.893086	0.996851
641.237632	0.997101
641.582125	0.997493
641.926566	0.998016
642.270955	0.997265
642.615292	0.997118
642.959576	0.997292
643.303809	0.997509
643.647990	0.996802
643.992118	0.997715
644.336195	0.996639
644.680219	0.997488
645.024192	0.997117
645.368112	0.997128
645.711981	0.997232
646.055797	0.996870
646.399562	0.995923
646.743274	0.997970
647.086935	0.997556
647.430544	0.997245
647.774101	0.996876
648.117606	0.997962
648.461059	0.997961
648.804460	0.997356
649.147810	0.996901
649.491108	0.996586
649.834354	0.997129
650.177548	0.996920
650.520690	0.997085
650.863781	0.997189
651.206820	0.996690
651.549807	0.997387
651.892742	0.997812
652.235626	0.997309
652.578458	0.997925
652.921238	0.998113
653.263967	0.997751
653.606644	0.996309
653.949269	0.997893
654.291843	0.996238
654.634365	0.997960
654.976836	0.997021
655.319255	0.997879
655.661622	0.997144
656.003938	0.997251
656.346203	0.996502
656.688416	0.997075
657.030577	0.996627
657.372687	0.997467
657.714746	0.996872
658.056753	0.996602
658.398708	0.996532
658.740612	0.998095
659.082465	0.996507
659.424266	0.997091
659.766016	0.996069
660.107715	0.997693
660.449362	0.996591
660.790958	0.996103
661.132503	0.997332
661.473996	0.996640
661.815438	0.997484
662.156829	0.997161
662.498168	0.997647
662.839456	0.996753
663.180693	0.997519
663.521879	0.997093
663.863013	0.997273
664.204097	0.996829
664.545129	0.996887
664.886110	0.996808
665.227040	0.997452
665.567918	0.996817
665.908746	0.996939
666.249522	0.996935
666.590248	0.996738
666.930922	0.996243
667.271545	0.996922
667.612118	0.996428
667.952639	0.996753
668.293109	0.996547
668.633528	0.996030
668.973896	0.997453
669.314213	0.996313
669.654480	0.997460
669.994695	0.996101
670.334859	0.996775
670.674973	0.996965
671.015035	0.997332
671.355047	0.996692
671.695008	0.996667
672.034918	0.996372
672.374777	0.997127
672.714585	0.997182
673.054342	0.997448
673.394049	0.996484
673.733705	0.996206
674.073310	0.997258
674.412864	0.997382
674.752368	0.995959
675.091820	0.997922
675.431223	0.997581
675.770574	0.996553
676.109875	0.997127
676.449125	0.996612
676.788324	0.996353
677.127473	0.997935
677.466571	0.997071
677.805619	0.997259
678.144616	0.996953
678.483562	0.998005
678.822458	0.997479
679.161303	0.995704
679.500098	0.997295
679.838842	0.997738
680.177535	0.996490
680.516179	0.995841
680.854771	0.996859
681.193314	0.996937
681.531805	0.996684
681.870247	0.996730
682.208638	0.997220
682.546978	0.995993
682.885268	0.996624
683.223508	0.996446
683.561697	0.996373
683.899836	0.996553
684.237925	0.996966
684.575963	0.996629
684.913951	0.996611
685.251889	0.996136
685.589776	0.997106
685.927614	0.996973
686.265401	0.996649
686.603137	0.997040
686.940824	0.996349
687.278460	0.997614
687.616046	0.996557
687.953582	0.996722
688.291068	0.997502
688.628504	0.996448
688.965889	0.996269
689.303224	0.995403
689.640510	0.996670
689.977745	0.996667
690.314930	0.996360
690.652065	0.996521
690.989150	0.996538
691.326185	0.997000
691.663170	0.996760
692.000105	0.997250
692.336990	0.996799
692.673825	0.995973
693.010610	0.996870
693.347345	0.997511
693.684030	0.996603
694.020665	0.996942
694.357251	0.997213
694.693786	0.997300
695.030272	0.995919
695.366707	0.997171
695.703093	0.996674
696.039429	0.996230
696.375716	0.997497
696.711952	0.996343
697.048139	0.996425
697.384276	0.997105
697.720363	0.996639
698.056400	0.995224
698.392388	0.996254
698.728326	0.995884
699.064214	0.997275
699.400053	0.997099
699.735842	0.997969
700.071581	0.996225
700.407270	0.996327
700.742910	0.997584
701.078501	0.996046
701.414042	0.997408
701.749533	0.995488
702.084974	0.996882
702.420366	0.996373
702.755709	0.996671
703.091002	0.997478
703.426246	0.997644
703.761440	0.997362
704.096584	0.995401
704.431679	0.996671
704.766725	0.997490
705.101721	0.997624
705.436668	0.996762
705.771565	0.996818
706.106413	0.996744
706.441212	0.996716
706.775961	0.997080
707.110661	0.996998
707.445311	0.997855
707.779913	0.997562
708.114465	0.997252
708.448967	0.997421
708.783421	0.997588
709.117825	0.996681
709.452180	0.997652
709.786485	0.997615
710.120742	0.996807
710.454949	0.996132
710.789107	0.996227
711.123216	0.995747
711.457275	0.996274
711.791286	0.996150
712.125247	0.998802
712.459159	0.997225
712.793023	0.996568
713.126837	0.997036
713.460602	0.995913
713.794318	0.996003
714.127985	0.995654
714.461602	0.996738
714.795171	0.996869
715.128691	0.996398
715.462162	0.996431
715.795584	0.996882
716.128957	0.996748
716.462281	0.996739
716.795556	0.996355
717.128782	0.997777
717.461960	0.996690
717.795088	0.996779
718.128167	0.997542
718.461198	0.997103
718.794180	0.996810
719.127113	0.997616
719.459997	0.996363
719.792833	0.996870
720.125619	0.996731
720.458357	0.997627
720.791046	0.997496
721.123686	0.996620
721.456278	0.996828
721.788821	0.996084
722.121315	0.998154
722.453761	0.997447
722.786158	0.996632
723.118506	0.997085
723.450805	0.996294
723.783056	0.997270
724.115259	0.997071
724.447412	0.997330
724.779518	0.997238
725.111574	0.996530
725.443582	0.997090
725.775542	0.996987
726.107453	0.997787
726.439315	0.997670
726.771129	0.998305
727.102895	0.997406
727.434612	0.996508
727.766281	0.997507
728.097901	0.996585
728.429473	0.997802
728.760996	0.996415
729.092471	0.996500
729.423897	0.997187
729.755276	0.996874
730.086606	0.997282
730.417887	0.997080
730.749120	0.997678
731.080305	0.997443
731.411442	0.996424
731.742530	0.996550
732.073570	0.997066
732.404562	0.996586
732.735506	0.996907
733.066401	0.997178
733.397249	0.996298
733.728048	0.996634
734.058798	0.996846
734.389501	0.997508
734.720156	0.997515
735.050762	0.997700
735.381320	0.996933
735.711831	0.997291
736.042293	0.996969
736.372707	0.998155
736.703073	0.996080
737.033391	0.997155
737.363661	0.997125
737.693883	0.997109
738.024056	0.997336
738.354182	0.997901
738.684260	0.996881
739.014290	0.996807
739.344272	0.997521
739.674207	0.998276
740.004093	0.998053
740.333931	0.997326
740.663722	0.996737
740.993464	0.997897
741.323159	0.997506
741.652806	0.997239
741.982405	0.997368
742.311956	0.998195
742.641460	0.997817
742.970915	0.997494
743.300323	0.996462
743.629683	0.996637
743.958996	0.998053
744.288260	0.996790
744.617477	0.997134
744.946647	0.997665
745.275768	0.997573
745.604842	0.996940
745.933869	0.996780
746.262847	0.997393
746.591778	0.995946
746.920662	0.997093
747.249498	0.998886
747.578286	0.998543
747.907027	0.998185
748.235720	0.997731
748.564365	0.998465
748.892963	0.997082
749.221514	0.998270
749.550017	0.996657
749.878473	0.997969
750.206881	0.998683
750.535242	0.997789
750.863555	0.997258
751.191821	0.996835
751.520039	0.997246
751.848210	0.996010
752.176334	0.997379
752.504411	0.997720
752.832440	0.997898
753.160421	0.998248
753.488356	0.997502
753.816243	0.998193
754.144082	0.997582
754.471875	0.997153
754.799620	0.997185
755.127318	0.997430
755.454969	0.997071
755.782572	0.998935
756.110129	0.996191
756.437638	0.999115
756.765100	0.997941
757.092515	0.997176
757.419882	0.998469
757.747203	0.997167
758.074477	0.998868
758.401703	0.997245
758.728882	0.997591
759.056014	0.998006
759.383099	0.997492
759.710138	0.996671
760.037129	0.997642
760.364073	0.998777
760.690970	0.997712
761.017820	0.997208
761.344623	0.998243
761.671379	0.997442
761.998088	0.997659
762.324751	0.998261
762.651366	0.997388
762.977935	0.997007
763.304456	0.996601
763.630931	0.995993
763.957359	0.995017
764.283740	0.996179
764.610074	0.996543
764.936362	0.995976
765.262602	0.997424
765.588796	0.997338
765.914943	0.996906
766.241044	0.997997
766.567097	0.997267
766.893104	0.997739
767.219064	0.997314
767.544978	0.997316
767.870845	0.997510
768.196665	0.997338
768.522438	0.997580
768.848165	0.998006
769.173846	0.998029
769.499479	0.998951
769.825066	0.998361
770.150607	0.998422
770.476101	0.997928
770.801548	0.998329
771.126949	0.999146
771.452303	0.998466
771.777611	0.997208
772.102872	0.997969
772.428087	0.997800
772.753256	0.998427
773.078378	0.998491
773.403453	0.998374
773.728482	0.999928
774.053465	0.997830
774.378401	0.998126
774.703291	0.998638
775.028135	0.999889
775.352932	0.997157
775.677683	0.998734
776.002388	0.997547
776.327046	0.998028
776.651658	0.999413
776.976224	0.998531
777.300743	0.997750
777.625216	0.997153
777.949643	0.998128
778.274024	0.997627
778.598359	0.998831
778.922647	0.998317
779.246889	0.998529
779.571086	0.997992
779.895236	0.998676
780.219339	0.998148
780.543397	0.997903
780.867409	0.998664
781.191374	0.998237
781.515294	0.999707
781.839167	0.998212
782.162995	0.998321
782.486776	0.997120
782.810511	0.998262
783.134201	0.998611
783.457844	0.998631
783.781441	0.998181
784.104993	0.997410
784.428498	0.999327
784.751958	0.999437
785.075372	0.999628
785.398739	0.997308
785.722061	0.997882
786.045337	0.998222
786.368568	0.997917
786.691752	0.999041
787.014891	0.997900
787.337983	0.998118
787.661030	0.997286
787.984031	0.998984
788.306987	0.998457
788.629897	0.996920
788.952760	0.998270
789.275579	0.998033
789.598351	0.997991
789.921078	0.999799
790.243759	0.997613
790.566395	0.997596
790.888984	0.998580
791.211529	0.998158
791.534027	0.998780
791.856480	0.999437
792.178888	0.997844
792.501249	0.999022
792.823566	1.000192
793.145836	0.997677
793.468062	0.999053
793.790241	0.998836
794.112375	0.997692
794.434464	0.999060
794.756507	0.998247
795.078505	0.998532
795.400457	0.999883
795.722364	0.999370
796.044226	0.998895
796.366042	0.997155
796.687812	0.996655
797.009538	0.997510
797.331218	0.999054
797.652852	0.998802
797.974442	0.997532
798.295986	0.997763
798.617484	0.997711
798.938938	0.999843
799.260346	0.998186
799.581709	0.998562
799.903026	0.999607
800.224299	0.997815
800.545526	0.998591
800.866708	0.998280
801.187845	0.999029
801.508936	0.999694
801.829983	0.998409
802.150984	0.998592
802.471940	0.998179
802.792851	0.998004
803.113717	0.999305
803.434538	0.999151
803.755314	0.999305
804.076045	0.998586
804.396731	0.997966
804.717372	0.997626
805.037967	1.000713
805.358518	0.999553
805.679024	0.998121
805.999485	0.998861
806.319901	0.998756
806.640272	0.999297
806.960598	0.998513
807.280879	0.998150
807.601115	0.999736
807.921306	0.999656
808.241453	0.997661
808.561554	0.998383
808.881611	0.998532
809.201623	0.998587
809.521590	0.997453
809.841513	0.999561
810.161390	0.998352
810.481223	0.998402
810.801011	0.997887
811.120755	0.999700
811.440453	0.997855
811.760107	0.999092
812.079716	0.998710
812.399281	0.998300
812.718801	0.999081
813.038276	0.998281
813.357707	0.998545
813.677093	0.999792
813.996434	0.998377
814.315731	1.000407
814.634983	0.998232
814.954191	0.999250
815.273354	0.998320
815.592473	0.999056
815.911547	0.999462
816.230577	0.998565
816.549562	0.999009
816.868502	0.997555
817.187399	0.998340
817.506250	0.999012
817.825058	0.996283
818.143821	0.999086
818.462539	0.998161
818.781213	0.998464
819.099843	0.999230
819.418429	0.998400
819.736970	0.997596
820.055466	0.996390
820.373919	0.996874
820.692327	0.997218
821.010691	0.996545
821.329011	0.994466
821.647286	0.993717
821.965517	0.992329
822.283704	0.991055
822.601847	0.990763
822.919945	0.990486
823.237999	0.991834
823.556010	0.991896
823.873976	0.993221
824.191897	0.993688
824.509775	0.994734
824.827609	0.995481
825.145398	0.995682
825.463144	0.994365
825.780845	0.994514
826.098502	0.995318
826.416116	0.994850
826.733685	0.995321
827.051210	0.994358
827.368692	0.993977
827.686129	0.994437
828.003522	0.996087
828.320872	0.996387
828.638177	0.995459
828.955439	0.998058
829.272656	0.997134
829.589830	0.996319
829.906960	0.997673
830.224046	0.998405
830.541088	0.997936
830.858086	0.997394
831.175041	0.998926
831.491952	0.997114
831.808819	0.997406
832.125642	0.997590
832.442421	0.998574
832.759157	0.998732
833.075849	0.996913
833.392497	0.996346
833.709101	0.995120
834.025662	0.997117
834.342179	0.996304
834.658653	0.997254
834.975083	0.996771
835.291469	0.996926
835.607811	0.996806
835.924110	0.997732
836.240366	0.998797
836.556578	0.998714
836.872746	0.998089
837.188871	0.998303
837.504952	0.997662
837.820990	0.998751
838.136984	0.997742
838.452935	0.999337
838.768842	0.999220
839.084706	0.999099
839.400526	0.998220
839.716303	0.996635
840.032037	0.998616
840.347727	0.997357
840.663373	0.997706
840.978977	0.998508
841.294537	0.998044
841.610054	0.998739
841.925527	0.997592
842.240957	0.998110
842.556344	0.998361
842.871687	0.998972
843.186987	0.998520
843.502244	0.999309
843.817458	0.998708
844.132629	0.997534
844.447756	0.999500
844.762840	0.998937
845.077881	0.999295
845.392879	0.997440
845.707833	0.999025
846.022745	0.999524
846.337613	0.998952
846.652438	0.999426
846.967221	0.998927
847.281960	0.999194
847.596656	0.999831
847.911309	0.999797
848.225919	0.998624
848.540485	0.999025
848.855009	0.999827
849.169490	0.999241
849.483928	0.999122
849.798323	0.998320
850.112675	1.000786
850.426984	0.999597
850.741251	0.999543
851.055474	0.999216
851.369654	1.000357
851.683792	0.998756
851.997887	0.999273
852.311938	1.000167
852.625947	0.998406
852.939914	0.998296
853.253837	0.999815
853.567718	0.999076
853.881555	0.999521
854.195350	0.999464
854.509103	0.999300
854.822812	0.999312
855.136479	1.000033
855.450103	0.999504
855.763685	0.999599
856.077224	0.998753
856.390720	0.999898
856.704173	1.000228
857.017584	1.000077
857.330953	0.999807
857.644278	0.998930
857.957561	0.999180
858.270802	0.999392
858.584000	0.998842
858.897155	0.997992
859.210268	0.999767
859.523339	1.000007
859.836367	0.999401
860.149352	0.998612
860.462295	0.998693
860.775195	0.999396
861.088054	0.997773
861.400869	0.998736
861.713642	0.998229
862.026373	1.000391
862.339062	1.000141
862.651708	0.999685
862.964312	0.999849
863.276873	0.998610
863.589392	0.999661
863.901869	0.999329
864.214303	0.999791
864.526696	0.999108
864.839045	0.998683
865.151353	0.998966
865.463619	0.998165
865.775842	0.998704
866.088023	1.000401
866.400162	0.999484
866.712258	0.998853
867.024313	0.999382
867.336325	0.999917
867.648296	0.998628
867.960224	0.998957
868.272110	1.000212
868.583954	0.998170
868.895755	1.000470
869.207515	0.999404
869.519233	0.999698
869.830909	0.998320
870.142542	0.998265
870.454134	0.999284
870.765684	0.998725
871.077191	0.999315
871.388657	0.999052
871.700081	0.999323
872.011463	0.999864
872.322803	0.998906
872.634101	0.998586
872.945357	0.998691
873.256571	0.998598
873.567744	0.999153
873.878874	0.998798
874.189963	0.998452
874.501010	0.999884
874.812015	0.999188
875.122979	0.999324
875.433900	0.998528
875.744780	0.999218
876.055618	0.997382
876.366415	0.998011
876.677169	0.998181
876.987882	0.999061
877.298554	0.999713
877.609183	0.998255
877.919771	0.998943
878.230317	0.999036
878.540822	0.998010
878.851285	0.998866
879.161707	0.997247
879.472087	0.999470
879.782425	0.997324
880.092722	0.997194
880.402977	0.994784
880.713191	0.994206
881.023363	0.992922
881.333494	0.992145
881.643583	0.992674
881.953631	0.992377
882.263637	0.990747
882.573602	0.992833
882.883526	0.992652
883.193408	0.993581
883.503248	0.994378
883.813048	0.993822
884.122806	0.995644
884.432522	0.996489
884.742197	0.997023
885.051831	0.996608
885.361424	0.998175
885.670975	0.997599
885.980485	0.996880
886.289954	0.997890
886.599382	0.997782
886.908768	0.998707
887.218113	0.997272
887.527417	0.998984
887.836680	0.998465
888.145901	0.999039
888.455082	0.999868
888.764221	0.998915
889.073319	0.999019
889.382376	0.999491
889.691392	0.996998
890.000366	0.999481
890.309300	0.998071
890.618193	0.999213
890.927044	0.998357
891.235855	0.997999
891.544625	0.998446
891.853353	0.998093
892.162041	0.998324
892.470687	1.000335
892.779293	0.998554
893.087858	0.997289
893.396381	0.997252
893.704864	0.998331
894.013306	0.996707
894.321707	0.996832
894.630068	0.996112
894.938387	0.995254
895.246665	0.996778
895.554903	0.995312
895.863100	0.996332
896.171256	0.996690
896.479371	0.996701
896.787446	0.996805
897.095480	0.997071
897.403473	0.997771
897.711425	0.997362
898.019336	0.998381
898.327207	0.998924
898.635038	0.997010
898.942827	0.999383
899.250576	0.998620
899.558284	0.999326
899.865952	0.997912
900.173579	0.998550
900.481165	0.999371
900.788711	0.998069
901.096216	0.998997
901.403681	0.999308
901.711105	0.998542
902.018489	0.998252
902.325832	0.998146
902.633135	0.998175
902.940397	0.999329
903.247619	0.998607
903.554800	0.997182
903.861941	0.997168
904.169041	0.995736
904.476101	0.996590
904.783121	0.994159
905.090100	0.995690
905.397039	0.996340
905.703938	0.996485
906.010796	0.996308
906.317614	0.998128
906.624391	0.997473
906.931129	0.997915
907.237826	0.998266
907.544483	1.000160
907.851099	0.998457
908.157675	0.997755
908.464211	0.999904
908.770707	0.998072
909.077163	0.999420
909.383578	0.999147
909.689954	0.998287
909.996289	0.999297
910.302584	0.998925
910.608839	0.998913
910.915054	0.999606
911.221229	1.000458
911.527363	0.999545
911.833458	0.999009
912.139513	0.998272
912.445527	0.999744
912.751502	0.998744
913.057436	0.997154
913.363331	0.999672
913.669186	0.999440
913.975000	0.999573
914.280775	0.998349
914.586510	0.997814
914.892205	0.997284
915.197859	0.996279
915.503475	0.996901
915.809050	0.995528
916.114585	0.994878
916.420081	0.995181
916.725536	0.995658
917.030952	0.995247
917.336328	0.994652
917.641665	0.995746
917.946961	0.996491
918.252218	0.996745
918.557435	0.996797
918.862612	0.997725
919.167750	0.998658
919.472848	0.997965
919.777906	0.998974
920.082925	0.998021
920.387904	0.997976
920.692843	0.998863
920.997743	0.998466
921.302603	0.998995
921.607423	0.998450
921.912204	0.998758
922.216946	0.998907
922.521647	0.998435
922.826310	0.997491
923.130932	0.999455
923.435516	0.998751
923.740059	0.997790
924.044564	0.999670
924.349028	0.999431
924.653454	0.999986
924.957840	0.999091
925.262186	0.998354
925.566493	0.998487
925.870761	0.998611
926.174989	0.999564
926.479178	1.000349
926.783328	0.999908
927.087438	0.998817
927.391509	0.998522
927.695541	0.998674
927.999533	1.000011
928.303486	0.998883
928.607400	0.998954
928.911275	0.999891
929.215110	1.000302
929.518906	0.999514
929.822663	0.999761
930.126381	0.999279
930.430060	0.999894
930.733699	0.999566
931.037299	1.000459
931.340861	0.999797
931.644383	0.998605
931.947866	1.000640
932.251309	1.001162
932.554714	0.998087
932.858080	1.000497
933.161407	0.999118
933.464694	0.999609
933.767943	1.000048
934.071153	0.999701
934.374323	1.000230
934.677455	0.998279
934.980548	0.997913
935.283602	1.000377
935.586617	0.998681
935.889593	1.000174
936.192530	1.000794
936.495428	0.998903
936.798287	0.998836
937.101108	0.999393
937.403890	0.998862
937.706632	1.000403
938.009336	0.999459
938.312002	0.999513
938.614628	0.998963
938.917216	0.998623
939.219765	0.999225
939.522275	1.000009
939.824747	0.998816
940.127179	0.999618
940.429573	1.000247
940.731929	0.998586
941.034246	0.998293
941.336524	0.998326
941.638763	0.999167
941.940964	0.998872
942.243126	0.997953
942.545250	1.000370
942.847335	1.000427
943.149381	0.999505
943.451389	0.999024
943.753359	1.000389
944.055290	1.000396
944.357182	0.999348
944.659036	1.000011
944.960851	0.999565
945.262628	1.000472
945.564367	1.000317
945.866067	0.999984
946.167729	0.998548
946.469352	0.999741
946.770937	0.997209
947.072484	0.999394
947.373992	0.999504
947.675462	0.999080
947.976893	0.998267
948.278286	1.000762
948.579641	0.999542
948.880958	0.999821
949.182236	0.999557
949.483476	1.000530
949.784678	0.999355
950.085841	0.998172
950.386967	0.998920
950.688054	0.999100
950.989103	0.998277
951.290114	0.997616
951.591087	0.999397
951.892021	0.999159
952.192917	1.000070
952.493776	1.000832
952.794596	0.999179
953.095378	0.998370
953.396122	0.999425
953.696828	0.999975
953.997496	0.999096
954.298126	0.999925
954.598718	0.999340
954.899272	0.999187
955.199788	0.998135
955.500266	1.001349
955.800706	0.999715
956.101108	0.999007
956.401472	1.001158
956.701798	0.998636
957.002087	1.000285
957.302337	0.999330
957.602550	0.999207
957.902724	0.999793
958.202861	0.999189
958.502960	0.999109
958.803022	0.999789
959.103045	0.999519
959.403031	1.000800
959.702979	1.000175
960.002889	0.999387
960.302762	1.000501
960.602596	1.000998
960.902393	0.999137
961.202153	0.999741
961.501875	1.000358
961.801559	1.000621
962.101205	1.000255
962.400814	1.001604
962.700385	1.000097
962.999918	0.999518
963.299414	0.998949
963.598873	0.999061
963.898293	1.000166
964.197677	0.998910
964.497022	0.999900
964.796331	0.998400
965.095601	0.999743
965.394835	0.999255
965.694030	1.001684
965.993189	0.999111
966.292309	1.000526
966.591393	0.998236
966.890439	1.000922
967.189447	0.998219
967.488419	0.999737
967.787353	0.999777
968.086249	0.998566
968.385108	0.998572
968.683930	1.000988
968.982714	1.000115
969.281462	0.999613
969.580172	0.999986
969.878844	1.000403
970.177480	0.999010
970.476078	1.000875
970.774639	0.999651
971.073162	0.999069
971.371649	0.999889
971.670098	0.998807
971.968510	0.998705
972.266885	0.998819
972.565223	0.999558
972.863524	0.998642
973.161788	0.999393
973.460014	1.000471
973.758204	0.999555
974.056356	0.999529
974.354471	0.998147
974.652550	1.000306
974.950591	0.999368
975.248595	0.998386
975.546563	0.999941
975.844493	1.001156
976.142386	0.999907
976.440243	0.999806
976.738062	1.000676
977.035845	0.999168
977.333590	1.000441
977.631299	0.998745
977.928971	0.999505
978.226606	1.000365
978.524204	0.998277
978.821765	1.001012
979.119290	1.000096
979.416777	0.998907
979.714228	0.999762
980.011642	1.001087
980.309020	0.999687
980.606360	0.999960
980.903664	0.999296
981.200931	0.999372
981.498162	0.999600
981.795356	0.999971
982.092513	0.999280
982.389633	1.000545
982.686717	0.998236
982.983764	0.999710
983.280775	0.999906
983.577749	1.000263
983.874686	0.999192
984.171587	0.997888
984.468451	0.999046
984.765279	1.000727
985.062070	0.999677
985.358824	0.998665
985.655543	0.999440
985.952224	1.000804
986.248869	0.999704
986.545478	0.999904
986.842050	0.999925
987.138586	0.998545
987.435086	0.998046
987.731549	1.001010
988.027975	0.999886
988.324366	0.999696
988.620719	1.000403
988.917037	0.999661
989.213318	1.000411
989.509563	1.000592
989.805772	1.000369
990.101944	1.000426
990.398080	1.000019
990.694180	0.999518
990.990244	0.999268
991.286271	0.999469
991.582262	1.000025
991.878217	0.999827
992.174136	1.001419
992.470019	0.999378
992.765865	1.001000
993.061676	1.000181
993.357450	0.999003
993.653188	1.000986
993.948890	0.999735
994.244556	0.999777
994.540186	0.999655
994.835780	0.998890
995.131337	1.000048
995.426859	0.999582
995.722345	0.999935
996.017795	0.998536
996.313208	0.999631
996.608586	0.999504
996.903928	0.999946
997.199234	0.999616
997.494504	1.000988
997.789738	0.999135
998.084936	1.000953
998.380099	0.999537
998.675225	1.000335
998.970316	1.000838
999.265371	1.001193
999.560390	0.999866
999.855373	0.999538
1000.150320	1.000074
1000.445232	0.999982
1000.740108	0.999496
1001.034948	0.999390
1001.329752	1.000703
1001.624521	0.999694
1001.919254	0.999218
1002.213951	1.000890
1002.508613	0.998354
1002.803239	0.999918
1003.097829	1.000507
1003.392384	0.999576
1003.686903	1.001606
1003.981386	0.999062
1004.275834	1.000629
1004.570246	0.999097
1004.864623	1.000811
1005.158964	0.999829
1005.453270	0.999933
1005.747540	0.999435
1006.041775	0.999906
1006.335974	0.999696
1006.630138	1.000042
1006.924266	0.998943
1007.218359	0.998249
1007.512416	1.000796
1007.806438	0.999066
1008.100425	1.000508
1008.394376	1.000528
1008.688292	0.999533
1008.982172	0.997732
1009.276017	0.999581
1009.569827	1.001476
1009.863602	0.998461
1010.157341	0.999812
1010.451045	0.999889
1010.744714	1.001064
1011.038347	0.999315
1011.331945	0.998611
1011.625508	0.999852
1011.919036	0.999716
1012.212528	1.000845
1012.505986	0.999510
1012.799408	1.000958
1013.092795	0.999890
1013.386147	1.000694
1013.679464	1.000670
1013.972745	0.999477
1014.265992	0.998874
1014.559204	0.998801
1014.852380	1.000874
1015.145521	0.999579
1015.438628	0.999141
1015.731699	0.999633
1016.024736	0.999657
1016.317737	1.001086
1016.610703	1.001128
1016.903635	0.999607
1017.196531	0.999155
1017.489393	1.000315
1017.782219	0.999264
1018.075011	0.999243
1018.367768	0.999669
1018.660490	0.999977
1018.953177	0.999977
1019.245829	0.999977
