Dividing Wavelength (nm)	Counts (n)	Blue Motor Position (mm): 41.800000	Red Motor Position (mm): 0.000000	
326.493990	0.999526
326.888308	0.999526
327.282561	0.999526
327.676750	1.000460
328.070874	1.000566
328.464933	1.000730
328.858929	1.000900
329.252859	0.999967
329.646726	0.999664
330.040528	0.999239
330.434265	1.000092
330.827938	0.999643
331.221547	1.000120
331.615091	0.999391
332.008571	1.001213
332.401986	0.999629
332.795338	1.001253
333.188625	1.000699
333.581847	0.999802
333.975006	1.000695
334.368100	1.000485
334.761129	0.999231
335.154095	1.000226
335.546996	1.000217
335.939833	0.999365
336.332606	0.999998
336.725315	0.999539
337.117960	1.000848
337.510540	0.999757
337.903056	0.999596
338.295508	1.000344
338.687896	1.000262
339.080220	0.999301
339.472480	0.999230
339.864676	0.999753
340.256807	0.998391
340.648875	1.000687
341.040879	0.999744
341.432818	1.000762
341.824694	1.001279
342.216506	1.001240
342.608253	1.000224
342.999937	1.000391
343.391557	1.000072
343.783113	1.001703
344.174605	1.000716
344.566033	0.999152
344.957397	1.001008
345.348697	0.999960
345.739934	1.000463
346.131106	0.999984
346.522215	1.000077
346.913260	0.999422
347.304241	0.999116
347.695159	0.999744
348.086012	0.999694
348.476802	0.999848
348.867528	0.998952
349.258191	1.000284
349.648789	1.000846
350.039324	0.999204
350.429796	0.999175
350.820203	0.999041
351.210548	0.999152
351.600828	1.000112
351.991045	0.999554
352.381198	1.000550
352.771288	0.999132
353.161314	0.998516
353.551276	0.999666
353.941175	0.997762
354.331010	0.999240
354.720782	0.999131
355.110490	0.999267
355.500135	1.000188
355.889717	0.998219
356.279235	0.999556
356.668689	0.999802
357.058080	1.000079
357.447408	0.997934
357.836672	1.000241
358.225873	0.998784
358.615010	0.998336
359.004084	0.999217
359.393095	0.998469
359.782043	0.998899
360.170927	0.998964
360.559748	0.998701
360.948505	0.999374
361.337199	0.999522
361.725830	0.999602
362.114398	0.999250
362.502903	0.998045
362.891344	0.997618
363.279722	0.998576
363.668037	0.998826
364.056289	0.998138
364.444478	0.999273
364.832603	0.998524
365.220665	0.998374
365.608665	0.998292
365.996601	0.999568
366.384474	0.997391
366.772284	0.998886
367.160031	0.996671
367.547715	0.997393
367.935336	0.996154
368.322893	0.995792
368.710388	0.994376
369.097820	0.993045
369.485189	0.990387
369.872495	0.989763
370.259738	0.987671
370.646918	0.984260
371.034035	0.982622
371.421090	0.979495
371.808081	0.973318
372.195010	0.971306
372.581875	0.966659
372.968678	0.962412
373.355418	0.958531
373.742096	0.951440
374.128710	0.947297
374.515262	0.942609
374.901751	0.935976
375.288177	0.931451
375.674540	0.924213
376.060841	0.919209
376.447079	0.912707
376.833254	0.906022
377.219367	0.901277
377.605417	0.889514
377.991404	0.886587
378.377329	0.880495
378.763191	0.874165
379.148991	0.864586
379.534727	0.857139
379.920402	0.848120
380.306013	0.846071
380.691563	0.832869
381.077049	0.826731
381.462474	0.822519
381.847835	0.812183
382.233134	0.807496
382.618371	0.807923
383.003545	0.791407
383.388657	0.791766
383.773706	0.785931
384.158693	0.784111
384.543618	0.779882
384.928480	0.773886
385.313280	0.766197
385.698017	0.769560
386.082692	0.762459
386.467305	0.764062
386.851856	0.761980
387.236344	0.762244
387.620770	0.761311
388.005133	0.760712
388.389435	0.760150
388.773674	0.762804
389.157851	0.760705
389.541965	0.764694
389.926018	0.774933
390.310008	0.770378
390.693936	0.774232
391.077802	0.775268
391.461606	0.782582
391.845348	0.782455
392.229027	0.788073
392.612645	0.794712
392.996200	0.793450
393.379694	0.797087
393.763125	0.799431
394.146494	0.810495
394.529801	0.813015
394.913047	0.817049
395.296230	0.828185
395.679351	0.831834
396.062410	0.840002
396.445408	0.848455
396.828343	0.855377
397.211217	0.862094
397.594028	0.873205
397.976778	0.877918
398.359466	0.885300
398.742092	0.890788
399.124656	0.900502
399.507158	0.904172
399.889598	0.910565
400.271977	0.915076
400.654294	0.922692
401.036549	0.928211
401.418742	0.934789
401.800874	0.938263
402.182944	0.941741
402.564952	0.946421
402.946898	0.951936
403.328783	0.957179
403.710606	0.961089
404.092367	0.963251
404.474067	0.967528
404.855705	0.971465
405.237282	0.973895
405.618797	0.976481
406.000250	0.978050
406.381642	0.980169
406.762972	0.984062
407.144240	0.985175
407.525447	0.985637
407.906593	0.988178
408.287677	0.989253
408.668700	0.991537
409.049661	0.991564
409.430560	0.992926
409.811399	0.993479
410.192176	0.994104
410.572891	0.995678
410.953545	0.994928
411.334138	0.995581
411.714669	0.996164
412.095139	0.996838
412.475547	0.997445
412.855894	0.997394
413.236180	0.997222
413.616405	0.997966
413.996568	0.997989
414.376670	0.997756
414.756711	0.998302
415.136691	0.998012
415.516609	0.997774
415.896466	0.999264
416.276262	0.998164
416.655997	0.999491
417.035670	0.999064
417.415283	0.998719
417.794834	0.998394
418.174324	0.999464
418.553753	0.999020
418.933121	0.999227
419.312428	1.000264
419.691674	1.000302
420.070859	0.999722
420.449983	0.999761
420.829045	0.999181
421.208047	0.999775
421.586988	0.998958
421.965867	0.998177
422.344686	0.999114
422.723444	0.998954
423.102141	0.999033
423.480777	0.998447
423.859352	0.999003
424.237866	1.000222
424.616319	0.999959
424.994712	0.999378
425.373044	0.999845
425.751314	1.000302
426.129524	1.000161
426.507673	0.998640
426.885762	0.999528
427.263789	0.998493
427.641756	0.999656
428.019662	0.999395
428.397508	0.999824
428.775292	0.999752
429.153016	0.999327
429.530679	0.999272
429.908282	1.000122
430.285824	0.998927
430.663305	0.999397
431.040726	1.000074
431.418086	0.999552
431.795385	1.000088
432.172624	1.000143
432.549802	0.999150
432.926920	0.999315
433.303977	0.998727
433.680974	1.000356
434.057910	1.000104
434.434786	1.000220
434.811601	0.999761
435.188355	0.999649
435.565050	1.000038
435.941683	0.999647
436.318257	0.998799
436.694770	0.999778
437.071222	1.000133
437.447614	0.999997
437.823946	0.999093
438.200218	0.999950
438.576429	0.999345
438.952580	0.999588
439.328670	0.998957
439.704700	0.998432
440.080670	0.999896
440.456580	0.999881
440.832429	1.000195
441.208218	1.000184
441.583947	1.000509
441.959616	0.998450
442.335224	1.000265
442.710773	0.999994
443.086261	1.000422
443.461689	1.000097
443.837057	0.999891
444.212365	0.999700
444.587612	1.001063
444.962800	0.999861
445.337927	1.000262
445.712995	0.999646
446.088002	0.999761
446.462949	0.999889
446.837837	1.000963
447.212664	0.999742
447.587431	1.000516
447.962139	1.000148
448.336786	0.999283
448.711374	0.999190
449.085901	0.999884
449.460369	0.999729
449.834776	0.999749
450.209124	1.000226
450.583412	1.000469
450.957640	0.999640
451.331808	1.000694
451.705917	1.000042
452.079965	1.000096
452.453954	1.000025
452.827883	1.000292
453.201752	1.000095
453.575562	0.999670
453.949311	1.000237
454.323001	0.999846
454.696632	0.999971
455.070202	0.999537
455.443713	1.000368
455.817164	1.000231
456.190556	1.000019
456.563888	1.000113
456.937160	1.000185
457.310373	0.999317
457.683526	0.999411
458.056619	0.999126
458.429653	0.999947
458.802628	0.999766
459.175542	1.000241
459.548398	0.999599
459.921194	1.000754
460.293930	1.000793
460.666607	1.000609
461.039224	1.000111
461.411782	0.999800
461.784280	0.999116
462.156719	1.000066
462.529099	0.999664
462.901419	0.999751
463.273680	0.998911
463.645882	0.999722
464.018024	0.999930
464.390106	0.999919
464.762130	1.000087
465.134094	1.000919
465.505999	1.000447
465.877845	0.999280
466.249631	0.999592
466.621358	0.999182
466.993026	0.999001
467.364634	0.999718
467.736184	1.000109
468.107674	0.999887
468.479105	1.000159
468.850477	1.000380
469.221790	1.000075
469.593043	0.999654
469.964238	0.999237
470.335373	0.999498
470.706449	1.000005
471.077467	0.998916
471.448425	0.999853
471.819324	0.999848
472.190164	0.999824
472.560945	0.999660
472.931667	0.999799
473.302330	0.999677
473.672934	0.999499
474.043479	0.999922
474.413965	1.000360
474.784393	0.999073
475.154761	0.999949
475.525070	0.999571
475.895321	1.000079
476.265513	1.000543
476.635645	1.000624
477.005719	0.999843
477.375734	1.000349
477.745691	0.999663
478.115588	0.999307
478.485427	1.000285
478.855207	0.999988
479.224928	0.999834
479.594591	1.000444
479.964194	0.999845
480.333739	1.000239
480.703226	0.999412
481.072653	0.999248
481.442022	0.999725
481.811333	0.999381
482.180584	1.000082
482.549777	0.999798
482.918912	1.000120
483.287988	1.000235
483.657005	0.999637
484.025964	0.999283
484.394864	0.999347
484.763706	0.999483
485.132489	1.000164
485.501213	0.999640
485.869879	1.000197
486.238487	0.999417
486.607036	1.000309
486.975527	1.000025
487.343959	0.999526
487.712333	1.000200
488.080648	0.999177
488.448905	1.000687
488.817104	0.999257
489.185244	0.999943
489.553326	0.999900
489.921350	1.000135
490.289315	1.000048
490.657222	0.998787
491.025070	1.000207
491.392861	0.999868
491.760593	0.999576
492.128267	0.999136
492.495883	0.999454
492.863440	1.000175
493.230939	1.000107
493.598380	1.000358
493.965763	0.999330
494.333088	0.998912
494.700354	0.999769
495.067563	0.999292
495.434713	0.999444
495.801805	0.999527
496.168839	1.000295
496.535815	1.000235
496.902733	0.999863
497.269593	0.999255
497.636395	0.999153
498.003139	0.999682
498.369825	1.000312
498.736453	0.999698
499.103023	1.000498
499.469535	0.999027
499.835989	0.999867
500.202385	0.999519
500.568723	0.999851
500.935003	0.999952
501.301226	0.999345
501.667390	0.999096
502.033497	0.999674
502.399546	0.999416
502.765537	0.999578
503.131470	0.999560
503.497345	1.000124
503.863163	1.000263
504.228923	0.999913
504.594625	0.999614
504.960269	1.000102
505.325856	1.000098
505.691385	1.000133
506.056856	1.000499
506.422270	1.000172
506.787625	1.000307
507.152924	1.000224
507.518164	0.999881
507.883347	0.999264
508.248472	1.000283
508.613540	0.999348
508.978550	1.000339
509.343503	1.000034
509.708398	1.000314
510.073236	1.000326
510.438016	0.999467
510.802738	0.999501
511.167403	1.000099
511.532010	1.000404
511.896561	1.000332
512.261053	1.000200
512.625488	0.999634
512.989866	0.999850
513.354186	0.999113
513.718449	0.999932
514.082655	0.998868
514.446803	0.999679
514.810894	1.000732
515.174927	1.000080
515.538904	0.999991
515.902822	0.999884
516.266684	0.999920
516.630488	0.999852
516.994235	0.999926
517.357925	0.999690
517.721558	0.999640
518.085133	0.999948
518.448651	0.999312
518.812112	1.000477
519.175516	0.999678
519.538863	0.999546
519.902152	1.000228
520.265385	0.999590
520.628560	0.999247
520.991678	0.999536
521.354739	1.000007
521.717743	1.000561
522.080690	0.999557
522.443580	0.999877
522.806413	0.999345
523.169189	1.000533
523.531908	0.999472
523.894569	0.999652
524.257174	0.999678
524.619722	0.999790
524.982213	0.999466
525.344647	0.999764
525.707025	0.999774
526.069345	0.999229
526.431608	1.000147
526.793815	1.000021
527.155964	1.000507
527.518057	1.000386
527.880093	0.999584
528.242072	0.999746
528.603995	0.999416
528.965860	1.000440
529.327669	0.999813
529.689421	0.999006
530.051117	1.000036
530.412755	1.000530
530.774337	0.999903
531.135862	1.000529
531.497331	0.999583
531.858743	1.000020
532.220098	0.999577
532.581396	0.999577
532.942638	0.999601
533.303824	1.000664
533.664953	0.999378
534.026025	1.000493
534.387040	1.000117
534.747999	0.999045
535.108902	1.000527
535.469748	1.000746
535.830537	0.999413
536.191270	0.999721
536.551947	0.999335
536.912567	0.999436
537.273131	1.000114
537.633638	1.000049
537.994089	1.000239
538.354483	0.999950
538.714821	1.000044
539.075103	0.999787
539.435328	1.000041
539.795497	1.000176
540.155609	0.999462
540.515665	1.000255
540.875665	1.000038
541.235609	0.999852
541.595496	0.998888
541.955328	0.999862
542.315102	1.000080
542.674821	1.000429
543.034483	1.000256
543.394090	0.999370
543.753640	1.000478
544.113134	0.999536
544.472571	1.000219
544.831953	1.000053
545.191278	0.999991
545.550548	0.999393
545.909761	0.999877
546.268918	1.000472
546.628019	1.000376
546.987064	0.999553
547.346053	0.999888
547.704986	1.000017
548.063863	0.999048
548.422684	1.000190
548.781449	0.999468
549.140158	1.000019
549.498811	0.999453
549.857408	0.999707
550.215949	0.998723
550.574434	0.999614
550.932864	1.000505
551.291237	0.999546
551.649555	1.000350
552.007817	0.999521
552.366022	1.000362
552.724173	1.000637
553.082267	1.000013
553.440305	0.999302
553.798288	0.999293
554.156215	0.999636
554.514086	1.000077
554.871902	0.999694
555.229661	0.999418
555.587365	1.000213
555.945014	0.999540
556.302606	0.999508
556.660143	1.000136
557.017625	0.999943
557.375050	0.999327
557.732421	0.999579
558.089735	0.998745
558.446994	0.999668
558.804197	0.999893
559.161345	0.999005
559.518437	0.999298
559.875474	0.999649
560.232455	0.999575
560.589381	0.999470
560.946251	0.998931
561.303065	0.999784
561.659825	0.999302
562.016528	1.000027
562.373177	0.999774
562.729770	0.999872
563.086307	0.999070
563.442789	0.999959
563.799216	0.999178
564.155587	1.000334
564.511904	1.000513
564.868164	0.999122
565.224370	1.000447
565.580520	1.000272
565.936615	0.999855
566.292654	0.999783
566.648638	0.999955
567.004567	0.999785
567.360441	0.999730
567.716260	0.999987
568.072023	0.999324
568.427732	0.999250
568.783385	0.999708
569.138982	0.999623
569.494525	0.998983
569.850013	1.000046
570.205445	1.000255
570.560823	0.999439
570.916145	0.999167
571.271412	0.999459
571.626625	0.999389
571.981782	0.999875
572.336884	0.999471
572.691931	0.999971
573.046923	1.000299
573.401860	0.999313
573.756743	0.999235
574.111570	0.999065
574.466342	1.000522
574.821059	0.999346
575.175722	1.000306
575.530330	0.999549
575.884882	1.000138
576.239380	1.000087
576.593823	0.999197
576.948211	0.999618
577.302544	0.999924
577.656823	1.000290
578.011047	0.999102
578.365216	1.000689
578.719330	0.999597
579.073389	0.999271
579.427394	0.999686
579.781344	0.999636
580.135239	0.999217
580.489080	0.999661
580.842866	1.000189
581.196597	0.999449
581.550273	0.999118
581.903895	1.000196
582.257463	0.999889
582.610975	0.999415
582.964434	1.000222
583.317837	0.999567
583.671186	1.000155
584.024481	0.999123
584.377721	0.999320
584.730906	1.000231
585.084037	1.000123
585.437113	0.999664
585.790135	0.999526
586.143103	0.999508
586.496016	0.999569
586.848874	1.000152
587.201679	0.999733
587.554428	0.999704
587.907124	0.999858
588.259765	0.999607
588.612352	1.000363
588.964884	1.000111
589.317362	0.999407
589.669786	0.999081
590.022155	0.999520
590.374470	0.999139
590.726731	0.998524
591.078937	0.999255
591.431090	0.998498
591.783188	0.999566
592.135232	1.000503
592.487222	1.000229
592.839157	0.999605
593.191038	0.999347
593.542866	0.999614
593.894639	0.998967
594.246358	0.999820
594.598022	0.999888
594.949633	0.999767
595.301190	0.999062
595.652692	0.999113
596.004141	0.999917
596.355535	0.999063
596.706876	1.000283
597.058162	0.999714
597.409395	0.999024
597.760573	0.998792
598.111698	0.999997
598.462768	0.998730
598.813785	0.999302
599.164748	0.999683
599.515657	0.999231
599.866511	1.000141
600.217312	1.000379
600.568060	0.999260
600.918753	0.999923
601.269392	0.999534
601.619978	0.999556
601.970510	0.999523
602.320988	0.999410
602.671412	0.998954
603.021783	0.999885
603.372100	0.999756
603.722363	0.999791
604.072572	0.999377
604.422728	0.999065
604.772830	0.999127
605.122878	0.999827
605.472872	0.999503
605.822813	0.998968
606.172701	0.999682
606.522534	0.999594
606.872314	1.000089
607.222041	0.999572
607.571714	0.999154
607.921333	0.999523
608.270899	0.999559
608.620411	0.999383
608.969870	0.999967
609.319276	1.000120
609.668627	1.000042
610.017926	0.999420
610.367171	0.999733
610.716362	0.999336
611.065500	0.999036
611.414585	1.000116
611.763616	0.998892
612.112594	0.999946
612.461518	0.998926
612.810389	0.999477
613.159207	0.999199
613.507971	0.999101
613.856682	1.000237
614.205340	0.998663
614.553945	0.999712
614.902496	0.999326
615.250994	0.999951
615.599439	0.999484
615.947830	0.998898
616.296169	0.999272
616.644454	0.999679
616.992686	0.999617
617.340864	0.999603
617.688990	0.998626
618.037063	0.999905
618.385082	0.999563
618.733048	0.999925
619.080961	0.999216
619.428821	1.000356
619.776628	0.998490
620.124382	1.000413
620.472083	1.000340
620.819731	1.000782
621.167326	1.000007
621.514868	1.000157
621.862357	0.998847
622.209793	0.999646
622.557176	0.998851
622.904506	0.998797
623.251783	0.999322
623.599007	0.998908
623.946179	0.998412
624.293297	0.999877
624.640363	0.999755
624.987376	0.998432
625.334336	0.999300
625.681243	0.999964
626.028097	0.999960
626.374899	0.999920
626.721647	1.000031
627.068343	0.999245
627.414987	0.999705
627.761577	0.998243
628.108115	0.999262
628.454600	1.000638
628.801032	0.999697
629.147412	0.999988
629.493739	0.999627
629.840014	0.999242
630.186236	0.998451
630.532405	0.999420
630.878521	0.999240
631.224585	0.999075
631.570597	0.999217
631.916556	0.999632
632.262462	0.998440
632.608316	0.999603
632.954117	0.998242
633.299866	0.999525
633.645562	0.999369
633.991206	1.000005
634.336797	0.998719
634.682336	0.999363
635.027823	0.999974
635.373257	0.999988
635.718639	0.999848
636.063968	0.999124
636.409245	0.999487
636.754470	0.999650
637.099642	0.999954
637.444762	0.999442
637.789829	0.999135
638.134845	0.999259
638.479808	0.999136
638.824719	0.999496
639.169577	1.000231
639.514383	0.999844
639.859137	0.999725
640.203839	0.999437
640.548489	0.999054
640.893086	0.998612
641.237632	1.000473
641.582125	0.999467
641.926566	0.999550
642.270955	0.999399
642.615292	0.999555
642.959576	0.999520
643.303809	1.000070
643.647990	0.999592
643.992118	0.999604
644.336195	0.998162
644.680219	0.999280
645.024192	0.999595
645.368112	0.998847
645.711981	0.999288
646.055797	0.998982
646.399562	0.999109
646.743274	1.000082
647.086935	0.999208
647.430544	0.998509
647.774101	0.998939
648.117606	0.999755
648.461059	0.999576
648.804460	0.998459
649.147810	0.999686
649.491108	0.998481
649.834354	0.999896
650.177548	0.998810
650.520690	0.999136
650.863781	0.999161
651.206820	0.999252
651.549807	0.999206
651.892742	1.000131
652.235626	0.998859
652.578458	0.999442
652.921238	0.998799
653.263967	0.999356
653.606644	0.998628
653.949269	1.000276
654.291843	0.998557
654.634365	0.999613
654.976836	0.999189
655.319255	0.999900
655.661622	0.999502
656.003938	0.999654
656.346203	0.999183
656.688416	1.000325
657.030577	0.998537
657.372687	0.998630
657.714746	1.000037
658.056753	0.999973
658.398708	0.999260
658.740612	0.999348
659.082465	0.999949
659.424266	0.999999
659.766016	0.998572
660.107715	1.000120
660.449362	0.998763
660.790958	0.999419
661.132503	0.999960
661.473996	0.998842
661.815438	0.999905
662.156829	1.000231
662.498168	0.999810
662.839456	0.998201
663.180693	0.999466
663.521879	0.999378
663.863013	1.000128
664.204097	0.998653
664.545129	0.999507
664.886110	0.999192
665.227040	0.999184
665.567918	0.999666
665.908746	0.999121
666.249522	0.998754
666.590248	0.998854
666.930922	0.999444
667.271545	0.999657
667.612118	1.000041
667.952639	0.999893
668.293109	0.999685
668.633528	0.998534
668.973896	0.998875
669.314213	0.999027
669.654480	0.999656
669.994695	0.999047
670.334859	0.999842
670.674973	0.999149
671.015035	0.999393
671.355047	0.999123
671.695008	0.999343
672.034918	0.999023
672.374777	1.000023
672.714585	0.999442
673.054342	0.999871
673.394049	0.998934
673.733705	0.999669
674.073310	0.998839
674.412864	0.999747
674.752368	0.998826
675.091820	1.000175
675.431223	0.999283
675.770574	0.998666
676.109875	0.999224
676.449125	0.998660
676.788324	0.998628
677.127473	0.999801
677.466571	0.998611
677.805619	0.998669
678.144616	0.999608
678.483562	0.999803
678.822458	0.999687
679.161303	0.999499
679.500098	0.999499
679.838842	1.000442
680.177535	0.998314
680.516179	0.998653
680.854771	0.999214
681.193314	0.999477
681.531805	0.999331
681.870247	0.999454
682.208638	0.999382
682.546978	0.998779
682.885268	0.999108
683.223508	0.998213
683.561697	0.998508
683.899836	0.999281
684.237925	0.999187
684.575963	0.998872
684.913951	0.999843
685.251889	0.998345
685.589776	0.998801
685.927614	0.998350
686.265401	0.998512
686.603137	0.998636
686.940824	0.999117
687.278460	1.000027
687.616046	0.998725
687.953582	0.999232
688.291068	0.999335
688.628504	0.999420
688.965889	0.998717
689.303224	0.997613
689.640510	0.998847
689.977745	0.998345
690.314930	0.998563
690.652065	0.998904
690.989150	0.998417
691.326185	0.999141
691.663170	0.998452
692.000105	0.999262
692.336990	0.998334
692.673825	0.998980
693.010610	0.999455
693.347345	0.999096
693.684030	0.999044
694.020665	0.999007
694.357251	0.998130
694.693786	0.999787
695.030272	0.998176
695.366707	0.998329
695.703093	0.998689
696.039429	0.998510
696.375716	0.998539
696.711952	0.998170
697.048139	0.999385
697.384276	0.999281
697.720363	0.998641
698.056400	0.997080
698.392388	0.997914
698.728326	0.998703
699.064214	0.999078
699.400053	0.998735
699.735842	0.999334
700.071581	0.998244
700.407270	0.998400
700.742910	0.999422
701.078501	0.998643
701.414042	0.999167
701.749533	0.997935
702.084974	0.999032
702.420366	0.999026
702.755709	0.999139
703.091002	0.999112
703.426246	0.999426
703.761440	0.998569
704.096584	0.997966
704.431679	0.997771
704.766725	0.998147
705.101721	0.999669
705.436668	0.998785
705.771565	0.998916
706.106413	0.998033
706.441212	0.998502
706.775961	0.998786
707.110661	0.998440
707.445311	0.998750
707.779913	0.999914
708.114465	0.999962
708.448967	0.999655
708.783421	0.999659
709.117825	0.997972
709.452180	0.998317
709.786485	0.999368
710.120742	0.998539
710.454949	0.997875
710.789107	0.998492
711.123216	0.997345
711.457275	0.997073
711.791286	0.999088
712.125247	0.999892
712.459159	0.998961
712.793023	0.998235
713.126837	0.998995
713.460602	0.999423
713.794318	0.997452
714.127985	0.997807
714.461602	0.998394
714.795171	0.997378
715.128691	0.998101
715.462162	0.998832
715.795584	0.998703
716.128957	0.999457
716.462281	0.999114
716.795556	0.998833
717.128782	0.998454
717.461960	0.998596
717.795088	0.998232
718.128167	0.999612
718.461198	0.999120
718.794180	0.999565
719.127113	0.999154
719.459997	0.998442
719.792833	0.998958
720.125619	0.997837
720.458357	0.998462
720.791046	0.998972
721.123686	0.998880
721.456278	0.998933
721.788821	0.997215
722.121315	0.999009
722.453761	0.999561
722.786158	0.998205
723.118506	0.997766
723.450805	0.997849
723.783056	0.999146
724.115259	0.998878
724.447412	0.999496
724.779518	0.998872
725.111574	0.998356
725.443582	0.999691
725.775542	0.998421
726.107453	0.999820
726.439315	0.999253
726.771129	0.998974
727.102895	0.999311
727.434612	0.998637
727.766281	0.998102
728.097901	0.998777
728.429473	0.998711
728.760996	0.997092
729.092471	0.998342
729.423897	0.998526
729.755276	0.999033
730.086606	0.998138
730.417887	0.999113
730.749120	0.998855
731.080305	0.998796
731.411442	0.998362
731.742530	0.997826
732.073570	0.997772
732.404562	0.999361
732.735506	0.999290
733.066401	0.997811
733.397249	0.998426
733.728048	0.998412
734.058798	0.998678
734.389501	0.998479
734.720156	0.999268
735.050762	0.999303
735.381320	0.998780
735.711831	0.998334
736.042293	0.997627
736.372707	0.998954
736.703073	0.998215
737.033391	0.998642
737.363661	0.998393
737.693883	0.997674
738.024056	0.998273
738.354182	0.999549
738.684260	0.999047
739.014290	0.998461
739.344272	0.998765
739.674207	0.998343
740.004093	0.998930
740.333931	0.998802
740.663722	0.998645
740.993464	0.998565
741.323159	0.999054
741.652806	0.999748
741.982405	0.999065
742.311956	0.998978
742.641460	0.999787
742.970915	0.999098
743.300323	0.998050
743.629683	0.998245
743.958996	0.999211
744.288260	0.998164
744.617477	0.998266
744.946647	0.998256
745.275768	0.999385
745.604842	0.998344
745.933869	0.998968
746.262847	0.999624
746.591778	0.997758
746.920662	0.998745
747.249498	1.000268
747.578286	0.998809
747.907027	0.999463
748.235720	0.999617
748.564365	0.999300
748.892963	0.998030
749.221514	0.999268
749.550017	0.997959
749.878473	0.999133
750.206881	0.999645
750.535242	0.998288
750.863555	0.998573
751.191821	0.998579
751.520039	0.998829
751.848210	0.997036
752.176334	0.997556
752.504411	0.998358
752.832440	0.997604
753.160421	0.999238
753.488356	0.998338
753.816243	0.997785
754.144082	0.998376
754.471875	0.998632
754.799620	0.999592
755.127318	0.998822
755.454969	0.998433
755.782572	0.999676
756.110129	0.998363
756.437638	0.999933
756.765100	0.999084
757.092515	0.998470
757.419882	0.999086
757.747203	0.997251
758.074477	0.999573
758.401703	0.999061
758.728882	0.998649
759.056014	0.998547
759.383099	0.998833
759.710138	0.997682
760.037129	0.998808
760.364073	0.999167
760.690970	0.998880
761.017820	0.998539
761.344623	0.998902
761.671379	1.000031
761.998088	0.998565
762.324751	0.999092
762.651366	0.998860
762.977935	0.998044
763.304456	0.999111
763.630931	0.997395
763.957359	0.996586
764.283740	0.997267
764.610074	0.997829
764.936362	0.998152
765.262602	0.998144
765.588796	0.998565
765.914943	0.998904
766.241044	0.998164
766.567097	0.998261
766.893104	0.998473
767.219064	0.997840
767.544978	0.999063
767.870845	0.999119
768.196665	0.998251
768.522438	0.998173
768.848165	0.999537
769.173846	0.999484
769.499479	0.999970
769.825066	0.999055
770.150607	0.999897
770.476101	0.999732
770.801548	0.999230
771.126949	0.999729
771.452303	0.999405
771.777611	0.999057
772.102872	0.998804
772.428087	0.998615
772.753256	0.999473
773.078378	0.999387
773.403453	0.999117
773.728482	0.999515
774.053465	0.998030
774.378401	0.999332
774.703291	0.999567
775.028135	0.999855
775.352932	0.998480
775.677683	1.000009
776.002388	0.998331
776.327046	0.999355
776.651658	0.999974
776.976224	1.000224
777.300743	0.998183
777.625216	0.999010
777.949643	0.999610
778.274024	0.998948
778.598359	0.999319
778.922647	0.999414
779.246889	0.999742
779.571086	0.999412
779.895236	0.998892
780.219339	1.000322
780.543397	0.999032
780.867409	1.000466
781.191374	0.999003
781.515294	1.000507
781.839167	1.000731
782.162995	0.998973
782.486776	0.999416
782.810511	0.998509
783.134201	0.999464
783.457844	0.999437
783.781441	0.998851
784.104993	0.997733
784.428498	0.999144
784.751958	1.000681
785.075372	0.999933
785.398739	0.998866
785.722061	0.997285
786.045337	0.998781
786.368568	0.998735
786.691752	0.998587
787.014891	0.999343
787.337983	0.998733
787.661030	0.997997
787.984031	0.998111
788.306987	0.998507
788.629897	0.997214
788.952760	0.998773
789.275579	1.000007
789.598351	0.998452
789.921078	1.000661
790.243759	0.999346
790.566395	0.998876
790.888984	0.999776
791.211529	0.999542
791.534027	0.999147
791.856480	0.999077
792.178888	0.999088
792.501249	0.998670
792.823566	0.999353
793.145836	0.998841
793.468062	0.998774
793.790241	1.000100
794.112375	0.999649
794.434464	0.998251
794.756507	0.999471
795.078505	0.999955
795.400457	1.000268
795.722364	0.999727
796.044226	0.999089
796.366042	0.999245
796.687812	0.998295
797.009538	0.998242
797.331218	0.999879
797.652852	1.000305
797.974442	0.997959
798.295986	0.999221
798.617484	0.998115
798.938938	0.999688
799.260346	0.998479
799.581709	0.999227
799.903026	0.999876
800.224299	0.998379
800.545526	0.999094
800.866708	0.999681
801.187845	0.999217
801.508936	0.998745
801.829983	0.998707
802.150984	0.998580
802.471940	0.999974
802.792851	0.999386
803.113717	0.999487
803.434538	1.000061
803.755314	0.999641
804.076045	0.999119
804.396731	0.999017
804.717372	0.997767
805.037967	0.999448
805.358518	0.999348
805.679024	0.999785
805.999485	0.999708
806.319901	1.000101
806.640272	1.000080
806.960598	0.999356
807.280879	0.999647
807.601115	0.999484
807.921306	1.000639
808.241453	0.998367
808.561554	1.000226
808.881611	0.998925
809.201623	0.998596
809.521590	0.998754
809.841513	0.999133
810.161390	0.998631
810.481223	0.998649
810.801011	0.998617
811.120755	1.000202
811.440453	0.998537
811.760107	0.999448
812.079716	0.999150
812.399281	0.998797
812.718801	0.998996
813.038276	0.998786
813.357707	0.998603
813.677093	1.000147
813.996434	0.998807
814.315731	1.000514
814.634983	1.000102
814.954191	0.999965
815.273354	0.999592
815.592473	0.999408
815.911547	0.998934
816.230577	0.999139
816.549562	0.999708
816.868502	0.998084
817.187399	1.000118
817.506250	0.999756
817.825058	0.998316
818.143821	0.999280
818.462539	0.998246
818.781213	0.997816
819.099843	0.999303
819.418429	0.998446
819.736970	0.998984
820.055466	0.998106
820.373919	0.997990
820.692327	0.996806
821.010691	0.997851
821.329011	0.997386
821.647286	0.995798
821.965517	0.995035
822.283704	0.994743
822.601847	0.994106
822.919945	0.993823
823.237999	0.994419
823.556010	0.994366
823.873976	0.994491
824.191897	0.995618
824.509775	0.996785
824.827609	0.996447
825.145398	0.997764
825.463144	0.996616
825.780845	0.996815
826.098502	0.997210
826.416116	0.997040
826.733685	0.996739
827.051210	0.995460
827.368692	0.995358
827.686129	0.995200
828.003522	0.997117
828.320872	0.997255
828.638177	0.997735
828.955439	0.998720
829.272656	0.998871
829.589830	0.998206
829.906960	0.998506
830.224046	0.998834
830.541088	0.998540
830.858086	0.998685
831.175041	1.000111
831.491952	0.998262
831.808819	0.998064
832.125642	0.998300
832.442421	0.998554
832.759157	0.999281
833.075849	0.998265
833.392497	0.997524
833.709101	0.997031
834.025662	0.997942
834.342179	0.997638
834.658653	0.998963
834.975083	0.998610
835.291469	0.998306
835.607811	0.998469
835.924110	0.999070
836.240366	0.999827
836.556578	0.999505
836.872746	0.998672
837.188871	0.999241
837.504952	0.998703
837.820990	0.999718
838.136984	0.998810
838.452935	0.999568
838.768842	0.999877
839.084706	0.999139
839.400526	0.999508
839.716303	0.998205
840.032037	0.999762
840.347727	0.998631
840.663373	0.999027
840.978977	0.998116
841.294537	0.999223
841.610054	0.999861
841.925527	0.999195
842.240957	0.999594
842.556344	0.999078
842.871687	0.998621
843.186987	0.999218
843.502244	0.999171
843.817458	0.998635
844.132629	0.998842
844.447756	0.999585
844.762840	0.999920
845.077881	1.000311
845.392879	0.998750
845.707833	1.000193
846.022745	0.999567
846.337613	1.000062
846.652438	0.999305
846.967221	0.999246
847.281960	1.000281
847.596656	1.000614
847.911309	1.000965
848.225919	0.998830
848.540485	0.999795
848.855009	1.000617
849.169490	0.999910
849.483928	0.999235
849.798323	0.998567
850.112675	1.000358
850.426984	0.998908
850.741251	1.000626
851.055474	1.000235
851.369654	1.001551
851.683792	0.999799
851.997887	0.999499
852.311938	1.000801
852.625947	0.998630
852.939914	0.999342
853.253837	0.999960
853.567718	1.000075
853.881555	0.999069
854.195350	0.999854
854.509103	0.999594
854.822812	1.000950
855.136479	1.000139
855.450103	1.000471
855.763685	1.000405
856.077224	0.999848
856.390720	1.000101
856.704173	1.000902
857.017584	0.999682
857.330953	0.999931
857.644278	0.999173
857.957561	1.000617
858.270802	1.000439
858.584000	1.000295
858.897155	0.998681
859.210268	0.998969
859.523339	0.999480
859.836367	0.999826
860.149352	0.999207
860.462295	0.999836
860.775195	0.999385
861.088054	0.998242
861.400869	0.998917
861.713642	0.999348
862.026373	1.000191
862.339062	0.999686
862.651708	0.999584
862.964312	0.999985
863.276873	1.000099
863.589392	1.000072
863.901869	1.000194
864.214303	0.999915
864.526696	0.999731
864.839045	0.999227
865.151353	1.000348
865.463619	0.998598
865.775842	0.999967
866.088023	1.000755
866.400162	0.999940
866.712258	1.001555
867.024313	0.999975
867.336325	1.000018
867.648296	0.999982
867.960224	0.999880
868.272110	1.000095
868.583954	0.999068
868.895755	1.001164
869.207515	0.999424
869.519233	1.001080
869.830909	0.999545
870.142542	0.998715
870.454134	0.999521
870.765684	0.998958
871.077191	1.000105
871.388657	1.000183
871.700081	0.999841
872.011463	1.000552
872.322803	0.999172
872.634101	0.998642
872.945357	0.999300
873.256571	0.999342
873.567744	0.999887
873.878874	0.998836
874.189963	0.999558
874.501010	1.000818
874.812015	0.998863
875.122979	0.999165
875.433900	0.998993
875.744780	1.000080
876.055618	0.998559
876.366415	0.998684
876.677169	0.999234
876.987882	0.999960
877.298554	0.999551
877.609183	0.999606
877.919771	0.999739
878.230317	1.000078
878.540822	0.998808
878.851285	0.998989
879.161707	0.998998
879.472087	1.000952
879.782425	0.998449
880.092722	0.998360
880.402977	0.997642
880.713191	0.996330
881.023363	0.995427
881.333494	0.995334
881.643583	0.995717
881.953631	0.996369
882.263637	0.994692
882.573602	0.996166
882.883526	0.994914
883.193408	0.996516
883.503248	0.995936
883.813048	0.997214
884.122806	0.996703
884.432522	0.998217
884.742197	0.998803
885.051831	0.998429
885.361424	0.998416
885.670975	0.999502
885.980485	0.998291
886.289954	0.998480
886.599382	0.998574
886.908768	0.999501
887.218113	0.998770
887.527417	0.998994
887.836680	0.999486
888.145901	0.999035
888.455082	1.001075
888.764221	1.000092
889.073319	0.999057
889.382376	0.999065
889.691392	0.999060
890.000366	0.999187
890.309300	1.000140
890.618193	0.999873
890.927044	0.999808
891.235855	0.999257
891.544625	1.000457
891.853353	0.999415
892.162041	0.998831
892.470687	0.999874
892.779293	0.998816
893.087858	0.997845
893.396381	0.998523
893.704864	0.998026
894.013306	0.998276
894.321707	0.998071
894.630068	0.997776
894.938387	0.997488
895.246665	0.997481
895.554903	0.997287
895.863100	0.999597
896.171256	0.998678
896.479371	0.999036
896.787446	0.998213
897.095480	0.998065
897.403473	0.998724
897.711425	0.999187
898.019336	1.000022
898.327207	0.999483
898.635038	0.999016
898.942827	1.000084
899.250576	0.999938
899.558284	1.000098
899.865952	0.999010
900.173579	0.999009
900.481165	0.999616
900.788711	0.998987
901.096216	0.998674
901.403681	0.999626
901.711105	1.000208
902.018489	0.999213
902.325832	0.999555
902.633135	0.998823
902.940397	0.999176
903.247619	0.998861
903.554800	0.998838
903.861941	0.999044
904.169041	0.997859
904.476101	0.998348
904.783121	0.997716
905.090100	0.997818
905.397039	0.998332
905.703938	0.998627
906.010796	0.998412
906.317614	0.998300
906.624391	0.999171
906.931129	0.999535
907.237826	0.999011
907.544483	0.999713
907.851099	0.999785
908.157675	0.998399
908.464211	1.000158
908.770707	0.998995
909.077163	0.999584
909.383578	1.000565
909.689954	0.998960
909.996289	0.999352
910.302584	0.999684
910.608839	1.000961
910.915054	1.000351
911.221229	1.000516
911.527363	0.998999
911.833458	0.999871
912.139513	0.999408
912.445527	1.000540
912.751502	1.000160
913.057436	0.998041
913.363331	0.999523
913.669186	0.999830
913.975000	0.999919
914.280775	0.999916
914.586510	0.999373
914.892205	0.998538
915.197859	0.998530
915.503475	0.998819
915.809050	0.997335
916.114585	0.997232
916.420081	0.997195
916.725536	0.997726
917.030952	0.998057
917.336328	0.998131
917.641665	0.997324
917.946961	0.997810
918.252218	0.998075
918.557435	0.997719
918.862612	0.998453
919.167750	0.998647
919.472848	0.999492
919.777906	0.999588
920.082925	1.000262
920.387904	0.998908
920.692843	0.999241
920.997743	0.998125
921.302603	0.999545
921.607423	0.999004
921.912204	0.999815
922.216946	0.999283
922.521647	1.000478
922.826310	0.999604
923.130932	1.000989
923.435516	1.000619
923.740059	0.998912
924.044564	0.999149
924.349028	0.999072
924.653454	1.000738
924.957840	1.000154
925.262186	0.999999
925.566493	0.999392
925.870761	0.999020
926.174989	0.998897
926.479178	1.001444
926.783328	1.000244
927.087438	0.999811
927.391509	0.999261
927.695541	0.999906
927.999533	0.999690
928.303486	0.999903
928.607400	1.000322
928.911275	0.999893
929.215110	1.001029
929.518906	1.000879
929.822663	1.001304
930.126381	1.001531
930.430060	0.999731
930.733699	0.999868
931.037299	1.000997
931.340861	1.000738
931.644383	0.998986
931.947866	1.000529
932.251309	1.000859
932.554714	0.999782
932.858080	1.000157
933.161407	0.999787
933.464694	1.000002
933.767943	1.001115
934.071153	0.999708
934.374323	1.000299
934.677455	1.001154
934.980548	0.999508
935.283602	1.000097
935.586617	1.000661
935.889593	1.001446
936.192530	1.000126
936.495428	0.999212
936.798287	1.000207
937.101108	0.999394
937.403890	1.000080
937.706632	1.000506
938.009336	1.000125
938.312002	0.999529
938.614628	0.999953
938.917216	0.998677
939.219765	1.000329
939.522275	1.000579
939.824747	1.000525
940.127179	0.999523
940.429573	1.000743
940.731929	0.999247
941.034246	0.999049
941.336524	0.999554
941.638763	0.998389
941.940964	0.999080
942.243126	0.999469
942.545250	0.999653
942.847335	0.999180
943.149381	0.999628
943.451389	0.999568
943.753359	1.000252
944.055290	1.001650
944.357182	1.000219
944.659036	1.000311
944.960851	1.000709
945.262628	0.999353
945.564367	0.999945
945.866067	0.999222
946.167729	0.999671
946.469352	0.999509
946.770937	0.997928
947.072484	0.999598
947.373992	1.000188
947.675462	0.998218
947.976893	0.998985
948.278286	1.002597
948.579641	1.000598
948.880958	1.000811
949.182236	1.000200
949.483476	0.999880
949.784678	1.001176
950.085841	0.998701
950.386967	1.000114
950.688054	1.000131
950.989103	0.999156
951.290114	0.998791
951.591087	1.000544
951.892021	0.999565
952.192917	1.001266
952.493776	1.000228
952.794596	0.999736
953.095378	1.000633
953.396122	0.999177
953.696828	1.000785
953.997496	1.000417
954.298126	1.001484
954.598718	1.000655
954.899272	1.000552
955.199788	0.998605
955.500266	1.000271
955.800706	0.999435
956.101108	0.999001
956.401472	1.000614
956.701798	1.000372
957.002087	1.000627
957.302337	1.000572
957.602550	1.000003
957.902724	0.999404
958.202861	1.000348
958.502960	0.999615
958.803022	1.001313
959.103045	1.000663
959.403031	1.001316
959.702979	1.001729
960.002889	0.999148
960.302762	1.000340
960.602596	1.000440
960.902393	1.000553
961.202153	1.000671
961.501875	0.999835
961.801559	1.000367
962.101205	1.000767
962.400814	1.000366
962.700385	1.001980
962.999918	1.001435
963.299414	0.999083
963.598873	1.000606
963.898293	0.999739
964.197677	0.999944
964.497022	0.999698
964.796331	0.999659
965.095601	1.001002
965.394835	1.000345
965.694030	1.000631
965.993189	0.999461
966.292309	1.000536
966.591393	0.998977
966.890439	1.000325
967.189447	0.999527
967.488419	1.000260
967.787353	0.999612
968.086249	1.000812
968.385108	1.000313
968.683930	1.001206
968.982714	1.000050
969.281462	0.999594
969.580172	1.000155
969.878844	1.000684
970.177480	0.999679
970.476078	1.002225
970.774639	1.000503
971.073162	0.999515
971.371649	1.001071
971.670098	0.998805
971.968510	1.000478
972.266885	0.999256
972.565223	0.999566
972.863524	0.998944
973.161788	0.999813
973.460014	1.001614
973.758204	0.999056
974.056356	1.000650
974.354471	1.000429
974.652550	1.000031
974.950591	1.000025
975.248595	0.999833
975.546563	1.000617
975.844493	1.000867
976.142386	0.999372
976.440243	1.000193
976.738062	1.001037
977.035845	0.999218
977.333590	1.001432
977.631299	0.999000
977.928971	1.000234
978.226606	0.999223
978.524204	1.000094
978.821765	1.001537
979.119290	1.002138
979.416777	1.000333
979.714228	0.999624
980.011642	1.000592
980.309020	1.000082
980.606360	0.999381
980.903664	0.999748
981.200931	0.999369
981.498162	0.999647
981.795356	1.000962
982.092513	1.000204
982.389633	1.001129
982.686717	1.000647
982.983764	1.000167
983.280775	1.000373
983.577749	1.000428
983.874686	0.999945
984.171587	0.998969
984.468451	1.000679
984.765279	1.000226
985.062070	1.000609
985.358824	1.000551
985.655543	1.000720
985.952224	0.999936
986.248869	0.998977
986.545478	1.000993
986.842050	0.999224
987.138586	0.999736
987.435086	0.998624
987.731549	1.001339
988.027975	1.000920
988.324366	0.999590
988.620719	1.000820
988.917037	1.000689
989.213318	1.001687
989.509563	1.000632
989.805772	1.000841
990.101944	0.999759
990.398080	1.001386
990.694180	1.000921
990.990244	1.000363
991.286271	1.000088
991.582262	1.000485
991.878217	1.000247
992.174136	1.000232
992.470019	1.000633
992.765865	1.001929
993.061676	1.000461
993.357450	0.999779
993.653188	1.001676
993.948890	0.999846
994.244556	1.000112
994.540186	1.000547
994.835780	0.999225
995.131337	1.001002
995.426859	1.000632
995.722345	1.000035
996.017795	0.998622
996.313208	0.999797
996.608586	0.999270
996.903928	1.001681
997.199234	0.999452
997.494504	1.001276
997.789738	0.999941
998.084936	0.999684
998.380099	0.999146
998.675225	1.000272
998.970316	1.000168
999.265371	0.999550
999.560390	1.000002
999.855373	1.000261
1000.150320	0.999215
1000.445232	1.000840
1000.740108	0.999971
1001.034948	0.999140
1001.329752	1.000311
1001.624521	1.000667
1001.919254	0.999448
1002.213951	1.000640
1002.508613	1.000442
1002.803239	0.999697
1003.097829	1.000291
1003.392384	1.000168
1003.686903	1.000560
1003.981386	0.999936
1004.275834	1.001265
1004.570246	0.998964
1004.864623	1.000771
1005.158964	1.000008
1005.453270	0.999543
1005.747540	1.000292
1006.041775	1.001744
1006.335974	0.999872
1006.630138	1.000453
1006.924266	0.999288
1007.218359	0.997690
1007.512416	1.000540
1007.806438	0.998909
1008.100425	1.001045
1008.394376	1.000665
1008.688292	1.000046
1008.982172	0.999817
1009.276017	1.000889
1009.569827	1.000179
1009.863602	0.999104
1010.157341	1.000779
1010.451045	1.000018
1010.744714	1.002176
1011.038347	1.000785
1011.331945	0.999849
1011.625508	1.000081
1011.919036	0.999758
1012.212528	1.001169
1012.505986	0.999644
1012.799408	1.000054
1013.092795	1.000971
1013.386147	1.000334
1013.679464	1.001787
1013.972745	1.000439
1014.265992	1.000355
1014.559204	0.999534
1014.852380	1.000902
1015.145521	1.000032
1015.438628	1.000912
1015.731699	0.999768
1016.024736	1.002069
1016.317737	1.000154
1016.610703	1.000843
1016.903635	0.999946
1017.196531	1.000336
1017.489393	1.000060
1017.782219	0.999499
1018.075011	1.000125
1018.367768	1.000294
1018.660490	1.000710
1018.953177	1.000710
1019.245829	1.000710
