Dividing Wavelength (nm)	Counts (n)	Blue Motor Position (mm): 0.000000	Red Motor Position (mm): 0.000000	
326.493990	1.004667
326.888308	1.004667
327.282561	1.004667
327.676750	1.006069
328.070874	1.006382
328.464933	1.006907
328.858929	1.007248
329.252859	1.006312
329.646726	1.004919
330.040528	1.004893
330.434265	1.006341
330.827938	1.005533
331.221547	1.007153
331.615091	1.005992
332.008571	1.007529
332.401986	1.005004
332.795338	1.005965
333.188625	1.006731
333.581847	1.005645
333.975006	1.006407
334.368100	1.006467
334.761129	1.004371
335.154095	1.005626
335.546996	1.003446
335.939833	0.998374
336.332606	1.001048
336.725315	0.997814
337.117960	1.000099
337.510540	0.997346
337.903056	0.999668
338.295508	0.999574
338.687896	1.000205
339.080220	0.998904
339.472480	0.999340
339.864676	0.999743
340.256807	0.998046
340.648875	0.999436
341.040879	0.998914
341.432818	1.000269
341.824694	0.998838
342.216506	0.999374
342.608253	0.999406
342.999937	0.999664
343.391557	0.998776
343.783113	1.000950
344.174605	0.999258
344.566033	0.998511
344.957397	0.999704
345.348697	0.998656
345.739934	0.998544
346.131106	0.999097
346.522215	0.997691
346.913260	0.998881
347.304241	0.997518
347.695159	0.999578
348.086012	0.997648
348.476802	0.999057
348.867528	0.998875
349.258191	1.000270
349.648789	0.999923
350.039324	0.998433
350.429796	0.998196
350.820203	0.997918
351.210548	0.998172
351.600828	0.997832
351.991045	0.997898
352.381198	0.999604
352.771288	0.999116
353.161314	0.998823
353.551276	0.998439
353.941175	0.996727
354.331010	0.997451
354.720782	0.998944
355.110490	0.997951
355.500135	0.998760
355.889717	0.997249
356.279235	0.998495
356.668689	0.997300
357.058080	0.998767
357.447408	0.997047
357.836672	0.998143
358.225873	0.997826
358.615010	0.998864
359.004084	0.996755
359.393095	0.999359
359.782043	0.997395
360.170927	0.998202
360.559748	0.998235
360.948505	0.997816
361.337199	0.997144
361.725830	0.998315
362.114398	0.997648
362.502903	0.997256
362.891344	0.996693
363.279722	0.996992
363.668037	0.997034
364.056289	0.997440
364.444478	0.997663
364.832603	0.996574
365.220665	0.996716
365.608665	0.995513
365.996601	0.996531
366.384474	0.996017
366.772284	0.996416
367.160031	0.996007
367.547715	0.996332
367.935336	0.993977
368.322893	0.993966
368.710388	0.992921
369.097820	0.990089
369.485189	0.988248
369.872495	0.987319
370.259738	0.984146
370.646918	0.981928
371.034035	0.979510
371.421090	0.977150
371.808081	0.971352
372.195010	0.968879
372.581875	0.963979
372.968678	0.959450
373.355418	0.956159
373.742096	0.948309
374.128710	0.943526
374.515262	0.939865
374.901751	0.933799
375.288177	0.928786
375.674540	0.921759
376.060841	0.916415
376.447079	0.908864
376.833254	0.902411
377.219367	0.898303
377.605417	0.886586
377.991404	0.883379
378.377329	0.876489
378.763191	0.868986
379.148991	0.861924
379.534727	0.853904
379.920402	0.844691
380.306013	0.841830
380.691563	0.828428
381.077049	0.822882
381.462474	0.818144
381.847835	0.807197
382.233134	0.802135
382.618371	0.803043
383.003545	0.784955
383.388657	0.783822
383.773706	0.775730
384.158693	0.771711
384.543618	0.766839
384.928480	0.758032
385.313280	0.747497
385.698017	0.747197
386.082692	0.735359
386.467305	0.733704
386.851856	0.728724
387.236344	0.723219
387.620770	0.717387
388.005133	0.712531
388.389435	0.706189
388.773674	0.703722
389.157851	0.695831
389.541965	0.693313
389.926018	0.699675
390.310008	0.686299
390.693936	0.683734
391.077802	0.675228
391.461606	0.677144
391.845348	0.666359
392.229027	0.665582
392.612645	0.663803
392.996200	0.651505
393.379694	0.643596
393.763125	0.634810
394.146494	0.638789
394.529801	0.629568
394.913047	0.621163
395.296230	0.626958
395.679351	0.618355
396.062410	0.615950
396.445408	0.618103
396.828343	0.613918
397.211217	0.608895
397.594028	0.620753
397.976778	0.611132
398.359466	0.607121
398.742092	0.603421
399.124656	0.615277
399.507158	0.602183
399.889598	0.600252
400.271977	0.591512
400.654294	0.595652
401.036549	0.594532
401.418742	0.598418
401.800874	0.584825
402.182944	0.581865
402.564952	0.573158
402.946898	0.575071
403.328783	0.575772
403.710606	0.587158
404.092367	0.561685
404.474067	0.567379
404.855705	0.565367
405.237282	0.574821
405.618797	0.560632
406.000250	0.555752
406.381642	0.546637
406.762972	0.551217
407.144240	0.550172
407.525447	0.549834
407.906593	0.543271
408.287677	0.538897
408.668700	0.547056
409.049661	0.541004
409.430560	0.536038
409.811399	0.544541
410.192176	0.526595
410.572891	0.533375
410.953545	0.521494
411.334138	0.535510
411.714669	0.527001
412.095139	0.539351
412.475547	0.523817
412.855894	0.525430
413.236180	0.524670
413.616405	0.529630
413.996568	0.519974
414.376670	0.526538
414.756711	0.531831
415.136691	0.528179
415.516609	0.519485
415.896466	0.516240
416.276262	0.512579
416.655997	0.513450
417.035670	0.495317
417.415283	0.487157
417.794834	0.491551
418.174324	0.497848
418.553753	0.506425
418.933121	0.488374
419.312428	0.482999
419.691674	0.488314
420.070859	0.476635
420.449983	0.484042
420.829045	0.473687
421.208047	0.483037
421.586988	0.475601
421.965867	0.474922
422.344686	0.463288
422.723444	0.475720
423.102141	0.492661
423.480777	0.465653
423.859352	0.486224
424.237866	0.463797
424.616319	0.464893
424.994712	0.455340
425.373044	0.466194
425.751314	0.454047
426.129524	0.470343
426.507673	0.453588
426.885762	0.447362
427.263789	0.452619
427.641756	0.462638
428.019662	0.453387
428.397508	0.452035
428.775292	0.456353
429.153016	0.448071
429.530679	0.454349
429.908282	0.447778
430.285824	0.457987
430.663305	0.436405
431.040726	0.457968
431.418086	0.457099
431.795385	0.449273
432.172624	0.448207
432.549802	0.448582
432.926920	0.447575
433.303977	0.447112
433.680974	0.443776
434.057910	0.442285
434.434786	0.441516
434.811601	0.444885
435.188355	0.426759
435.565050	0.436169
435.941683	0.437635
436.318257	0.421322
436.694770	0.422411
437.071222	0.420479
437.447614	0.424683
437.823946	0.431461
438.200218	0.421230
438.576429	0.430130
438.952580	0.423696
439.328670	0.419851
439.704700	0.426633
440.080670	0.427741
440.456580	0.409369
440.832429	0.417419
441.208218	0.427954
441.583947	0.417031
441.959616	0.416561
442.335224	0.421803
442.710773	0.412663
443.086261	0.411130
443.461689	0.424523
443.837057	0.414550
444.212365	0.404358
444.587612	0.411603
444.962800	0.401673
445.337927	0.402947
445.712995	0.429062
446.088002	0.391130
446.462949	0.401361
446.837837	0.406621
447.212664	0.395637
447.587431	0.386662
447.962139	0.357176
448.336786	0.315608
448.711374	0.326528
449.085901	0.370608
449.460369	0.375011
449.834776	0.378563
450.209124	0.357820
450.583412	0.350235
450.957640	0.343710
451.331808	0.354909
451.705917	0.378634
452.079965	0.382973
452.453954	0.370890
452.827883	0.377882
453.201752	0.372722
453.575562	0.383615
453.949311	0.372491
454.323001	0.378364
454.696632	0.374500
455.070202	0.367458
455.443713	0.358965
455.817164	0.354129
456.190556	0.349292
456.563888	0.346575
456.937160	0.343884
457.310373	0.361194
457.683526	0.360293
458.056619	0.365807
458.429653	0.366236
458.802628	0.370005
459.175542	0.363818
459.548398	0.346430
459.921194	0.338966
460.293930	0.339179
460.666607	0.316789
461.039224	0.305171
461.411782	0.300437
461.784280	0.299802
462.156719	0.304047
462.529099	0.308133
462.901419	0.324148
463.273680	0.328901
463.645882	0.328173
464.018024	0.334156
464.390106	0.327000
464.762130	0.311301
465.134094	0.294411
465.505999	0.263620
465.877845	0.233516
466.249631	0.220659
466.621358	0.228251
466.993026	0.241968
467.364634	0.248253
467.736184	0.257027
468.107674	0.266088
468.479105	0.264935
468.850477	0.271723
469.221790	0.278574
469.593043	0.288839
469.964238	0.293463
470.335373	0.293237
470.706449	0.291072
471.077467	0.291963
471.448425	0.253843
471.819324	0.228967
472.190164	0.228958
472.560945	0.257631
472.931667	0.279980
473.302330	0.284333
473.672934	0.296460
474.043479	0.283831
474.413965	0.285806
474.784393	0.289431
475.154761	0.284748
475.525070	0.281845
475.895321	0.287608
476.265513	0.281548
476.635645	0.277005
477.005719	0.277014
477.375734	0.273534
477.745691	0.266549
478.115588	0.263067
478.485427	0.256671
478.855207	0.243381
479.224928	0.225778
479.594591	0.214026
479.964194	0.217407
480.333739	0.218505
480.703226	0.219850
481.072653	0.218250
481.442022	0.214032
481.811333	0.210799
482.180584	0.214143
482.549777	0.219554
482.918912	0.222834
483.287988	0.222510
483.657005	0.222151
484.025964	0.228529
484.394864	0.225859
484.763706	0.226353
485.132489	0.231344
485.501213	0.232411
485.869879	0.230528
486.238487	0.233787
486.607036	0.231889
486.975527	0.236585
487.343959	0.232029
487.712333	0.231333
488.080648	0.232741
488.448905	0.232075
488.817104	0.233133
489.185244	0.227642
489.553326	0.224509
489.921350	0.214461
490.289315	0.196588
490.657222	0.191775
491.025070	0.192911
491.392861	0.194829
491.760593	0.200591
492.128267	0.206613
492.495883	0.211794
492.863440	0.218398
493.230939	0.224549
493.598380	0.226110
493.965763	0.228323
494.333088	0.230067
494.700354	0.231989
495.067563	0.231176
495.434713	0.234598
495.801805	0.232195
496.168839	0.233853
496.535815	0.235257
496.902733	0.235339
497.269593	0.236470
497.636395	0.234331
498.003139	0.234626
498.369825	0.237603
498.736453	0.234240
499.103023	0.235881
499.469535	0.235011
499.835989	0.235297
500.202385	0.235890
500.568723	0.239467
500.935003	0.234648
501.301226	0.238911
501.667390	0.232957
502.033497	0.231090
502.399546	0.234189
502.765537	0.236263
503.131470	0.234272
503.497345	0.230850
503.863163	0.239392
504.228923	0.232539
504.594625	0.231144
504.960269	0.236530
505.325856	0.231996
505.691385	0.236343
506.056856	0.233106
506.422270	0.232676
506.787625	0.234814
507.152924	0.232356
507.518164	0.232605
507.883347	0.234107
508.248472	0.236104
508.613540	0.230955
508.978550	0.233559
509.343503	0.234242
509.708398	0.231576
510.073236	0.229284
510.438016	0.229128
510.802738	0.230000
511.167403	0.228936
511.532010	0.231139
511.896561	0.226550
512.261053	0.225337
512.625488	0.227534
512.989866	0.227655
513.354186	0.227997
513.718449	0.229795
514.082655	0.226366
514.446803	0.228456
514.810894	0.225995
515.174927	0.229016
515.538904	0.228394
515.902822	0.225125
516.266684	0.227363
516.630488	0.228812
516.994235	0.227480
517.357925	0.226544
517.721558	0.224818
518.085133	0.224200
518.448651	0.223923
518.812112	0.226579
519.175516	0.226060
519.538863	0.223625
519.902152	0.225425
520.265385	0.222117
520.628560	0.224067
520.991678	0.224399
521.354739	0.223214
521.717743	0.224747
522.080690	0.224777
522.443580	0.222314
522.806413	0.223109
523.169189	0.222535
523.531908	0.221373
523.894569	0.224782
524.257174	0.224927
524.619722	0.222461
524.982213	0.223768
525.344647	0.222316
525.707025	0.223328
526.069345	0.221485
526.431608	0.223239
526.793815	0.221166
527.155964	0.225231
527.518057	0.224246
527.880093	0.225176
528.242072	0.223654
528.603995	0.225702
528.965860	0.227490
529.327669	0.226391
529.689421	0.227196
530.051117	0.228061
530.412755	0.225953
530.774337	0.228148
531.135862	0.228815
531.497331	0.227664
531.858743	0.230677
532.220098	0.227337
532.581396	0.229833
532.942638	0.230656
533.303824	0.231464
533.664953	0.230960
534.026025	0.233009
534.387040	0.231043
534.747999	0.230845
535.108902	0.229608
535.469748	0.234530
535.830537	0.232539
536.191270	0.232970
536.551947	0.232655
536.912567	0.232645
537.273131	0.234043
537.633638	0.234546
537.994089	0.234856
538.354483	0.236009
538.714821	0.232599
539.075103	0.232664
539.435328	0.233615
539.795497	0.237134
540.155609	0.233667
540.515665	0.231832
540.875665	0.237619
541.235609	0.236334
541.595496	0.236305
541.955328	0.232881
542.315102	0.235386
542.674821	0.236445
543.034483	0.236676
543.394090	0.236420
543.753640	0.238020
544.113134	0.232843
544.472571	0.236352
544.831953	0.233182
545.191278	0.237419
545.550548	0.236426
545.909761	0.233611
546.268918	0.234367
546.628019	0.232477
546.987064	0.235511
547.346053	0.237021
547.704986	0.234825
548.063863	0.235249
548.422684	0.235383
548.781449	0.237182
549.140158	0.234847
549.498811	0.237803
549.857408	0.241006
550.215949	0.235370
550.574434	0.238317
550.932864	0.236481
551.291237	0.235069
551.649555	0.236884
552.007817	0.236482
552.366022	0.237482
552.724173	0.237521
553.082267	0.237765
553.440305	0.234490
553.798288	0.239088
554.156215	0.235658
554.514086	0.236484
554.871902	0.239509
555.229661	0.238473
555.587365	0.239382
555.945014	0.242096
556.302606	0.238689
556.660143	0.241341
557.017625	0.238029
557.375050	0.240095
557.732421	0.237041
558.089735	0.239019
558.446994	0.238968
558.804197	0.238128
559.161345	0.238223
559.518437	0.241510
559.875474	0.239656
560.232455	0.239318
560.589381	0.240236
560.946251	0.240426
561.303065	0.237820
561.659825	0.239089
562.016528	0.240733
562.373177	0.243379
562.729770	0.241101
563.086307	0.242601
563.442789	0.240421
563.799216	0.243392
564.155587	0.242423
564.511904	0.243377
564.868164	0.243428
565.224370	0.243623
565.580520	0.245028
565.936615	0.244870
566.292654	0.247987
566.648638	0.244998
567.004567	0.246072
567.360441	0.246529
567.716260	0.248350
568.072023	0.246148
568.427732	0.247016
568.783385	0.249397
569.138982	0.247561
569.494525	0.246981
569.850013	0.249919
570.205445	0.248309
570.560823	0.250933
570.916145	0.253146
571.271412	0.251364
571.626625	0.252910
571.981782	0.253547
572.336884	0.253897
572.691931	0.253880
573.046923	0.255286
573.401860	0.256143
573.756743	0.258169
574.111570	0.256623
574.466342	0.257787
574.821059	0.256736
575.175722	0.259463
575.530330	0.259433
575.884882	0.259342
576.239380	0.261228
576.593823	0.261723
576.948211	0.261621
577.302544	0.264419
577.656823	0.264344
578.011047	0.264301
578.365216	0.265327
578.719330	0.266971
579.073389	0.266663
579.427394	0.267999
579.781344	0.269053
580.135239	0.270109
580.489080	0.270014
580.842866	0.273032
581.196597	0.272727
581.550273	0.271432
581.903895	0.272667
582.257463	0.270720
582.610975	0.274222
582.964434	0.273475
583.317837	0.276020
583.671186	0.276348
584.024481	0.276187
584.377721	0.278495
584.730906	0.279601
585.084037	0.278751
585.437113	0.280594
585.790135	0.279810
586.143103	0.283216
586.496016	0.284294
586.848874	0.281515
587.201679	0.281858
587.554428	0.285653
587.907124	0.284526
588.259765	0.284939
588.612352	0.285607
588.964884	0.289437
589.317362	0.288795
589.669786	0.289093
590.022155	0.287512
590.374470	0.287051
590.726731	0.288855
591.078937	0.294020
591.431090	0.290176
591.783188	0.294353
592.135232	0.294838
592.487222	0.294950
592.839157	0.292778
593.191038	0.294888
593.542866	0.297077
593.894639	0.300046
594.246358	0.298713
594.598022	0.297873
594.949633	0.301805
595.301190	0.302622
595.652692	0.301614
596.004141	0.297546
596.355535	0.305711
596.706876	0.306373
597.058162	0.308497
597.409395	0.306138
597.760573	0.303395
598.111698	0.306653
598.462768	0.307334
598.813785	0.308508
599.164748	0.310029
599.515657	0.310082
599.866511	0.314114
600.217312	0.309254
600.568060	0.314380
600.918753	0.310809
601.269392	0.311562
601.619978	0.314814
601.970510	0.312407
602.320988	0.312735
602.671412	0.310496
603.021783	0.313021
603.372100	0.313998
603.722363	0.313994
604.072572	0.314811
604.422728	0.314276
604.772830	0.316782
605.122878	0.316246
605.472872	0.317014
605.822813	0.315028
606.172701	0.317857
606.522534	0.315221
606.872314	0.315267
607.222041	0.316158
607.571714	0.314349
607.921333	0.316039
608.270899	0.315669
608.620411	0.312470
608.969870	0.316046
609.319276	0.316416
609.668627	0.316062
610.017926	0.315088
610.367171	0.313504
610.716362	0.313804
611.065500	0.314121
611.414585	0.312808
611.763616	0.312840
612.112594	0.313799
612.461518	0.312950
612.810389	0.310735
613.159207	0.313629
613.507971	0.315103
613.856682	0.310965
614.205340	0.311878
614.553945	0.309332
614.902496	0.312741
615.250994	0.310848
615.599439	0.312092
615.947830	0.310959
616.296169	0.312243
616.644454	0.311899
616.992686	0.312125
617.340864	0.309749
617.688990	0.313328
618.037063	0.309640
618.385082	0.311660
618.733048	0.308624
619.080961	0.310934
619.428821	0.310279
619.776628	0.309714
620.124382	0.311979
620.472083	0.312418
620.819731	0.312031
621.167326	0.315680
621.514868	0.315852
621.862357	0.319639
622.209793	0.318980
622.557176	0.321390
622.904506	0.322742
623.251783	0.324523
623.599007	0.327449
623.946179	0.326775
624.293297	0.328689
624.640363	0.332717
624.987376	0.333350
625.334336	0.335221
625.681243	0.338273
626.028097	0.338515
626.374899	0.339176
626.721647	0.339906
627.068343	0.342748
627.414987	0.344035
627.761577	0.346284
628.108115	0.344692
628.454600	0.350017
628.801032	0.347192
629.147412	0.349423
629.493739	0.350155
629.840014	0.352448
630.186236	0.349747
630.532405	0.355648
630.878521	0.353178
631.224585	0.355607
631.570597	0.358915
631.916556	0.357116
632.262462	0.357269
632.608316	0.359444
632.954117	0.360353
633.299866	0.361271
633.645562	0.361360
633.991206	0.365986
634.336797	0.368377
634.682336	0.371730
635.027823	0.372851
635.373257	0.373205
635.718639	0.377491
636.063968	0.376134
636.409245	0.382122
636.754470	0.382621
637.099642	0.384955
637.444762	0.388188
637.789829	0.387078
638.134845	0.390931
638.479808	0.391919
638.824719	0.391895
639.169577	0.396088
639.514383	0.395116
639.859137	0.399160
640.203839	0.398301
640.548489	0.399517
640.893086	0.400719
641.237632	0.402369
641.582125	0.400896
641.926566	0.402944
642.270955	0.402299
642.615292	0.402613
642.959576	0.401772
643.303809	0.402604
643.647990	0.402152
643.992118	0.403041
644.336195	0.406286
644.680219	0.404124
645.024192	0.405030
645.368112	0.398595
645.711981	0.397433
646.055797	0.392943
646.399562	0.395052
646.743274	0.387998
647.086935	0.384903
647.430544	0.385109
647.774101	0.383853
648.117606	0.383939
648.461059	0.384333
648.804460	0.386528
649.147810	0.391585
649.491108	0.393384
649.834354	0.395150
650.177548	0.400173
650.520690	0.405635
650.863781	0.406226
651.206820	0.406195
651.549807	0.410847
651.892742	0.415361
652.235626	0.414309
652.578458	0.415474
652.921238	0.421805
653.263967	0.419231
653.606644	0.423037
653.949269	0.423405
654.291843	0.426817
654.634365	0.424105
654.976836	0.426879
655.319255	0.426990
655.661622	0.428253
656.003938	0.428732
656.346203	0.431556
656.688416	0.429815
657.030577	0.432217
657.372687	0.435328
657.714746	0.436048
658.056753	0.432396
658.398708	0.436527
658.740612	0.438088
659.082465	0.433556
659.424266	0.434599
659.766016	0.434358
660.107715	0.437173
660.449362	0.435412
660.790958	0.435812
661.132503	0.437683
661.473996	0.433823
661.815438	0.435503
662.156829	0.435547
662.498168	0.436243
662.839456	0.437324
663.180693	0.435252
663.521879	0.434737
663.863013	0.436477
664.204097	0.434372
664.545129	0.431666
664.886110	0.432111
665.227040	0.429245
665.567918	0.431980
665.908746	0.429394
666.249522	0.429430
666.590248	0.430560
666.930922	0.428545
667.271545	0.427898
667.612118	0.427592
667.952639	0.429161
668.293109	0.427482
668.633528	0.430763
668.973896	0.430202
669.314213	0.430871
669.654480	0.432589
669.994695	0.432607
670.334859	0.433909
670.674973	0.434613
671.015035	0.434029
671.355047	0.434013
671.695008	0.435128
672.034918	0.436940
672.374777	0.436526
672.714585	0.437180
673.054342	0.437451
673.394049	0.437265
673.733705	0.435055
674.073310	0.436095
674.412864	0.439406
674.752368	0.439568
675.091820	0.440227
675.431223	0.444632
675.770574	0.444404
676.109875	0.447350
676.449125	0.446984
676.788324	0.449424
677.127473	0.455054
677.466571	0.454913
677.805619	0.456458
678.144616	0.458353
678.483562	0.459664
678.822458	0.461606
679.161303	0.462583
679.500098	0.463025
679.838842	0.464372
680.177535	0.464484
680.516179	0.462551
680.854771	0.461516
681.193314	0.455530
681.531805	0.446160
681.870247	0.435454
682.208638	0.427579
682.546978	0.426555
682.885268	0.428089
683.223508	0.434581
683.561697	0.438355
683.899836	0.441092
684.237925	0.444188
684.575963	0.447457
684.913951	0.450275
685.251889	0.445761
685.589776	0.448091
685.927614	0.450433
686.265401	0.444536
686.603137	0.445522
686.940824	0.440194
687.278460	0.438936
687.616046	0.437570
687.953582	0.432231
688.291068	0.434119
688.628504	0.429133
688.965889	0.431559
689.303224	0.435498
689.640510	0.439453
689.977745	0.445381
690.314930	0.453007
690.652065	0.457786
690.989150	0.465237
691.326185	0.472557
691.663170	0.476999
692.000105	0.484057
692.336990	0.491375
692.673825	0.493097
693.010610	0.500032
693.347345	0.506151
693.684030	0.507353
694.020665	0.512113
694.357251	0.520772
694.693786	0.520784
695.030272	0.523640
695.366707	0.528363
695.703093	0.531934
696.039429	0.529498
696.375716	0.531576
696.711952	0.533715
697.048139	0.535737
697.384276	0.538508
697.720363	0.536682
698.056400	0.535350
698.392388	0.541148
698.728326	0.544196
699.064214	0.546506
699.400053	0.547647
699.735842	0.551390
700.071581	0.554232
700.407270	0.557019
700.742910	0.559099
701.078501	0.565794
701.414042	0.566621
701.749533	0.569393
702.084974	0.578475
702.420366	0.570523
702.755709	0.578594
703.091002	0.586189
703.426246	0.579716
703.761440	0.585058
704.096584	0.589774
704.431679	0.586507
704.766725	0.589790
705.101721	0.591576
705.436668	0.587639
705.771565	0.594169
706.106413	0.590768
706.441212	0.585891
706.775961	0.584726
707.110661	0.587676
707.445311	0.584914
707.779913	0.580582
708.114465	0.580115
708.448967	0.576500
708.783421	0.568549
709.117825	0.562802
709.452180	0.562798
709.786485	0.556616
710.120742	0.546232
710.454949	0.548256
710.789107	0.540669
711.123216	0.530909
711.457275	0.532758
711.791286	0.524456
712.125247	0.523885
712.459159	0.533700
712.793023	0.525727
713.126837	0.530484
713.460602	0.530455
713.794318	0.539492
714.127985	0.538176
714.461602	0.548878
714.795171	0.551537
715.128691	0.560773
715.462162	0.567290
715.795584	0.573761
716.128957	0.576571
716.462281	0.582961
716.795556	0.586527
717.128782	0.592293
717.461960	0.601923
717.795088	0.600082
718.128167	0.606243
718.461198	0.614662
718.794180	0.615197
719.127113	0.618103
719.459997	0.621053
719.792833	0.626995
720.125619	0.629362
720.458357	0.635324
720.791046	0.634409
721.123686	0.638038
721.456278	0.645320
721.788821	0.642738
722.121315	0.647810
722.453761	0.651148
722.786158	0.647786
723.118506	0.644890
723.450805	0.653020
723.783056	0.649722
724.115259	0.645979
724.447412	0.645915
724.779518	0.646631
725.111574	0.646279
725.443582	0.642140
725.775542	0.644285
726.107453	0.636064
726.439315	0.636028
726.771129	0.634888
727.102895	0.627929
727.434612	0.620583
727.766281	0.618540
728.097901	0.617355
728.429473	0.617147
728.760996	0.615758
729.092471	0.616168
729.423897	0.619681
729.755276	0.618122
730.086606	0.618406
730.417887	0.613304
730.749120	0.604029
731.080305	0.595033
731.411442	0.590851
731.742530	0.594555
732.073570	0.594180
732.404562	0.586904
732.735506	0.588100
733.066401	0.592877
733.397249	0.602082
733.728048	0.613168
734.058798	0.626216
734.389501	0.637565
734.720156	0.647327
735.050762	0.655660
735.381320	0.655638
735.711831	0.664425
736.042293	0.670420
736.372707	0.666670
736.703073	0.670421
737.033391	0.672571
737.363661	0.669795
737.693883	0.664906
738.024056	0.663901
738.354182	0.664289
738.684260	0.653984
739.014290	0.650010
739.344272	0.650658
739.674207	0.643255
740.004093	0.642788
740.333931	0.643896
740.663722	0.643374
740.993464	0.644400
741.323159	0.648207
741.652806	0.652465
741.982405	0.657361
742.311956	0.662512
742.641460	0.664959
742.970915	0.668058
743.300323	0.674922
743.629683	0.681291
743.958996	0.684445
744.288260	0.688322
744.617477	0.694309
744.946647	0.696589
745.275768	0.702093
745.604842	0.701095
745.933869	0.711362
746.262847	0.712483
746.591778	0.705703
746.920662	0.711476
747.249498	0.718312
747.578286	0.709561
747.907027	0.706292
748.235720	0.706897
748.564365	0.702205
748.892963	0.700591
749.221514	0.704835
749.550017	0.708403
749.878473	0.709461
750.206881	0.716389
750.535242	0.716317
750.863555	0.715140
751.191821	0.718124
751.520039	0.721106
751.848210	0.724250
752.176334	0.718428
752.504411	0.716864
752.832440	0.724864
753.160421	0.729225
753.488356	0.726942
753.816243	0.724879
754.144082	0.733130
754.471875	0.736610
754.799620	0.732756
755.127318	0.734015
755.454969	0.734472
755.782572	0.734872
756.110129	0.738121
756.437638	0.741474
756.765100	0.737334
757.092515	0.735239
757.419882	0.733220
757.747203	0.740019
758.074477	0.739853
758.401703	0.735617
758.728882	0.731811
759.056014	0.729944
759.383099	0.729386
759.710138	0.729244
760.037129	0.726040
760.364073	0.720155
760.690970	0.722573
761.017820	0.726913
761.344623	0.723578
761.671379	0.714478
761.998088	0.703051
762.324751	0.680040
762.651366	0.636963
762.977935	0.569471
763.304456	0.517373
763.630931	0.508078
763.957359	0.546513
764.283740	0.591210
764.610074	0.619259
764.936362	0.651388
765.262602	0.679482
765.588796	0.700091
765.914943	0.717079
766.241044	0.735070
766.567097	0.740797
766.893104	0.752698
767.219064	0.758517
767.544978	0.764877
767.870845	0.777934
768.196665	0.782873
768.522438	0.781288
768.848165	0.782491
769.173846	0.792010
769.499479	0.795166
769.825066	0.799976
770.150607	0.804732
770.476101	0.800100
770.801548	0.802027
771.126949	0.813194
771.452303	0.817666
771.777611	0.814604
772.102872	0.813790
772.428087	0.820119
772.753256	0.823099
773.078378	0.825718
773.403453	0.833514
773.728482	0.837808
774.053465	0.832063
774.378401	0.835119
774.703291	0.844083
775.028135	0.844438
775.352932	0.843694
775.677683	0.849083
776.002388	0.849490
776.327046	0.848965
776.651658	0.853163
776.976224	0.856603
777.300743	0.855337
777.625216	0.857818
777.949643	0.859733
778.274024	0.859022
778.598359	0.861055
778.922647	0.859332
779.246889	0.860654
779.571086	0.863762
779.895236	0.865978
780.219339	0.864575
780.543397	0.859720
780.867409	0.859329
781.191374	0.860633
781.515294	0.861970
781.839167	0.862528
782.162995	0.864162
782.486776	0.861427
782.810511	0.861676
783.134201	0.866613
783.457844	0.864086
783.781441	0.867872
784.104993	0.872883
784.428498	0.873382
784.751958	0.870588
785.075372	0.871771
785.398739	0.874445
785.722061	0.869380
786.045337	0.867302
786.368568	0.871116
786.691752	0.874310
787.014891	0.859705
787.337983	0.851255
787.661030	0.842548
787.984031	0.825738
788.306987	0.812401
788.629897	0.813080
788.952760	0.819360
789.275579	0.823911
789.598351	0.839238
789.921078	0.851590
790.243759	0.854652
790.566395	0.858016
790.888984	0.866766
791.211529	0.871634
791.534027	0.874552
791.856480	0.876576
792.178888	0.881535
792.501249	0.884429
792.823566	0.886520
793.145836	0.886036
793.468062	0.887212
793.790241	0.888570
794.112375	0.884976
794.434464	0.882605
794.756507	0.880653
795.078505	0.879773
795.400457	0.874877
795.722364	0.862251
796.044226	0.856046
796.366042	0.855157
796.687812	0.857111
797.009538	0.853437
797.331218	0.857862
797.652852	0.861648
797.974442	0.866467
798.295986	0.867480
798.617484	0.869219
798.938938	0.874465
799.260346	0.877224
799.581709	0.880438
799.903026	0.883573
800.224299	0.882618
800.545526	0.886311
800.866708	0.891248
801.187845	0.895556
801.508936	0.894066
801.829983	0.891790
802.150984	0.896605
802.471940	0.900340
802.792851	0.899144
803.113717	0.901550
803.434538	0.898537
803.755314	0.902162
804.076045	0.903103
804.396731	0.901981
804.717372	0.901654
805.037967	0.905438
805.358518	0.901864
805.679024	0.898571
805.999485	0.900043
806.319901	0.899300
806.640272	0.901898
806.960598	0.899429
807.280879	0.897109
807.601115	0.894992
807.921306	0.898947
808.241453	0.899055
808.561554	0.897918
808.881611	0.897412
809.201623	0.898585
809.521590	0.898808
809.841513	0.900013
810.161390	0.898394
810.481223	0.900635
810.801011	0.904173
811.120755	0.906926
811.440453	0.903894
811.760107	0.905198
812.079716	0.902363
812.399281	0.907343
812.718801	0.909084
813.038276	0.910796
813.357707	0.910286
813.677093	0.909015
813.996434	0.909615
814.315731	0.912374
814.634983	0.912683
814.954191	0.912436
815.273354	0.907085
815.592473	0.903770
815.911547	0.904024
816.230577	0.901531
816.549562	0.898667
816.868502	0.897497
817.187399	0.897054
817.506250	0.890080
817.825058	0.892567
818.143821	0.889750
818.462539	0.883900
818.781213	0.875422
819.099843	0.864929
819.418429	0.847651
819.736970	0.830252
820.055466	0.809765
820.373919	0.783653
820.692327	0.750525
821.010691	0.714865
821.329011	0.634542
821.647286	0.517614
821.965517	0.402378
822.283704	0.359134
822.601847	0.359926
822.919945	0.395658
823.237999	0.430973
823.556010	0.478516
823.873976	0.535315
824.191897	0.586860
824.509775	0.630983
824.827609	0.676868
825.145398	0.699983
825.463144	0.701497
825.780845	0.683652
826.098502	0.666463
826.416116	0.619087
826.733685	0.574279
827.051210	0.565390
827.368692	0.580271
827.686129	0.618509
828.003522	0.673736
828.320872	0.721467
828.638177	0.766444
828.955439	0.800193
829.272656	0.821245
829.589830	0.839096
829.906960	0.855471
830.224046	0.868902
830.541088	0.878601
830.858086	0.884041
831.175041	0.890153
831.491952	0.889053
831.808819	0.885632
832.125642	0.878320
832.442421	0.864464
832.759157	0.841606
833.075849	0.792645
833.392497	0.728247
833.709101	0.687277
834.025662	0.696932
834.342179	0.729466
834.658653	0.769752
834.975083	0.806772
835.291469	0.833625
835.607811	0.855814
835.924110	0.872989
836.240366	0.889733
836.556578	0.903011
836.872746	0.910663
837.188871	0.916772
837.504952	0.923972
837.820990	0.927155
838.136984	0.929776
838.452935	0.932919
838.768842	0.934393
839.084706	0.927346
839.400526	0.903293
839.716303	0.859868
840.032037	0.837394
840.347727	0.841131
840.663373	0.859304
840.978977	0.881844
841.294537	0.904804
841.610054	0.920759
841.925527	0.928275
842.240957	0.935885
842.556344	0.944120
842.871687	0.949107
843.186987	0.952312
843.502244	0.954613
843.817458	0.956549
844.132629	0.959845
844.447756	0.963890
844.762840	0.965154
845.077881	0.964044
845.392879	0.963825
845.707833	0.965039
846.022745	0.968934
846.337613	0.968470
846.652438	0.969064
846.967221	0.969831
847.281960	0.970777
847.596656	0.971210
847.911309	0.970330
848.225919	0.971324
848.540485	0.973416
848.855009	0.973875
849.169490	0.973474
849.483928	0.972604
849.798323	0.971819
850.112675	0.974786
850.426984	0.973779
850.741251	0.974548
851.055474	0.973453
851.369654	0.973664
851.683792	0.972856
851.997887	0.974660
852.311938	0.974822
852.625947	0.973903
852.939914	0.971892
853.253837	0.973160
853.567718	0.975307
853.881555	0.974458
854.195350	0.973768
854.509103	0.973964
854.822812	0.975499
855.136479	0.974714
855.450103	0.974325
855.763685	0.973770
856.077224	0.973912
856.390720	0.975059
856.704173	0.974275
857.017584	0.972836
857.330953	0.972478
857.644278	0.971957
857.957561	0.972804
858.270802	0.973770
858.584000	0.973036
858.897155	0.970866
859.210268	0.971187
859.523339	0.973552
859.836367	0.974182
860.149352	0.974157
860.462295	0.973982
860.775195	0.974104
861.088054	0.972752
861.400869	0.973051
861.713642	0.974320
862.026373	0.975849
862.339062	0.975451
862.651708	0.973566
862.964312	0.972367
863.276873	0.973487
863.589392	0.971899
863.901869	0.971144
864.214303	0.969110
864.526696	0.967792
864.839045	0.967370
865.151353	0.966011
865.463619	0.965430
865.775842	0.966655
866.088023	0.967247
866.400162	0.966401
866.712258	0.967977
867.024313	0.965973
867.336325	0.969056
867.648296	0.968722
867.960224	0.965687
868.272110	0.967287
868.583954	0.968388
868.895755	0.969162
869.207515	0.965321
869.519233	0.965180
869.830909	0.964486
870.142542	0.966013
870.454134	0.965360
870.765684	0.964617
871.077191	0.963497
871.388657	0.962278
871.700081	0.963081
872.011463	0.963896
872.322803	0.961180
872.634101	0.960162
872.945357	0.958213
873.256571	0.955407
873.567744	0.957418
873.878874	0.957761
874.189963	0.957523
874.501010	0.957303
874.812015	0.952975
875.122979	0.954490
875.433900	0.955991
875.744780	0.957016
876.055618	0.954546
876.366415	0.953163
876.677169	0.952979
876.987882	0.955200
877.298554	0.955674
877.609183	0.950773
877.919771	0.948463
878.230317	0.946340
878.540822	0.942963
878.851285	0.938601
879.161707	0.930181
879.472087	0.917656
879.782425	0.899876
880.092722	0.864231
880.402977	0.810648
880.713191	0.746939
881.023363	0.685686
881.333494	0.651083
881.643583	0.623689
881.953631	0.623884
882.263637	0.651978
882.573602	0.692350
882.883526	0.718585
883.193408	0.744907
883.503248	0.767501
883.813048	0.795409
884.122806	0.825667
884.432522	0.849943
884.742197	0.871338
885.051831	0.881269
885.361424	0.893782
885.670975	0.906158
885.980485	0.915443
886.289954	0.921762
886.599382	0.926165
886.908768	0.932524
887.218113	0.936995
887.527417	0.942407
887.836680	0.945788
888.145901	0.946605
888.455082	0.950843
888.764221	0.954665
889.073319	0.957111
889.382376	0.957286
889.691392	0.956096
890.000366	0.956852
890.309300	0.957219
890.618193	0.956537
890.927044	0.954007
891.235855	0.955077
891.544625	0.955760
891.853353	0.956054
892.162041	0.952288
892.470687	0.946393
892.779293	0.941236
893.087858	0.935998
893.396381	0.928067
893.704864	0.915034
894.013306	0.890200
894.321707	0.862918
894.630068	0.846943
894.938387	0.842154
895.246665	0.842933
895.554903	0.856880
895.863100	0.870875
896.171256	0.887522
896.479371	0.907751
896.787446	0.920571
897.095480	0.927544
897.403473	0.930690
897.711425	0.934350
898.019336	0.942223
898.327207	0.947428
898.635038	0.946135
898.942827	0.948945
899.250576	0.951111
899.558284	0.956733
899.865952	0.956992
900.173579	0.958155
900.481165	0.960192
900.788711	0.961802
901.096216	0.964688
901.403681	0.965804
901.711105	0.965590
902.018489	0.966853
902.325832	0.965730
902.633135	0.965091
902.940397	0.959724
903.247619	0.944393
903.554800	0.920184
903.861941	0.878950
904.169041	0.840398
904.476101	0.822355
904.783121	0.824544
905.090100	0.841116
905.397039	0.863350
905.703938	0.885830
906.010796	0.906716
906.317614	0.924384
906.624391	0.936106
906.931129	0.947335
907.237826	0.955219
907.544483	0.962107
907.851099	0.966842
908.157675	0.970078
908.464211	0.972989
908.770707	0.975201
909.077163	0.978808
909.383578	0.979964
909.689954	0.979021
909.996289	0.980041
910.302584	0.983028
910.608839	0.984294
910.915054	0.982415
911.221229	0.983151
911.527363	0.980157
911.833458	0.981448
912.139513	0.981155
912.445527	0.981654
912.751502	0.978967
913.057436	0.976362
913.363331	0.974429
913.669186	0.970742
913.975000	0.964726
914.280775	0.959317
914.586510	0.950991
914.892205	0.936883
915.197859	0.915349
915.503475	0.886266
915.809050	0.865366
916.114585	0.860326
916.420081	0.857236
916.725536	0.853840
917.030952	0.861148
917.336328	0.875616
917.641665	0.890296
917.946961	0.908107
918.252218	0.918860
918.557435	0.929129
918.862612	0.937267
919.167750	0.943918
919.472848	0.950530
919.777906	0.956387
920.082925	0.961893
920.387904	0.965269
920.692843	0.965562
920.997743	0.967148
921.302603	0.971349
921.607423	0.972695
921.912204	0.975884
922.216946	0.977234
922.521647	0.977954
922.826310	0.978928
923.130932	0.981211
923.435516	0.983716
923.740059	0.983249
924.044564	0.984130
924.349028	0.984523
924.653454	0.986976
924.957840	0.987886
925.262186	0.988528
925.566493	0.989196
925.870761	0.989852
926.174989	0.989921
926.479178	0.992358
926.783328	0.992727
927.087438	0.991881
927.391509	0.992510
927.695541	0.994274
927.999533	0.993855
928.303486	0.994438
928.607400	0.995575
928.911275	0.994650
929.215110	0.995245
929.518906	0.995061
929.822663	0.994982
930.126381	0.996199
930.430060	0.994558
930.733699	0.996011
931.037299	0.994510
931.340861	0.994367
931.644383	0.993291
931.947866	0.995261
932.251309	0.993259
932.554714	0.994999
932.858080	0.995071
933.161407	0.994697
933.464694	0.995612
933.767943	0.996358
934.071153	0.996519
934.374323	0.995063
934.677455	0.996784
934.980548	0.995276
935.283602	0.996275
935.586617	0.995210
935.889593	0.996428
936.192530	0.997517
936.495428	0.995718
936.798287	0.996577
937.101108	0.995470
937.403890	0.993757
937.706632	0.994562
938.009336	0.991848
938.312002	0.990241
938.614628	0.988995
938.917216	0.986860
939.219765	0.986414
939.522275	0.987835
939.824747	0.988270
940.127179	0.987821
940.429573	0.989294
940.731929	0.988200
941.034246	0.988767
941.336524	0.989176
941.638763	0.990857
941.940964	0.989386
942.243126	0.991405
942.545250	0.992029
942.847335	0.991272
943.149381	0.993616
943.451389	0.992149
943.753359	0.993593
944.055290	0.994871
944.357182	0.995267
944.659036	0.995589
944.960851	0.995171
945.262628	0.994830
945.564367	0.993750
945.866067	0.994940
946.167729	0.995257
946.469352	0.995273
946.770937	0.992786
947.072484	0.995147
947.373992	0.994844
947.675462	0.994312
947.976893	0.995565
948.278286	0.996896
948.579641	0.996721
948.880958	0.996224
949.182236	0.995953
949.483476	0.997258
949.784678	0.996062
950.085841	0.996092
950.386967	0.995125
950.688054	0.997278
950.989103	0.994475
951.290114	0.993614
951.591087	0.993851
951.892021	0.993673
952.192917	0.993579
952.493776	0.993739
952.794596	0.993226
953.095378	0.992854
953.396122	0.993581
953.696828	0.994439
953.997496	0.993115
954.298126	0.995548
954.598718	0.994183
954.899272	0.995999
955.199788	0.996204
955.500266	0.996720
955.800706	0.996293
956.101108	0.996959
956.401472	0.999878
956.701798	0.997929
957.002087	0.998900
957.302337	0.998939
957.602550	0.998626
957.902724	0.999063
958.202861	1.000877
958.502960	1.000148
958.803022	1.000547
959.103045	1.000659
959.403031	1.000914
959.702979	1.001991
960.002889	1.000538
960.302762	1.000371
960.602596	1.002464
960.902393	1.001420
961.202153	1.001970
961.501875	1.002576
961.801559	1.002262
962.101205	1.000389
962.400814	1.003022
962.700385	1.001542
962.999918	1.001581
963.299414	1.001533
963.598873	1.001522
963.898293	1.002828
964.197677	1.001869
964.497022	1.002034
964.796331	1.002093
965.095601	1.002500
965.394835	1.001598
965.694030	1.004108
965.993189	1.001741
966.292309	1.002702
966.591393	1.001747
966.890439	1.002972
967.189447	1.002712
967.488419	1.002029
967.787353	1.002764
968.086249	1.002349
968.385108	1.001216
968.683930	1.003912
968.982714	1.002349
969.281462	1.002257
969.580172	1.003137
969.878844	1.003547
970.177480	1.002142
970.476078	1.002059
970.774639	1.001859
971.073162	1.001845
971.371649	1.001594
971.670098	1.000639
971.968510	1.002397
972.266885	1.000410
972.565223	1.001777
972.863524	1.000749
973.161788	1.001196
973.460014	1.002273
973.758204	1.001765
974.056356	1.000890
974.354471	1.001666
974.652550	1.001603
974.950591	1.002031
975.248595	1.000786
975.546563	1.003529
975.844493	1.002930
976.142386	1.000709
976.440243	1.003363
976.738062	1.002989
977.035845	1.002301
977.333590	1.002567
977.631299	1.001367
977.928971	1.001412
978.226606	1.001746
978.524204	1.001804
978.821765	1.003345
979.119290	1.003738
979.416777	1.002290
979.714228	1.002823
980.011642	1.003018
980.309020	1.002319
980.606360	1.001724
980.903664	1.002436
981.200931	1.000995
981.498162	1.001747
981.795356	1.001079
982.092513	1.000701
982.389633	0.999463
982.686717	0.996015
982.983764	0.996863
983.280775	0.995947
983.577749	0.996775
983.874686	0.996246
984.171587	0.996912
984.468451	0.999347
984.765279	0.999464
985.062070	1.000658
985.358824	0.999864
985.655543	1.001883
985.952224	1.000949
986.248869	1.001692
986.545478	1.003865
986.842050	1.001527
987.138586	1.001799
987.435086	1.001555
987.731549	1.003995
988.027975	1.003846
988.324366	1.002982
988.620719	1.003411
988.917037	1.003301
989.213318	1.004637
989.509563	1.003815
989.805772	1.003438
990.101944	1.004488
990.398080	1.003369
990.694180	1.004308
990.990244	1.002664
991.286271	1.003347
991.582262	1.004391
991.878217	1.003803
992.174136	1.002910
992.470019	1.003696
992.765865	1.004128
993.061676	1.005031
993.357450	1.004857
993.653188	1.005465
993.948890	1.003427
994.244556	1.003497
994.540186	1.003141
994.835780	1.002981
995.131337	1.004121
995.426859	1.002544
995.722345	1.002730
996.017795	1.001865
996.313208	1.000532
996.608586	1.001967
996.903928	1.002437
997.199234	1.001949
997.494504	1.003488
997.789738	1.000257
998.084936	1.002288
998.380099	1.003500
998.675225	1.004112
998.970316	1.003298
999.265371	1.002654
999.560390	1.002868
999.855373	1.002599
1000.150320	1.004013
1000.445232	1.003484
1000.740108	1.004042
1001.034948	1.003418
1001.329752	1.005666
1001.624521	1.003561
1001.919254	1.003044
1002.213951	1.004706
1002.508613	1.004277
1002.803239	1.003841
1003.097829	1.004734
1003.392384	1.004533
1003.686903	1.004934
1003.981386	1.003682
1004.275834	1.004765
1004.570246	1.003121
1004.864623	1.004093
1005.158964	1.004852
1005.453270	1.004385
1005.747540	1.003951
1006.041775	1.005075
1006.335974	1.005295
1006.630138	1.004705
1006.924266	1.003356
1007.218359	1.002850
1007.512416	1.006007
1007.806438	1.004048
1008.100425	1.005688
1008.394376	1.005033
1008.688292	1.004285
1008.982172	1.003982
1009.276017	1.004684
1009.569827	1.005222
1009.863602	1.003766
1010.157341	1.005576
1010.451045	1.004315
1010.744714	1.006652
1011.038347	1.005023
1011.331945	1.003146
1011.625508	1.004919
1011.919036	1.004186
1012.212528	1.005017
1012.505986	1.003147
1012.799408	1.006070
1013.092795	1.004441
1013.386147	1.003430
1013.679464	1.005190
1013.972745	1.003547
1014.265992	1.004157
1014.559204	1.004054
1014.852380	1.004490
1015.145521	1.003228
1015.438628	1.004967
1015.731699	1.004360
1016.024736	1.005129
1016.317737	1.004141
1016.610703	1.004344
1016.903635	1.004745
1017.196531	1.003495
1017.489393	1.003883
1017.782219	1.004066
1018.075011	1.003470
1018.367768	1.004194
1018.660490	1.004524
1018.953177	1.004524
1019.245829	1.004524
