Dividing Wavelength (nm)	Counts (n)	Blue Motor Position (mm): 5.100000	Red Motor Position (mm): 0.000000	
326.493990	1.004563
326.888308	1.004563
327.282561	1.004563
327.676750	1.007001
328.070874	1.006253
328.464933	1.007177
328.858929	1.007012
329.252859	1.006724
329.646726	1.006423
330.040528	1.006286
330.434265	1.005930
330.827938	1.005016
331.221547	1.005526
331.615091	1.006124
332.008571	1.007268
332.401986	1.005818
332.795338	1.004291
333.188625	1.005499
333.581847	1.004704
333.975006	1.005794
334.368100	1.006193
334.761129	1.004146
335.154095	1.007109
335.546996	1.003475
335.939833	0.998620
336.332606	0.998034
336.725315	0.997565
337.117960	0.999510
337.510540	0.998794
337.903056	0.999222
338.295508	0.999450
338.687896	0.999669
339.080220	0.998512
339.472480	0.997526
339.864676	0.999401
340.256807	0.997648
340.648875	0.999030
341.040879	0.998350
341.432818	0.999297
341.824694	0.998729
342.216506	0.999103
342.608253	0.998639
342.999937	0.998492
343.391557	0.999413
343.783113	0.999768
344.174605	0.998595
344.566033	0.996927
344.957397	0.998979
345.348697	0.998885
345.739934	0.998747
346.131106	0.998538
346.522215	0.998306
346.913260	0.998347
347.304241	0.997403
347.695159	0.999539
348.086012	0.998339
348.476802	0.999297
348.867528	0.997875
349.258191	0.999302
349.648789	0.998519
350.039324	0.998594
350.429796	0.998377
350.820203	0.997327
351.210548	0.998820
351.600828	0.997036
351.991045	0.998160
352.381198	0.998864
352.771288	0.997445
353.161314	0.998865
353.551276	0.996645
353.941175	0.996812
354.331010	0.998822
354.720782	0.998141
355.110490	0.997506
355.500135	0.999113
355.889717	0.996828
356.279235	0.997686
356.668689	0.997504
357.058080	0.997093
357.447408	0.996856
357.836672	0.997338
358.225873	0.999038
358.615010	0.998167
359.004084	0.997395
359.393095	0.998015
359.782043	0.997686
360.170927	0.997753
360.559748	0.996646
360.948505	0.997030
361.337199	0.997584
361.725830	0.996190
362.114398	0.996599
362.502903	0.995973
362.891344	0.995845
363.279722	0.996664
363.668037	0.998267
364.056289	0.995981
364.444478	0.997622
364.832603	0.995993
365.220665	0.996532
365.608665	0.996526
365.996601	0.996320
366.384474	0.996238
366.772284	0.996091
367.160031	0.994530
367.547715	0.995330
367.935336	0.993993
368.322893	0.992317
368.710388	0.992422
369.097820	0.991075
369.485189	0.987262
369.872495	0.987158
370.259738	0.984688
370.646918	0.980960
371.034035	0.980113
371.421090	0.976435
371.808081	0.971376
372.195010	0.968230
372.581875	0.962946
372.968678	0.959219
373.355418	0.955999
373.742096	0.946847
374.128710	0.944733
374.515262	0.938812
374.901751	0.932977
375.288177	0.928096
375.674540	0.921500
376.060841	0.915511
376.447079	0.908528
376.833254	0.902645
377.219367	0.897262
377.605417	0.886296
377.991404	0.882919
378.377329	0.876369
378.763191	0.870101
379.148991	0.860604
379.534727	0.853166
379.920402	0.844626
380.306013	0.842585
380.691563	0.829077
381.077049	0.822523
381.462474	0.817605
381.847835	0.806653
382.233134	0.801442
382.618371	0.802200
383.003545	0.784633
383.388657	0.783046
383.773706	0.775201
384.158693	0.771829
384.543618	0.765818
384.928480	0.756712
385.313280	0.747045
385.698017	0.745890
386.082692	0.735573
386.467305	0.733203
386.851856	0.728910
387.236344	0.722638
387.620770	0.717915
388.005133	0.711433
388.389435	0.705900
388.773674	0.704079
389.157851	0.695441
389.541965	0.693140
389.926018	0.699612
390.310008	0.685849
390.693936	0.684020
391.077802	0.674996
391.461606	0.677259
391.845348	0.666074
392.229027	0.665505
392.612645	0.663780
392.996200	0.650782
393.379694	0.643496
393.763125	0.633603
394.146494	0.637914
394.529801	0.629253
394.913047	0.621157
395.296230	0.626998
395.679351	0.618603
396.062410	0.615270
396.445408	0.618102
396.828343	0.613769
397.211217	0.608713
397.594028	0.620761
397.976778	0.610986
398.359466	0.607830
398.742092	0.602256
399.124656	0.614715
399.507158	0.602710
399.889598	0.600874
400.271977	0.591599
400.654294	0.595105
401.036549	0.595309
401.418742	0.598600
401.800874	0.584330
402.182944	0.581218
402.564952	0.573104
402.946898	0.574353
403.328783	0.575614
403.710606	0.586653
404.092367	0.561587
404.474067	0.566488
404.855705	0.565275
405.237282	0.574762
405.618797	0.560732
406.000250	0.555901
406.381642	0.546606
406.762972	0.551525
407.144240	0.550400
407.525447	0.549345
407.906593	0.542890
408.287677	0.538651
408.668700	0.547092
409.049661	0.540210
409.430560	0.536110
409.811399	0.544256
410.192176	0.525846
410.572891	0.533490
410.953545	0.521524
411.334138	0.535228
411.714669	0.527069
412.095139	0.539255
412.475547	0.523425
412.855894	0.525944
413.236180	0.524147
413.616405	0.529438
413.996568	0.520097
414.376670	0.526590
414.756711	0.531814
415.136691	0.528220
415.516609	0.519463
415.896466	0.516201
416.276262	0.512253
416.655997	0.514182
417.035670	0.495065
417.415283	0.487357
417.794834	0.492405
418.174324	0.497038
418.553753	0.506082
418.933121	0.488719
419.312428	0.482672
419.691674	0.488720
420.070859	0.476322
420.449983	0.484794
420.829045	0.473417
421.208047	0.482971
421.586988	0.475877
421.965867	0.474880
422.344686	0.463264
422.723444	0.475835
423.102141	0.492934
423.480777	0.465633
423.859352	0.486632
424.237866	0.463814
424.616319	0.464135
424.994712	0.455538
425.373044	0.465098
425.751314	0.453543
426.129524	0.470387
426.507673	0.453562
426.885762	0.447478
427.263789	0.452507
427.641756	0.462903
428.019662	0.452666
428.397508	0.451955
428.775292	0.456360
429.153016	0.448000
429.530679	0.454432
429.908282	0.447600
430.285824	0.458040
430.663305	0.436438
431.040726	0.457154
431.418086	0.457289
431.795385	0.449272
432.172624	0.448427
432.549802	0.448136
432.926920	0.447208
433.303977	0.446646
433.680974	0.443840
434.057910	0.442533
434.434786	0.441563
434.811601	0.444901
435.188355	0.426809
435.565050	0.436262
435.941683	0.437272
436.318257	0.421196
436.694770	0.422734
437.071222	0.420388
437.447614	0.425290
437.823946	0.431314
438.200218	0.420302
438.576429	0.430219
438.952580	0.423195
439.328670	0.419876
439.704700	0.426304
440.080670	0.427649
440.456580	0.409255
440.832429	0.416960
441.208218	0.428111
441.583947	0.417289
441.959616	0.416407
442.335224	0.422047
442.710773	0.412965
443.086261	0.410884
443.461689	0.424349
443.837057	0.414643
444.212365	0.404496
444.587612	0.411583
444.962800	0.401651
445.337927	0.402742
445.712995	0.429119
446.088002	0.390794
446.462949	0.401252
446.837837	0.406455
447.212664	0.394748
447.587431	0.386644
447.962139	0.356723
448.336786	0.315856
448.711374	0.326216
449.085901	0.370687
449.460369	0.375051
449.834776	0.378523
450.209124	0.357706
450.583412	0.350715
450.957640	0.343342
451.331808	0.354826
451.705917	0.378360
452.079965	0.382810
452.453954	0.370972
452.827883	0.378110
453.201752	0.372444
453.575562	0.383702
453.949311	0.372528
454.323001	0.378768
454.696632	0.374402
455.070202	0.366789
455.443713	0.358792
455.817164	0.353355
456.190556	0.349635
456.563888	0.346630
456.937160	0.343839
457.310373	0.361248
457.683526	0.359803
458.056619	0.365435
458.429653	0.366159
458.802628	0.369084
459.175542	0.363879
459.548398	0.346781
459.921194	0.338916
460.293930	0.339142
460.666607	0.316576
461.039224	0.305083
461.411782	0.300739
461.784280	0.299592
462.156719	0.304086
462.529099	0.307971
462.901419	0.324220
463.273680	0.328488
463.645882	0.327576
464.018024	0.333853
464.390106	0.326586
464.762130	0.311552
465.134094	0.294326
465.505999	0.263163
465.877845	0.233726
466.249631	0.220600
466.621358	0.228168
466.993026	0.242086
467.364634	0.248241
467.736184	0.257179
468.107674	0.265898
468.479105	0.264896
468.850477	0.271635
469.221790	0.278740
469.593043	0.288313
469.964238	0.293366
470.335373	0.292750
470.706449	0.291259
471.077467	0.291640
471.448425	0.253641
471.819324	0.229211
472.190164	0.228591
472.560945	0.257675
472.931667	0.279995
473.302330	0.284371
473.672934	0.295968
474.043479	0.283856
474.413965	0.286122
474.784393	0.289400
475.154761	0.284379
475.525070	0.281585
475.895321	0.287408
476.265513	0.281214
476.635645	0.276664
477.005719	0.276928
477.375734	0.273409
477.745691	0.266575
478.115588	0.262839
478.485427	0.256559
478.855207	0.243351
479.224928	0.225677
479.594591	0.213891
479.964194	0.217303
480.333739	0.218467
480.703226	0.219699
481.072653	0.218362
481.442022	0.214017
481.811333	0.210905
482.180584	0.214098
482.549777	0.219489
482.918912	0.222724
483.287988	0.222281
483.657005	0.222093
484.025964	0.228485
484.394864	0.225890
484.763706	0.226477
485.132489	0.231440
485.501213	0.232481
485.869879	0.230573
486.238487	0.233852
486.607036	0.231744
486.975527	0.236312
487.343959	0.232099
487.712333	0.231227
488.080648	0.232499
488.448905	0.231692
488.817104	0.232806
489.185244	0.227610
489.553326	0.224304
489.921350	0.214329
490.289315	0.196670
490.657222	0.191628
491.025070	0.192958
491.392861	0.194938
491.760593	0.200635
492.128267	0.206482
492.495883	0.211709
492.863440	0.217867
493.230939	0.224374
493.598380	0.226035
493.965763	0.228188
494.333088	0.230521
494.700354	0.232174
495.067563	0.230975
495.434713	0.234407
495.801805	0.232204
496.168839	0.233654
496.535815	0.235142
496.902733	0.235003
497.269593	0.236320
497.636395	0.234343
498.003139	0.234477
498.369825	0.237558
498.736453	0.234105
499.103023	0.235352
499.469535	0.234862
499.835989	0.235076
500.202385	0.236067
500.568723	0.239172
500.935003	0.234219
501.301226	0.238974
501.667390	0.233147
502.033497	0.231022
502.399546	0.233858
502.765537	0.235940
503.131470	0.234280
503.497345	0.230628
503.863163	0.239135
504.228923	0.232360
504.594625	0.231019
504.960269	0.236504
505.325856	0.232023
505.691385	0.236141
506.056856	0.232811
506.422270	0.232136
506.787625	0.234714
507.152924	0.232269
507.518164	0.232543
507.883347	0.234329
508.248472	0.236038
508.613540	0.231034
508.978550	0.233551
509.343503	0.233979
509.708398	0.231384
510.073236	0.229011
510.438016	0.229121
510.802738	0.229939
511.167403	0.229039
511.532010	0.231080
511.896561	0.226463
512.261053	0.225242
512.625488	0.227119
512.989866	0.227888
513.354186	0.227822
513.718449	0.229992
514.082655	0.226080
514.446803	0.228460
514.810894	0.225821
515.174927	0.228751
515.538904	0.228547
515.902822	0.225256
516.266684	0.227504
516.630488	0.228602
516.994235	0.227785
517.357925	0.226358
517.721558	0.224634
518.085133	0.224167
518.448651	0.223984
518.812112	0.226506
519.175516	0.225969
519.538863	0.223577
519.902152	0.225532
520.265385	0.222282
520.628560	0.223794
520.991678	0.224318
521.354739	0.223078
521.717743	0.224387
522.080690	0.224840
522.443580	0.221998
522.806413	0.222974
523.169189	0.222393
523.531908	0.221084
523.894569	0.224811
524.257174	0.224821
524.619722	0.222289
524.982213	0.223346
525.344647	0.222246
525.707025	0.223347
526.069345	0.221452
526.431608	0.223069
526.793815	0.221088
527.155964	0.225228
527.518057	0.224180
527.880093	0.225111
528.242072	0.223879
528.603995	0.225573
528.965860	0.227169
529.327669	0.226243
529.689421	0.226935
530.051117	0.227936
530.412755	0.225836
530.774337	0.228060
531.135862	0.228675
531.497331	0.227482
531.858743	0.230733
532.220098	0.227239
532.581396	0.229918
532.942638	0.230239
533.303824	0.231399
533.664953	0.230994
534.026025	0.233102
534.387040	0.230988
534.747999	0.230699
535.108902	0.229606
535.469748	0.234566
535.830537	0.232342
536.191270	0.232783
536.551947	0.232378
536.912567	0.232214
537.273131	0.234261
537.633638	0.234395
537.994089	0.234726
538.354483	0.235531
538.714821	0.232695
539.075103	0.232554
539.435328	0.233379
539.795497	0.237119
540.155609	0.233641
540.515665	0.231800
540.875665	0.237536
541.235609	0.235662
541.595496	0.236042
541.955328	0.232706
542.315102	0.235424
542.674821	0.236495
543.034483	0.236454
543.394090	0.236154
543.753640	0.237822
544.113134	0.232911
544.472571	0.236165
544.831953	0.233203
545.191278	0.237418
545.550548	0.236707
545.909761	0.233767
546.268918	0.234436
546.628019	0.232650
546.987064	0.235550
547.346053	0.236993
547.704986	0.234739
548.063863	0.234940
548.422684	0.235511
548.781449	0.237378
549.140158	0.234854
549.498811	0.237740
549.857408	0.240667
550.215949	0.235400
550.574434	0.238394
550.932864	0.236713
551.291237	0.235233
551.649555	0.236735
552.007817	0.236475
552.366022	0.237158
552.724173	0.237521
553.082267	0.237506
553.440305	0.234579
553.798288	0.238923
554.156215	0.235428
554.514086	0.236528
554.871902	0.239406
555.229661	0.238617
555.587365	0.239301
555.945014	0.241623
556.302606	0.238506
556.660143	0.241130
557.017625	0.237860
557.375050	0.240066
557.732421	0.237149
558.089735	0.238804
558.446994	0.238809
558.804197	0.238102
559.161345	0.238128
559.518437	0.241642
559.875474	0.239374
560.232455	0.238896
560.589381	0.240101
560.946251	0.240318
561.303065	0.237625
561.659825	0.238937
562.016528	0.240706
562.373177	0.243391
562.729770	0.240827
563.086307	0.242698
563.442789	0.240503
563.799216	0.243197
564.155587	0.242342
564.511904	0.243616
564.868164	0.243324
565.224370	0.243154
565.580520	0.244937
565.936615	0.244947
566.292654	0.247902
566.648638	0.244924
567.004567	0.245913
567.360441	0.246408
567.716260	0.248196
568.072023	0.246038
568.427732	0.246835
568.783385	0.249453
569.138982	0.247186
569.494525	0.247252
569.850013	0.249910
570.205445	0.248568
570.560823	0.250763
570.916145	0.252946
571.271412	0.251263
571.626625	0.252587
571.981782	0.253244
572.336884	0.253947
572.691931	0.253737
573.046923	0.255326
573.401860	0.256166
573.756743	0.257915
574.111570	0.256925
574.466342	0.257422
574.821059	0.256372
575.175722	0.259340
575.530330	0.259097
575.884882	0.259267
576.239380	0.261280
576.593823	0.261774
576.948211	0.261371
577.302544	0.264993
577.656823	0.264190
578.011047	0.264149
578.365216	0.265179
578.719330	0.266874
579.073389	0.267038
579.427394	0.267842
579.781344	0.268948
580.135239	0.270169
580.489080	0.270037
580.842866	0.272577
581.196597	0.273054
581.550273	0.271265
581.903895	0.272528
582.257463	0.270408
582.610975	0.274013
582.964434	0.273299
583.317837	0.275822
583.671186	0.276389
584.024481	0.276129
584.377721	0.278937
584.730906	0.279463
585.084037	0.278775
585.437113	0.280382
585.790135	0.280081
586.143103	0.282903
586.496016	0.283857
586.848874	0.281640
587.201679	0.282078
587.554428	0.285483
587.907124	0.284565
588.259765	0.285089
588.612352	0.285601
588.964884	0.289347
589.317362	0.288970
589.669786	0.289002
590.022155	0.287338
590.374470	0.286765
590.726731	0.288768
591.078937	0.293622
591.431090	0.290133
591.783188	0.293930
592.135232	0.294598
592.487222	0.294392
592.839157	0.293051
593.191038	0.295008
593.542866	0.296993
593.894639	0.300237
594.246358	0.298571
594.598022	0.298190
594.949633	0.301495
595.301190	0.302440
595.652692	0.301469
596.004141	0.297697
596.355535	0.305509
596.706876	0.306295
597.058162	0.308771
597.409395	0.306017
597.760573	0.303689
598.111698	0.306870
598.462768	0.307276
598.813785	0.308428
599.164748	0.309582
599.515657	0.310319
599.866511	0.313746
600.217312	0.308776
600.568060	0.313896
600.918753	0.310155
601.269392	0.311511
601.619978	0.314798
601.970510	0.312137
602.320988	0.312426
602.671412	0.310617
603.021783	0.313101
603.372100	0.314035
603.722363	0.313733
604.072572	0.314648
604.422728	0.314449
604.772830	0.316588
605.122878	0.316246
605.472872	0.316763
605.822813	0.315175
606.172701	0.317853
606.522534	0.315529
606.872314	0.315330
607.222041	0.316148
607.571714	0.314556
607.921333	0.315575
608.270899	0.315029
608.620411	0.312302
608.969870	0.316228
609.319276	0.315938
609.668627	0.316119
610.017926	0.314564
610.367171	0.313196
610.716362	0.313884
611.065500	0.314169
611.414585	0.313127
611.763616	0.312939
612.112594	0.313589
612.461518	0.313018
612.810389	0.310951
613.159207	0.313168
613.507971	0.314817
613.856682	0.310765
614.205340	0.311985
614.553945	0.309361
614.902496	0.312984
615.250994	0.311199
615.599439	0.311538
615.947830	0.311012
616.296169	0.312050
616.644454	0.311676
616.992686	0.311605
617.340864	0.309474
617.688990	0.313197
618.037063	0.309952
618.385082	0.311385
618.733048	0.308438
619.080961	0.310396
619.428821	0.310256
619.776628	0.310006
620.124382	0.311986
620.472083	0.312341
620.819731	0.311593
621.167326	0.315478
621.514868	0.315165
621.862357	0.319508
622.209793	0.318729
622.557176	0.321636
622.904506	0.322453
623.251783	0.324778
623.599007	0.327000
623.946179	0.326326
624.293297	0.328568
624.640363	0.332761
624.987376	0.332964
625.334336	0.335244
625.681243	0.337410
626.028097	0.338245
626.374899	0.339681
626.721647	0.339886
627.068343	0.342825
627.414987	0.344331
627.761577	0.346083
628.108115	0.343959
628.454600	0.349532
628.801032	0.347197
629.147412	0.348856
629.493739	0.349569
629.840014	0.352504
630.186236	0.349614
630.532405	0.355794
630.878521	0.352969
631.224585	0.354856
631.570597	0.358964
631.916556	0.357248
632.262462	0.357143
632.608316	0.359345
632.954117	0.360382
633.299866	0.361425
633.645562	0.361601
633.991206	0.365566
634.336797	0.368819
634.682336	0.371315
635.027823	0.372372
635.373257	0.373313
635.718639	0.377372
636.063968	0.376238
636.409245	0.381937
636.754470	0.382624
637.099642	0.384921
637.444762	0.387748
637.789829	0.387473
638.134845	0.390810
638.479808	0.391681
638.824719	0.391254
639.169577	0.395917
639.514383	0.394257
639.859137	0.399111
640.203839	0.398386
640.548489	0.399453
640.893086	0.400385
641.237632	0.401944
641.582125	0.401519
641.926566	0.402633
642.270955	0.401942
642.615292	0.402927
642.959576	0.401618
643.303809	0.402637
643.647990	0.401893
643.992118	0.402819
644.336195	0.405390
644.680219	0.404646
645.024192	0.404970
645.368112	0.398840
645.711981	0.397932
646.055797	0.392959
646.399562	0.395435
646.743274	0.388192
647.086935	0.384983
647.430544	0.385106
647.774101	0.383830
648.117606	0.383669
648.461059	0.384464
648.804460	0.386772
649.147810	0.391223
649.491108	0.393393
649.834354	0.394938
650.177548	0.400142
650.520690	0.405851
650.863781	0.406823
651.206820	0.406061
651.549807	0.410602
651.892742	0.415346
652.235626	0.414331
652.578458	0.415516
652.921238	0.421614
653.263967	0.419327
653.606644	0.422996
653.949269	0.422804
654.291843	0.426788
654.634365	0.423510
654.976836	0.426102
655.319255	0.426642
655.661622	0.428528
656.003938	0.428154
656.346203	0.431665
656.688416	0.429392
657.030577	0.432623
657.372687	0.435126
657.714746	0.435389
658.056753	0.432358
658.398708	0.436242
658.740612	0.437857
659.082465	0.433435
659.424266	0.434368
659.766016	0.433754
660.107715	0.436895
660.449362	0.435361
660.790958	0.435967
661.132503	0.436816
661.473996	0.434043
661.815438	0.435216
662.156829	0.435691
662.498168	0.436291
662.839456	0.436993
663.180693	0.435137
663.521879	0.435138
663.863013	0.435787
664.204097	0.434185
664.545129	0.431002
664.886110	0.431800
665.227040	0.429222
665.567918	0.431680
665.908746	0.429794
666.249522	0.429714
666.590248	0.430283
666.930922	0.427972
667.271545	0.427634
667.612118	0.427384
667.952639	0.429559
668.293109	0.427623
668.633528	0.430617
668.973896	0.430323
669.314213	0.430832
669.654480	0.432339
669.994695	0.432598
670.334859	0.433162
670.674973	0.433969
671.015035	0.433992
671.355047	0.434084
671.695008	0.435257
672.034918	0.436877
672.374777	0.435993
672.714585	0.437687
673.054342	0.437408
673.394049	0.437202
673.733705	0.434758
674.073310	0.436165
674.412864	0.439390
674.752368	0.439963
675.091820	0.439921
675.431223	0.444581
675.770574	0.444073
676.109875	0.447476
676.449125	0.446805
676.788324	0.449521
677.127473	0.454962
677.466571	0.454680
677.805619	0.456663
678.144616	0.457419
678.483562	0.459146
678.822458	0.462015
679.161303	0.462145
679.500098	0.463217
679.838842	0.465073
680.177535	0.464266
680.516179	0.462745
680.854771	0.461438
681.193314	0.455004
681.531805	0.446172
681.870247	0.435590
682.208638	0.427353
682.546978	0.427107
682.885268	0.428159
683.223508	0.433948
683.561697	0.438858
683.899836	0.440662
684.237925	0.444393
684.575963	0.446728
684.913951	0.450546
685.251889	0.445170
685.589776	0.447790
685.927614	0.450434
686.265401	0.444431
686.603137	0.445907
686.940824	0.439837
687.278460	0.438136
687.616046	0.437645
687.953582	0.432189
688.291068	0.433588
688.628504	0.428975
688.965889	0.431348
689.303224	0.435519
689.640510	0.439082
689.977745	0.445070
690.314930	0.452885
690.652065	0.457787
690.989150	0.465075
691.326185	0.472282
691.663170	0.476708
692.000105	0.483394
692.336990	0.490676
692.673825	0.493587
693.010610	0.499644
693.347345	0.506320
693.684030	0.507559
694.020665	0.511315
694.357251	0.520934
694.693786	0.520426
695.030272	0.523468
695.366707	0.527752
695.703093	0.531256
696.039429	0.528665
696.375716	0.531694
696.711952	0.533279
697.048139	0.535536
697.384276	0.538332
697.720363	0.536421
698.056400	0.534906
698.392388	0.541148
698.728326	0.543295
699.064214	0.546176
699.400053	0.546711
699.735842	0.550512
700.071581	0.553885
700.407270	0.556905
700.742910	0.559272
701.078501	0.564859
701.414042	0.566305
701.749533	0.569345
702.084974	0.578003
702.420366	0.571030
702.755709	0.578589
703.091002	0.585945
703.426246	0.579426
703.761440	0.584761
704.096584	0.589737
704.431679	0.586377
704.766725	0.589391
705.101721	0.590954
705.436668	0.586649
705.771565	0.593755
706.106413	0.589849
706.441212	0.585403
706.775961	0.585037
707.110661	0.587036
707.445311	0.584225
707.779913	0.581382
708.114465	0.579442
708.448967	0.576690
708.783421	0.568553
709.117825	0.562985
709.452180	0.561725
709.786485	0.556338
710.120742	0.546557
710.454949	0.548220
710.789107	0.539991
711.123216	0.530834
711.457275	0.532483
711.791286	0.524315
712.125247	0.523105
712.459159	0.533579
712.793023	0.525543
713.126837	0.530231
713.460602	0.530080
713.794318	0.538707
714.127985	0.538301
714.461602	0.549071
714.795171	0.552315
715.128691	0.559758
715.462162	0.567623
715.795584	0.573264
716.128957	0.576734
716.462281	0.583133
716.795556	0.586243
717.128782	0.591857
717.461960	0.601498
717.795088	0.599474
718.128167	0.605785
718.461198	0.614311
718.794180	0.615306
719.127113	0.617691
719.459997	0.620413
719.792833	0.627251
720.125619	0.628484
720.458357	0.633839
720.791046	0.634484
721.123686	0.638372
721.456278	0.644880
721.788821	0.641540
722.121315	0.646760
722.453761	0.650901
722.786158	0.648026
723.118506	0.644422
723.450805	0.652988
723.783056	0.648764
724.115259	0.646275
724.447412	0.644862
724.779518	0.647250
725.111574	0.646172
725.443582	0.641311
725.775542	0.643786
726.107453	0.635563
726.439315	0.636380
726.771129	0.634114
727.102895	0.628552
727.434612	0.620388
727.766281	0.618189
728.097901	0.617471
728.429473	0.616983
728.760996	0.614781
729.092471	0.616265
729.423897	0.619673
729.755276	0.618640
730.086606	0.618360
730.417887	0.613149
730.749120	0.603829
731.080305	0.594247
731.411442	0.590330
731.742530	0.595033
732.073570	0.594045
732.404562	0.586560
732.735506	0.587414
733.066401	0.592317
733.397249	0.601533
733.728048	0.613597
734.058798	0.626693
734.389501	0.637411
734.720156	0.647485
735.050762	0.654658
735.381320	0.655697
735.711831	0.664550
736.042293	0.669828
736.372707	0.666108
736.703073	0.669735
737.033391	0.672256
737.363661	0.669853
737.693883	0.665084
738.024056	0.663134
738.354182	0.664662
738.684260	0.653050
739.014290	0.649692
739.344272	0.650318
739.674207	0.644348
740.004093	0.642671
740.333931	0.643800
740.663722	0.643523
740.993464	0.642964
741.323159	0.647346
741.652806	0.652223
741.982405	0.657625
742.311956	0.662931
742.641460	0.664146
742.970915	0.668202
743.300323	0.675235
743.629683	0.681968
743.958996	0.684073
744.288260	0.688168
744.617477	0.694750
744.946647	0.695938
745.275768	0.702462
745.604842	0.701060
745.933869	0.711405
746.262847	0.713309
746.591778	0.705495
746.920662	0.711451
747.249498	0.718415
747.578286	0.709803
747.907027	0.706104
748.235720	0.706016
748.564365	0.701957
748.892963	0.701039
749.221514	0.704569
749.550017	0.709150
749.878473	0.709825
750.206881	0.715988
750.535242	0.716089
750.863555	0.715520
751.191821	0.716430
751.520039	0.720111
751.848210	0.724917
752.176334	0.717705
752.504411	0.716700
752.832440	0.724291
753.160421	0.728910
753.488356	0.725784
753.816243	0.724329
754.144082	0.733315
754.471875	0.736989
754.799620	0.732556
755.127318	0.733681
755.454969	0.733651
755.782572	0.733831
756.110129	0.737712
756.437638	0.740994
756.765100	0.737212
757.092515	0.734886
757.419882	0.733846
757.747203	0.739108
758.074477	0.739065
758.401703	0.736291
758.728882	0.731198
759.056014	0.729712
759.383099	0.728977
759.710138	0.729365
760.037129	0.725274
760.364073	0.720320
760.690970	0.723328
761.017820	0.727050
761.344623	0.724146
761.671379	0.714720
761.998088	0.703111
762.324751	0.679838
762.651366	0.636724
762.977935	0.569480
763.304456	0.516624
763.630931	0.508340
763.957359	0.547222
764.283740	0.591668
764.610074	0.619433
764.936362	0.651315
765.262602	0.678634
765.588796	0.700091
765.914943	0.717463
766.241044	0.735320
766.567097	0.741961
766.893104	0.752039
767.219064	0.758191
767.544978	0.765040
767.870845	0.778229
768.196665	0.782842
768.522438	0.781190
768.848165	0.782434
769.173846	0.791205
769.499479	0.795573
769.825066	0.799971
770.150607	0.803878
770.476101	0.799561
770.801548	0.800981
771.126949	0.813505
771.452303	0.817223
771.777611	0.814917
772.102872	0.813575
772.428087	0.819750
772.753256	0.823630
773.078378	0.824750
773.403453	0.833295
773.728482	0.838062
774.053465	0.831803
774.378401	0.835168
774.703291	0.845207
775.028135	0.844641
775.352932	0.844552
775.677683	0.848929
776.002388	0.849492
776.327046	0.849367
776.651658	0.852034
776.976224	0.855634
777.300743	0.855419
777.625216	0.857760
777.949643	0.859013
778.274024	0.858410
778.598359	0.861522
778.922647	0.858529
779.246889	0.859964
779.571086	0.863342
779.895236	0.865793
780.219339	0.863870
780.543397	0.858540
780.867409	0.858259
781.191374	0.860334
781.515294	0.863015
781.839167	0.861636
782.162995	0.864074
782.486776	0.861487
782.810511	0.862002
783.134201	0.866967
783.457844	0.864015
783.781441	0.867672
784.104993	0.873187
784.428498	0.873093
784.751958	0.870136
785.075372	0.871073
785.398739	0.874785
785.722061	0.870758
786.045337	0.866339
786.368568	0.871098
786.691752	0.872425
787.014891	0.859692
787.337983	0.849965
787.661030	0.843155
787.984031	0.825467
788.306987	0.812783
788.629897	0.812862
788.952760	0.819208
789.275579	0.822305
789.598351	0.839121
789.921078	0.853205
790.243759	0.853881
790.566395	0.858354
790.888984	0.865819
791.211529	0.871566
791.534027	0.873220
791.856480	0.876317
792.178888	0.881406
792.501249	0.884152
792.823566	0.886382
793.145836	0.885416
793.468062	0.887480
793.790241	0.888650
794.112375	0.884672
794.434464	0.881798
794.756507	0.881379
795.078505	0.878823
795.400457	0.874313
795.722364	0.862580
796.044226	0.856376
796.366042	0.854045
796.687812	0.857166
797.009538	0.852224
797.331218	0.856942
797.652852	0.861464
797.974442	0.865251
798.295986	0.867218
798.617484	0.868516
798.938938	0.873298
799.260346	0.878130
799.581709	0.878931
799.903026	0.882372
800.224299	0.882654
800.545526	0.886463
800.866708	0.890864
801.187845	0.894687
801.508936	0.894766
801.829983	0.891285
802.150984	0.895529
802.471940	0.900342
802.792851	0.899364
803.113717	0.900645
803.434538	0.898730
803.755314	0.901606
804.076045	0.902683
804.396731	0.902317
804.717372	0.900937
805.037967	0.904602
805.358518	0.903001
805.679024	0.898936
805.999485	0.899977
806.319901	0.898859
806.640272	0.902040
806.960598	0.899416
807.280879	0.896064
807.601115	0.895279
807.921306	0.899163
808.241453	0.899401
808.561554	0.897571
808.881611	0.896546
809.201623	0.897628
809.521590	0.899098
809.841513	0.900725
810.161390	0.898048
810.481223	0.899627
810.801011	0.903857
811.120755	0.905716
811.440453	0.903145
811.760107	0.904444
812.079716	0.903597
812.399281	0.906674
812.718801	0.908952
813.038276	0.909569
813.357707	0.910202
813.677093	0.907612
813.996434	0.909884
814.315731	0.911834
814.634983	0.913170
814.954191	0.911669
815.273354	0.906824
815.592473	0.904060
815.911547	0.905229
816.230577	0.900649
816.549562	0.898530
816.868502	0.897817
817.187399	0.896185
817.506250	0.890486
817.825058	0.891277
818.143821	0.887885
818.462539	0.883547
818.781213	0.874761
819.099843	0.864360
819.418429	0.847327
819.736970	0.830400
820.055466	0.810786
820.373919	0.783405
820.692327	0.750948
821.010691	0.714745
821.329011	0.634075
821.647286	0.517239
821.965517	0.403152
822.283704	0.359788
822.601847	0.360547
822.919945	0.396428
823.237999	0.431136
823.556010	0.478935
823.873976	0.535300
824.191897	0.586649
824.509775	0.630568
824.827609	0.676227
825.145398	0.699563
825.463144	0.701505
825.780845	0.683654
826.098502	0.666181
826.416116	0.619391
826.733685	0.574516
827.051210	0.565177
827.368692	0.580798
827.686129	0.619106
828.003522	0.674060
828.320872	0.722099
828.638177	0.766786
828.955439	0.799556
829.272656	0.821457
829.589830	0.839592
829.906960	0.855608
830.224046	0.868090
830.541088	0.878753
830.858086	0.883067
831.175041	0.890249
831.491952	0.888947
831.808819	0.886102
832.125642	0.876972
832.442421	0.865047
832.759157	0.841336
833.075849	0.793528
833.392497	0.728665
833.709101	0.687673
834.025662	0.696696
834.342179	0.729355
834.658653	0.770172
834.975083	0.805650
835.291469	0.833504
835.607811	0.856337
835.924110	0.873142
836.240366	0.890074
836.556578	0.902378
836.872746	0.910839
837.188871	0.917415
837.504952	0.922828
837.820990	0.925875
838.136984	0.930770
838.452935	0.933099
838.768842	0.935117
839.084706	0.927691
839.400526	0.901935
839.716303	0.858926
840.032037	0.838238
840.347727	0.840919
840.663373	0.859412
840.978977	0.881605
841.294537	0.905234
841.610054	0.920954
841.925527	0.927972
842.240957	0.936059
842.556344	0.943474
842.871687	0.948408
843.186987	0.952052
843.502244	0.954305
843.817458	0.954872
844.132629	0.958976
844.447756	0.964352
844.762840	0.964366
845.077881	0.965452
845.392879	0.962639
845.707833	0.965289
846.022745	0.967617
846.337613	0.968977
846.652438	0.969561
846.967221	0.969837
847.281960	0.969755
847.596656	0.972095
847.911309	0.971012
848.225919	0.970657
848.540485	0.973918
848.855009	0.974780
849.169490	0.973246
849.483928	0.973195
849.798323	0.972728
850.112675	0.973930
850.426984	0.974398
850.741251	0.973869
851.055474	0.974432
851.369654	0.972519
851.683792	0.972845
851.997887	0.974074
852.311938	0.974969
852.625947	0.972207
852.939914	0.972603
853.253837	0.973623
853.567718	0.975643
853.881555	0.975337
854.195350	0.973154
854.509103	0.973385
854.822812	0.974937
855.136479	0.974656
855.450103	0.973518
855.763685	0.973313
856.077224	0.973905
856.390720	0.975595
856.704173	0.973914
857.017584	0.972579
857.330953	0.972083
857.644278	0.971375
857.957561	0.972963
858.270802	0.973221
858.584000	0.972272
858.897155	0.970863
859.210268	0.970794
859.523339	0.973355
859.836367	0.974712
860.149352	0.973514
860.462295	0.974165
860.775195	0.973095
861.088054	0.973276
861.400869	0.974271
861.713642	0.974589
862.026373	0.974811
862.339062	0.975420
862.651708	0.971992
862.964312	0.973428
863.276873	0.974505
863.589392	0.971595
863.901869	0.970299
864.214303	0.968603
864.526696	0.967404
864.839045	0.967524
865.151353	0.965965
865.463619	0.965212
865.775842	0.966502
866.088023	0.967228
866.400162	0.966381
866.712258	0.966549
867.024313	0.966480
867.336325	0.968689
867.648296	0.968096
867.960224	0.964651
868.272110	0.966175
868.583954	0.968244
868.895755	0.968484
869.207515	0.965972
869.519233	0.964280
869.830909	0.963542
870.142542	0.965937
870.454134	0.965461
870.765684	0.964204
871.077191	0.962991
871.388657	0.962137
871.700081	0.962376
872.011463	0.962732
872.322803	0.961886
872.634101	0.960031
872.945357	0.956970
873.256571	0.954802
873.567744	0.957375
873.878874	0.958178
874.189963	0.957427
874.501010	0.956930
874.812015	0.952865
875.122979	0.953584
875.433900	0.956401
875.744780	0.957454
876.055618	0.953449
876.366415	0.953815
876.677169	0.953721
876.987882	0.954955
877.298554	0.954146
877.609183	0.950894
877.919771	0.948992
878.230317	0.946423
878.540822	0.943416
878.851285	0.938709
879.161707	0.929706
879.472087	0.917934
879.782425	0.899395
880.092722	0.864226
880.402977	0.811095
880.713191	0.746872
881.023363	0.685918
881.333494	0.651679
881.643583	0.624174
881.953631	0.624184
882.263637	0.651622
882.573602	0.692391
882.883526	0.719327
883.193408	0.744522
883.503248	0.767834
883.813048	0.795678
884.122806	0.826623
884.432522	0.850125
884.742197	0.870681
885.051831	0.881260
885.361424	0.891534
885.670975	0.904790
885.980485	0.914935
886.289954	0.921250
886.599382	0.925857
886.908768	0.930633
887.218113	0.936117
887.527417	0.941446
887.836680	0.944936
888.145901	0.946590
888.455082	0.950437
888.764221	0.954149
889.073319	0.955912
889.382376	0.956190
889.691392	0.954922
890.000366	0.956538
890.309300	0.956593
890.618193	0.956487
890.927044	0.954647
891.235855	0.954311
891.544625	0.955659
891.853353	0.954961
892.162041	0.951200
892.470687	0.945692
892.779293	0.940469
893.087858	0.935638
893.396381	0.927652
893.704864	0.913892
894.013306	0.889442
894.321707	0.863563
894.630068	0.847321
894.938387	0.841013
895.246665	0.844106
895.554903	0.856825
895.863100	0.870787
896.171256	0.888547
896.479371	0.907840
896.787446	0.921336
897.095480	0.926828
897.403473	0.930285
897.711425	0.934567
898.019336	0.941778
898.327207	0.948251
898.635038	0.947264
898.942827	0.948771
899.250576	0.951392
899.558284	0.956165
899.865952	0.956705
900.173579	0.958842
900.481165	0.958457
900.788711	0.961733
901.096216	0.965531
901.403681	0.965483
901.711105	0.966241
902.018489	0.965496
902.325832	0.966384
902.633135	0.965175
902.940397	0.959772
903.247619	0.944746
903.554800	0.919944
903.861941	0.879911
904.169041	0.840372
904.476101	0.823182
904.783121	0.824194
905.090100	0.841406
905.397039	0.863683
905.703938	0.885715
906.010796	0.905884
906.317614	0.923662
906.624391	0.937814
906.931129	0.946068
907.237826	0.955991
907.544483	0.960901
907.851099	0.966690
908.157675	0.969868
908.464211	0.974620
908.770707	0.975462
909.077163	0.978617
909.383578	0.978862
909.689954	0.979384
909.996289	0.979828
910.302584	0.982234
910.608839	0.983985
910.915054	0.983306
911.221229	0.983471
911.527363	0.982165
911.833458	0.982507
912.139513	0.981100
912.445527	0.981845
912.751502	0.978082
913.057436	0.976452
913.363331	0.974753
913.669186	0.971435
913.975000	0.964890
914.280775	0.958323
914.586510	0.950537
914.892205	0.937328
915.197859	0.914462
915.503475	0.886986
915.809050	0.865363
916.114585	0.860599
916.420081	0.857382
916.725536	0.853753
917.030952	0.862085
917.336328	0.875555
917.641665	0.890882
917.946961	0.908214
918.252218	0.919221
918.557435	0.929327
918.862612	0.937858
919.167750	0.943812
919.472848	0.949832
919.777906	0.955956
920.082925	0.961753
920.387904	0.964925
920.692843	0.965839
920.997743	0.967052
921.302603	0.970656
921.607423	0.972836
921.912204	0.975609
922.216946	0.976667
922.521647	0.978109
922.826310	0.977715
923.130932	0.980715
923.435516	0.983971
923.740059	0.983184
924.044564	0.982880
924.349028	0.983610
924.653454	0.986561
924.957840	0.987190
925.262186	0.988058
925.566493	0.987780
925.870761	0.989238
926.174989	0.989030
926.479178	0.991791
926.783328	0.991299
927.087438	0.992789
927.391509	0.993091
927.695541	0.993208
927.999533	0.994073
928.303486	0.994531
928.607400	0.994464
928.911275	0.995027
929.215110	0.995202
929.518906	0.994832
929.822663	0.996814
930.126381	0.995827
930.430060	0.995708
930.733699	0.995712
931.037299	0.994632
931.340861	0.994612
931.644383	0.993759
931.947866	0.995262
932.251309	0.994024
932.554714	0.994906
932.858080	0.995699
933.161407	0.993426
933.464694	0.995096
933.767943	0.995451
934.071153	0.995230
934.374323	0.996013
934.677455	0.994846
934.980548	0.995348
935.283602	0.996124
935.586617	0.995456
935.889593	0.996523
936.192530	0.996872
936.495428	0.996025
936.798287	0.995360
937.101108	0.994143
937.403890	0.993879
937.706632	0.993506
938.009336	0.990710
938.312002	0.989258
938.614628	0.988926
938.917216	0.987470
939.219765	0.986138
939.522275	0.986853
939.824747	0.986625
940.127179	0.988440
940.429573	0.989060
940.731929	0.987916
941.034246	0.988750
941.336524	0.989028
941.638763	0.990334
941.940964	0.989357
942.243126	0.991196
942.545250	0.991318
942.847335	0.991729
943.149381	0.991928
943.451389	0.991293
943.753359	0.993757
944.055290	0.995034
944.357182	0.995622
944.659036	0.994538
944.960851	0.994890
945.262628	0.994926
945.564367	0.994318
945.866067	0.994011
946.167729	0.994326
946.469352	0.994503
946.770937	0.992879
947.072484	0.995282
947.373992	0.994352
947.675462	0.994417
947.976893	0.994001
948.278286	0.996757
948.579641	0.997063
948.880958	0.995494
949.182236	0.996405
949.483476	0.995272
949.784678	0.995947
950.085841	0.995757
950.386967	0.995195
950.688054	0.996390
950.989103	0.993539
951.290114	0.993459
951.591087	0.993613
951.892021	0.993002
952.192917	0.993688
952.493776	0.992904
952.794596	0.992712
953.095378	0.991892
953.396122	0.991630
953.696828	0.993128
953.997496	0.994276
954.298126	0.995233
954.598718	0.994781
954.899272	0.996036
955.199788	0.995624
955.500266	0.997057
955.800706	0.995938
956.101108	0.996801
956.401472	0.999155
956.701798	0.998015
957.002087	0.999966
957.302337	0.998384
957.602550	1.000264
957.902724	0.999627
958.202861	0.999530
958.502960	0.998938
958.803022	1.000629
959.103045	0.999617
959.403031	1.000496
959.702979	1.002048
960.002889	0.999925
960.302762	1.001183
960.602596	1.001749
960.902393	1.002274
961.202153	1.001001
961.501875	1.001965
961.801559	1.001064
962.101205	1.001798
962.400814	1.002572
962.700385	1.001321
962.999918	1.001623
963.299414	1.000755
963.598873	1.002051
963.898293	1.001540
964.197677	1.001730
964.497022	1.001711
964.796331	1.002245
965.095601	1.003088
965.394835	0.999942
965.694030	1.002520
965.993189	1.001489
966.292309	1.002474
966.591393	1.000200
966.890439	1.002888
967.189447	1.003058
967.488419	1.001889
967.787353	1.002274
968.086249	1.002507
968.385108	1.002673
968.683930	1.002943
968.982714	1.002841
969.281462	1.001983
969.580172	1.002034
969.878844	1.002509
970.177480	1.002676
970.476078	1.002432
970.774639	1.002555
971.073162	1.001792
971.371649	1.001125
971.670098	1.000605
971.968510	1.001465
972.266885	1.000400
972.565223	1.000210
972.863524	1.000410
973.161788	1.001382
973.460014	1.002697
973.758204	0.999919
974.056356	1.001765
974.354471	1.001858
974.652550	1.001461
974.950591	1.000450
975.248595	1.000628
975.546563	1.002410
975.844493	1.002266
976.142386	1.000163
976.440243	1.001813
976.738062	1.001516
977.035845	1.000469
977.333590	1.002692
977.631299	1.000627
977.928971	1.002683
978.226606	1.002767
978.524204	1.002086
978.821765	1.002275
979.119290	1.002900
979.416777	1.002552
979.714228	1.002651
980.011642	1.002509
980.309020	1.001208
980.606360	1.001763
980.903664	1.002335
981.200931	1.000385
981.498162	1.001589
981.795356	1.000168
982.092513	0.999710
982.389633	0.999563
982.686717	0.996591
982.983764	0.996844
983.280775	0.996365
983.577749	0.995189
983.874686	0.995144
984.171587	0.996678
984.468451	0.998573
984.765279	0.999468
985.062070	1.001107
985.358824	1.000688
985.655543	1.000969
985.952224	1.001401
986.248869	1.001583
986.545478	1.003711
986.842050	1.001720
987.138586	1.002417
987.435086	1.002233
987.731549	1.003494
988.027975	1.003062
988.324366	1.002614
988.620719	1.003599
988.917037	1.003893
989.213318	1.003314
989.509563	1.002066
989.805772	1.003363
990.101944	1.003313
990.398080	1.003325
990.694180	1.003511
990.990244	1.002434
991.286271	1.004188
991.582262	1.004297
991.878217	1.003307
992.174136	1.003854
992.470019	1.004037
992.765865	1.003738
993.061676	1.002787
993.357450	1.003895
993.653188	1.003935
993.948890	1.003346
994.244556	1.003362
994.540186	1.003259
994.835780	1.002935
995.131337	1.002384
995.426859	1.002327
995.722345	1.002066
996.017795	1.002154
996.313208	1.001192
996.608586	1.001215
996.903928	1.001591
997.199234	1.001478
997.494504	1.001926
997.789738	1.001009
998.084936	1.002259
998.380099	1.001824
998.675225	1.002587
998.970316	1.002441
999.265371	1.002622
999.560390	1.003495
999.855373	1.002787
1000.150320	1.003353
1000.445232	1.003469
1000.740108	1.004195
1001.034948	1.003258
1001.329752	1.004982
1001.624521	1.003940
1001.919254	1.002775
1002.213951	1.003847
1002.508613	1.001984
1002.803239	1.003976
1003.097829	1.004204
1003.392384	1.003865
1003.686903	1.004496
1003.981386	1.003796
1004.275834	1.004844
1004.570246	1.003749
1004.864623	1.004766
1005.158964	1.003520
1005.453270	1.003137
1005.747540	1.004039
1006.041775	1.003496
1006.335974	1.003750
1006.630138	1.003851
1006.924266	1.002186
1007.218359	1.002424
1007.512416	1.005091
1007.806438	1.003403
1008.100425	1.003763
1008.394376	1.004773
1008.688292	1.003327
1008.982172	1.003976
1009.276017	1.002519
1009.569827	1.004525
1009.863602	1.002626
1010.157341	1.003875
1010.451045	1.002990
1010.744714	1.004607
1011.038347	1.004394
1011.331945	1.002930
1011.625508	1.004131
1011.919036	1.004027
1012.212528	1.005190
1012.505986	1.004049
1012.799408	1.005055
1013.092795	1.004902
1013.386147	1.003797
1013.679464	1.004636
1013.972745	1.002445
1014.265992	1.004172
1014.559204	1.003431
1014.852380	1.004865
1015.145521	1.003699
1015.438628	1.004477
1015.731699	1.002906
1016.024736	1.004036
1016.317737	1.004724
1016.610703	1.004826
1016.903635	1.004338
1017.196531	1.003684
1017.489393	1.004523
1017.782219	1.002925
1018.075011	1.002485
1018.367768	1.003604
1018.660490	1.003533
1018.953177	1.003533
1019.245829	1.003533
