Dividing Wavelength (nm)	Counts (n)	Blue Motor Position (mm): 49.200000	Red Motor Position (mm): 0.000000	
326.493990	0.999387
326.888308	0.999387
327.282561	0.999387
327.676750	0.999811
328.070874	1.001132
328.464933	0.999106
328.858929	1.001096
329.252859	0.999454
329.646726	1.000418
330.040528	0.999849
330.434265	1.000731
330.827938	0.999977
331.221547	1.000228
331.615091	1.000303
332.008571	1.000618
332.401986	0.999643
332.795338	1.000693
333.188625	1.000194
333.581847	1.000364
333.975006	1.000969
334.368100	1.000322
334.761129	0.998427
335.154095	1.000778
335.546996	1.000074
335.939833	0.998857
336.332606	1.002004
336.725315	0.999317
337.117960	1.001605
337.510540	0.998984
337.903056	1.000710
338.295508	1.001637
338.687896	0.999833
339.080220	0.999882
339.472480	1.000131
339.864676	1.000579
340.256807	0.999989
340.648875	1.000492
341.040879	0.998874
341.432818	1.000431
341.824694	1.000098
342.216506	1.001739
342.608253	0.999791
342.999937	1.000001
343.391557	0.999811
343.783113	1.001048
344.174605	1.000578
344.566033	0.999347
344.957397	1.000143
345.348697	1.001692
345.739934	1.000891
346.131106	1.000257
346.522215	1.000720
346.913260	1.000427
347.304241	0.999338
347.695159	1.001383
348.086012	1.000887
348.476802	0.999834
348.867528	0.999562
349.258191	1.001007
349.648789	1.000281
350.039324	0.999987
350.429796	0.999342
350.820203	0.999309
351.210548	1.000736
351.600828	0.999916
351.991045	1.000871
352.381198	1.001086
352.771288	0.999782
353.161314	1.000298
353.551276	1.000479
353.941175	0.998158
354.331010	1.000987
354.720782	1.000394
355.110490	1.000796
355.500135	1.000944
355.889717	0.998934
356.279235	0.999633
356.668689	1.000161
357.058080	1.000339
357.447408	0.998411
357.836672	1.000512
358.225873	0.999657
358.615010	1.000320
359.004084	0.998898
359.393095	1.000105
359.782043	0.999313
360.170927	1.000654
360.559748	1.000102
360.948505	1.000370
361.337199	0.999778
361.725830	1.001108
362.114398	1.000341
362.502903	0.999883
362.891344	0.999331
363.279722	0.998690
363.668037	1.001359
364.056289	0.999252
364.444478	1.001204
364.832603	1.000031
365.220665	1.001526
365.608665	1.000293
365.996601	0.999204
366.384474	0.999060
366.772284	0.999405
367.160031	0.997863
367.547715	0.999395
367.935336	0.998900
368.322893	0.999049
368.710388	0.997985
369.097820	0.998393
369.485189	0.995966
369.872495	0.995502
370.259738	0.995452
370.646918	0.996020
371.034035	0.995299
371.421090	0.995752
371.808081	0.993429
372.195010	0.993964
372.581875	0.993404
372.968678	0.992731
373.355418	0.992482
373.742096	0.991850
374.128710	0.992087
374.515262	0.991392
374.901751	0.992145
375.288177	0.990212
375.674540	0.991111
376.060841	0.992054
376.447079	0.990634
376.833254	0.990946
377.219367	0.991977
377.605417	0.990932
377.991404	0.992322
378.377329	0.993274
378.763191	0.992161
379.148991	0.993369
379.534727	0.992808
379.920402	0.991719
380.306013	0.992283
380.691563	0.994159
381.077049	0.994424
381.462474	0.993818
381.847835	0.993847
382.233134	0.994522
382.618371	0.995439
383.003545	0.995229
383.388657	0.995051
383.773706	0.996436
384.158693	0.996684
384.543618	0.997276
384.928480	0.997356
385.313280	0.997689
385.698017	0.996275
386.082692	0.997518
386.467305	0.997174
386.851856	0.999055
387.236344	0.998209
387.620770	0.999242
388.005133	0.998398
388.389435	0.998716
388.773674	0.999155
389.157851	0.999626
389.541965	0.999659
389.926018	0.999793
390.310008	0.999670
390.693936	1.000053
391.077802	0.999381
391.461606	0.998936
391.845348	1.000052
392.229027	0.999054
392.612645	0.999973
392.996200	1.000382
393.379694	0.998770
393.763125	0.999924
394.146494	0.999000
394.529801	0.999089
394.913047	0.998034
395.296230	0.999311
395.679351	0.998239
396.062410	0.999923
396.445408	0.999214
396.828343	1.000090
397.211217	0.998755
397.594028	0.998251
397.976778	1.000298
398.359466	0.999034
398.742092	0.999832
399.124656	0.999197
399.507158	0.999182
399.889598	1.000097
400.271977	0.999941
400.654294	0.998864
401.036549	0.999754
401.418742	0.999781
401.800874	1.000180
402.182944	0.998465
402.564952	0.999350
402.946898	1.000332
403.328783	0.999835
403.710606	0.999522
404.092367	0.999564
404.474067	1.000565
404.855705	0.999962
405.237282	0.999520
405.618797	0.999771
406.000250	0.999257
406.381642	0.999413
406.762972	1.000300
407.144240	0.999577
407.525447	0.998865
407.906593	0.998922
408.287677	0.999591
408.668700	0.999659
409.049661	0.999713
409.430560	0.998499
409.811399	0.999558
410.192176	0.999820
410.572891	1.000698
410.953545	0.999430
411.334138	0.999646
411.714669	0.998938
412.095139	1.000631
412.475547	1.000213
412.855894	1.000418
413.236180	1.000453
413.616405	0.999568
413.996568	0.999265
414.376670	0.999246
414.756711	0.998432
415.136691	0.998989
415.516609	0.999430
415.896466	0.999616
416.276262	0.999114
416.655997	1.000135
417.035670	0.999391
417.415283	0.999802
417.794834	1.000078
418.174324	1.000251
418.553753	0.999340
418.933121	0.999617
419.312428	1.000163
419.691674	0.999910
420.070859	1.000453
420.449983	0.999856
420.829045	0.999595
421.208047	1.000271
421.586988	0.999204
421.965867	0.999674
422.344686	0.999916
422.723444	0.999291
423.102141	0.999967
423.480777	0.998982
423.859352	1.000254
424.237866	1.000270
424.616319	1.000064
424.994712	1.000200
425.373044	1.000547
425.751314	0.998966
426.129524	1.000435
426.507673	0.999243
426.885762	0.999508
427.263789	0.998808
427.641756	0.999737
428.019662	1.000081
428.397508	0.998796
428.775292	0.999297
429.153016	0.999435
429.530679	0.999766
429.908282	1.000962
430.285824	0.999446
430.663305	0.999628
431.040726	0.999208
431.418086	1.000300
431.795385	0.999094
432.172624	1.000265
432.549802	0.999645
432.926920	0.999141
433.303977	0.999513
433.680974	1.000361
434.057910	1.000037
434.434786	0.999212
434.811601	0.999897
435.188355	1.000385
435.565050	1.000259
435.941683	0.999115
436.318257	0.998888
436.694770	0.999821
437.071222	1.000427
437.447614	0.999843
437.823946	0.999119
438.200218	0.999165
438.576429	0.999355
438.952580	0.999881
439.328670	0.999500
439.704700	0.999218
440.080670	1.000439
440.456580	1.000521
440.832429	0.999654
441.208218	0.999120
441.583947	0.999464
441.959616	0.998699
442.335224	1.000734
442.710773	1.000215
443.086261	0.999772
443.461689	0.999406
443.837057	0.999724
444.212365	1.000063
444.587612	1.000896
444.962800	0.999458
445.337927	1.000212
445.712995	1.000245
446.088002	0.999333
446.462949	0.999760
446.837837	1.000380
447.212664	0.999580
447.587431	1.000315
447.962139	0.999476
448.336786	0.999216
448.711374	0.999216
449.085901	1.000741
449.460369	1.000235
449.834776	0.999486
450.209124	0.999412
450.583412	0.999633
450.957640	0.998917
451.331808	1.000240
451.705917	0.998184
452.079965	0.999978
452.453954	0.999933
452.827883	1.000151
453.201752	0.999255
453.575562	0.999339
453.949311	1.000220
454.323001	0.999480
454.696632	1.000588
455.070202	0.999298
455.443713	0.999299
455.817164	0.999093
456.190556	0.999858
456.563888	1.000428
456.937160	0.999997
457.310373	0.999546
457.683526	0.999687
458.056619	0.999770
458.429653	0.999525
458.802628	0.999787
459.175542	0.999945
459.548398	0.999950
459.921194	1.000156
460.293930	1.001048
460.666607	1.000172
461.039224	0.999444
461.411782	0.999817
461.784280	0.999252
462.156719	0.999815
462.529099	0.999597
462.901419	0.999996
463.273680	0.999423
463.645882	0.999618
464.018024	0.999914
464.390106	0.999716
464.762130	0.999640
465.134094	0.998966
465.505999	0.999797
465.877845	0.998797
466.249631	0.999262
466.621358	0.998600
466.993026	0.999268
467.364634	0.999905
467.736184	0.999975
468.107674	0.999906
468.479105	0.999825
468.850477	1.000100
469.221790	1.000004
469.593043	1.000229
469.964238	0.999540
470.335373	1.000019
470.706449	1.000022
471.077467	0.999752
471.448425	0.999157
471.819324	1.000027
472.190164	0.999226
472.560945	0.999916
472.931667	0.999413
473.302330	1.000611
473.672934	1.000054
474.043479	0.999260
474.413965	1.000327
474.784393	0.999794
475.154761	0.999203
475.525070	0.999756
475.895321	1.000417
476.265513	1.000045
476.635645	1.000742
477.005719	0.999705
477.375734	0.999835
477.745691	0.999781
478.115588	0.999118
478.485427	0.999708
478.855207	0.999963
479.224928	0.999422
479.594591	0.999764
479.964194	0.999180
480.333739	0.999780
480.703226	0.999442
481.072653	0.999339
481.442022	0.999574
481.811333	0.999591
482.180584	0.999710
482.549777	0.999539
482.918912	0.999284
483.287988	1.000101
483.657005	1.000447
484.025964	0.999856
484.394864	1.000201
484.763706	0.999842
485.132489	1.000147
485.501213	0.999530
485.869879	0.999622
486.238487	0.998787
486.607036	0.999917
486.975527	0.999358
487.343959	0.999334
487.712333	0.999933
488.080648	0.999827
488.448905	0.999996
488.817104	0.999424
489.185244	0.999683
489.553326	1.000146
489.921350	0.999976
490.289315	0.999614
490.657222	0.998904
491.025070	0.999944
491.392861	0.999865
491.760593	1.000078
492.128267	0.999713
492.495883	0.999046
492.863440	1.000275
493.230939	1.000088
493.598380	0.999934
493.965763	0.999593
494.333088	0.999540
494.700354	0.999841
495.067563	0.999167
495.434713	0.999689
495.801805	0.999797
496.168839	0.999877
496.535815	0.999782
496.902733	0.999435
497.269593	0.999431
497.636395	0.999090
498.003139	0.999028
498.369825	1.000315
498.736453	0.999128
499.103023	0.999878
499.469535	0.999581
499.835989	0.999560
500.202385	0.999925
500.568723	0.999191
500.935003	1.000208
501.301226	0.999921
501.667390	0.999581
502.033497	0.999721
502.399546	0.999540
502.765537	0.999942
503.131470	0.999226
503.497345	0.999937
503.863163	0.999637
504.228923	0.999082
504.594625	0.999489
504.960269	0.999988
505.325856	1.000363
505.691385	1.000293
506.056856	0.999445
506.422270	1.000523
506.787625	0.999737
507.152924	1.000046
507.518164	0.999626
507.883347	0.999507
508.248472	0.999499
508.613540	0.999480
508.978550	0.999760
509.343503	0.999696
509.708398	1.000816
510.073236	0.999896
510.438016	0.998668
510.802738	0.999053
511.167403	0.999460
511.532010	0.999647
511.896561	0.999791
512.261053	0.999113
512.625488	0.999599
512.989866	0.999924
513.354186	0.999322
513.718449	0.999948
514.082655	0.998905
514.446803	0.999885
514.810894	0.999623
515.174927	0.999914
515.538904	0.999895
515.902822	0.999251
516.266684	0.999676
516.630488	0.999680
516.994235	0.999791
517.357925	0.999666
517.721558	0.999402
518.085133	0.999424
518.448651	0.999453
518.812112	0.999502
519.175516	0.999690
519.538863	0.999312
519.902152	1.000486
520.265385	0.999107
520.628560	0.998766
520.991678	1.000103
521.354739	1.000295
521.717743	0.999343
522.080690	0.999237
522.443580	0.999197
522.806413	0.999857
523.169189	1.000073
523.531908	0.999457
523.894569	0.999723
524.257174	0.999681
524.619722	0.999659
524.982213	0.999704
525.344647	0.999871
525.707025	0.999316
526.069345	0.998714
526.431608	0.999738
526.793815	0.999850
527.155964	1.000057
527.518057	0.999954
527.880093	0.999617
528.242072	0.999303
528.603995	0.999917
528.965860	0.999979
529.327669	1.000201
529.689421	0.999318
530.051117	0.999839
530.412755	1.000112
530.774337	0.999644
531.135862	0.999880
531.497331	0.999188
531.858743	0.999773
532.220098	0.999447
532.581396	1.000089
532.942638	1.000147
533.303824	1.000423
533.664953	0.999848
534.026025	1.000185
534.387040	0.999398
534.747999	0.999087
535.108902	0.999160
535.469748	1.000532
535.830537	0.999501
536.191270	0.999740
536.551947	0.999722
536.912567	0.999752
537.273131	1.000594
537.633638	0.999816
537.994089	1.000470
538.354483	0.999980
538.714821	1.000112
539.075103	1.000188
539.435328	1.000015
539.795497	0.999591
540.155609	0.999434
540.515665	0.999884
540.875665	1.000113
541.235609	0.999743
541.595496	0.999085
541.955328	0.999389
542.315102	0.999915
542.674821	1.000334
543.034483	1.000170
543.394090	0.999724
543.753640	0.999953
544.113134	0.999215
544.472571	1.000132
544.831953	1.000127
545.191278	0.999762
545.550548	0.999341
545.909761	0.999401
546.268918	1.000561
546.628019	0.999788
546.987064	0.999509
547.346053	0.999049
547.704986	0.999069
548.063863	0.999746
548.422684	1.000097
548.781449	0.999894
549.140158	1.000070
549.498811	0.999769
549.857408	0.999126
550.215949	0.999246
550.574434	0.999614
550.932864	0.999945
551.291237	0.999634
551.649555	1.000578
552.007817	0.999697
552.366022	0.999669
552.724173	0.999597
553.082267	1.000114
553.440305	0.999306
553.798288	0.999373
554.156215	0.999509
554.514086	0.999846
554.871902	1.000359
555.229661	0.999597
555.587365	0.999904
555.945014	1.000196
556.302606	0.999828
556.660143	0.999713
557.017625	0.999691
557.375050	0.999272
557.732421	0.999539
558.089735	0.999315
558.446994	0.999575
558.804197	0.999832
559.161345	0.999228
559.518437	0.999400
559.875474	1.000218
560.232455	1.000188
560.589381	0.999750
560.946251	0.999472
561.303065	1.000041
561.659825	0.999677
562.016528	1.000088
562.373177	0.999866
562.729770	0.999919
563.086307	0.999366
563.442789	1.000373
563.799216	0.998876
564.155587	1.000746
564.511904	1.000410
564.868164	0.999066
565.224370	1.000282
565.580520	1.000129
565.936615	0.999905
566.292654	0.999543
566.648638	1.000442
567.004567	0.999241
567.360441	1.000318
567.716260	1.000145
568.072023	0.998915
568.427732	0.999663
568.783385	0.999394
569.138982	0.999988
569.494525	0.999884
569.850013	1.000709
570.205445	1.000193
570.560823	0.999540
570.916145	0.999856
571.271412	1.000064
571.626625	0.999903
571.981782	0.999842
572.336884	1.000509
572.691931	0.999753
573.046923	1.000247
573.401860	1.000372
573.756743	1.000377
574.111570	1.000214
574.466342	1.000385
574.821059	0.999310
575.175722	0.999838
575.530330	0.999737
575.884882	0.999527
576.239380	0.999863
576.593823	1.000264
576.948211	0.999540
577.302544	1.000201
577.656823	1.000088
578.011047	0.999034
578.365216	1.000947
578.719330	1.000082
579.073389	0.999001
579.427394	0.999474
579.781344	1.000806
580.135239	0.999449
580.489080	0.999969
580.842866	1.000164
581.196597	0.999691
581.550273	1.000261
581.903895	1.000406
582.257463	0.999729
582.610975	0.999806
582.964434	0.999903
583.317837	1.000704
583.671186	1.000327
584.024481	0.999977
584.377721	0.999626
584.730906	1.000549
585.084037	1.000555
585.437113	1.000857
585.790135	1.000061
586.143103	0.999596
586.496016	0.999608
586.848874	1.000630
587.201679	1.000175
587.554428	0.999392
587.907124	1.000065
588.259765	1.000089
588.612352	1.000190
588.964884	0.999950
589.317362	0.999813
589.669786	0.999320
590.022155	0.999584
590.374470	0.999805
590.726731	0.999871
591.078937	1.000141
591.431090	1.000344
591.783188	1.000085
592.135232	1.000951
592.487222	1.000131
592.839157	0.999764
593.191038	0.999557
593.542866	0.999638
593.894639	0.998937
594.246358	1.000715
594.598022	1.000099
594.949633	1.000011
595.301190	0.999239
595.652692	0.999565
596.004141	0.999970
596.355535	0.999927
596.706876	1.000414
597.058162	0.999760
597.409395	1.000350
597.760573	0.999715
598.111698	1.000603
598.462768	0.999527
598.813785	0.998757
599.164748	0.999497
599.515657	0.998871
599.866511	1.000685
600.217312	1.000898
600.568060	0.999866
600.918753	0.999944
601.269392	0.999976
601.619978	0.999877
601.970510	0.999923
602.320988	0.999584
602.671412	0.999168
603.021783	1.000769
603.372100	1.000717
603.722363	1.000937
604.072572	1.000067
604.422728	0.999420
604.772830	0.999597
605.122878	0.999604
605.472872	1.000525
605.822813	0.999754
606.172701	1.000092
606.522534	1.000331
606.872314	1.000444
607.222041	0.999486
607.571714	1.000475
607.921333	1.000017
608.270899	0.999585
608.620411	0.999808
608.969870	1.001436
609.319276	0.999872
609.668627	1.000891
610.017926	0.999684
610.367171	1.000304
610.716362	1.000173
611.065500	0.999239
611.414585	1.000379
611.763616	0.999826
612.112594	0.999859
612.461518	0.999167
612.810389	1.000485
613.159207	0.999544
613.507971	0.999433
613.856682	1.000923
614.205340	0.998806
614.553945	0.999882
614.902496	0.999433
615.250994	1.000647
615.599439	1.000188
615.947830	1.000064
616.296169	1.000254
616.644454	1.000061
616.992686	1.000581
617.340864	1.000294
617.688990	0.999782
618.037063	0.999623
618.385082	1.000420
618.733048	0.999470
619.080961	1.000457
619.428821	1.000692
619.776628	0.998953
620.124382	1.000577
620.472083	1.000288
620.819731	1.001055
621.167326	1.000168
621.514868	1.000168
621.862357	0.999987
622.209793	0.999978
622.557176	0.999974
622.904506	0.999847
623.251783	1.000006
623.599007	1.000035
623.946179	0.999963
624.293297	0.999744
624.640363	1.000104
624.987376	0.999405
625.334336	1.000047
625.681243	0.999900
626.028097	1.000298
626.374899	0.999960
626.721647	1.000700
627.068343	0.999927
627.414987	0.999667
627.761577	0.999806
628.108115	0.999364
628.454600	1.000961
628.801032	0.999872
629.147412	0.999934
629.493739	1.000901
629.840014	0.999556
630.186236	0.999945
630.532405	1.000065
630.878521	0.999462
631.224585	0.999963
631.570597	0.999855
631.916556	1.000615
632.262462	0.999490
632.608316	1.000580
632.954117	0.999908
633.299866	0.999704
633.645562	0.999617
633.991206	1.000234
634.336797	0.999334
634.682336	1.001200
635.027823	0.999929
635.373257	1.000107
635.718639	1.000104
636.063968	1.000486
636.409245	0.999743
636.754470	1.000005
637.099642	1.000881
637.444762	0.999727
637.789829	1.000500
638.134845	0.999753
638.479808	1.000102
638.824719	1.000241
639.169577	1.000045
639.514383	0.999637
639.859137	1.000101
640.203839	0.999898
640.548489	0.999745
640.893086	0.998821
641.237632	0.999798
641.582125	0.999604
641.926566	1.000283
642.270955	0.999858
642.615292	0.999443
642.959576	1.000299
643.303809	1.000510
643.647990	0.999811
643.992118	1.000144
644.336195	0.999887
644.680219	1.000435
645.024192	0.999822
645.368112	0.999172
645.711981	0.999512
646.055797	0.999779
646.399562	0.999433
646.743274	1.000785
647.086935	0.998991
647.430544	0.999730
647.774101	0.999347
648.117606	1.000187
648.461059	1.000145
648.804460	1.000250
649.147810	0.999710
649.491108	1.000360
649.834354	1.000029
650.177548	1.000057
650.520690	1.000254
650.863781	0.999328
651.206820	1.000147
651.549807	0.999788
651.892742	1.000519
652.235626	1.000086
652.578458	0.999644
652.921238	0.999780
653.263967	1.000273
653.606644	0.999817
653.949269	1.000891
654.291843	0.999350
654.634365	1.000092
654.976836	0.999275
655.319255	1.001146
655.661622	1.001040
656.003938	0.999724
656.346203	0.998852
656.688416	1.000509
657.030577	0.999321
657.372687	0.999395
657.714746	0.999393
658.056753	0.999618
658.398708	0.999589
658.740612	1.000932
659.082465	0.999873
659.424266	0.999624
659.766016	0.998783
660.107715	1.000320
660.449362	1.000347
660.790958	1.000074
661.132503	0.999773
661.473996	0.999740
661.815438	1.000658
662.156829	1.000954
662.498168	1.000540
662.839456	0.998687
663.180693	1.000343
663.521879	0.999985
663.863013	1.000247
664.204097	0.999255
664.545129	0.999771
664.886110	1.000493
665.227040	0.999783
665.567918	0.999020
665.908746	0.999784
666.249522	0.999216
666.590248	1.000108
666.930922	0.999232
667.271545	0.999772
667.612118	1.000138
667.952639	1.000511
668.293109	0.999338
668.633528	0.999817
668.973896	1.000326
669.314213	0.999783
669.654480	1.000465
669.994695	0.999649
670.334859	1.000033
670.674973	0.999131
671.015035	0.999455
671.355047	0.999635
671.695008	1.000193
672.034918	0.999348
672.374777	0.999968
672.714585	0.999850
673.054342	1.000209
673.394049	0.999493
673.733705	0.999123
674.073310	0.999574
674.412864	0.999006
674.752368	0.999149
675.091820	1.000594
675.431223	1.000385
675.770574	0.999776
676.109875	1.000496
676.449125	0.999816
676.788324	0.999382
677.127473	1.000767
677.466571	1.000097
677.805619	1.000866
678.144616	0.999502
678.483562	1.000092
678.822458	1.000105
679.161303	0.999522
679.500098	0.999610
679.838842	1.001050
680.177535	0.999887
680.516179	0.999488
680.854771	0.999720
681.193314	0.999526
681.531805	0.998598
681.870247	0.999084
682.208638	1.000197
682.546978	0.999637
682.885268	0.999386
683.223508	0.999703
683.561697	0.999857
683.899836	0.999977
684.237925	0.999323
684.575963	0.999810
684.913951	0.999676
685.251889	0.999213
685.589776	0.999591
685.927614	0.999510
686.265401	0.999238
686.603137	0.999993
686.940824	0.999000
687.278460	0.999984
687.616046	0.999098
687.953582	0.999997
688.291068	0.999338
688.628504	0.999568
688.965889	0.999533
689.303224	0.998548
689.640510	0.999645
689.977745	0.998734
690.314930	0.999150
690.652065	1.000004
690.989150	0.999109
691.326185	0.999855
691.663170	1.000413
692.000105	1.000798
692.336990	0.999184
692.673825	1.000193
693.010610	0.999987
693.347345	1.000001
693.684030	0.999501
694.020665	0.999948
694.357251	0.999340
694.693786	0.999697
695.030272	0.998735
695.366707	0.999599
695.703093	0.999541
696.039429	0.998749
696.375716	0.999770
696.711952	0.998748
697.048139	1.000640
697.384276	0.999553
697.720363	0.998915
698.056400	0.998133
698.392388	0.999981
698.728326	0.999712
699.064214	1.000286
699.400053	0.999420
699.735842	1.000923
700.071581	0.999661
700.407270	0.998873
700.742910	1.000500
701.078501	0.999564
701.414042	1.000944
701.749533	0.998458
702.084974	0.999895
702.420366	0.998765
702.755709	0.999013
703.091002	0.999802
703.426246	1.000592
703.761440	0.999269
704.096584	0.998550
704.431679	0.998644
704.766725	0.998036
705.101721	1.000425
705.436668	0.999749
705.771565	0.999105
706.106413	0.997895
706.441212	0.999164
706.775961	0.999418
707.110661	0.998463
707.445311	0.999584
707.779913	1.000307
708.114465	0.999129
708.448967	0.999733
708.783421	0.999835
709.117825	0.998807
709.452180	0.999863
709.786485	1.000265
710.120742	0.999389
710.454949	0.998879
710.789107	0.999120
711.123216	0.998743
711.457275	0.998346
711.791286	0.999008
712.125247	1.001057
712.459159	0.999346
712.793023	0.998755
713.126837	1.000057
713.460602	0.999170
713.794318	0.998896
714.127985	0.998947
714.461602	1.000147
714.795171	0.999294
715.128691	0.998698
715.462162	1.000109
715.795584	0.999242
716.128957	0.999802
716.462281	1.000123
716.795556	0.998899
717.128782	1.000425
717.461960	0.999802
717.795088	0.998990
718.128167	1.000108
718.461198	0.999360
718.794180	0.999839
719.127113	0.999817
719.459997	0.998681
719.792833	0.999495
720.125619	0.999906
720.458357	0.999456
720.791046	1.000244
721.123686	1.000123
721.456278	0.999444
721.788821	0.998972
722.121315	1.000925
722.453761	1.000003
722.786158	0.998358
723.118506	0.998896
723.450805	0.999358
723.783056	0.999603
724.115259	0.998745
724.447412	0.999502
724.779518	0.999434
725.111574	0.999793
725.443582	0.999504
725.775542	0.999828
726.107453	0.999945
726.439315	1.000028
726.771129	1.000274
727.102895	1.000212
727.434612	0.999907
727.766281	1.000163
728.097901	0.999033
728.429473	0.999279
728.760996	0.998741
729.092471	0.999463
729.423897	0.999741
729.755276	0.999180
730.086606	0.998891
730.417887	1.000182
730.749120	0.999524
731.080305	1.000510
731.411442	0.999508
731.742530	0.999415
732.073570	0.999649
732.404562	0.999273
732.735506	0.999491
733.066401	0.999383
733.397249	0.999263
733.728048	0.999508
734.058798	0.999576
734.389501	0.999904
734.720156	1.000230
735.050762	0.999907
735.381320	0.999773
735.711831	0.998994
736.042293	0.998971
736.372707	1.000943
736.703073	0.998663
737.033391	0.998725
737.363661	0.999764
737.693883	0.999414
738.024056	0.999146
738.354182	1.000147
738.684260	0.999360
739.014290	0.999598
739.344272	0.999170
739.674207	1.000062
740.004093	0.998963
740.333931	0.999997
740.663722	0.999278
740.993464	1.000543
741.323159	0.999349
741.652806	0.999555
741.982405	0.999652
742.311956	1.000229
742.641460	0.999520
742.970915	0.998848
743.300323	0.999633
743.629683	0.999176
743.958996	1.000483
744.288260	0.998743
744.617477	0.998757
744.946647	0.999450
745.275768	0.999659
745.604842	0.999600
745.933869	0.999635
746.262847	0.999918
746.591778	0.999070
746.920662	1.000965
747.249498	0.999903
747.578286	1.000453
747.907027	0.999172
748.235720	0.999862
748.564365	0.999766
748.892963	0.999263
749.221514	1.000093
749.550017	0.998988
749.878473	1.000339
750.206881	1.000970
750.535242	0.999640
750.863555	0.998929
751.191821	0.999189
751.520039	0.999032
751.848210	0.997400
752.176334	0.998982
752.504411	0.998756
752.832440	0.999993
753.160421	0.999538
753.488356	1.000008
753.816243	0.998534
754.144082	0.999868
754.471875	0.999383
754.799620	0.999565
755.127318	0.999959
755.454969	0.998835
755.782572	1.001515
756.110129	0.999635
756.437638	1.000833
756.765100	0.999365
757.092515	0.999501
757.419882	1.000020
757.747203	0.998784
758.074477	1.000206
758.401703	0.999144
758.728882	0.999784
759.056014	0.998911
759.383099	0.999648
759.710138	0.999494
760.037129	0.999183
760.364073	1.001235
760.690970	1.000274
761.017820	0.998656
761.344623	1.000107
761.671379	1.000489
761.998088	0.999354
762.324751	1.000235
762.651366	0.998935
762.977935	0.998907
763.304456	1.000197
763.630931	0.998966
763.957359	0.997699
764.283740	0.998572
764.610074	1.000202
764.936362	0.999201
765.262602	0.999039
765.588796	1.000178
765.914943	1.000059
766.241044	1.000452
766.567097	0.999582
766.893104	1.000099
767.219064	0.998936
767.544978	0.999448
767.870845	1.000408
768.196665	0.999790
768.522438	1.000307
768.848165	0.999893
769.173846	0.999598
769.499479	1.000344
769.825066	1.000060
770.150607	1.000747
770.476101	0.999960
770.801548	0.999986
771.126949	1.001083
771.452303	0.999527
771.777611	1.000092
772.102872	0.999607
772.428087	0.999736
772.753256	0.999548
773.078378	1.000441
773.403453	0.998429
773.728482	1.001146
774.053465	0.999534
774.378401	0.999969
774.703291	0.999779
775.028135	1.001105
775.352932	0.999233
775.677683	0.999687
776.002388	0.998508
776.327046	0.999304
776.651658	1.001025
776.976224	0.998954
777.300743	0.998893
777.625216	0.999002
777.949643	0.999838
778.274024	0.998937
778.598359	0.999581
778.922647	1.000172
779.246889	1.000314
779.571086	0.999894
779.895236	0.998989
780.219339	1.001799
780.543397	0.999194
780.867409	1.000022
781.191374	0.998784
781.515294	1.000410
781.839167	1.000839
782.162995	0.999307
782.486776	0.999409
782.810511	1.001149
783.134201	0.999682
783.457844	0.998670
783.781441	0.999108
784.104993	0.998973
784.428498	1.000707
784.751958	1.001311
785.075372	1.000838
785.398739	0.999442
785.722061	0.999897
786.045337	0.998995
786.368568	0.999930
786.691752	0.999690
787.014891	0.999390
787.337983	0.998767
787.661030	0.998992
787.984031	1.000105
788.306987	1.000351
788.629897	0.998596
788.952760	0.999676
789.275579	1.000110
789.598351	0.999899
789.921078	1.000892
790.243759	0.999814
790.566395	0.998682
790.888984	0.999955
791.211529	1.000047
791.534027	0.999227
791.856480	1.000479
792.178888	1.000169
792.501249	0.999154
792.823566	1.000990
793.145836	0.999665
793.468062	0.999328
793.790241	1.000512
794.112375	0.999484
794.434464	1.000272
794.756507	0.999919
795.078505	0.999800
795.400457	1.000219
795.722364	0.999906
796.044226	0.999387
796.366042	0.999590
796.687812	0.997516
797.009538	0.999630
797.331218	1.002153
797.652852	1.001521
797.974442	0.999346
798.295986	0.999694
798.617484	0.999744
798.938938	0.999758
799.260346	0.999158
799.581709	0.999930
799.903026	1.000531
800.224299	0.998553
800.545526	0.999534
800.866708	0.998987
801.187845	1.000164
801.508936	0.999453
801.829983	0.999229
802.150984	0.999091
802.471940	0.999299
802.792851	0.999452
803.113717	1.000834
803.434538	0.999628
803.755314	1.000617
804.076045	0.999826
804.396731	0.999316
804.717372	0.999065
805.037967	1.000863
805.358518	1.000945
805.679024	0.999954
805.999485	0.999859
806.319901	0.999186
806.640272	1.000160
806.960598	0.999396
807.280879	0.999543
807.601115	1.000122
807.921306	1.000440
808.241453	0.999227
808.561554	1.000564
808.881611	1.000223
809.201623	0.999598
809.521590	0.999519
809.841513	1.000445
810.161390	0.999404
810.481223	0.999586
810.801011	1.000226
811.120755	1.000696
811.440453	0.999174
811.760107	1.000645
812.079716	0.999688
812.399281	0.998359
812.718801	0.999750
813.038276	0.999625
813.357707	0.999213
813.677093	0.999410
813.996434	1.000158
814.315731	1.001046
814.634983	1.000165
814.954191	1.000580
815.273354	0.999571
815.592473	0.999437
815.911547	1.000976
816.230577	0.999011
816.549562	1.000749
816.868502	0.998773
817.187399	1.000915
817.506250	1.000875
817.825058	0.998798
818.143821	0.999761
818.462539	1.000219
818.781213	1.000004
819.099843	1.000586
819.418429	1.000359
819.736970	0.999635
820.055466	0.999810
820.373919	0.999338
820.692327	0.999811
821.010691	1.000369
821.329011	0.999639
821.647286	0.999157
821.965517	0.999427
822.283704	0.999455
822.601847	0.999232
822.919945	0.998394
823.237999	0.999184
823.556010	0.999784
823.873976	0.999597
824.191897	0.998922
824.509775	0.999988
824.827609	0.999973
825.145398	0.999843
825.463144	0.998394
825.780845	0.997467
826.098502	0.999072
826.416116	0.999629
826.733685	1.000342
827.051210	0.999207
827.368692	0.999643
827.686129	0.998800
828.003522	1.000046
828.320872	0.999355
828.638177	0.999140
828.955439	1.000763
829.272656	1.000466
829.589830	0.999932
829.906960	1.000400
830.224046	0.998618
830.541088	0.999672
830.858086	0.998993
831.175041	1.000597
831.491952	0.999457
831.808819	0.999175
832.125642	0.999506
832.442421	1.000864
832.759157	1.001218
833.075849	0.999976
833.392497	1.000062
833.709101	0.999376
834.025662	1.000440
834.342179	1.000634
834.658653	0.999709
834.975083	1.000073
835.291469	1.000226
835.607811	0.999583
835.924110	0.999281
836.240366	1.000831
836.556578	0.999852
836.872746	1.000226
837.188871	0.999275
837.504952	0.999160
837.820990	0.999939
838.136984	0.998449
838.452935	1.000508
838.768842	0.999377
839.084706	1.000361
839.400526	1.000223
839.716303	0.999269
840.032037	0.999827
840.347727	0.999341
840.663373	1.000196
840.978977	1.000063
841.294537	0.999639
841.610054	0.999683
841.925527	1.000026
842.240957	1.000658
842.556344	0.999780
842.871687	0.999759
843.186987	0.999862
843.502244	0.999880
843.817458	0.999445
844.132629	0.999486
844.447756	0.999428
844.762840	1.001138
845.077881	1.001538
845.392879	0.998628
845.707833	0.999489
846.022745	0.999964
846.337613	1.000194
846.652438	1.000334
846.967221	1.000014
847.281960	0.999062
847.596656	1.000494
847.911309	0.999923
848.225919	0.999187
848.540485	0.999978
848.855009	1.000214
849.169490	0.999791
849.483928	1.000208
849.798323	0.999344
850.112675	1.000730
850.426984	1.000489
850.741251	0.999029
851.055474	1.000684
851.369654	1.000371
851.683792	0.999367
851.997887	1.000076
852.311938	1.000051
852.625947	0.999397
852.939914	0.999685
853.253837	1.001342
853.567718	0.999921
853.881555	0.999938
854.195350	0.999082
854.509103	1.000166
854.822812	0.999675
855.136479	0.999760
855.450103	1.000711
855.763685	1.000678
856.077224	0.999822
856.390720	0.999493
856.704173	1.000368
857.017584	0.999959
857.330953	1.000018
857.644278	0.999336
857.957561	0.998889
858.270802	1.000597
858.584000	0.999987
858.897155	0.999487
859.210268	0.999971
859.523339	1.000149
859.836367	1.000006
860.149352	0.998274
860.462295	1.000769
860.775195	0.998450
861.088054	0.999628
861.400869	0.999556
861.713642	0.999605
862.026373	1.000261
862.339062	1.000113
862.651708	0.999702
862.964312	0.999511
863.276873	1.000784
863.589392	0.999425
863.901869	0.998842
864.214303	0.999779
864.526696	0.999808
864.839045	1.000519
865.151353	1.000150
865.463619	0.999160
865.775842	1.000769
866.088023	1.000389
866.400162	1.000647
866.712258	1.001170
867.024313	1.000525
867.336325	1.001615
867.648296	1.000812
867.960224	0.999602
868.272110	1.000829
868.583954	1.000549
868.895755	1.000817
869.207515	0.998817
869.519233	1.000728
869.830909	0.999712
870.142542	0.998905
870.454134	0.999369
870.765684	0.999479
871.077191	0.999681
871.388657	0.999597
871.700081	1.000036
872.011463	1.000209
872.322803	1.000501
872.634101	0.998822
872.945357	0.998533
873.256571	0.999288
873.567744	1.000354
873.878874	1.000277
874.189963	0.999997
874.501010	1.002396
874.812015	1.000159
875.122979	1.000037
875.433900	1.000598
875.744780	0.999930
876.055618	0.999808
876.366415	0.999613
876.677169	1.000062
876.987882	1.000030
877.298554	1.001139
877.609183	1.000415
877.919771	0.999674
878.230317	1.000108
878.540822	0.999783
878.851285	1.000062
879.161707	0.999870
879.472087	1.002233
879.782425	1.000299
880.092722	1.000618
880.402977	1.000803
880.713191	0.999740
881.023363	1.000279
881.333494	0.999159
881.643583	1.001807
881.953631	1.000477
882.263637	0.999757
882.573602	1.000682
882.883526	1.000115
883.193408	1.000369
883.503248	1.000599
883.813048	0.999598
884.122806	1.000355
884.432522	0.999776
884.742197	1.001765
885.051831	1.000057
885.361424	0.998953
885.670975	1.001292
885.980485	0.999578
886.289954	1.000736
886.599382	0.999621
886.908768	1.000482
887.218113	0.999383
887.527417	0.999477
887.836680	1.001401
888.145901	1.000867
888.455082	1.002278
888.764221	1.001022
889.073319	1.000180
889.382376	1.001371
889.691392	0.999529
890.000366	1.001284
890.309300	1.000546
890.618193	1.000744
890.927044	1.000977
891.235855	0.998965
891.544625	1.000172
891.853353	0.999632
892.162041	1.000040
892.470687	1.000243
892.779293	1.000534
893.087858	0.998429
893.396381	1.000297
893.704864	0.999858
894.013306	1.000431
894.321707	0.999997
894.630068	1.000287
894.938387	0.999814
895.246665	1.000754
895.554903	0.999920
895.863100	1.000486
896.171256	1.000018
896.479371	1.000402
896.787446	1.000196
897.095480	0.999675
897.403473	1.000611
897.711425	1.000030
898.019336	1.000506
898.327207	1.001189
898.635038	1.000257
898.942827	1.000761
899.250576	0.999699
899.558284	1.000214
899.865952	0.999434
900.173579	0.999531
900.481165	0.999768
900.788711	0.999885
901.096216	0.999840
901.403681	0.999878
901.711105	1.000688
902.018489	1.000731
902.325832	0.999235
902.633135	0.999604
902.940397	1.001027
903.247619	1.000375
903.554800	0.999200
903.861941	1.000212
904.169041	1.000656
904.476101	1.000990
904.783121	1.000558
905.090100	1.000863
905.397039	1.000431
905.703938	1.000414
906.010796	0.999298
906.317614	0.999661
906.624391	1.000131
906.931129	1.000843
907.237826	0.999760
907.544483	0.999840
907.851099	1.000171
908.157675	0.999738
908.464211	1.000668
908.770707	0.999132
909.077163	0.999949
909.383578	0.999654
909.689954	0.999187
909.996289	0.999483
910.302584	1.000070
910.608839	1.001623
910.915054	0.998774
911.221229	1.001095
911.527363	1.000053
911.833458	1.000481
912.139513	0.999493
912.445527	1.000200
912.751502	0.999174
913.057436	0.998795
913.363331	1.001042
913.669186	1.001065
913.975000	1.001300
914.280775	1.001524
914.586510	0.999616
914.892205	0.999609
915.197859	1.000337
915.503475	1.000181
915.809050	0.999854
916.114585	0.999545
916.420081	1.000404
916.725536	1.000838
917.030952	1.000779
917.336328	0.999905
917.641665	0.999057
917.946961	1.000077
918.252218	0.999401
918.557435	0.999642
918.862612	1.001563
919.167750	1.000642
919.472848	1.001499
919.777906	1.001142
920.082925	1.000959
920.387904	1.000879
920.692843	0.999399
920.997743	0.999789
921.302603	1.000659
921.607423	0.999962
921.912204	1.000256
922.216946	1.001280
922.521647	0.999697
922.826310	0.999907
923.130932	1.000344
923.435516	0.999967
923.740059	0.999291
924.044564	0.999211
924.349028	0.998658
924.653454	0.999467
924.957840	0.999014
925.262186	0.999477
925.566493	0.999505
925.870761	0.999613
926.174989	0.999389
926.479178	1.001054
926.783328	1.000191
927.087438	1.000245
927.391509	0.999614
927.695541	1.000694
927.999533	1.000106
928.303486	1.000113
928.607400	1.000125
928.911275	1.000559
929.215110	1.001101
929.518906	1.000179
929.822663	1.001423
930.126381	1.000818
930.430060	1.000170
930.733699	1.001534
931.037299	1.001460
931.340861	1.001162
931.644383	0.999625
931.947866	1.000711
932.251309	1.000283
932.554714	0.999929
932.858080	1.000891
933.161407	0.999303
933.464694	1.000673
933.767943	1.000673
934.071153	1.000591
934.374323	0.999944
934.677455	0.999150
934.980548	0.998861
935.283602	1.000857
935.586617	0.999190
935.889593	1.000665
936.192530	1.001353
936.495428	0.999881
936.798287	0.999930
937.101108	1.000518
937.403890	1.000253
937.706632	1.002083
938.009336	1.000774
938.312002	0.998710
938.614628	1.000111
938.917216	0.999401
939.219765	0.999829
939.522275	1.000958
939.824747	1.000571
940.127179	1.000617
940.429573	1.000876
940.731929	0.999255
941.034246	1.000191
941.336524	0.999889
941.638763	0.999206
941.940964	0.999850
942.243126	0.998937
942.545250	1.000750
942.847335	0.999030
943.149381	0.999831
943.451389	0.999701
943.753359	0.999353
944.055290	1.001874
944.357182	0.999827
944.659036	1.000443
944.960851	1.001281
945.262628	1.000122
945.564367	0.999826
945.866067	1.000364
946.167729	1.000828
946.469352	0.999971
946.770937	0.998610
947.072484	1.000838
947.373992	1.000939
947.675462	0.999557
947.976893	0.999845
948.278286	1.001448
948.579641	1.001420
948.880958	0.999561
949.182236	1.000557
949.483476	0.999948
949.784678	1.000525
950.085841	0.999365
950.386967	1.000526
950.688054	1.001331
950.989103	0.998922
951.290114	0.998705
951.591087	1.000135
951.892021	0.999862
952.192917	1.000823
952.493776	1.000343
952.794596	0.999823
953.095378	1.000244
953.396122	1.000435
953.696828	1.000572
953.997496	1.000383
954.298126	1.000487
954.598718	1.000081
954.899272	0.999938
955.199788	0.999212
955.500266	1.001034
955.800706	0.999801
956.101108	0.998746
956.401472	1.000552
956.701798	0.999668
957.002087	1.000708
957.302337	0.999255
957.602550	0.999409
957.902724	1.000328
958.202861	1.000197
958.502960	0.999185
958.803022	1.000411
959.103045	1.000239
959.403031	1.000947
959.702979	1.000407
960.002889	0.998300
960.302762	0.999200
960.602596	1.000873
960.902393	1.000324
961.202153	1.000261
961.501875	1.000894
961.801559	1.000635
962.101205	0.999807
962.400814	1.000654
962.700385	1.001216
962.999918	1.000577
963.299414	0.999571
963.598873	1.001080
963.898293	1.001016
964.197677	0.999927
964.497022	0.999888
964.796331	0.999641
965.095601	1.001391
965.394835	1.000076
965.694030	1.001726
965.993189	0.999329
966.292309	1.001485
966.591393	0.999042
966.890439	1.000085
967.189447	0.999965
967.488419	1.000419
967.787353	0.999525
968.086249	1.000665
968.385108	0.999222
968.683930	1.000413
968.982714	0.999094
969.281462	0.999850
969.580172	0.999381
969.878844	1.000503
970.177480	0.999922
970.476078	1.001203
970.774639	1.000149
971.073162	1.000135
971.371649	1.000304
971.670098	0.998981
971.968510	0.999312
972.266885	0.999780
972.565223	0.999562
972.863524	0.999465
973.161788	0.999860
973.460014	1.000486
973.758204	0.999670
974.056356	1.000015
974.354471	0.999136
974.652550	1.000908
974.950591	0.999116
975.248595	0.999197
975.546563	1.000931
975.844493	0.999517
976.142386	0.999732
976.440243	1.000513
976.738062	1.000574
977.035845	0.998966
977.333590	1.001229
977.631299	0.999904
977.928971	0.999624
978.226606	0.999866
978.524204	0.999529
978.821765	1.000653
979.119290	1.000340
979.416777	1.000585
979.714228	0.999199
980.011642	0.999672
980.309020	0.999571
980.606360	0.999414
980.903664	0.999738
981.200931	0.999419
981.498162	1.000060
981.795356	1.000744
982.092513	0.999997
982.389633	1.000108
982.686717	0.999266
982.983764	0.999948
983.280775	0.999923
983.577749	1.001132
983.874686	1.000219
984.171587	0.998894
984.468451	1.000219
984.765279	1.000312
985.062070	1.000594
985.358824	1.000122
985.655543	1.000783
985.952224	1.000400
986.248869	1.000724
986.545478	1.000124
986.842050	1.000134
987.138586	0.998350
987.435086	0.999079
987.731549	1.000005
988.027975	1.000579
988.324366	0.998950
988.620719	1.002419
988.917037	0.999921
989.213318	0.999999
989.509563	1.000517
989.805772	1.000385
990.101944	1.000155
990.398080	0.999880
990.694180	1.001824
990.990244	0.999712
991.286271	1.000142
991.582262	1.000450
991.878217	1.000030
992.174136	1.001541
992.470019	1.001479
992.765865	1.001857
993.061676	0.999565
993.357450	1.000456
993.653188	1.000541
993.948890	1.000356
994.244556	0.999901
994.540186	1.000803
994.835780	0.999246
995.131337	1.000763
995.426859	0.999585
995.722345	1.000739
996.017795	0.999704
996.313208	0.998850
996.608586	1.000575
996.903928	1.001436
997.199234	0.999895
997.494504	1.000797
997.789738	0.998769
998.084936	1.000393
998.380099	0.999650
998.675225	1.000296
998.970316	1.000989
999.265371	0.998568
999.560390	0.999798
999.855373	0.999413
1000.150320	1.000630
1000.445232	0.999414
1000.740108	0.998814
1001.034948	0.999641
1001.329752	1.001510
1001.624521	1.000230
1001.919254	0.998492
1002.213951	0.999854
1002.508613	1.000545
1002.803239	0.999063
1003.097829	1.000519
1003.392384	1.001433
1003.686903	1.000233
1003.981386	0.999890
1004.275834	1.000892
1004.570246	0.998173
1004.864623	1.000574
1005.158964	1.000445
1005.453270	0.999517
1005.747540	0.998794
1006.041775	1.001056
1006.335974	1.000490
1006.630138	0.999792
1006.924266	0.999389
1007.218359	0.998765
1007.512416	1.001937
1007.806438	0.999698
1008.100425	1.000698
1008.394376	1.000040
1008.688292	0.999374
1008.982172	0.998419
1009.276017	0.999942
1009.569827	1.000330
1009.863602	0.999027
1010.157341	0.999748
1010.451045	0.999553
1010.744714	1.000985
1011.038347	1.001249
1011.331945	1.000465
1011.625508	0.999894
1011.919036	0.999078
1012.212528	1.000971
1012.505986	0.999666
1012.799408	1.000774
1013.092795	0.999865
1013.386147	0.999918
1013.679464	1.001483
1013.972745	1.000019
1014.265992	1.000148
1014.559204	0.999784
1014.852380	1.001495
1015.145521	1.000434
1015.438628	0.999373
1015.731699	1.000018
1016.024736	1.000070
1016.317737	1.000217
1016.610703	1.000258
1016.903635	1.000507
1017.196531	1.000070
1017.489393	1.000108
1017.782219	0.999232
1018.075011	0.999865
1018.367768	0.999340
1018.660490	1.000401
1018.953177	1.000401
1019.245829	1.000401
