Dividing Wavelength (nm)	Counts (n)	Blue Motor Position (mm): 28.500000	Red Motor Position (mm): 0.000000	
326.493990	1.000318
326.888308	1.000318
327.282561	1.000318
327.676750	1.003020
328.070874	1.002788
328.464933	1.001500
328.858929	1.001788
329.252859	1.000770
329.646726	1.000999
330.040528	1.000885
330.434265	1.001001
330.827938	1.000886
331.221547	1.001551
331.615091	1.002041
332.008571	1.002036
332.401986	1.000525
332.795338	1.001761
333.188625	1.001153
333.581847	1.001766
333.975006	1.002235
334.368100	1.001129
334.761129	1.000718
335.154095	1.002135
335.546996	1.001943
335.939833	0.998876
336.332606	1.000090
336.725315	0.999545
337.117960	1.000169
337.510540	1.000267
337.903056	1.000586
338.295508	1.000972
338.687896	1.001407
339.080220	0.999787
339.472480	0.999987
339.864676	0.999656
340.256807	0.998684
340.648875	1.000904
341.040879	1.000755
341.432818	1.000864
341.824694	1.000005
342.216506	1.001767
342.608253	0.999122
342.999937	1.000286
343.391557	1.000395
343.783113	1.001374
344.174605	1.000815
344.566033	1.000212
344.957397	1.001747
345.348697	1.000351
345.739934	1.000527
346.131106	1.000961
346.522215	1.000284
346.913260	0.999323
347.304241	0.998789
347.695159	1.000725
348.086012	0.999165
348.476802	1.000267
348.867528	0.999316
349.258191	1.000879
349.648789	1.000368
350.039324	1.000382
350.429796	0.998889
350.820203	0.998117
351.210548	1.000026
351.600828	0.999651
351.991045	0.998923
352.381198	1.000459
352.771288	1.000137
353.161314	0.999573
353.551276	0.997921
353.941175	0.999053
354.331010	1.001024
354.720782	0.999550
355.110490	0.999307
355.500135	0.999944
355.889717	0.998119
356.279235	0.999350
356.668689	1.000446
357.058080	0.998966
357.447408	0.998520
357.836672	0.998902
358.225873	0.999621
358.615010	0.999124
359.004084	0.998776
359.393095	0.999350
359.782043	0.998805
360.170927	0.999241
360.559748	0.999240
360.948505	0.997742
361.337199	0.997676
361.725830	0.999210
362.114398	0.998640
362.502903	0.997963
362.891344	0.997470
363.279722	0.998170
363.668037	0.998643
364.056289	0.997915
364.444478	0.998750
364.832603	0.998099
365.220665	0.999009
365.608665	0.997550
365.996601	0.998615
366.384474	0.996520
366.772284	0.997770
367.160031	0.995762
367.547715	0.996891
367.935336	0.995715
368.322893	0.995305
368.710388	0.994231
369.097820	0.991213
369.485189	0.990062
369.872495	0.987823
370.259738	0.986740
370.646918	0.983149
371.034035	0.979466
371.421090	0.978306
371.808081	0.973133
372.195010	0.970170
372.581875	0.964460
372.968678	0.959771
373.355418	0.956881
373.742096	0.949231
374.128710	0.945963
374.515262	0.940672
374.901751	0.934472
375.288177	0.930727
375.674540	0.923963
376.060841	0.917821
376.447079	0.910461
376.833254	0.903173
377.219367	0.899515
377.605417	0.887909
377.991404	0.883974
378.377329	0.877587
378.763191	0.871673
379.148991	0.862852
379.534727	0.855432
379.920402	0.847392
380.306013	0.842364
380.691563	0.830153
381.077049	0.823877
381.462474	0.819305
381.847835	0.808246
382.233134	0.804136
382.618371	0.803252
383.003545	0.786023
383.388657	0.784822
383.773706	0.776749
384.158693	0.772945
384.543618	0.767942
384.928480	0.759134
385.313280	0.748407
385.698017	0.746813
386.082692	0.736708
386.467305	0.734197
386.851856	0.729412
387.236344	0.724661
387.620770	0.719197
388.005133	0.713026
388.389435	0.707811
388.773674	0.704289
389.157851	0.696014
389.541965	0.693773
389.926018	0.701172
390.310008	0.686667
390.693936	0.685233
391.077802	0.677715
391.461606	0.678191
391.845348	0.667129
392.229027	0.667131
392.612645	0.665319
392.996200	0.652292
393.379694	0.645300
393.763125	0.635451
394.146494	0.640116
394.529801	0.630829
394.913047	0.621959
395.296230	0.628849
395.679351	0.619895
396.062410	0.616663
396.445408	0.618743
396.828343	0.614638
397.211217	0.609886
397.594028	0.622039
397.976778	0.612021
398.359466	0.608112
398.742092	0.604165
399.124656	0.616216
399.507158	0.604278
399.889598	0.601133
400.271977	0.592697
400.654294	0.596314
401.036549	0.595715
401.418742	0.599139
401.800874	0.585705
402.182944	0.583027
402.564952	0.574545
402.946898	0.576165
403.328783	0.576858
403.710606	0.588316
404.092367	0.562808
404.474067	0.568263
404.855705	0.567313
405.237282	0.576242
405.618797	0.562142
406.000250	0.557953
406.381642	0.547427
406.762972	0.553058
407.144240	0.551893
407.525447	0.551897
407.906593	0.544488
408.287677	0.539954
408.668700	0.548202
409.049661	0.542264
409.430560	0.537721
409.811399	0.545955
410.192176	0.527370
410.572891	0.534830
410.953545	0.523207
411.334138	0.537044
411.714669	0.529280
412.095139	0.541051
412.475547	0.525091
412.855894	0.527345
413.236180	0.526211
413.616405	0.531763
413.996568	0.522369
414.376670	0.528050
414.756711	0.532907
415.136691	0.529728
415.516609	0.521294
415.896466	0.517944
416.276262	0.513735
416.655997	0.515527
417.035670	0.496739
417.415283	0.488951
417.794834	0.493752
418.174324	0.499259
418.553753	0.507913
418.933121	0.490355
419.312428	0.484506
419.691674	0.489772
420.070859	0.478526
420.449983	0.486179
420.829045	0.475411
421.208047	0.484204
421.586988	0.477456
421.965867	0.476885
422.344686	0.465081
422.723444	0.477641
423.102141	0.495257
423.480777	0.467845
423.859352	0.488719
424.237866	0.465784
424.616319	0.467072
424.994712	0.457438
425.373044	0.468665
425.751314	0.456017
426.129524	0.473031
426.507673	0.456419
426.885762	0.449541
427.263789	0.455352
427.641756	0.465181
428.019662	0.455469
428.397508	0.455034
428.775292	0.459064
429.153016	0.451724
429.530679	0.457840
429.908282	0.451710
430.285824	0.461457
430.663305	0.440397
431.040726	0.461845
431.418086	0.462267
431.795385	0.454581
432.172624	0.453928
432.549802	0.454800
432.926920	0.454043
433.303977	0.454679
433.680974	0.452202
434.057910	0.451978
434.434786	0.452388
434.811601	0.455976
435.188355	0.440491
435.565050	0.450613
435.941683	0.452568
436.318257	0.438749
436.694770	0.441378
437.071222	0.441034
437.447614	0.447337
437.823946	0.455794
438.200218	0.446970
438.576429	0.458415
438.952580	0.454396
439.328670	0.453136
439.704700	0.461922
440.080670	0.465158
440.456580	0.451143
440.832429	0.460904
441.208218	0.474273
441.583947	0.467298
441.959616	0.469697
442.335224	0.478709
442.710773	0.473420
443.086261	0.475740
443.461689	0.491893
443.837057	0.487079
444.212365	0.483049
444.587612	0.493206
444.962800	0.488895
445.337927	0.494787
445.712995	0.522461
446.088002	0.494779
446.462949	0.509060
446.837837	0.519215
447.212664	0.513433
447.587431	0.513654
447.962139	0.497346
448.336786	0.470323
448.711374	0.484395
449.085901	0.525838
449.460369	0.535726
449.834776	0.545067
450.209124	0.537175
450.583412	0.541079
450.957640	0.540518
451.331808	0.557228
451.705917	0.580936
452.079965	0.591040
452.453954	0.591787
452.827883	0.603077
453.201752	0.607395
453.575562	0.622488
453.949311	0.624209
454.323001	0.634334
454.696632	0.639895
455.070202	0.644662
455.443713	0.646903
455.817164	0.652580
456.190556	0.659357
456.563888	0.665833
456.937160	0.671907
457.310373	0.689380
457.683526	0.697068
458.056619	0.709064
458.429653	0.717337
458.802628	0.726580
459.175542	0.731507
459.548398	0.731892
459.921194	0.736737
460.293930	0.743935
460.666607	0.742234
461.039224	0.744599
461.411782	0.750137
461.784280	0.758795
462.156719	0.769361
462.529099	0.779763
462.901419	0.793865
463.273680	0.802319
463.645882	0.809695
464.018024	0.820392
464.390106	0.824180
464.762130	0.826524
465.134094	0.826934
465.505999	0.822025
465.877845	0.819504
466.249631	0.822885
466.621358	0.834839
466.993026	0.847770
467.364634	0.856976
467.736184	0.865637
468.107674	0.873973
468.479105	0.879004
468.850477	0.886492
469.221790	0.893477
469.593043	0.900612
469.964238	0.906712
470.335373	0.910835
470.706449	0.916234
471.077467	0.920288
471.448425	0.919538
471.819324	0.920222
472.190164	0.923083
472.560945	0.931003
472.931667	0.938447
473.302330	0.942070
473.672934	0.946635
474.043479	0.948312
474.413965	0.951659
474.784393	0.954313
475.154761	0.956531
475.525070	0.959207
475.895321	0.962872
476.265513	0.964036
476.635645	0.966307
477.005719	0.968328
477.375734	0.969756
477.745691	0.971653
478.115588	0.972906
478.485427	0.973796
478.855207	0.975476
479.224928	0.975902
479.594591	0.977200
479.964194	0.978250
480.333739	0.979974
480.703226	0.980493
481.072653	0.982139
481.442022	0.982913
481.811333	0.983656
482.180584	0.984765
482.549777	0.985984
482.918912	0.986318
483.287988	0.986370
483.657005	0.987349
484.025964	0.987957
484.394864	0.988330
484.763706	0.988363
485.132489	0.989382
485.501213	0.990045
485.869879	0.990104
486.238487	0.989645
486.607036	0.991601
486.975527	0.991423
487.343959	0.990541
487.712333	0.991534
488.080648	0.991081
488.448905	0.992380
488.817104	0.992098
489.185244	0.991765
489.553326	0.992406
489.921350	0.993401
490.289315	0.992878
490.657222	0.992191
491.025070	0.993193
491.392861	0.992955
491.760593	0.992558
492.128267	0.992697
492.495883	0.992945
492.863440	0.993297
493.230939	0.993315
493.598380	0.994303
493.965763	0.993554
494.333088	0.993687
494.700354	0.993153
495.067563	0.993610
495.434713	0.994144
495.801805	0.993921
496.168839	0.994402
496.535815	0.994024
496.902733	0.994418
497.269593	0.993766
497.636395	0.994236
498.003139	0.993759
498.369825	0.995261
498.736453	0.994070
499.103023	0.994988
499.469535	0.994617
499.835989	0.994616
500.202385	0.994470
500.568723	0.994903
500.935003	0.995004
501.301226	0.994472
501.667390	0.994925
502.033497	0.994605
502.399546	0.994945
502.765537	0.994304
503.131470	0.995637
503.497345	0.994849
503.863163	0.995178
504.228923	0.994783
504.594625	0.994880
504.960269	0.994380
505.325856	0.995321
505.691385	0.995637
506.056856	0.994981
506.422270	0.995395
506.787625	0.995341
507.152924	0.995240
507.518164	0.995349
507.883347	0.995209
508.248472	0.994911
508.613540	0.994884
508.978550	0.995419
509.343503	0.995361
509.708398	0.996393
510.073236	0.995816
510.438016	0.994629
510.802738	0.994971
511.167403	0.994909
511.532010	0.995706
511.896561	0.995492
512.261053	0.995445
512.625488	0.995193
512.989866	0.994777
513.354186	0.994492
513.718449	0.995013
514.082655	0.994703
514.446803	0.994920
514.810894	0.995109
515.174927	0.995635
515.538904	0.995306
515.902822	0.995269
516.266684	0.995577
516.630488	0.995036
516.994235	0.994752
517.357925	0.995597
517.721558	0.995306
518.085133	0.995193
518.448651	0.995314
518.812112	0.995632
519.175516	0.995505
519.538863	0.995524
519.902152	0.995841
520.265385	0.994744
520.628560	0.995264
520.991678	0.995384
521.354739	0.995089
521.717743	0.995415
522.080690	0.995019
522.443580	0.995097
522.806413	0.994851
523.169189	0.995575
523.531908	0.994246
523.894569	0.995105
524.257174	0.995080
524.619722	0.994766
524.982213	0.995012
525.344647	0.994902
525.707025	0.995036
526.069345	0.994459
526.431608	0.995232
526.793815	0.995459
527.155964	0.995578
527.518057	0.995441
527.880093	0.994674
528.242072	0.995262
528.603995	0.994965
528.965860	0.995335
529.327669	0.995201
529.689421	0.994770
530.051117	0.995842
530.412755	0.995454
530.774337	0.994776
531.135862	0.996098
531.497331	0.995605
531.858743	0.995659
532.220098	0.995184
532.581396	0.995404
532.942638	0.995821
533.303824	0.995759
533.664953	0.994744
534.026025	0.996354
534.387040	0.994762
534.747999	0.995438
535.108902	0.995399
535.469748	0.995804
535.830537	0.995158
536.191270	0.995728
536.551947	0.994923
536.912567	0.995378
537.273131	0.995680
537.633638	0.995940
537.994089	0.995752
538.354483	0.994834
538.714821	0.995499
539.075103	0.995774
539.435328	0.996065
539.795497	0.994936
540.155609	0.995319
540.515665	0.995389
540.875665	0.995337
541.235609	0.995497
541.595496	0.995073
541.955328	0.995333
542.315102	0.995872
542.674821	0.995345
543.034483	0.995256
543.394090	0.994478
543.753640	0.995993
544.113134	0.994938
544.472571	0.995420
544.831953	0.995397
545.191278	0.995362
545.550548	0.994809
545.909761	0.994626
546.268918	0.996106
546.628019	0.995510
546.987064	0.995175
547.346053	0.994667
547.704986	0.995223
548.063863	0.994638
548.422684	0.995475
548.781449	0.995467
549.140158	0.995184
549.498811	0.994400
549.857408	0.994874
550.215949	0.994253
550.574434	0.994610
550.932864	0.995166
551.291237	0.994802
551.649555	0.995884
552.007817	0.995166
552.366022	0.994725
552.724173	0.995267
553.082267	0.994749
553.440305	0.994664
553.798288	0.994665
554.156215	0.994764
554.514086	0.995476
554.871902	0.995028
555.229661	0.994759
555.587365	0.995376
555.945014	0.995864
556.302606	0.995208
556.660143	0.995639
557.017625	0.995471
557.375050	0.994809
557.732421	0.995256
558.089735	0.995072
558.446994	0.994731
558.804197	0.995400
559.161345	0.994947
559.518437	0.995081
559.875474	0.996118
560.232455	0.995312
560.589381	0.995691
560.946251	0.994479
561.303065	0.994899
561.659825	0.994907
562.016528	0.995486
562.373177	0.994900
562.729770	0.995143
563.086307	0.994708
563.442789	0.994904
563.799216	0.994988
564.155587	0.995449
564.511904	0.995450
564.868164	0.993979
565.224370	0.994829
565.580520	0.995366
565.936615	0.995167
566.292654	0.995262
566.648638	0.995141
567.004567	0.995172
567.360441	0.994765
567.716260	0.995572
568.072023	0.994633
568.427732	0.995255
568.783385	0.994445
569.138982	0.995450
569.494525	0.995052
569.850013	0.995243
570.205445	0.995048
570.560823	0.995752
570.916145	0.994159
571.271412	0.994988
571.626625	0.994532
571.981782	0.994841
572.336884	0.995379
572.691931	0.995347
573.046923	0.995652
573.401860	0.995359
573.756743	0.995590
574.111570	0.994785
574.466342	0.995597
574.821059	0.994500
575.175722	0.995527
575.530330	0.995154
575.884882	0.995196
576.239380	0.995547
576.593823	0.994896
576.948211	0.994707
577.302544	0.995229
577.656823	0.995241
578.011047	0.994623
578.365216	0.995813
578.719330	0.995561
579.073389	0.994206
579.427394	0.994978
579.781344	0.995661
580.135239	0.994390
580.489080	0.995104
580.842866	0.995340
581.196597	0.994883
581.550273	0.994245
581.903895	0.994858
582.257463	0.995022
582.610975	0.995225
582.964434	0.995225
583.317837	0.995797
583.671186	0.995675
584.024481	0.994885
584.377721	0.994899
584.730906	0.995177
585.084037	0.995943
585.437113	0.995639
585.790135	0.995302
586.143103	0.994852
586.496016	0.995015
586.848874	0.995585
587.201679	0.995742
587.554428	0.994210
587.907124	0.995590
588.259765	0.995118
588.612352	0.995633
588.964884	0.995322
589.317362	0.995785
589.669786	0.994922
590.022155	0.994862
590.374470	0.994986
590.726731	0.994725
591.078937	0.995560
591.431090	0.995434
591.783188	0.994014
592.135232	0.995219
592.487222	0.995020
592.839157	0.995235
593.191038	0.994497
593.542866	0.995205
593.894639	0.994818
594.246358	0.995547
594.598022	0.995224
594.949633	0.995744
595.301190	0.994999
595.652692	0.995214
596.004141	0.995200
596.355535	0.994964
596.706876	0.995893
597.058162	0.995007
597.409395	0.994764
597.760573	0.994858
598.111698	0.994701
598.462768	0.994822
598.813785	0.994679
599.164748	0.995023
599.515657	0.995298
599.866511	0.995461
600.217312	0.995739
600.568060	0.994836
600.918753	0.995458
601.269392	0.994962
601.619978	0.995112
601.970510	0.995425
602.320988	0.994921
602.671412	0.994882
603.021783	0.995510
603.372100	0.995585
603.722363	0.995483
604.072572	0.995213
604.422728	0.994637
604.772830	0.995114
605.122878	0.995850
605.472872	0.995304
605.822813	0.995488
606.172701	0.995298
606.522534	0.996053
606.872314	0.996058
607.222041	0.995119
607.571714	0.995486
607.921333	0.995463
608.270899	0.995016
608.620411	0.995255
608.969870	0.995550
609.319276	0.994510
609.668627	0.995865
610.017926	0.995226
610.367171	0.995154
610.716362	0.995209
611.065500	0.995102
611.414585	0.995582
611.763616	0.994875
612.112594	0.995065
612.461518	0.993927
612.810389	0.995290
613.159207	0.995298
613.507971	0.994472
613.856682	0.996304
614.205340	0.994063
614.553945	0.995296
614.902496	0.995580
615.250994	0.995415
615.599439	0.995833
615.947830	0.994919
616.296169	0.995103
616.644454	0.995743
616.992686	0.995461
617.340864	0.995530
617.688990	0.994771
618.037063	0.995555
618.385082	0.995052
618.733048	0.995028
619.080961	0.995781
619.428821	0.995174
619.776628	0.994788
620.124382	0.995591
620.472083	0.995334
620.819731	0.997211
621.167326	0.995559
621.514868	0.995791
621.862357	0.995918
622.209793	0.995533
622.557176	0.994741
622.904506	0.994594
623.251783	0.994936
623.599007	0.995411
623.946179	0.995184
624.293297	0.995746
624.640363	0.996210
624.987376	0.995611
625.334336	0.995300
625.681243	0.996029
626.028097	0.996037
626.374899	0.995374
626.721647	0.996200
627.068343	0.995616
627.414987	0.995910
627.761577	0.994489
628.108115	0.995101
628.454600	0.996253
628.801032	0.996030
629.147412	0.995945
629.493739	0.996420
629.840014	0.995623
630.186236	0.995813
630.532405	0.996046
630.878521	0.994878
631.224585	0.995126
631.570597	0.995222
631.916556	0.995405
632.262462	0.995098
632.608316	0.995552
632.954117	0.994970
633.299866	0.995849
633.645562	0.995127
633.991206	0.995869
634.336797	0.995619
634.682336	0.996534
635.027823	0.995563
635.373257	0.995789
635.718639	0.996177
636.063968	0.995444
636.409245	0.995180
636.754470	0.996052
637.099642	0.996017
637.444762	0.996615
637.789829	0.995913
638.134845	0.995440
638.479808	0.995614
638.824719	0.995428
639.169577	0.996043
639.514383	0.996145
639.859137	0.995590
640.203839	0.996043
640.548489	0.995771
640.893086	0.995618
641.237632	0.996504
641.582125	0.996048
641.926566	0.996928
642.270955	0.996178
642.615292	0.995639
642.959576	0.996142
643.303809	0.996831
643.647990	0.996396
643.992118	0.996234
644.336195	0.995703
644.680219	0.996140
645.024192	0.995970
645.368112	0.995803
645.711981	0.995708
646.055797	0.995483
646.399562	0.995691
646.743274	0.996758
647.086935	0.995523
647.430544	0.996045
647.774101	0.995587
648.117606	0.996196
648.461059	0.996798
648.804460	0.996088
649.147810	0.996110
649.491108	0.995917
649.834354	0.995438
650.177548	0.995453
650.520690	0.995821
650.863781	0.995421
651.206820	0.995322
651.549807	0.995707
651.892742	0.996107
652.235626	0.995351
652.578458	0.996066
652.921238	0.996572
653.263967	0.996652
653.606644	0.995412
653.949269	0.996595
654.291843	0.995856
654.634365	0.996544
654.976836	0.995820
655.319255	0.996465
655.661622	0.996985
656.003938	0.996241
656.346203	0.995384
656.688416	0.997341
657.030577	0.996087
657.372687	0.996849
657.714746	0.996200
658.056753	0.995584
658.398708	0.995405
658.740612	0.996939
659.082465	0.995779
659.424266	0.996118
659.766016	0.995312
660.107715	0.996591
660.449362	0.996057
660.790958	0.996369
661.132503	0.996568
661.473996	0.995927
661.815438	0.996302
662.156829	0.996794
662.498168	0.996808
662.839456	0.995577
663.180693	0.996184
663.521879	0.996213
663.863013	0.996793
664.204097	0.995954
664.545129	0.996041
664.886110	0.996276
665.227040	0.995572
665.567918	0.995960
665.908746	0.995889
666.249522	0.995666
666.590248	0.996442
666.930922	0.996026
667.271545	0.995678
667.612118	0.996956
667.952639	0.996470
668.293109	0.996570
668.633528	0.996246
668.973896	0.996292
669.314213	0.996189
669.654480	0.996273
669.994695	0.995748
670.334859	0.996599
670.674973	0.996064
671.015035	0.996162
671.355047	0.996666
671.695008	0.996104
672.034918	0.995567
672.374777	0.995841
672.714585	0.996272
673.054342	0.996891
673.394049	0.995962
673.733705	0.995688
674.073310	0.996093
674.412864	0.995938
674.752368	0.995911
675.091820	0.996674
675.431223	0.997281
675.770574	0.995399
676.109875	0.996286
676.449125	0.995978
676.788324	0.996176
677.127473	0.996323
677.466571	0.996491
677.805619	0.996688
678.144616	0.997244
678.483562	0.996811
678.822458	0.996476
679.161303	0.996111
679.500098	0.996239
679.838842	0.996498
680.177535	0.996103
680.516179	0.995128
680.854771	0.996191
681.193314	0.996239
681.531805	0.996085
681.870247	0.996943
682.208638	0.997015
682.546978	0.995612
682.885268	0.996719
683.223508	0.996061
683.561697	0.996646
683.899836	0.996222
684.237925	0.995968
684.575963	0.996238
684.913951	0.996508
685.251889	0.995738
685.589776	0.996413
685.927614	0.996805
686.265401	0.996155
686.603137	0.996587
686.940824	0.996325
687.278460	0.997167
687.616046	0.995974
687.953582	0.996009
688.291068	0.996911
688.628504	0.996928
688.965889	0.996489
689.303224	0.995313
689.640510	0.996623
689.977745	0.996120
690.314930	0.996528
690.652065	0.996007
690.989150	0.996180
691.326185	0.996698
691.663170	0.996736
692.000105	0.996820
692.336990	0.995679
692.673825	0.995990
693.010610	0.995674
693.347345	0.996134
693.684030	0.996030
694.020665	0.995921
694.357251	0.996355
694.693786	0.997221
695.030272	0.995531
695.366707	0.996651
695.703093	0.996177
696.039429	0.996185
696.375716	0.997198
696.711952	0.995807
697.048139	0.996604
697.384276	0.996915
697.720363	0.996717
698.056400	0.995624
698.392388	0.995717
698.728326	0.995830
699.064214	0.997285
699.400053	0.996846
699.735842	0.998189
700.071581	0.997193
700.407270	0.996842
700.742910	0.997057
701.078501	0.996579
701.414042	0.997361
701.749533	0.995600
702.084974	0.996315
702.420366	0.997256
702.755709	0.996907
703.091002	0.997527
703.426246	0.997577
703.761440	0.996828
704.096584	0.996417
704.431679	0.996697
704.766725	0.996822
705.101721	0.997191
705.436668	0.997229
705.771565	0.996356
706.106413	0.996996
706.441212	0.996847
706.775961	0.997842
707.110661	0.997040
707.445311	0.998082
707.779913	0.998036
708.114465	0.998166
708.448967	0.997610
708.783421	0.997020
709.117825	0.997209
709.452180	0.997329
709.786485	0.997321
710.120742	0.997258
710.454949	0.996157
710.789107	0.997584
711.123216	0.995914
711.457275	0.996381
711.791286	0.996814
712.125247	0.998298
712.459159	0.996137
712.793023	0.997054
713.126837	0.997091
713.460602	0.996462
713.794318	0.996367
714.127985	0.996270
714.461602	0.996298
714.795171	0.997182
715.128691	0.996885
715.462162	0.997262
715.795584	0.996810
716.128957	0.997693
716.462281	0.996253
716.795556	0.995917
717.128782	0.997409
717.461960	0.996997
717.795088	0.997236
718.128167	0.998036
718.461198	0.997592
718.794180	0.997451
719.127113	0.997982
719.459997	0.996602
719.792833	0.996327
720.125619	0.997180
720.458357	0.997331
720.791046	0.997735
721.123686	0.996720
721.456278	0.996963
721.788821	0.997235
722.121315	0.998508
722.453761	0.998124
722.786158	0.996643
723.118506	0.997706
723.450805	0.997621
723.783056	0.997525
724.115259	0.997070
724.447412	0.998552
724.779518	0.997422
725.111574	0.996806
725.443582	0.997737
725.775542	0.997885
726.107453	0.997921
726.439315	0.997524
726.771129	0.997205
727.102895	0.997331
727.434612	0.997776
727.766281	0.997883
728.097901	0.997181
728.429473	0.997850
728.760996	0.996508
729.092471	0.997182
729.423897	0.997468
729.755276	0.997374
730.086606	0.996241
730.417887	0.997425
730.749120	0.997831
731.080305	0.996600
731.411442	0.996327
731.742530	0.996615
732.073570	0.996864
732.404562	0.996925
732.735506	0.996696
733.066401	0.996872
733.397249	0.996871
733.728048	0.997034
734.058798	0.997004
734.389501	0.997971
734.720156	0.997937
735.050762	0.997703
735.381320	0.996833
735.711831	0.996716
736.042293	0.997987
736.372707	0.998196
736.703073	0.995748
737.033391	0.996732
737.363661	0.998583
737.693883	0.997223
738.024056	0.997216
738.354182	0.998409
738.684260	0.997584
739.014290	0.997396
739.344272	0.997857
739.674207	0.998299
740.004093	0.997586
740.333931	0.997215
740.663722	0.997135
740.993464	0.997506
741.323159	0.996860
741.652806	0.997776
741.982405	0.998253
742.311956	0.997664
742.641460	0.997359
742.970915	0.996408
743.300323	0.997189
743.629683	0.997819
743.958996	0.999257
744.288260	0.996424
744.617477	0.998054
744.946647	0.997753
745.275768	0.998241
745.604842	0.997400
745.933869	0.997878
746.262847	0.998348
746.591778	0.996914
746.920662	0.997784
747.249498	0.998983
747.578286	0.999236
747.907027	0.997884
748.235720	0.997805
748.564365	0.997457
748.892963	0.996537
749.221514	0.997415
749.550017	0.995978
749.878473	0.996695
750.206881	0.998550
750.535242	0.997248
750.863555	0.997510
751.191821	0.997777
751.520039	0.997625
751.848210	0.996203
752.176334	0.997438
752.504411	0.998538
752.832440	0.997655
753.160421	0.998231
753.488356	0.998038
753.816243	0.997746
754.144082	0.996563
754.471875	0.998277
754.799620	0.999181
755.127318	0.998332
755.454969	0.998772
755.782572	0.998623
756.110129	0.998042
756.437638	0.999786
756.765100	0.998018
757.092515	0.998534
757.419882	0.998972
757.747203	0.997112
758.074477	0.999337
758.401703	0.998247
758.728882	0.998593
759.056014	0.998008
759.383099	0.997166
759.710138	0.997441
760.037129	0.998512
760.364073	0.997887
760.690970	0.998684
761.017820	0.997119
761.344623	0.998048
761.671379	0.998859
761.998088	0.998615
762.324751	0.998250
762.651366	0.997635
762.977935	0.996298
763.304456	0.998133
763.630931	0.995270
763.957359	0.994863
764.283740	0.995094
764.610074	0.995878
764.936362	0.996577
765.262602	0.997837
765.588796	0.997368
765.914943	0.997975
766.241044	0.997210
766.567097	0.997593
766.893104	0.997956
767.219064	0.996692
767.544978	0.998271
767.870845	0.997508
768.196665	0.997975
768.522438	0.999068
768.848165	0.997998
769.173846	0.998673
769.499479	0.999050
769.825066	0.999829
770.150607	0.999261
770.476101	0.999316
770.801548	0.998940
771.126949	0.999574
771.452303	0.999505
771.777611	0.998996
772.102872	0.998831
772.428087	0.998715
772.753256	0.998998
773.078378	0.998401
773.403453	0.997743
773.728482	0.999803
774.053465	0.998215
774.378401	0.999169
774.703291	0.999366
775.028135	1.000228
775.352932	0.997124
775.677683	0.999101
776.002388	0.999245
776.327046	0.998913
776.651658	0.999946
776.976224	0.999346
777.300743	0.999251
777.625216	0.999830
777.949643	0.999001
778.274024	0.998587
778.598359	0.999372
778.922647	0.999120
779.246889	0.999137
779.571086	0.999603
779.895236	0.998883
780.219339	0.999750
780.543397	0.998818
780.867409	0.999135
781.191374	0.998868
781.515294	0.999891
781.839167	0.999995
782.162995	0.999212
782.486776	0.998873
782.810511	0.999387
783.134201	1.000259
783.457844	1.000271
783.781441	0.998294
784.104993	0.998076
784.428498	1.000111
784.751958	0.999871
785.075372	0.999705
785.398739	1.000320
785.722061	0.998675
786.045337	1.000148
786.368568	0.998730
786.691752	0.999617
787.014891	0.999198
787.337983	0.998608
787.661030	0.998245
787.984031	0.999389
788.306987	0.999443
788.629897	0.997468
788.952760	0.998933
789.275579	0.999318
789.598351	0.998315
789.921078	0.999862
790.243759	0.998355
790.566395	0.998419
790.888984	0.998933
791.211529	0.999117
791.534027	0.998297
791.856480	0.999584
792.178888	0.999709
792.501249	0.998579
792.823566	1.000264
793.145836	0.999140
793.468062	0.998993
793.790241	0.999852
794.112375	0.998497
794.434464	0.998946
794.756507	1.000001
795.078505	0.999876
795.400457	0.999380
795.722364	0.999877
796.044226	0.999446
796.366042	0.999108
796.687812	0.998024
797.009538	0.998026
797.331218	1.000473
797.652852	0.999803
797.974442	0.998130
798.295986	0.999584
798.617484	0.998564
798.938938	0.999070
799.260346	0.998965
799.581709	0.998877
799.903026	0.999658
800.224299	0.998895
800.545526	0.998711
800.866708	0.998534
801.187845	0.999425
801.508936	0.999278
801.829983	0.999055
802.150984	0.999031
802.471940	0.999575
802.792851	0.998126
803.113717	1.000569
803.434538	1.000039
803.755314	1.000630
804.076045	0.999378
804.396731	0.999322
804.717372	0.999037
805.037967	1.000767
805.358518	1.000088
805.679024	0.998911
805.999485	0.999659
806.319901	0.999053
806.640272	0.999843
806.960598	1.000045
807.280879	1.000077
807.601115	0.999980
807.921306	1.000181
808.241453	0.999260
808.561554	0.998885
808.881611	0.999281
809.201623	0.997787
809.521590	0.997998
809.841513	1.000075
810.161390	0.998726
810.481223	0.998518
810.801011	0.999201
811.120755	1.000692
811.440453	0.998954
811.760107	0.998705
812.079716	0.999171
812.399281	0.999214
812.718801	0.999209
813.038276	0.999790
813.357707	0.998944
813.677093	0.999542
813.996434	0.998995
814.315731	1.000282
814.634983	0.999611
814.954191	0.999479
815.273354	0.999094
815.592473	0.999335
815.911547	1.001107
816.230577	0.999178
816.549562	0.999627
816.868502	0.998091
817.187399	0.999499
817.506250	0.999639
817.825058	0.998370
818.143821	0.999023
818.462539	0.999315
818.781213	0.999297
819.099843	0.998644
819.418429	0.997954
819.736970	0.997656
820.055466	0.996893
820.373919	0.997001
820.692327	0.997075
821.010691	0.996868
821.329011	0.994583
821.647286	0.993519
821.965517	0.991578
822.283704	0.988924
822.601847	0.987845
822.919945	0.987314
823.237999	0.988735
823.556010	0.989637
823.873976	0.991000
824.191897	0.992359
824.509775	0.993615
824.827609	0.994204
825.145398	0.994446
825.463144	0.993495
825.780845	0.993569
826.098502	0.994813
826.416116	0.995083
826.733685	0.994313
827.051210	0.991328
827.368692	0.993047
827.686129	0.993334
828.003522	0.995114
828.320872	0.994196
828.638177	0.995217
828.955439	0.997504
829.272656	0.997030
829.589830	0.997346
829.906960	0.997634
830.224046	0.998587
830.541088	0.998495
830.858086	0.998782
831.175041	0.999981
831.491952	0.998852
831.808819	0.998926
832.125642	0.997799
832.442421	0.998690
832.759157	0.999557
833.075849	0.997185
833.392497	0.996671
833.709101	0.994935
834.025662	0.995368
834.342179	0.995594
834.658653	0.997250
834.975083	0.997106
835.291469	0.996817
835.607811	0.997650
835.924110	0.999183
836.240366	0.999442
836.556578	0.998910
836.872746	0.999683
837.188871	0.999144
837.504952	0.997775
837.820990	0.999863
838.136984	0.998589
838.452935	0.999286
838.768842	1.000388
839.084706	0.999512
839.400526	1.000021
839.716303	0.997370
840.032037	0.998333
840.347727	0.998072
840.663373	0.998183
840.978977	0.998576
841.294537	1.000794
841.610054	0.998784
841.925527	0.999334
842.240957	0.999199
842.556344	0.998853
842.871687	0.999657
843.186987	0.998978
843.502244	0.999724
843.817458	0.998974
844.132629	1.000048
844.447756	1.000155
844.762840	1.001013
845.077881	1.001360
845.392879	0.999250
845.707833	0.998878
846.022745	0.999941
846.337613	1.000030
846.652438	0.999274
846.967221	0.999915
847.281960	1.000377
847.596656	0.999822
847.911309	1.000537
848.225919	0.999026
848.540485	0.999546
848.855009	1.001619
849.169490	1.000598
849.483928	0.999948
849.798323	0.999383
850.112675	1.001310
850.426984	1.000989
850.741251	0.999707
851.055474	1.000410
851.369654	1.000353
851.683792	0.999440
851.997887	1.000365
852.311938	1.001457
852.625947	0.998986
852.939914	0.999918
853.253837	1.000888
853.567718	1.001290
853.881555	1.000668
854.195350	0.999590
854.509103	1.000420
854.822812	1.001131
855.136479	1.000473
855.450103	0.999890
855.763685	1.000199
856.077224	1.000486
856.390720	1.000370
856.704173	1.000467
857.017584	1.000973
857.330953	1.001057
857.644278	1.001161
857.957561	1.000100
858.270802	1.000732
858.584000	1.000225
858.897155	0.999258
859.210268	1.000302
859.523339	1.001547
859.836367	0.999905
860.149352	0.999565
860.462295	0.999906
860.775195	0.999734
861.088054	0.999189
861.400869	0.999535
861.713642	0.999153
862.026373	1.000837
862.339062	1.000508
862.651708	1.000285
862.964312	1.000871
863.276873	1.000832
863.589392	0.999754
863.901869	0.999746
864.214303	1.001168
864.526696	0.999846
864.839045	1.000985
865.151353	0.999784
865.463619	0.998307
865.775842	1.000021
866.088023	1.000245
866.400162	1.000518
866.712258	1.001469
867.024313	0.999585
867.336325	1.000905
867.648296	1.000189
867.960224	0.999862
868.272110	1.000581
868.583954	1.000254
868.895755	1.000348
869.207515	0.999704
869.519233	1.000972
869.830909	0.999047
870.142542	1.000037
870.454134	1.000283
870.765684	1.000271
871.077191	1.000038
871.388657	1.000929
871.700081	1.001026
872.011463	1.000919
872.322803	0.999813
872.634101	0.999700
872.945357	0.998826
873.256571	0.999519
873.567744	0.999841
873.878874	1.000801
874.189963	0.999197
874.501010	1.000926
874.812015	1.000161
875.122979	1.000170
875.433900	0.999307
875.744780	0.999990
876.055618	0.998794
876.366415	0.998527
876.677169	0.998938
876.987882	0.999820
877.298554	0.999871
877.609183	0.999082
877.919771	0.999687
878.230317	1.000123
878.540822	0.998596
878.851285	0.998665
879.161707	0.998703
879.472087	0.999458
879.782425	0.997176
880.092722	0.996353
880.402977	0.994528
880.713191	0.992278
881.023363	0.990264
881.333494	0.988932
881.643583	0.988798
881.953631	0.988653
882.263637	0.988136
882.573602	0.988388
882.883526	0.990705
883.193408	0.992109
883.503248	0.992994
883.813048	0.992776
884.122806	0.995094
884.432522	0.994880
884.742197	0.996747
885.051831	0.997121
885.361424	0.997607
885.670975	0.997998
885.980485	0.997385
886.289954	0.997665
886.599382	0.997651
886.908768	0.998281
887.218113	0.998123
887.527417	0.999069
887.836680	1.000260
888.145901	0.999688
888.455082	0.999799
888.764221	1.000626
889.073319	0.999385
889.382376	0.999973
889.691392	0.998192
890.000366	0.999992
890.309300	0.999898
890.618193	0.999896
890.927044	0.999518
891.235855	0.999265
891.544625	0.999744
891.853353	0.998937
892.162041	0.999275
892.470687	0.999785
892.779293	0.998497
893.087858	0.997751
893.396381	0.998034
893.704864	0.998347
894.013306	0.996893
894.321707	0.996111
894.630068	0.995969
894.938387	0.994695
895.246665	0.995108
895.554903	0.994885
895.863100	0.996546
896.171256	0.996148
896.479371	0.996965
896.787446	0.996393
897.095480	0.997828
897.403473	0.997452
897.711425	0.999194
898.019336	0.999239
898.327207	1.000057
898.635038	0.998331
898.942827	0.999400
899.250576	0.999235
899.558284	0.998389
899.865952	0.998588
900.173579	1.000354
900.481165	0.998939
900.788711	0.998832
901.096216	0.999599
901.403681	0.999941
901.711105	0.999425
902.018489	0.998435
902.325832	0.998477
902.633135	0.998890
902.940397	0.999335
903.247619	0.999088
903.554800	0.998201
903.861941	0.996892
904.169041	0.993198
904.476101	0.994109
904.783121	0.991995
905.090100	0.994530
905.397039	0.994892
905.703938	0.996179
906.010796	0.995755
906.317614	0.997290
906.624391	0.997777
906.931129	0.998721
907.237826	1.000052
907.544483	0.998829
907.851099	0.999589
908.157675	0.999019
908.464211	0.999771
908.770707	0.998752
909.077163	0.999529
909.383578	1.000051
909.689954	0.999657
909.996289	0.999768
910.302584	1.000110
910.608839	1.001101
910.915054	1.000191
911.221229	1.001567
911.527363	0.998762
911.833458	1.000630
912.139513	0.999739
912.445527	1.000908
912.751502	1.000386
913.057436	0.999852
913.363331	0.999699
913.669186	1.001333
913.975000	0.999665
914.280775	0.999035
914.586510	0.998221
914.892205	0.997560
915.197859	0.997051
915.503475	0.996166
915.809050	0.994467
916.114585	0.992285
916.420081	0.992906
916.725536	0.994036
917.030952	0.994124
917.336328	0.994311
917.641665	0.994831
917.946961	0.995141
918.252218	0.996062
918.557435	0.996623
918.862612	0.997474
919.167750	0.997114
919.472848	0.998596
919.777906	0.999557
920.082925	1.000932
920.387904	0.998386
920.692843	0.998843
920.997743	0.999145
921.302603	0.999888
921.607423	0.999486
921.912204	0.999708
922.216946	1.000190
922.521647	0.999708
922.826310	0.999249
923.130932	1.000332
923.435516	0.999477
923.740059	0.999827
924.044564	0.998474
924.349028	0.999217
924.653454	1.000766
924.957840	0.999999
925.262186	1.000473
925.566493	0.999850
925.870761	1.000812
926.174989	1.000353
926.479178	1.000889
926.783328	1.000916
927.087438	1.001030
927.391509	1.000210
927.695541	0.999779
927.999533	1.000989
928.303486	1.000619
928.607400	1.000824
928.911275	1.000410
929.215110	1.001213
929.518906	1.001963
929.822663	1.001638
930.126381	1.001843
930.430060	1.000465
930.733699	1.000795
931.037299	1.001428
931.340861	1.001018
931.644383	0.999101
931.947866	1.000062
932.251309	1.001348
932.554714	1.000475
932.858080	1.001000
933.161407	0.999595
933.464694	1.000378
933.767943	1.000719
934.071153	1.000900
934.374323	1.000814
934.677455	0.999950
934.980548	1.000515
935.283602	0.999962
935.586617	1.000430
935.889593	1.001511
936.192530	1.001618
936.495428	1.000527
936.798287	1.000649
937.101108	1.000986
937.403890	1.000089
937.706632	1.001366
938.009336	0.999577
938.312002	1.000680
938.614628	1.000785
938.917216	0.999846
939.219765	0.999942
939.522275	1.000514
939.824747	1.000481
940.127179	1.000479
940.429573	1.001309
940.731929	0.999719
941.034246	0.999583
941.336524	0.998906
941.638763	0.999458
941.940964	1.000080
942.243126	1.000148
942.545250	1.001118
942.847335	1.001100
943.149381	1.001579
943.451389	0.999539
943.753359	0.999744
944.055290	1.000629
944.357182	1.001767
944.659036	1.000105
944.960851	0.999920
945.262628	1.001446
945.564367	1.000376
945.866067	1.000814
946.167729	1.000842
946.469352	1.001253
946.770937	0.999473
947.072484	1.001877
947.373992	0.999956
947.675462	0.999401
947.976893	0.999782
948.278286	1.001793
948.579641	1.001299
948.880958	1.000836
949.182236	1.000585
949.483476	1.000413
949.784678	1.001047
950.085841	0.999860
950.386967	1.001107
950.688054	1.001866
950.989103	0.999147
951.290114	1.000020
951.591087	1.000338
951.892021	1.000986
952.192917	1.000113
952.493776	1.001710
952.794596	1.000155
953.095378	0.999518
953.396122	1.000924
953.696828	1.000234
953.997496	1.001527
954.298126	1.000635
954.598718	1.000864
954.899272	1.000549
955.199788	1.000082
955.500266	1.000510
955.800706	0.999729
956.101108	0.999696
956.401472	1.002445
956.701798	1.000768
957.002087	1.000533
957.302337	1.000308
957.602550	1.000549
957.902724	1.000412
958.202861	1.001099
958.502960	1.000385
958.803022	1.001656
959.103045	0.999490
959.403031	1.001371
959.702979	1.001866
960.002889	1.001641
960.302762	1.001137
960.602596	1.000987
960.902393	1.000760
961.202153	1.000750
961.501875	1.001519
961.801559	1.000845
962.101205	1.000098
962.400814	1.002279
962.700385	1.001151
962.999918	1.001823
963.299414	0.999975
963.598873	1.002059
963.898293	1.000810
964.197677	1.000674
964.497022	1.001601
964.796331	1.001843
965.095601	1.003258
965.394835	1.000787
965.694030	1.002248
965.993189	1.000191
966.292309	1.001779
966.591393	1.000930
966.890439	1.001806
967.189447	0.999786
967.488419	1.001360
967.787353	1.001139
968.086249	1.001984
968.385108	1.001155
968.683930	1.001517
968.982714	1.001417
969.281462	1.000909
969.580172	1.001012
969.878844	1.001828
970.177480	1.001340
970.476078	1.002203
970.774639	1.000977
971.073162	1.000682
971.371649	1.001375
971.670098	1.000270
971.968510	1.001433
972.266885	0.999834
972.565223	1.001754
972.863524	0.999211
973.161788	1.000758
973.460014	1.003154
973.758204	1.000049
974.056356	1.001291
974.354471	0.999831
974.652550	1.001806
974.950591	0.999359
975.248595	0.999644
975.546563	1.001840
975.844493	1.001016
976.142386	0.999705
976.440243	1.001848
976.738062	1.001387
977.035845	1.001309
977.333590	1.001884
977.631299	1.001313
977.928971	1.000238
978.226606	1.000791
978.524204	0.999932
978.821765	1.001645
979.119290	1.002307
979.416777	1.000831
979.714228	1.000371
980.011642	1.001581
980.309020	1.001618
980.606360	1.000131
980.903664	1.000824
981.200931	1.001414
981.498162	1.001205
981.795356	1.000634
982.092513	1.000207
982.389633	1.001998
982.686717	0.999559
982.983764	1.000104
983.280775	1.000541
983.577749	1.002304
983.874686	0.999923
984.171587	0.999957
984.468451	1.000578
984.765279	1.000308
985.062070	1.001057
985.358824	1.000099
985.655543	1.001389
985.952224	1.000962
986.248869	1.001797
986.545478	1.002098
986.842050	1.000581
987.138586	1.000839
987.435086	1.000176
987.731549	1.002683
988.027975	1.002201
988.324366	1.000430
988.620719	1.001765
988.917037	1.001226
989.213318	1.002491
989.509563	1.001152
989.805772	1.001121
990.101944	1.001182
990.398080	1.000670
990.694180	1.001436
990.990244	1.000409
991.286271	1.002094
991.582262	1.001754
991.878217	1.000848
992.174136	1.001511
992.470019	1.000965
992.765865	1.002354
993.061676	1.001519
993.357450	1.001242
993.653188	1.002424
993.948890	1.002678
994.244556	1.000358
994.540186	1.000558
994.835780	1.000544
995.131337	1.000906
995.426859	1.001583
995.722345	1.001510
996.017795	1.001016
996.313208	1.002231
996.608586	1.001162
996.903928	1.001742
997.199234	1.001081
997.494504	1.001354
997.789738	1.000119
998.084936	1.002146
998.380099	1.000760
998.675225	1.001408
998.970316	1.002450
999.265371	1.001101
999.560390	1.000422
999.855373	1.000223
1000.150320	1.001613
1000.445232	1.000386
1000.740108	1.000965
1001.034948	1.000986
1001.329752	1.002293
1001.624521	1.002005
1001.919254	1.000862
1002.213951	1.000913
1002.508613	1.000630
1002.803239	1.001348
1003.097829	1.002234
1003.392384	1.001133
1003.686903	1.001625
1003.981386	1.001238
1004.275834	1.001943
1004.570246	1.000772
1004.864623	1.001372
1005.158964	1.001087
1005.453270	1.001221
1005.747540	1.001089
1006.041775	1.002131
1006.335974	1.002123
1006.630138	1.001369
1006.924266	0.999349
1007.218359	1.000776
1007.512416	1.001439
1007.806438	1.001264
1008.100425	1.002133
1008.394376	1.001894
1008.688292	1.001787
1008.982172	1.000403
1009.276017	1.001105
1009.569827	1.002730
1009.863602	1.001436
1010.157341	1.001443
1010.451045	1.000897
1010.744714	1.002824
1011.038347	1.003093
1011.331945	1.000138
1011.625508	1.000789
1011.919036	1.000996
1012.212528	1.002677
1012.505986	1.000305
1012.799408	1.001801
1013.092795	1.002055
1013.386147	1.001370
1013.679464	1.001210
1013.972745	1.001078
1014.265992	1.002196
1014.559204	1.000899
1014.852380	1.001138
1015.145521	1.001273
1015.438628	1.001152
1015.731699	1.001202
1016.024736	1.001860
1016.317737	1.002479
1016.610703	1.001918
1016.903635	1.001510
1017.196531	1.001108
1017.489393	1.001154
1017.782219	1.000355
1018.075011	1.001085
1018.367768	1.000319
1018.660490	1.000855
1018.953177	1.000855
1019.245829	1.000855
