Dividing Wavelength (nm)	Counts (n)	Blue Motor Position (mm): 7.800000	Red Motor Position (mm): 0.000000	
326.493990	1.005238
326.888308	1.005238
327.282561	1.005238
327.676750	1.005941
328.070874	1.006904
328.464933	1.006511
328.858929	1.007496
329.252859	1.006393
329.646726	1.005689
330.040528	1.004943
330.434265	1.006239
330.827938	1.005109
331.221547	1.005945
331.615091	1.006041
332.008571	1.005763
332.401986	1.006230
332.795338	1.005443
333.188625	1.006174
333.581847	1.005548
333.975006	1.005711
334.368100	1.005263
334.761129	1.004418
335.154095	1.005455
335.546996	1.002705
335.939833	0.998820
336.332606	0.999824
336.725315	0.997998
337.117960	0.999356
337.510540	0.998571
337.903056	1.000212
338.295508	0.999697
338.687896	1.000333
339.080220	0.999719
339.472480	0.999547
339.864676	0.999407
340.256807	0.998645
340.648875	0.998798
341.040879	0.998996
341.432818	0.999889
341.824694	0.999704
342.216506	1.000400
342.608253	0.999514
342.999937	0.998178
343.391557	0.998706
343.783113	0.999807
344.174605	0.998598
344.566033	0.998779
344.957397	1.000317
345.348697	0.999703
345.739934	0.998371
346.131106	0.998347
346.522215	0.998355
346.913260	0.999032
347.304241	0.998276
347.695159	0.998802
348.086012	0.998685
348.476802	0.998734
348.867528	0.999340
349.258191	1.000033
349.648789	0.998682
350.039324	0.998438
350.429796	0.998026
350.820203	0.998097
351.210548	0.998007
351.600828	0.997594
351.991045	0.998359
352.381198	0.998946
352.771288	0.998093
353.161314	0.998915
353.551276	0.997806
353.941175	0.996936
354.331010	0.998836
354.720782	0.998624
355.110490	0.997995
355.500135	0.996969
355.889717	0.996630
356.279235	0.996773
356.668689	0.998873
357.058080	0.997642
357.447408	0.997362
357.836672	0.997230
358.225873	0.999056
358.615010	0.998232
359.004084	0.996558
359.393095	0.998331
359.782043	0.997154
360.170927	0.998296
360.559748	0.997282
360.948505	0.997709
361.337199	0.997735
361.725830	0.998730
362.114398	0.996988
362.502903	0.995914
362.891344	0.995564
363.279722	0.996130
363.668037	0.997495
364.056289	0.996458
364.444478	0.998670
364.832603	0.997069
365.220665	0.997230
365.608665	0.995169
365.996601	0.996294
366.384474	0.995852
366.772284	0.996095
367.160031	0.994975
367.547715	0.995100
367.935336	0.994858
368.322893	0.993884
368.710388	0.991916
369.097820	0.990185
369.485189	0.988675
369.872495	0.986707
370.259738	0.984434
370.646918	0.981303
371.034035	0.978967
371.421090	0.976051
371.808081	0.971506
372.195010	0.969322
372.581875	0.964063
372.968678	0.959280
373.355418	0.956890
373.742096	0.948423
374.128710	0.944983
374.515262	0.939250
374.901751	0.933742
375.288177	0.928250
375.674540	0.922097
376.060841	0.915537
376.447079	0.909341
376.833254	0.902507
377.219367	0.896805
377.605417	0.886457
377.991404	0.883407
378.377329	0.876666
378.763191	0.870731
379.148991	0.860521
379.534727	0.853821
379.920402	0.845772
380.306013	0.841856
380.691563	0.829417
381.077049	0.822493
381.462474	0.817979
381.847835	0.807336
382.233134	0.801718
382.618371	0.802669
383.003545	0.785305
383.388657	0.782643
383.773706	0.775847
384.158693	0.770723
384.543618	0.766370
384.928480	0.757610
385.313280	0.747940
385.698017	0.746698
386.082692	0.734721
386.467305	0.733818
386.851856	0.728560
387.236344	0.723614
387.620770	0.718183
388.005133	0.712757
388.389435	0.705941
388.773674	0.702969
389.157851	0.694744
389.541965	0.693450
389.926018	0.699531
390.310008	0.685973
390.693936	0.682778
391.077802	0.675082
391.461606	0.676686
391.845348	0.665710
392.229027	0.665526
392.612645	0.664179
392.996200	0.651053
393.379694	0.644113
393.763125	0.634213
394.146494	0.638485
394.529801	0.629281
394.913047	0.621285
395.296230	0.627410
395.679351	0.618887
396.062410	0.615532
396.445408	0.618400
396.828343	0.613785
397.211217	0.607534
397.594028	0.621248
397.976778	0.610542
398.359466	0.607743
398.742092	0.602982
399.124656	0.614699
399.507158	0.602829
399.889598	0.600703
400.271977	0.591266
400.654294	0.595478
401.036549	0.593856
401.418742	0.598223
401.800874	0.584763
402.182944	0.581307
402.564952	0.572867
402.946898	0.575418
403.328783	0.576433
403.710606	0.586907
404.092367	0.561932
404.474067	0.566556
404.855705	0.565826
405.237282	0.574700
405.618797	0.561017
406.000250	0.556523
406.381642	0.546268
406.762972	0.552448
407.144240	0.550655
407.525447	0.550014
407.906593	0.543183
408.287677	0.538633
408.668700	0.546239
409.049661	0.540590
409.430560	0.535483
409.811399	0.544956
410.192176	0.526436
410.572891	0.533763
410.953545	0.521456
411.334138	0.535252
411.714669	0.527762
412.095139	0.539957
412.475547	0.522807
412.855894	0.525692
413.236180	0.524920
413.616405	0.530080
413.996568	0.520022
414.376670	0.526622
414.756711	0.531366
415.136691	0.528289
415.516609	0.519417
415.896466	0.516130
416.276262	0.512095
416.655997	0.514070
417.035670	0.495454
417.415283	0.487498
417.794834	0.491986
418.174324	0.497537
418.553753	0.506747
418.933121	0.488897
419.312428	0.482779
419.691674	0.488287
420.070859	0.476463
420.449983	0.485205
420.829045	0.473724
421.208047	0.482689
421.586988	0.475964
421.965867	0.474499
422.344686	0.463579
422.723444	0.476095
423.102141	0.492723
423.480777	0.466379
423.859352	0.486713
424.237866	0.463885
424.616319	0.463969
424.994712	0.455335
425.373044	0.465331
425.751314	0.453686
426.129524	0.470511
426.507673	0.453275
426.885762	0.447343
427.263789	0.452727
427.641756	0.462568
428.019662	0.452848
428.397508	0.452261
428.775292	0.456472
429.153016	0.447906
429.530679	0.453851
429.908282	0.447649
430.285824	0.458058
430.663305	0.436386
431.040726	0.457774
431.418086	0.457389
431.795385	0.448954
432.172624	0.448354
432.549802	0.448332
432.926920	0.447633
433.303977	0.446806
433.680974	0.444073
434.057910	0.442776
434.434786	0.442013
434.811601	0.444574
435.188355	0.427003
435.565050	0.436492
435.941683	0.437658
436.318257	0.421353
436.694770	0.422233
437.071222	0.420678
437.447614	0.424710
437.823946	0.431085
438.200218	0.420360
438.576429	0.430592
438.952580	0.423212
439.328670	0.419963
439.704700	0.427051
440.080670	0.428022
440.456580	0.408793
440.832429	0.417225
441.208218	0.428107
441.583947	0.416925
441.959616	0.416381
442.335224	0.422355
442.710773	0.412243
443.086261	0.411001
443.461689	0.424292
443.837057	0.414578
444.212365	0.404347
444.587612	0.411501
444.962800	0.401636
445.337927	0.403241
445.712995	0.429278
446.088002	0.391306
446.462949	0.401734
446.837837	0.406532
447.212664	0.394975
447.587431	0.386513
447.962139	0.357183
448.336786	0.316070
448.711374	0.326277
449.085901	0.370718
449.460369	0.375220
449.834776	0.378616
450.209124	0.357832
450.583412	0.350476
450.957640	0.343515
451.331808	0.354597
451.705917	0.378476
452.079965	0.382633
452.453954	0.371236
452.827883	0.378118
453.201752	0.372944
453.575562	0.384115
453.949311	0.372516
454.323001	0.378474
454.696632	0.374205
455.070202	0.367162
455.443713	0.359022
455.817164	0.353297
456.190556	0.349557
456.563888	0.346442
456.937160	0.343893
457.310373	0.361024
457.683526	0.359795
458.056619	0.365779
458.429653	0.366115
458.802628	0.369722
459.175542	0.363960
459.548398	0.346491
459.921194	0.338955
460.293930	0.339154
460.666607	0.316531
461.039224	0.305360
461.411782	0.300344
461.784280	0.299897
462.156719	0.303637
462.529099	0.307949
462.901419	0.324410
463.273680	0.328558
463.645882	0.328285
464.018024	0.334034
464.390106	0.326470
464.762130	0.311338
465.134094	0.294100
465.505999	0.263429
465.877845	0.233630
466.249631	0.220693
466.621358	0.228053
466.993026	0.241958
467.364634	0.248221
467.736184	0.256817
468.107674	0.265762
468.479105	0.264651
468.850477	0.271496
469.221790	0.278837
469.593043	0.288750
469.964238	0.293732
470.335373	0.293390
470.706449	0.291367
471.077467	0.291651
471.448425	0.253898
471.819324	0.229325
472.190164	0.228604
472.560945	0.257781
472.931667	0.280049
473.302330	0.284410
473.672934	0.296245
474.043479	0.284025
474.413965	0.286370
474.784393	0.289375
475.154761	0.284544
475.525070	0.281881
475.895321	0.287644
476.265513	0.281377
476.635645	0.276982
477.005719	0.276633
477.375734	0.273576
477.745691	0.266518
478.115588	0.262611
478.485427	0.256517
478.855207	0.243450
479.224928	0.225563
479.594591	0.213876
479.964194	0.217275
480.333739	0.218344
480.703226	0.219722
481.072653	0.218121
481.442022	0.214080
481.811333	0.210706
482.180584	0.214164
482.549777	0.219429
482.918912	0.222707
483.287988	0.222251
483.657005	0.222302
484.025964	0.228434
484.394864	0.225635
484.763706	0.226281
485.132489	0.231545
485.501213	0.232397
485.869879	0.230802
486.238487	0.233855
486.607036	0.231674
486.975527	0.236191
487.343959	0.232139
487.712333	0.231333
488.080648	0.232575
488.448905	0.231727
488.817104	0.232960
489.185244	0.227488
489.553326	0.224432
489.921350	0.214298
490.289315	0.196650
490.657222	0.191637
491.025070	0.192907
491.392861	0.194969
491.760593	0.200834
492.128267	0.206502
492.495883	0.211904
492.863440	0.218476
493.230939	0.224831
493.598380	0.226128
493.965763	0.228186
494.333088	0.230467
494.700354	0.232009
495.067563	0.230863
495.434713	0.234541
495.801805	0.231982
496.168839	0.233658
496.535815	0.235243
496.902733	0.235120
497.269593	0.236607
497.636395	0.234329
498.003139	0.234557
498.369825	0.237484
498.736453	0.234056
499.103023	0.235641
499.469535	0.235018
499.835989	0.235097
500.202385	0.236057
500.568723	0.239351
500.935003	0.234597
501.301226	0.238703
501.667390	0.233291
502.033497	0.231400
502.399546	0.233825
502.765537	0.235819
503.131470	0.234344
503.497345	0.230841
503.863163	0.239194
504.228923	0.232123
504.594625	0.231049
504.960269	0.236538
505.325856	0.232117
505.691385	0.236315
506.056856	0.233083
506.422270	0.232382
506.787625	0.234857
507.152924	0.232347
507.518164	0.232536
507.883347	0.234190
508.248472	0.236224
508.613540	0.231008
508.978550	0.233638
509.343503	0.233930
509.708398	0.231947
510.073236	0.229318
510.438016	0.229077
510.802738	0.230133
511.167403	0.229028
511.532010	0.231316
511.896561	0.226711
512.261053	0.224884
512.625488	0.227297
512.989866	0.227641
513.354186	0.227770
513.718449	0.230005
514.082655	0.226204
514.446803	0.228462
514.810894	0.226184
515.174927	0.228855
515.538904	0.228334
515.902822	0.225198
516.266684	0.227921
516.630488	0.228810
516.994235	0.227640
517.357925	0.226509
517.721558	0.224804
518.085133	0.224063
518.448651	0.224061
518.812112	0.226646
519.175516	0.226366
519.538863	0.223572
519.902152	0.225362
520.265385	0.222154
520.628560	0.223784
520.991678	0.224179
521.354739	0.223377
521.717743	0.224447
522.080690	0.224901
522.443580	0.221992
522.806413	0.222906
523.169189	0.222238
523.531908	0.221496
523.894569	0.224831
524.257174	0.224986
524.619722	0.222381
524.982213	0.223480
525.344647	0.222466
525.707025	0.223150
526.069345	0.221347
526.431608	0.223273
526.793815	0.221068
527.155964	0.225511
527.518057	0.224304
527.880093	0.225265
528.242072	0.223861
528.603995	0.225845
528.965860	0.227441
529.327669	0.226544
529.689421	0.227431
530.051117	0.228149
530.412755	0.225946
530.774337	0.228020
531.135862	0.228596
531.497331	0.227809
531.858743	0.230678
532.220098	0.227301
532.581396	0.229884
532.942638	0.230447
533.303824	0.231460
533.664953	0.231083
534.026025	0.233210
534.387040	0.230827
534.747999	0.230588
535.108902	0.229537
535.469748	0.234879
535.830537	0.232628
536.191270	0.232973
536.551947	0.232590
536.912567	0.232518
537.273131	0.234371
537.633638	0.234648
537.994089	0.234944
538.354483	0.235944
538.714821	0.232818
539.075103	0.232779
539.435328	0.233741
539.795497	0.237303
540.155609	0.233705
540.515665	0.231965
540.875665	0.237609
541.235609	0.236298
541.595496	0.236335
541.955328	0.232945
542.315102	0.235600
542.674821	0.236407
543.034483	0.236701
543.394090	0.236304
543.753640	0.238183
544.113134	0.233099
544.472571	0.236560
544.831953	0.233322
545.191278	0.237555
545.550548	0.236843
545.909761	0.234063
546.268918	0.234547
546.628019	0.232775
546.987064	0.235743
547.346053	0.237509
547.704986	0.234967
548.063863	0.235619
548.422684	0.235744
548.781449	0.237542
549.140158	0.235068
549.498811	0.238039
549.857408	0.241061
550.215949	0.235704
550.574434	0.238910
550.932864	0.237192
551.291237	0.235292
551.649555	0.237147
552.007817	0.236825
552.366022	0.237985
552.724173	0.237891
553.082267	0.238296
553.440305	0.235018
553.798288	0.239221
554.156215	0.236051
554.514086	0.236836
554.871902	0.239737
555.229661	0.238842
555.587365	0.239668
555.945014	0.242211
556.302606	0.239239
556.660143	0.241860
557.017625	0.238297
557.375050	0.240234
557.732421	0.237304
558.089735	0.239174
558.446994	0.239400
558.804197	0.238702
559.161345	0.238404
559.518437	0.242000
559.875474	0.240289
560.232455	0.239304
560.589381	0.240600
560.946251	0.240655
561.303065	0.238258
561.659825	0.239548
562.016528	0.241064
562.373177	0.243963
562.729770	0.241296
563.086307	0.243122
563.442789	0.241071
563.799216	0.243970
564.155587	0.242711
564.511904	0.243797
564.868164	0.243616
565.224370	0.243719
565.580520	0.245422
565.936615	0.245408
566.292654	0.248386
566.648638	0.245296
567.004567	0.246242
567.360441	0.246737
567.716260	0.248883
568.072023	0.246353
568.427732	0.247549
568.783385	0.249537
569.138982	0.248056
569.494525	0.247567
569.850013	0.250337
570.205445	0.249154
570.560823	0.251314
570.916145	0.253249
571.271412	0.251872
571.626625	0.252920
571.981782	0.253515
572.336884	0.254362
572.691931	0.254138
573.046923	0.255649
573.401860	0.256611
573.756743	0.258384
574.111570	0.257346
574.466342	0.257740
574.821059	0.256702
575.175722	0.259816
575.530330	0.259696
575.884882	0.259703
576.239380	0.261624
576.593823	0.262139
576.948211	0.261490
577.302544	0.264820
577.656823	0.264522
578.011047	0.264675
578.365216	0.265419
578.719330	0.267367
579.073389	0.266779
579.427394	0.268556
579.781344	0.269174
580.135239	0.270417
580.489080	0.270308
580.842866	0.273260
581.196597	0.273575
581.550273	0.271846
581.903895	0.272915
582.257463	0.270982
582.610975	0.274428
582.964434	0.273678
583.317837	0.276136
583.671186	0.276953
584.024481	0.276422
584.377721	0.278778
584.730906	0.279752
585.084037	0.279088
585.437113	0.280773
585.790135	0.279991
586.143103	0.283339
586.496016	0.284652
586.848874	0.281879
587.201679	0.282472
587.554428	0.285807
587.907124	0.285039
588.259765	0.285258
588.612352	0.285593
588.964884	0.289895
589.317362	0.288963
589.669786	0.288920
590.022155	0.287363
590.374470	0.287322
590.726731	0.289004
591.078937	0.294013
591.431090	0.290238
591.783188	0.294026
592.135232	0.295084
592.487222	0.294829
592.839157	0.292842
593.191038	0.295330
593.542866	0.297235
593.894639	0.300179
594.246358	0.299043
594.598022	0.298088
594.949633	0.301781
595.301190	0.302793
595.652692	0.301524
596.004141	0.297763
596.355535	0.305749
596.706876	0.306527
597.058162	0.308910
597.409395	0.305779
597.760573	0.303829
598.111698	0.306926
598.462768	0.307103
598.813785	0.309017
599.164748	0.309881
599.515657	0.310051
599.866511	0.313561
600.217312	0.309084
600.568060	0.314274
600.918753	0.310788
601.269392	0.311594
601.619978	0.314993
601.970510	0.312671
602.320988	0.312763
602.671412	0.310427
603.021783	0.312667
603.372100	0.314432
603.722363	0.314157
604.072572	0.315241
604.422728	0.314679
604.772830	0.316481
605.122878	0.316562
605.472872	0.317033
605.822813	0.315107
606.172701	0.317839
606.522534	0.315240
606.872314	0.315211
607.222041	0.316363
607.571714	0.314135
607.921333	0.315949
608.270899	0.315508
608.620411	0.312189
608.969870	0.316420
609.319276	0.316439
609.668627	0.316304
610.017926	0.314972
610.367171	0.313685
610.716362	0.314483
611.065500	0.314179
611.414585	0.313071
611.763616	0.313301
612.112594	0.313901
612.461518	0.313443
612.810389	0.310732
613.159207	0.313722
613.507971	0.314938
613.856682	0.311057
614.205340	0.312298
614.553945	0.309610
614.902496	0.313062
615.250994	0.311500
615.599439	0.311722
615.947830	0.311455
616.296169	0.312489
616.644454	0.311819
616.992686	0.312033
617.340864	0.310041
617.688990	0.313316
618.037063	0.310205
618.385082	0.311944
618.733048	0.308508
619.080961	0.311246
619.428821	0.310307
619.776628	0.310417
620.124382	0.312305
620.472083	0.312911
620.819731	0.311727
621.167326	0.316073
621.514868	0.315848
621.862357	0.320074
622.209793	0.319314
622.557176	0.322035
622.904506	0.322783
623.251783	0.324856
623.599007	0.327935
623.946179	0.326954
624.293297	0.328891
624.640363	0.333132
624.987376	0.333437
625.334336	0.335778
625.681243	0.338227
626.028097	0.338708
626.374899	0.339608
626.721647	0.340170
627.068343	0.343150
627.414987	0.344537
627.761577	0.346181
628.108115	0.344678
628.454600	0.350044
628.801032	0.347729
629.147412	0.349664
629.493739	0.349969
629.840014	0.352838
630.186236	0.350163
630.532405	0.356230
630.878521	0.353163
631.224585	0.356051
631.570597	0.359179
631.916556	0.357793
632.262462	0.357194
632.608316	0.360170
632.954117	0.361112
633.299866	0.361517
633.645562	0.361813
633.991206	0.366278
634.336797	0.369094
634.682336	0.371679
635.027823	0.373437
635.373257	0.374096
635.718639	0.377878
636.063968	0.376850
636.409245	0.382561
636.754470	0.383149
637.099642	0.385038
637.444762	0.389036
637.789829	0.387625
638.134845	0.391420
638.479808	0.392397
638.824719	0.392561
639.169577	0.396460
639.514383	0.395257
639.859137	0.399883
640.203839	0.399205
640.548489	0.399740
640.893086	0.401143
641.237632	0.402897
641.582125	0.401807
641.926566	0.403390
642.270955	0.403019
642.615292	0.403285
642.959576	0.402322
643.303809	0.402967
643.647990	0.402825
643.992118	0.403023
644.336195	0.406209
644.680219	0.405176
645.024192	0.405775
645.368112	0.399933
645.711981	0.397906
646.055797	0.393422
646.399562	0.396374
646.743274	0.388785
647.086935	0.385160
647.430544	0.385605
647.774101	0.384634
648.117606	0.384499
648.461059	0.385244
648.804460	0.387548
649.147810	0.392392
649.491108	0.394210
649.834354	0.395747
650.177548	0.401509
650.520690	0.406534
650.863781	0.407230
651.206820	0.406869
651.549807	0.411638
651.892742	0.415782
652.235626	0.415423
652.578458	0.416174
652.921238	0.422411
653.263967	0.419879
653.606644	0.423442
653.949269	0.424384
654.291843	0.427508
654.634365	0.425096
654.976836	0.427475
655.319255	0.428523
655.661622	0.429322
656.003938	0.429514
656.346203	0.432143
656.688416	0.430896
657.030577	0.433602
657.372687	0.436272
657.714746	0.436889
658.056753	0.433663
658.398708	0.437092
658.740612	0.438558
659.082465	0.434848
659.424266	0.435762
659.766016	0.435239
660.107715	0.438128
660.449362	0.436709
660.790958	0.437643
661.132503	0.438463
661.473996	0.436020
661.815438	0.436778
662.156829	0.437129
662.498168	0.437869
662.839456	0.439018
663.180693	0.437003
663.521879	0.437263
663.863013	0.438115
664.204097	0.435850
664.545129	0.433473
664.886110	0.433463
665.227040	0.431297
665.567918	0.433595
665.908746	0.431999
666.249522	0.432011
666.590248	0.432732
666.930922	0.430421
667.271545	0.429840
667.612118	0.430230
667.952639	0.431699
668.293109	0.430566
668.633528	0.433251
668.973896	0.433232
669.314213	0.433656
669.654480	0.435642
669.994695	0.436068
670.334859	0.436781
670.674973	0.437179
671.015035	0.437076
671.355047	0.437796
671.695008	0.438397
672.034918	0.440249
672.374777	0.439603
672.714585	0.440875
673.054342	0.440985
673.394049	0.440887
673.733705	0.438767
674.073310	0.441024
674.412864	0.443118
674.752368	0.444395
675.091820	0.444225
675.431223	0.448933
675.770574	0.448682
676.109875	0.451577
676.449125	0.452000
676.788324	0.453959
677.127473	0.459577
677.466571	0.460073
677.805619	0.461493
678.144616	0.462844
678.483562	0.464273
678.822458	0.467303
679.161303	0.467418
679.500098	0.468939
679.838842	0.470012
680.177535	0.469886
680.516179	0.468558
680.854771	0.467524
681.193314	0.460786
681.531805	0.452951
681.870247	0.442252
682.208638	0.434454
682.546978	0.434130
682.885268	0.435586
683.223508	0.441682
683.561697	0.446281
683.899836	0.449202
684.237925	0.452081
684.575963	0.455388
684.913951	0.457875
685.251889	0.454254
685.589776	0.456544
685.927614	0.458710
686.265401	0.454228
686.603137	0.455574
686.940824	0.450038
687.278460	0.448620
687.616046	0.447966
687.953582	0.443524
688.291068	0.444864
688.628504	0.441414
688.965889	0.443643
689.303224	0.447523
689.640510	0.451764
689.977745	0.457587
690.314930	0.465438
690.652065	0.470029
690.989150	0.476945
691.326185	0.483637
691.663170	0.488649
692.000105	0.495640
692.336990	0.502515
692.673825	0.505556
693.010610	0.511648
693.347345	0.517645
693.684030	0.519623
694.020665	0.523751
694.357251	0.532548
694.693786	0.533263
695.030272	0.535905
695.366707	0.539873
695.703093	0.542853
696.039429	0.541718
696.375716	0.545502
696.711952	0.547179
697.048139	0.548545
697.384276	0.550639
697.720363	0.550097
698.056400	0.549010
698.392388	0.554988
698.728326	0.556917
699.064214	0.560442
699.400053	0.560216
699.735842	0.565298
700.071581	0.567929
700.407270	0.571186
700.742910	0.573589
701.078501	0.580176
701.414042	0.580881
701.749533	0.583746
702.084974	0.592612
702.420366	0.586480
702.755709	0.592522
703.091002	0.600348
703.426246	0.594510
703.761440	0.599891
704.096584	0.604013
704.431679	0.602829
704.766725	0.605075
705.101721	0.607284
705.436668	0.603696
705.771565	0.609251
706.106413	0.605982
706.441212	0.602986
706.775961	0.603588
707.110661	0.604955
707.445311	0.600957
707.779913	0.599595
708.114465	0.598914
708.448967	0.595220
708.783421	0.588217
709.117825	0.583943
709.452180	0.583586
709.786485	0.577971
710.120742	0.568601
710.454949	0.569758
710.789107	0.563405
711.123216	0.555019
711.457275	0.555907
711.791286	0.549618
712.125247	0.550231
712.459159	0.557581
712.793023	0.550074
713.126837	0.556682
713.460602	0.557256
713.794318	0.564083
714.127985	0.564448
714.461602	0.574354
714.795171	0.576427
715.128691	0.585056
715.462162	0.592299
715.795584	0.598653
716.128957	0.601512
716.462281	0.607063
716.795556	0.610267
717.128782	0.616865
717.461960	0.625627
717.795088	0.624433
718.128167	0.629987
718.461198	0.637524
718.794180	0.638636
719.127113	0.642512
719.459997	0.644924
719.792833	0.651184
720.125619	0.651770
720.458357	0.657870
720.791046	0.659074
721.123686	0.662780
721.456278	0.668753
721.788821	0.666600
722.121315	0.671680
722.453761	0.675503
722.786158	0.674030
723.118506	0.670350
723.450805	0.676177
723.783056	0.673347
724.115259	0.672852
724.447412	0.672822
724.779518	0.672439
725.111574	0.672603
725.443582	0.667956
725.775542	0.670895
726.107453	0.664816
726.439315	0.665367
726.771129	0.663689
727.102895	0.657095
727.434612	0.651520
727.766281	0.650033
728.097901	0.648538
728.429473	0.648098
728.760996	0.647938
729.092471	0.648055
729.423897	0.651510
729.755276	0.651676
730.086606	0.651829
730.417887	0.645733
730.749120	0.637579
731.080305	0.631553
731.411442	0.627553
731.742530	0.629733
732.073570	0.630752
732.404562	0.624897
732.735506	0.626263
733.066401	0.630707
733.397249	0.638990
733.728048	0.649360
734.058798	0.662892
734.389501	0.672548
734.720156	0.680189
735.050762	0.688234
735.381320	0.690510
735.711831	0.696900
736.042293	0.702619
736.372707	0.701185
736.703073	0.704100
737.033391	0.704783
737.363661	0.703807
737.693883	0.699379
738.024056	0.698374
738.354182	0.698489
738.684260	0.689503
739.014290	0.686763
739.344272	0.686105
739.674207	0.681220
740.004093	0.681040
740.333931	0.681119
740.663722	0.682466
740.993464	0.683673
741.323159	0.685745
741.652806	0.691755
741.982405	0.695878
742.311956	0.701854
742.641460	0.702831
742.970915	0.706036
743.300323	0.712514
743.629683	0.718463
743.958996	0.721115
744.288260	0.724433
744.617477	0.730041
744.946647	0.732192
745.275768	0.737511
745.604842	0.738889
745.933869	0.744752
746.262847	0.746807
746.591778	0.742645
746.920662	0.747863
747.249498	0.753248
747.578286	0.747046
747.907027	0.742738
748.235720	0.741980
748.564365	0.738767
748.892963	0.740153
749.221514	0.743508
749.550017	0.745622
749.878473	0.747284
750.206881	0.753463
750.535242	0.754042
750.863555	0.752964
751.191821	0.754265
751.520039	0.757341
751.848210	0.759422
752.176334	0.756182
752.504411	0.755517
752.832440	0.761068
753.160421	0.764312
753.488356	0.764433
753.816243	0.763484
754.144082	0.769375
754.471875	0.772434
754.799620	0.770147
755.127318	0.770770
755.454969	0.771440
755.782572	0.772426
756.110129	0.775525
756.437638	0.777425
756.765100	0.775860
757.092515	0.774929
757.419882	0.773093
757.747203	0.777285
758.074477	0.777809
758.401703	0.775342
758.728882	0.771782
759.056014	0.770090
759.383099	0.769522
759.710138	0.768927
760.037129	0.765594
760.364073	0.762462
760.690970	0.765298
761.017820	0.767882
761.344623	0.765668
761.671379	0.758397
761.998088	0.749520
762.324751	0.729872
762.651366	0.691047
762.977935	0.630671
763.304456	0.589614
763.630931	0.584946
763.957359	0.616550
764.283740	0.654973
764.610074	0.682142
764.936362	0.709677
765.262602	0.731696
765.588796	0.751387
765.914943	0.765403
766.241044	0.779592
766.567097	0.785861
766.893104	0.794862
767.219064	0.799495
767.544978	0.805881
767.870845	0.816352
768.196665	0.818369
768.522438	0.818452
768.848165	0.821281
769.173846	0.828715
769.499479	0.831537
769.825066	0.835051
770.150607	0.839183
770.476101	0.836997
770.801548	0.838704
771.126949	0.846849
771.452303	0.850230
771.777611	0.849922
772.102872	0.850038
772.428087	0.854375
772.753256	0.858443
773.078378	0.859138
773.403453	0.865657
773.728482	0.869346
774.053465	0.864076
774.378401	0.869007
774.703291	0.874213
775.028135	0.875177
775.352932	0.873633
775.677683	0.878321
776.002388	0.879258
776.327046	0.878366
776.651658	0.882664
776.976224	0.883633
777.300743	0.884042
777.625216	0.885368
777.949643	0.887065
778.274024	0.886947
778.598359	0.890147
778.922647	0.887765
779.246889	0.889894
779.571086	0.891377
779.895236	0.893808
780.219339	0.891010
780.543397	0.889825
780.867409	0.888788
781.191374	0.889225
781.515294	0.891654
781.839167	0.891119
782.162995	0.893115
782.486776	0.891662
782.810511	0.893147
783.134201	0.895658
783.457844	0.895446
783.781441	0.896509
784.104993	0.900316
784.428498	0.900223
784.751958	0.899843
785.075372	0.899920
785.398739	0.902270
785.722061	0.899110
786.045337	0.897445
786.368568	0.898783
786.691752	0.901146
787.014891	0.891859
787.337983	0.883809
787.661030	0.876070
787.984031	0.862001
788.306987	0.853486
788.629897	0.852431
788.952760	0.858606
789.275579	0.863415
789.598351	0.875726
789.921078	0.885838
790.243759	0.888132
790.566395	0.892809
790.888984	0.897565
791.211529	0.901604
791.534027	0.904400
791.856480	0.906959
792.178888	0.909165
792.501249	0.910873
792.823566	0.914380
793.145836	0.913074
793.468062	0.914470
793.790241	0.915624
794.112375	0.913184
794.434464	0.911663
794.756507	0.909727
795.078505	0.908668
795.400457	0.904363
795.722364	0.895281
796.044226	0.889985
796.366042	0.887479
796.687812	0.890417
797.009538	0.887505
797.331218	0.892872
797.652852	0.896017
797.974442	0.897634
798.295986	0.900028
798.617484	0.901672
798.938938	0.905406
799.260346	0.907848
799.581709	0.910603
799.903026	0.913078
800.224299	0.913584
800.545526	0.915655
800.866708	0.919146
801.187845	0.921787
801.508936	0.921542
801.829983	0.920609
802.150984	0.924660
802.471940	0.926536
802.792851	0.925794
803.113717	0.927456
803.434538	0.925634
803.755314	0.928241
804.076045	0.928982
804.396731	0.928858
804.717372	0.927018
805.037967	0.930387
805.358518	0.927501
805.679024	0.925341
805.999485	0.927159
806.319901	0.925549
806.640272	0.928411
806.960598	0.926086
807.280879	0.924149
807.601115	0.923220
807.921306	0.926801
808.241453	0.925959
808.561554	0.924912
808.881611	0.924794
809.201623	0.925856
809.521590	0.926973
809.841513	0.927095
810.161390	0.925221
810.481223	0.927762
810.801011	0.930079
811.120755	0.931628
811.440453	0.930732
811.760107	0.931401
812.079716	0.931688
812.399281	0.933957
812.718801	0.934995
813.038276	0.935420
813.357707	0.935805
813.677093	0.935762
813.996434	0.936251
814.315731	0.937833
814.634983	0.938050
814.954191	0.938297
815.273354	0.935199
815.592473	0.933776
815.911547	0.932646
816.230577	0.931791
816.549562	0.928932
816.868502	0.928062
817.187399	0.927424
817.506250	0.925021
817.825058	0.924794
818.143821	0.923234
818.462539	0.919317
818.781213	0.913587
819.099843	0.907006
819.418429	0.892627
819.736970	0.879727
820.055466	0.863885
820.373919	0.847295
820.692327	0.824852
821.010691	0.796510
821.329011	0.730934
821.647286	0.629116
821.965517	0.532645
822.283704	0.496376
822.601847	0.499112
822.919945	0.538520
823.237999	0.579462
823.556010	0.621497
823.873976	0.668214
824.191897	0.709149
824.509775	0.743782
824.827609	0.774991
825.145398	0.792540
825.463144	0.793672
825.780845	0.781692
826.098502	0.764413
826.416116	0.730051
826.733685	0.691870
827.051210	0.685436
827.368692	0.699842
827.686129	0.734472
828.003522	0.775965
828.320872	0.811359
828.638177	0.842122
828.955439	0.863827
829.272656	0.879907
829.589830	0.893387
829.906960	0.904420
830.224046	0.911901
830.541088	0.920074
830.858086	0.923338
831.175041	0.928121
831.491952	0.927070
831.808819	0.925703
832.125642	0.920916
832.442421	0.912210
832.759157	0.894005
833.075849	0.857742
833.392497	0.810282
833.709101	0.782391
834.025662	0.791667
834.342179	0.816773
834.658653	0.846464
834.975083	0.872362
835.291469	0.892911
835.607811	0.906958
835.924110	0.920032
836.240366	0.930478
836.556578	0.938803
836.872746	0.944165
837.188871	0.947566
837.504952	0.950862
837.820990	0.953782
838.136984	0.955797
838.452935	0.958596
838.768842	0.958979
839.084706	0.955015
839.400526	0.936704
839.716303	0.906592
840.032037	0.889219
840.347727	0.894220
840.663373	0.908995
840.978977	0.925122
841.294537	0.940582
841.610054	0.950635
841.925527	0.957046
842.240957	0.961305
842.556344	0.965696
842.871687	0.968765
843.186987	0.971545
843.502244	0.972456
843.817458	0.973668
844.132629	0.976082
844.447756	0.977972
844.762840	0.977640
845.077881	0.979852
845.392879	0.978383
845.707833	0.980004
846.022745	0.980582
846.337613	0.981017
846.652438	0.980508
846.967221	0.982201
847.281960	0.982732
847.596656	0.984309
847.911309	0.984080
848.225919	0.983566
848.540485	0.985494
848.855009	0.985103
849.169490	0.984644
849.483928	0.984726
849.798323	0.983611
850.112675	0.986807
850.426984	0.985256
850.741251	0.985324
851.055474	0.985686
851.369654	0.984606
851.683792	0.983899
851.997887	0.985148
852.311938	0.985263
852.625947	0.984152
852.939914	0.984555
853.253837	0.985664
853.567718	0.986368
853.881555	0.985747
854.195350	0.984477
854.509103	0.984895
854.822812	0.985708
855.136479	0.985440
855.450103	0.984206
855.763685	0.985850
856.077224	0.986028
856.390720	0.986549
856.704173	0.985659
857.017584	0.985295
857.330953	0.984304
857.644278	0.984764
857.957561	0.983899
858.270802	0.984568
858.584000	0.984575
858.897155	0.984834
859.210268	0.983926
859.523339	0.985547
859.836367	0.986197
860.149352	0.986248
860.462295	0.985749
860.775195	0.985774
861.088054	0.984783
861.400869	0.985938
861.713642	0.985524
862.026373	0.987297
862.339062	0.985777
862.651708	0.986047
862.964312	0.985295
863.276873	0.985142
863.589392	0.984693
863.901869	0.983413
864.214303	0.983297
864.526696	0.982200
864.839045	0.982233
865.151353	0.981629
865.463619	0.979834
865.775842	0.982195
866.088023	0.983079
866.400162	0.982177
866.712258	0.983171
867.024313	0.983445
867.336325	0.983639
867.648296	0.982700
867.960224	0.982045
868.272110	0.982487
868.583954	0.982862
868.895755	0.983181
869.207515	0.981973
869.519233	0.980569
869.830909	0.980174
870.142542	0.981206
870.454134	0.981556
870.765684	0.979799
871.077191	0.980478
871.388657	0.979482
871.700081	0.981225
872.011463	0.979949
872.322803	0.979097
872.634101	0.977376
872.945357	0.976986
873.256571	0.975950
873.567744	0.976514
873.878874	0.976086
874.189963	0.976607
874.501010	0.977363
874.812015	0.974358
875.122979	0.975922
875.433900	0.977643
875.744780	0.978316
876.055618	0.974520
876.366415	0.974478
876.677169	0.975720
876.987882	0.976098
877.298554	0.977828
877.609183	0.974851
877.919771	0.974424
878.230317	0.973066
878.540822	0.970806
878.851285	0.967985
879.161707	0.964781
879.472087	0.958850
879.782425	0.947620
880.092722	0.926161
880.402977	0.892051
880.713191	0.841216
881.023363	0.790731
881.333494	0.759636
881.643583	0.744210
881.953631	0.751108
882.263637	0.776299
882.573602	0.805942
882.883526	0.827270
883.193408	0.847093
883.503248	0.863811
883.813048	0.882409
884.122806	0.901588
884.432522	0.916655
884.742197	0.929818
885.051831	0.936527
885.361424	0.942608
885.670975	0.951892
885.980485	0.955361
886.289954	0.958742
886.599382	0.960605
886.908768	0.964784
887.218113	0.967022
887.527417	0.969861
887.836680	0.972833
888.145901	0.973662
888.455082	0.975510
888.764221	0.978441
889.073319	0.977894
889.382376	0.978458
889.691392	0.977092
890.000366	0.979178
890.309300	0.978081
890.618193	0.978281
890.927044	0.976713
891.235855	0.975956
891.544625	0.976019
891.853353	0.976883
892.162041	0.975345
892.470687	0.973073
892.779293	0.969367
893.087858	0.965642
893.396381	0.960830
893.704864	0.953227
894.013306	0.939150
894.321707	0.922588
894.630068	0.911167
894.938387	0.909467
895.246665	0.913949
895.554903	0.920048
895.863100	0.931654
896.171256	0.942284
896.479371	0.950509
896.787446	0.958227
897.095480	0.963331
897.403473	0.965828
897.711425	0.968390
898.019336	0.971810
898.327207	0.974671
898.635038	0.973064
898.942827	0.974327
899.250576	0.975040
899.558284	0.978266
899.865952	0.978347
900.173579	0.980290
900.481165	0.980685
900.788711	0.981431
901.096216	0.982875
901.403681	0.983181
901.711105	0.983388
902.018489	0.983948
902.325832	0.984491
902.633135	0.982565
902.940397	0.981282
903.247619	0.973945
903.554800	0.958508
903.861941	0.933608
904.169041	0.907751
904.476101	0.897327
904.783121	0.898856
905.090100	0.911861
905.397039	0.927159
905.703938	0.940817
906.010796	0.951352
906.317614	0.960887
906.624391	0.968109
906.931129	0.974605
907.237826	0.978605
907.544483	0.981247
907.851099	0.982438
908.157675	0.985094
908.464211	0.988463
908.770707	0.988229
909.077163	0.990449
909.383578	0.990760
909.689954	0.990782
909.996289	0.991815
910.302584	0.993438
910.608839	0.993594
910.915054	0.992076
911.221229	0.992872
911.527363	0.990691
911.833458	0.990960
912.139513	0.991436
912.445527	0.991387
912.751502	0.989928
913.057436	0.988552
913.363331	0.988169
913.669186	0.987222
913.975000	0.982444
914.280775	0.979881
914.586510	0.975025
914.892205	0.966854
915.197859	0.954029
915.503475	0.939554
915.809050	0.926338
916.114585	0.919762
916.420081	0.919510
916.725536	0.920703
917.030952	0.925502
917.336328	0.934637
917.641665	0.942051
917.946961	0.952436
918.252218	0.959139
918.557435	0.963013
918.862612	0.968840
919.167750	0.972211
919.472848	0.975401
919.777906	0.978922
920.082925	0.981571
920.387904	0.982691
920.692843	0.983498
920.997743	0.984280
921.302603	0.986501
921.607423	0.986289
921.912204	0.988960
922.216946	0.989770
922.521647	0.989191
922.826310	0.989629
923.130932	0.992172
923.435516	0.993134
923.740059	0.992360
924.044564	0.992547
924.349028	0.992932
924.653454	0.995124
924.957840	0.994466
925.262186	0.995549
925.566493	0.994860
925.870761	0.994927
926.174989	0.995370
926.479178	0.997770
926.783328	0.996935
927.087438	0.996669
927.391509	0.996588
927.695541	0.997696
927.999533	0.997671
928.303486	0.998690
928.607400	0.998785
928.911275	0.998586
929.215110	1.000217
929.518906	0.998349
929.822663	0.999526
930.126381	1.000598
930.430060	0.998733
930.733699	0.999186
931.037299	0.998740
931.340861	0.999071
931.644383	0.997679
931.947866	0.999153
932.251309	0.999005
932.554714	0.998600
932.858080	0.998442
933.161407	0.998881
933.464694	0.997804
933.767943	0.998459
934.071153	0.999367
934.374323	0.999395
934.677455	0.998874
934.980548	0.998804
935.283602	0.999322
935.586617	0.996927
935.889593	1.000282
936.192530	0.999254
936.495428	0.999041
936.798287	0.997941
937.101108	0.998057
937.403890	0.996866
937.706632	1.000315
938.009336	0.995921
938.312002	0.995718
938.614628	0.994889
938.917216	0.993462
939.219765	0.993760
939.522275	0.994903
939.824747	0.995456
940.127179	0.994807
940.429573	0.995920
940.731929	0.994708
941.034246	0.994397
941.336524	0.993931
941.638763	0.995236
941.940964	0.996348
942.243126	0.996718
942.545250	0.997375
942.847335	0.997088
943.149381	0.998063
943.451389	0.996511
943.753359	0.998414
944.055290	0.999928
944.357182	0.998299
944.659036	0.998346
944.960851	0.998415
945.262628	0.998652
945.564367	0.998429
945.866067	0.997860
946.167729	0.998718
946.469352	0.998916
946.770937	0.996946
947.072484	0.999148
947.373992	0.997847
947.675462	0.997403
947.976893	0.998298
948.278286	1.000481
948.579641	0.999356
948.880958	0.998295
949.182236	0.999110
949.483476	0.999054
949.784678	0.999424
950.085841	0.998606
950.386967	0.999767
950.688054	0.999602
950.989103	0.997242
951.290114	0.997964
951.591087	0.999061
951.892021	0.997040
952.192917	0.998874
952.493776	0.997598
952.794596	0.999261
953.095378	0.997448
953.396122	0.997035
953.696828	0.997945
953.997496	0.998630
954.298126	0.998874
954.598718	0.997787
954.899272	0.998102
955.199788	0.997290
955.500266	1.000060
955.800706	0.998939
956.101108	0.999402
956.401472	1.001393
956.701798	0.999394
957.002087	1.000083
957.302337	0.999782
957.602550	1.000457
957.902724	1.001461
958.202861	1.000493
958.502960	1.001298
958.803022	1.001701
959.103045	1.001791
959.403031	1.002616
959.702979	1.002038
960.002889	1.001813
960.302762	1.000742
960.602596	1.002470
960.902393	1.001954
961.202153	1.002209
961.501875	1.002527
961.801559	1.002969
962.101205	1.002037
962.400814	1.002897
962.700385	1.002984
962.999918	1.002451
963.299414	1.001279
963.598873	1.002943
963.898293	1.001767
964.197677	1.000616
964.497022	1.002285
964.796331	1.001414
965.095601	1.003000
965.394835	1.001895
965.694030	1.002729
965.993189	1.002375
966.292309	1.002769
966.591393	1.001651
966.890439	1.002497
967.189447	1.001935
967.488419	1.001832
967.787353	1.002272
968.086249	1.002461
968.385108	1.003436
968.683930	1.002832
968.982714	1.002692
969.281462	1.001791
969.580172	1.002902
969.878844	1.003737
970.177480	1.001777
970.476078	1.003863
970.774639	1.002495
971.073162	1.002200
971.371649	1.001605
971.670098	1.002613
971.968510	1.002232
972.266885	0.999914
972.565223	1.001907
972.863524	1.001832
973.161788	1.001231
973.460014	1.004495
973.758204	1.001682
974.056356	1.002961
974.354471	1.001525
974.652550	1.002272
974.950591	1.001699
975.248595	1.001494
975.546563	1.003041
975.844493	1.004096
976.142386	1.001976
976.440243	1.003046
976.738062	1.002118
977.035845	1.001881
977.333590	1.003276
977.631299	1.001924
977.928971	1.001840
978.226606	1.002532
978.524204	1.002796
978.821765	1.002666
979.119290	1.004066
979.416777	1.002653
979.714228	1.002255
980.011642	1.003766
980.309020	1.002276
980.606360	1.001276
980.903664	1.001288
981.200931	1.001316
981.498162	1.001477
981.795356	1.001937
982.092513	1.001086
982.389633	1.001696
982.686717	0.998854
982.983764	0.999709
983.280775	1.000084
983.577749	1.000201
983.874686	0.999396
984.171587	0.999726
984.468451	1.000475
984.765279	1.002198
985.062070	1.001670
985.358824	1.002637
985.655543	1.002736
985.952224	1.003499
986.248869	1.001958
986.545478	1.003271
986.842050	1.002046
987.138586	1.002034
987.435086	1.002328
987.731549	1.003479
988.027975	1.003994
988.324366	1.002445
988.620719	1.004964
988.917037	1.002251
989.213318	1.003296
989.509563	1.002929
989.805772	1.004136
990.101944	1.003377
990.398080	1.003729
990.694180	1.003816
990.990244	1.002487
991.286271	1.002972
991.582262	1.004475
991.878217	1.002822
992.174136	1.004373
992.470019	1.003760
992.765865	1.005075
993.061676	1.003483
993.357450	1.004203
993.653188	1.003553
993.948890	1.003082
994.244556	1.003344
994.540186	1.002162
994.835780	1.003459
995.131337	1.003482
995.426859	1.002699
995.722345	1.002367
996.017795	1.001748
996.313208	1.002150
996.608586	1.002597
996.903928	1.003786
997.199234	1.002084
997.494504	1.003474
997.789738	1.002671
998.084936	1.003401
998.380099	1.002917
998.675225	1.003844
998.970316	1.002552
999.265371	1.003178
999.560390	1.003069
999.855373	1.003214
1000.150320	1.003126
1000.445232	1.002734
1000.740108	1.003014
1001.034948	1.001783
1001.329752	1.004953
1001.624521	1.003772
1001.919254	1.002873
1002.213951	1.003428
1002.508613	1.002448
1002.803239	1.003362
1003.097829	1.004153
1003.392384	1.002859
1003.686903	1.004090
1003.981386	1.003787
1004.275834	1.005044
1004.570246	1.002632
1004.864623	1.004641
1005.158964	1.003863
1005.453270	1.002660
1005.747540	1.004022
1006.041775	1.003417
1006.335974	1.003206
1006.630138	1.004300
1006.924266	1.002165
1007.218359	1.001679
1007.512416	1.004142
1007.806438	1.002975
1008.100425	1.005258
1008.394376	1.004186
1008.688292	1.002999
1008.982172	1.004538
1009.276017	1.004367
1009.569827	1.004255
1009.863602	1.002278
1010.157341	1.005622
1010.451045	1.004844
1010.744714	1.005849
1011.038347	1.004940
1011.331945	1.003431
1011.625508	1.003558
1011.919036	1.003383
1012.212528	1.004302
1012.505986	1.003198
1012.799408	1.005106
1013.092795	1.004894
1013.386147	1.004771
1013.679464	1.004441
1013.972745	1.003333
1014.265992	1.003185
1014.559204	1.003121
1014.852380	1.004168
1015.145521	1.003843
1015.438628	1.003633
1015.731699	1.004328
1016.024736	1.004726
1016.317737	1.003965
1016.610703	1.005264
1016.903635	1.003266
1017.196531	1.003438
1017.489393	1.003485
1017.782219	1.003800
1018.075011	1.002814
1018.367768	1.003681
1018.660490	1.003363
1018.953177	1.003363
1019.245829	1.003363
