Dividing Wavelength (nm)	Counts (n)	Blue Motor Position (mm): 29.100000	Red Motor Position (mm): 0.000000	
326.493990	1.000265
326.888308	1.000265
327.282561	1.000265
327.676750	1.001640
328.070874	1.001722
328.464933	1.002659
328.858929	1.001263
329.252859	1.000334
329.646726	1.000528
330.040528	0.999788
330.434265	1.000206
330.827938	0.999292
331.221547	1.001528
331.615091	1.001115
332.008571	1.000820
332.401986	1.000000
332.795338	1.000605
333.188625	1.000623
333.581847	0.999575
333.975006	1.001499
334.368100	1.000860
334.761129	1.000090
335.154095	1.000903
335.546996	1.000124
335.939833	0.999728
336.332606	0.998921
336.725315	0.998657
337.117960	1.000710
337.510540	0.998538
337.903056	0.999158
338.295508	1.000055
338.687896	0.998972
339.080220	0.999503
339.472480	0.999245
339.864676	0.999589
340.256807	0.998850
340.648875	0.999938
341.040879	1.000249
341.432818	1.000491
341.824694	0.997920
342.216506	1.001197
342.608253	0.999254
342.999937	0.999839
343.391557	0.999335
343.783113	1.001415
344.174605	0.999279
344.566033	0.999120
344.957397	0.999365
345.348697	1.000925
345.739934	0.998861
346.131106	1.000290
346.522215	0.998375
346.913260	0.999907
347.304241	0.999075
347.695159	0.999535
348.086012	0.999158
348.476802	0.999325
348.867528	0.998838
349.258191	0.999820
349.648789	0.998751
350.039324	0.998326
350.429796	0.998849
350.820203	0.998274
351.210548	1.000604
351.600828	0.999645
351.991045	0.998379
352.381198	0.998909
352.771288	0.999017
353.161314	0.998681
353.551276	0.999308
353.941175	0.997354
354.331010	0.999311
354.720782	0.998872
355.110490	0.998833
355.500135	0.999176
355.889717	0.997210
356.279235	0.999042
356.668689	0.998741
357.058080	0.998740
357.447408	0.997308
357.836672	0.999255
358.225873	0.999016
358.615010	0.998208
359.004084	0.997369
359.393095	0.997813
359.782043	0.997854
360.170927	0.999833
360.559748	0.997918
360.948505	0.998343
361.337199	0.998300
361.725830	0.998182
362.114398	0.997165
362.502903	0.997513
362.891344	0.996917
363.279722	0.997094
363.668037	0.998053
364.056289	0.995873
364.444478	0.998095
364.832603	0.997890
365.220665	0.997756
365.608665	0.998129
365.996601	0.996665
366.384474	0.996496
366.772284	0.997210
367.160031	0.995432
367.547715	0.995767
367.935336	0.995006
368.322893	0.993141
368.710388	0.992570
369.097820	0.991194
369.485189	0.989161
369.872495	0.986485
370.259738	0.985942
370.646918	0.982152
371.034035	0.979414
371.421090	0.977489
371.808081	0.971779
372.195010	0.970308
372.581875	0.964811
372.968678	0.959434
373.355418	0.956046
373.742096	0.948493
374.128710	0.944487
374.515262	0.940956
374.901751	0.933824
375.288177	0.930610
375.674540	0.922813
376.060841	0.916437
376.447079	0.908990
376.833254	0.904201
377.219367	0.897846
377.605417	0.887091
377.991404	0.882934
378.377329	0.877471
378.763191	0.870767
379.148991	0.862043
379.534727	0.854576
379.920402	0.845376
380.306013	0.841580
380.691563	0.829618
381.077049	0.823288
381.462474	0.819050
381.847835	0.807928
382.233134	0.803207
382.618371	0.803174
383.003545	0.785564
383.388657	0.784073
383.773706	0.776419
384.158693	0.772104
384.543618	0.767315
384.928480	0.757751
385.313280	0.747794
385.698017	0.746636
386.082692	0.735876
386.467305	0.734619
386.851856	0.729680
387.236344	0.723460
387.620770	0.718185
388.005133	0.712449
388.389435	0.707483
388.773674	0.703870
389.157851	0.696475
389.541965	0.693592
389.926018	0.700490
390.310008	0.686908
390.693936	0.684135
391.077802	0.676519
391.461606	0.678153
391.845348	0.667378
392.229027	0.666851
392.612645	0.664131
392.996200	0.651506
393.379694	0.644827
393.763125	0.634872
394.146494	0.640079
394.529801	0.629819
394.913047	0.622227
395.296230	0.628146
395.679351	0.619697
396.062410	0.615855
396.445408	0.619576
396.828343	0.614253
397.211217	0.609950
397.594028	0.621759
397.976778	0.612211
398.359466	0.608674
398.742092	0.604053
399.124656	0.616351
399.507158	0.604026
399.889598	0.601945
400.271977	0.592349
400.654294	0.596939
401.036549	0.595699
401.418742	0.600031
401.800874	0.584932
402.182944	0.581817
402.564952	0.574393
402.946898	0.576357
403.328783	0.577304
403.710606	0.588016
404.092367	0.563001
404.474067	0.567648
404.855705	0.566631
405.237282	0.575620
405.618797	0.562504
406.000250	0.557255
406.381642	0.547451
406.762972	0.553126
407.144240	0.551436
407.525447	0.551114
407.906593	0.543357
408.287677	0.539743
408.668700	0.548074
409.049661	0.542676
409.430560	0.536799
409.811399	0.546129
410.192176	0.527488
410.572891	0.534915
410.953545	0.522833
411.334138	0.536796
411.714669	0.528840
412.095139	0.540974
412.475547	0.525425
412.855894	0.526842
413.236180	0.525820
413.616405	0.531163
413.996568	0.521373
414.376670	0.528016
414.756711	0.533191
415.136691	0.529694
415.516609	0.520968
415.896466	0.517640
416.276262	0.513532
416.655997	0.515255
417.035670	0.496832
417.415283	0.488879
417.794834	0.493694
418.174324	0.499111
418.553753	0.508287
418.933121	0.490107
419.312428	0.484355
419.691674	0.490005
420.070859	0.477644
420.449983	0.486244
420.829045	0.474778
421.208047	0.484800
421.586988	0.477594
421.965867	0.476630
422.344686	0.465782
422.723444	0.478518
423.102141	0.495120
423.480777	0.467957
423.859352	0.488986
424.237866	0.466222
424.616319	0.466757
424.994712	0.458300
425.373044	0.468390
425.751314	0.456885
426.129524	0.473514
426.507673	0.456912
426.885762	0.450512
427.263789	0.456416
427.641756	0.466372
428.019662	0.456925
428.397508	0.456610
428.775292	0.461761
429.153016	0.453731
429.530679	0.461144
429.908282	0.455004
430.285824	0.466204
430.663305	0.445621
431.040726	0.467536
431.418086	0.468402
431.795385	0.461526
432.172624	0.461898
432.549802	0.463209
432.926920	0.463489
433.303977	0.464673
433.680974	0.463867
434.057910	0.464253
434.434786	0.465364
434.811601	0.470611
435.188355	0.455390
435.565050	0.466832
435.941683	0.470275
436.318257	0.457150
436.694770	0.461445
437.071222	0.462614
437.447614	0.469465
437.823946	0.478305
438.200218	0.471709
438.576429	0.484022
438.952580	0.481124
439.328670	0.481578
439.704700	0.492288
440.080670	0.497414
440.456580	0.484818
440.832429	0.496465
441.208218	0.510283
441.583947	0.505273
441.959616	0.509598
442.335224	0.519770
442.710773	0.516574
443.086261	0.521229
443.461689	0.537646
443.837057	0.535350
444.212365	0.533451
444.587612	0.544956
444.962800	0.542570
445.337927	0.550827
445.712995	0.577419
446.088002	0.554827
446.462949	0.570110
446.837837	0.581407
447.212664	0.578089
447.587431	0.581638
447.962139	0.569358
448.336786	0.548092
448.711374	0.562549
449.085901	0.600531
449.460369	0.612127
449.834776	0.622105
450.209124	0.617597
450.583412	0.623732
450.957640	0.624173
451.331808	0.641473
451.705917	0.662768
452.079965	0.673890
452.453954	0.676580
452.827883	0.688161
453.201752	0.693298
453.575562	0.707063
453.949311	0.711169
454.323001	0.721050
454.696632	0.726633
455.070202	0.732068
455.443713	0.736151
455.817164	0.741938
456.190556	0.748884
456.563888	0.755928
456.937160	0.761799
457.310373	0.776633
457.683526	0.785105
458.056619	0.795043
458.429653	0.802815
458.802628	0.810887
459.175542	0.815843
459.548398	0.817325
459.921194	0.822041
460.293930	0.828342
460.666607	0.827481
461.039224	0.829715
461.411782	0.834893
461.784280	0.842091
462.156719	0.851345
462.529099	0.860503
462.901419	0.871105
463.273680	0.877055
463.645882	0.883138
464.018024	0.891702
464.390106	0.894376
464.762130	0.897084
465.134094	0.898361
465.505999	0.894332
465.877845	0.892748
466.249631	0.896329
466.621358	0.905169
466.993026	0.915261
467.364634	0.921070
467.736184	0.927162
468.107674	0.932036
468.479105	0.936032
468.850477	0.940788
469.221790	0.945246
469.593043	0.948815
469.964238	0.952769
470.335373	0.955491
470.706449	0.958704
471.077467	0.961383
471.448425	0.961626
471.819324	0.961602
472.190164	0.962818
472.560945	0.967518
472.931667	0.970945
473.302330	0.973549
473.672934	0.976297
474.043479	0.975835
474.413965	0.977892
474.784393	0.979167
475.154761	0.979892
475.525070	0.981555
475.895321	0.982993
476.265513	0.984209
476.635645	0.984935
477.005719	0.986036
477.375734	0.986268
477.745691	0.986809
478.115588	0.987340
478.485427	0.987974
478.855207	0.988557
479.224928	0.988501
479.594591	0.989251
479.964194	0.989769
480.333739	0.990651
480.703226	0.990331
481.072653	0.991125
481.442022	0.991720
481.811333	0.991460
482.180584	0.992274
482.549777	0.992251
482.918912	0.992594
483.287988	0.992663
483.657005	0.992792
484.025964	0.993487
484.394864	0.993286
484.763706	0.993100
485.132489	0.993295
485.501213	0.993868
485.869879	0.993105
486.238487	0.993486
486.607036	0.994578
486.975527	0.994180
487.343959	0.994353
487.712333	0.994973
488.080648	0.994180
488.448905	0.995008
488.817104	0.994450
489.185244	0.995041
489.553326	0.994998
489.921350	0.995187
490.289315	0.994456
490.657222	0.994419
491.025070	0.994854
491.392861	0.994205
491.760593	0.994191
492.128267	0.995005
492.495883	0.994649
492.863440	0.995750
493.230939	0.995053
493.598380	0.995699
493.965763	0.995602
494.333088	0.994269
494.700354	0.995504
495.067563	0.995090
495.434713	0.995675
495.801805	0.995356
496.168839	0.996040
496.535815	0.995632
496.902733	0.995741
497.269593	0.995376
497.636395	0.994995
498.003139	0.995226
498.369825	0.996641
498.736453	0.995759
499.103023	0.995691
499.469535	0.995575
499.835989	0.996769
500.202385	0.995362
500.568723	0.995331
500.935003	0.996109
501.301226	0.996557
501.667390	0.996150
502.033497	0.996080
502.399546	0.995844
502.765537	0.995828
503.131470	0.996101
503.497345	0.995859
503.863163	0.996337
504.228923	0.995744
504.594625	0.995715
504.960269	0.996656
505.325856	0.997281
505.691385	0.996118
506.056856	0.996082
506.422270	0.996491
506.787625	0.996215
507.152924	0.995710
507.518164	0.996329
507.883347	0.995837
508.248472	0.996840
508.613540	0.996193
508.978550	0.996130
509.343503	0.996779
509.708398	0.996986
510.073236	0.996490
510.438016	0.996229
510.802738	0.996170
511.167403	0.996230
511.532010	0.996875
511.896561	0.996862
512.261053	0.995884
512.625488	0.996391
512.989866	0.996466
513.354186	0.996323
513.718449	0.996014
514.082655	0.995970
514.446803	0.996302
514.810894	0.996943
515.174927	0.996201
515.538904	0.996797
515.902822	0.996347
516.266684	0.996280
516.630488	0.996502
516.994235	0.996894
517.357925	0.996680
517.721558	0.997114
518.085133	0.996158
518.448651	0.996143
518.812112	0.996677
519.175516	0.996649
519.538863	0.996174
519.902152	0.996401
520.265385	0.996299
520.628560	0.995770
520.991678	0.996194
521.354739	0.996861
521.717743	0.996186
522.080690	0.995857
522.443580	0.996177
522.806413	0.995767
523.169189	0.996477
523.531908	0.995910
523.894569	0.996657
524.257174	0.996461
524.619722	0.995861
524.982213	0.996231
525.344647	0.996489
525.707025	0.995671
526.069345	0.996310
526.431608	0.996563
526.793815	0.996316
527.155964	0.996631
527.518057	0.996873
527.880093	0.996772
528.242072	0.996015
528.603995	0.995822
528.965860	0.996526
529.327669	0.996307
529.689421	0.995785
530.051117	0.996371
530.412755	0.996861
530.774337	0.996696
531.135862	0.997085
531.497331	0.996025
531.858743	0.996537
532.220098	0.995483
532.581396	0.995638
532.942638	0.996774
533.303824	0.996347
533.664953	0.995862
534.026025	0.996929
534.387040	0.995677
534.747999	0.995390
535.108902	0.995929
535.469748	0.996479
535.830537	0.996569
536.191270	0.996284
536.551947	0.996151
536.912567	0.995679
537.273131	0.996662
537.633638	0.996171
537.994089	0.996771
538.354483	0.996033
538.714821	0.996616
539.075103	0.996590
539.435328	0.996439
539.795497	0.996750
540.155609	0.996646
540.515665	0.996185
540.875665	0.996384
541.235609	0.996691
541.595496	0.996377
541.955328	0.996050
542.315102	0.996475
542.674821	0.996754
543.034483	0.997223
543.394090	0.995875
543.753640	0.996188
544.113134	0.995712
544.472571	0.997009
544.831953	0.996216
545.191278	0.997091
545.550548	0.996526
545.909761	0.995718
546.268918	0.996702
546.628019	0.996609
546.987064	0.996039
547.346053	0.996362
547.704986	0.995484
548.063863	0.996480
548.422684	0.996388
548.781449	0.996114
549.140158	0.996634
549.498811	0.995470
549.857408	0.995308
550.215949	0.995223
550.574434	0.995320
550.932864	0.996234
551.291237	0.995444
551.649555	0.996558
552.007817	0.996850
552.366022	0.996818
552.724173	0.995928
553.082267	0.996274
553.440305	0.995996
553.798288	0.994941
554.156215	0.995543
554.514086	0.996519
554.871902	0.995978
555.229661	0.995115
555.587365	0.995807
555.945014	0.996833
556.302606	0.996125
556.660143	0.996475
557.017625	0.996025
557.375050	0.995704
557.732421	0.995968
558.089735	0.995645
558.446994	0.995698
558.804197	0.996561
559.161345	0.995523
559.518437	0.996194
559.875474	0.995613
560.232455	0.996118
560.589381	0.996295
560.946251	0.995857
561.303065	0.996271
561.659825	0.996344
562.016528	0.996415
562.373177	0.995833
562.729770	0.995609
563.086307	0.995384
563.442789	0.996088
563.799216	0.995796
564.155587	0.995749
564.511904	0.996196
564.868164	0.995361
565.224370	0.995379
565.580520	0.995913
565.936615	0.995999
566.292654	0.995564
566.648638	0.996676
567.004567	0.995769
567.360441	0.996443
567.716260	0.995753
568.072023	0.995114
568.427732	0.995513
568.783385	0.996004
569.138982	0.996076
569.494525	0.995816
569.850013	0.995865
570.205445	0.995939
570.560823	0.995932
570.916145	0.995473
571.271412	0.995911
571.626625	0.995943
571.981782	0.996000
572.336884	0.996151
572.691931	0.995390
573.046923	0.996222
573.401860	0.995894
573.756743	0.995999
574.111570	0.996338
574.466342	0.995607
574.821059	0.995335
575.175722	0.996124
575.530330	0.995006
575.884882	0.995733
576.239380	0.996007
576.593823	0.995421
576.948211	0.995861
577.302544	0.995729
577.656823	0.996589
578.011047	0.995314
578.365216	0.995968
578.719330	0.995762
579.073389	0.995299
579.427394	0.995272
579.781344	0.996293
580.135239	0.994502
580.489080	0.995802
580.842866	0.995755
581.196597	0.995175
581.550273	0.994931
581.903895	0.996476
582.257463	0.995037
582.610975	0.995446
582.964434	0.995500
583.317837	0.996439
583.671186	0.996622
584.024481	0.994979
584.377721	0.994614
584.730906	0.995850
585.084037	0.996397
585.437113	0.995930
585.790135	0.995693
586.143103	0.995376
586.496016	0.995533
586.848874	0.995844
587.201679	0.995740
587.554428	0.995063
587.907124	0.996074
588.259765	0.995532
588.612352	0.996079
588.964884	0.995632
589.317362	0.996105
589.669786	0.994920
590.022155	0.996015
590.374470	0.995236
590.726731	0.995327
591.078937	0.995618
591.431090	0.995481
591.783188	0.995146
592.135232	0.996882
592.487222	0.995723
592.839157	0.995179
593.191038	0.996136
593.542866	0.995734
593.894639	0.995046
594.246358	0.995230
594.598022	0.996050
594.949633	0.995350
595.301190	0.995760
595.652692	0.995145
596.004141	0.995439
596.355535	0.995939
596.706876	0.995502
597.058162	0.996289
597.409395	0.995196
597.760573	0.995226
598.111698	0.995385
598.462768	0.994617
598.813785	0.994763
599.164748	0.994944
599.515657	0.994658
599.866511	0.995633
600.217312	0.995908
600.568060	0.995373
600.918753	0.995806
601.269392	0.995066
601.619978	0.996380
601.970510	0.995925
602.320988	0.995214
602.671412	0.995269
603.021783	0.995567
603.372100	0.996055
603.722363	0.995635
604.072572	0.995483
604.422728	0.994907
604.772830	0.994765
605.122878	0.996137
605.472872	0.995938
605.822813	0.995071
606.172701	0.995456
606.522534	0.995864
606.872314	0.995934
607.222041	0.995489
607.571714	0.996014
607.921333	0.995861
608.270899	0.995246
608.620411	0.995590
608.969870	0.996319
609.319276	0.994960
609.668627	0.996031
610.017926	0.995772
610.367171	0.995951
610.716362	0.995530
611.065500	0.994671
611.414585	0.995978
611.763616	0.994789
612.112594	0.995233
612.461518	0.994557
612.810389	0.995421
613.159207	0.995789
613.507971	0.994830
613.856682	0.996610
614.205340	0.994470
614.553945	0.995341
614.902496	0.994940
615.250994	0.995616
615.599439	0.995161
615.947830	0.994401
616.296169	0.995066
616.644454	0.995358
616.992686	0.995702
617.340864	0.995646
617.688990	0.995028
618.037063	0.994971
618.385082	0.994576
618.733048	0.995615
619.080961	0.995314
619.428821	0.995402
619.776628	0.994809
620.124382	0.995344
620.472083	0.995092
620.819731	0.996238
621.167326	0.995234
621.514868	0.995110
621.862357	0.995498
622.209793	0.994799
622.557176	0.994579
622.904506	0.994962
623.251783	0.995089
623.599007	0.995581
623.946179	0.994905
624.293297	0.995867
624.640363	0.996128
624.987376	0.995272
625.334336	0.995086
625.681243	0.995637
626.028097	0.995569
626.374899	0.994936
626.721647	0.996109
627.068343	0.994979
627.414987	0.995362
627.761577	0.995430
628.108115	0.995022
628.454600	0.995685
628.801032	0.995774
629.147412	0.995877
629.493739	0.996695
629.840014	0.995643
630.186236	0.995207
630.532405	0.995056
630.878521	0.995496
631.224585	0.995796
631.570597	0.994542
631.916556	0.995846
632.262462	0.993927
632.608316	0.995881
632.954117	0.994827
633.299866	0.995655
633.645562	0.994839
633.991206	0.995351
634.336797	0.995135
634.682336	0.995860
635.027823	0.995486
635.373257	0.995011
635.718639	0.995999
636.063968	0.995262
636.409245	0.995862
636.754470	0.995934
637.099642	0.996033
637.444762	0.996376
637.789829	0.995325
638.134845	0.995583
638.479808	0.995296
638.824719	0.995991
639.169577	0.995325
639.514383	0.996299
639.859137	0.995826
640.203839	0.995532
640.548489	0.995157
640.893086	0.994900
641.237632	0.996037
641.582125	0.994833
641.926566	0.996659
642.270955	0.995770
642.615292	0.995825
642.959576	0.995988
643.303809	0.996333
643.647990	0.994984
643.992118	0.995409
644.336195	0.996087
644.680219	0.995599
645.024192	0.995511
645.368112	0.994503
645.711981	0.994581
646.055797	0.995328
646.399562	0.995345
646.743274	0.995810
647.086935	0.994582
647.430544	0.995206
647.774101	0.995118
648.117606	0.995303
648.461059	0.995416
648.804460	0.995522
649.147810	0.995740
649.491108	0.995440
649.834354	0.995856
650.177548	0.995531
650.520690	0.995506
650.863781	0.995097
651.206820	0.995378
651.549807	0.995133
651.892742	0.996425
652.235626	0.995974
652.578458	0.995479
652.921238	0.996086
653.263967	0.995778
653.606644	0.995758
653.949269	0.996173
654.291843	0.995132
654.634365	0.995653
654.976836	0.994843
655.319255	0.997219
655.661622	0.995782
656.003938	0.995554
656.346203	0.995035
656.688416	0.996839
657.030577	0.995579
657.372687	0.995655
657.714746	0.995197
658.056753	0.995331
658.398708	0.994957
658.740612	0.995934
659.082465	0.995747
659.424266	0.996073
659.766016	0.995628
660.107715	0.995244
660.449362	0.995682
660.790958	0.995942
661.132503	0.995979
661.473996	0.996400
661.815438	0.995994
662.156829	0.996300
662.498168	0.996368
662.839456	0.995449
663.180693	0.996026
663.521879	0.996197
663.863013	0.995800
664.204097	0.994792
664.545129	0.995603
664.886110	0.995775
665.227040	0.995448
665.567918	0.995321
665.908746	0.994756
666.249522	0.994982
666.590248	0.995963
666.930922	0.995147
667.271545	0.995936
667.612118	0.995058
667.952639	0.995161
668.293109	0.995425
668.633528	0.995137
668.973896	0.996068
669.314213	0.994903
669.654480	0.996365
669.994695	0.995664
670.334859	0.995484
670.674973	0.995853
671.015035	0.995807
671.355047	0.996110
671.695008	0.995140
672.034918	0.996364
672.374777	0.995304
672.714585	0.995678
673.054342	0.995323
673.394049	0.995580
673.733705	0.994882
674.073310	0.995862
674.412864	0.996008
674.752368	0.995374
675.091820	0.996543
675.431223	0.996288
675.770574	0.995096
676.109875	0.995503
676.449125	0.994955
676.788324	0.995207
677.127473	0.996733
677.466571	0.996065
677.805619	0.995490
678.144616	0.995533
678.483562	0.995198
678.822458	0.996870
679.161303	0.995756
679.500098	0.997084
679.838842	0.995789
680.177535	0.996013
680.516179	0.995548
680.854771	0.995629
681.193314	0.994947
681.531805	0.995488
681.870247	0.995671
682.208638	0.995048
682.546978	0.995172
682.885268	0.995399
683.223508	0.995420
683.561697	0.995599
683.899836	0.995344
684.237925	0.995297
684.575963	0.995776
684.913951	0.995647
685.251889	0.996054
685.589776	0.995217
685.927614	0.995557
686.265401	0.995340
686.603137	0.995284
686.940824	0.995856
687.278460	0.996427
687.616046	0.994468
687.953582	0.996166
688.291068	0.996054
688.628504	0.996190
688.965889	0.995469
689.303224	0.995033
689.640510	0.995836
689.977745	0.995426
690.314930	0.995511
690.652065	0.996113
690.989150	0.995596
691.326185	0.996436
691.663170	0.995434
692.000105	0.996333
692.336990	0.996428
692.673825	0.996209
693.010610	0.996342
693.347345	0.996664
693.684030	0.995419
694.020665	0.995564
694.357251	0.995733
694.693786	0.996547
695.030272	0.995830
695.366707	0.996409
695.703093	0.995519
696.039429	0.995832
696.375716	0.997279
696.711952	0.995320
697.048139	0.996744
697.384276	0.995863
697.720363	0.997047
698.056400	0.994768
698.392388	0.996077
698.728326	0.996711
699.064214	0.997337
699.400053	0.996536
699.735842	0.996631
700.071581	0.996614
700.407270	0.995223
700.742910	0.996384
701.078501	0.996072
701.414042	0.997234
701.749533	0.995453
702.084974	0.996586
702.420366	0.996361
702.755709	0.995867
703.091002	0.997040
703.426246	0.997694
703.761440	0.996357
704.096584	0.995322
704.431679	0.996104
704.766725	0.996252
705.101721	0.996710
705.436668	0.996744
705.771565	0.996843
706.106413	0.995049
706.441212	0.996285
706.775961	0.997026
707.110661	0.996313
707.445311	0.996624
707.779913	0.997258
708.114465	0.996760
708.448967	0.997220
708.783421	0.997161
709.117825	0.996578
709.452180	0.996669
709.786485	0.996981
710.120742	0.995448
710.454949	0.995329
710.789107	0.996997
711.123216	0.994896
711.457275	0.995636
711.791286	0.996477
712.125247	0.997737
712.459159	0.995850
712.793023	0.996254
713.126837	0.997109
713.460602	0.995717
713.794318	0.996392
714.127985	0.994991
714.461602	0.995852
714.795171	0.995971
715.128691	0.996806
715.462162	0.997090
715.795584	0.996152
716.128957	0.997305
716.462281	0.996823
716.795556	0.996513
717.128782	0.997969
717.461960	0.996394
717.795088	0.997247
718.128167	0.997680
718.461198	0.996687
718.794180	0.997258
719.127113	0.996879
719.459997	0.995551
719.792833	0.995990
720.125619	0.996498
720.458357	0.996679
720.791046	0.997854
721.123686	0.996420
721.456278	0.996870
721.788821	0.996680
722.121315	0.998270
722.453761	0.997209
722.786158	0.997072
723.118506	0.996902
723.450805	0.996243
723.783056	0.996720
724.115259	0.996214
724.447412	0.997832
724.779518	0.996821
725.111574	0.996919
725.443582	0.997187
725.775542	0.997646
726.107453	0.996914
726.439315	0.997546
726.771129	0.996694
727.102895	0.997318
727.434612	0.996818
727.766281	0.996815
728.097901	0.996356
728.429473	0.997572
728.760996	0.996966
729.092471	0.996704
729.423897	0.997495
729.755276	0.997384
730.086606	0.997073
730.417887	0.998039
730.749120	0.997786
731.080305	0.996746
731.411442	0.996380
731.742530	0.997010
732.073570	0.996296
732.404562	0.996557
732.735506	0.996181
733.066401	0.995952
733.397249	0.996629
733.728048	0.995826
734.058798	0.996880
734.389501	0.997561
734.720156	0.997345
735.050762	0.997521
735.381320	0.997088
735.711831	0.996451
736.042293	0.996782
736.372707	0.998090
736.703073	0.996242
737.033391	0.996891
737.363661	0.997405
737.693883	0.996820
738.024056	0.996283
738.354182	0.997483
738.684260	0.997027
739.014290	0.996457
739.344272	0.996633
739.674207	0.997096
740.004093	0.997604
740.333931	0.997176
740.663722	0.996648
740.993464	0.997266
741.323159	0.997172
741.652806	0.996718
741.982405	0.997041
742.311956	0.997284
742.641460	0.997371
742.970915	0.997025
743.300323	0.997040
743.629683	0.996843
743.958996	0.997851
744.288260	0.997012
744.617477	0.997342
744.946647	0.998232
745.275768	0.998634
745.604842	0.996895
745.933869	0.997895
746.262847	0.998389
746.591778	0.996986
746.920662	0.997749
747.249498	0.998389
747.578286	0.998791
747.907027	0.998123
748.235720	0.998573
748.564365	0.998520
748.892963	0.996785
749.221514	0.997831
749.550017	0.996746
749.878473	0.997777
750.206881	0.997445
750.535242	0.997859
750.863555	0.997373
751.191821	0.997494
751.520039	0.996670
751.848210	0.995588
752.176334	0.997698
752.504411	0.997275
752.832440	0.996648
753.160421	0.997182
753.488356	0.998324
753.816243	0.998216
754.144082	0.996516
754.471875	0.998451
754.799620	0.998477
755.127318	0.997564
755.454969	0.997378
755.782572	0.998767
756.110129	0.997224
756.437638	0.998915
756.765100	0.998490
757.092515	0.997464
757.419882	0.997205
757.747203	0.997870
758.074477	0.998504
758.401703	0.997757
758.728882	0.997278
759.056014	0.998162
759.383099	0.997661
759.710138	0.997394
760.037129	0.997386
760.364073	0.998446
760.690970	0.998069
761.017820	0.997657
761.344623	0.997778
761.671379	0.998290
761.998088	0.996778
762.324751	0.998032
762.651366	0.997448
762.977935	0.996919
763.304456	0.996910
763.630931	0.994709
763.957359	0.994907
764.283740	0.995176
764.610074	0.996354
764.936362	0.996483
765.262602	0.997311
765.588796	0.997516
765.914943	0.996797
766.241044	0.997668
766.567097	0.997876
766.893104	0.997711
767.219064	0.997470
767.544978	0.998359
767.870845	0.997721
768.196665	0.998004
768.522438	0.998839
768.848165	0.998448
769.173846	0.999116
769.499479	0.998215
769.825066	0.998949
770.150607	0.998909
770.476101	0.997578
770.801548	0.998154
771.126949	0.998254
771.452303	0.997684
771.777611	0.998246
772.102872	0.998751
772.428087	0.997771
772.753256	0.998333
773.078378	0.999307
773.403453	0.997603
773.728482	0.999860
774.053465	0.998476
774.378401	0.998738
774.703291	0.999729
775.028135	0.999276
775.352932	0.997139
775.677683	0.999460
776.002388	0.998000
776.327046	0.998037
776.651658	0.998848
776.976224	0.999174
777.300743	0.997243
777.625216	0.998313
777.949643	0.998826
778.274024	0.998035
778.598359	0.998273
778.922647	0.998227
779.246889	0.999798
779.571086	0.998538
779.895236	0.998840
780.219339	0.999203
780.543397	0.997973
780.867409	0.998783
781.191374	0.999051
781.515294	0.999597
781.839167	0.999068
782.162995	0.998326
782.486776	0.997662
782.810511	0.997851
783.134201	0.999123
783.457844	0.999696
783.781441	0.998092
784.104993	0.997908
784.428498	0.999844
784.751958	1.000781
785.075372	0.999560
785.398739	0.997904
785.722061	0.998055
786.045337	0.998495
786.368568	0.998712
786.691752	0.998227
787.014891	0.998268
787.337983	0.997429
787.661030	0.998487
787.984031	0.999258
788.306987	0.998974
788.629897	0.997424
788.952760	0.998728
789.275579	0.998126
789.598351	0.997823
789.921078	0.999700
790.243759	0.998098
790.566395	0.997945
790.888984	0.999151
791.211529	0.998446
791.534027	0.998297
791.856480	0.997997
792.178888	0.998467
792.501249	0.998608
792.823566	0.999821
793.145836	0.998516
793.468062	0.999042
793.790241	0.998827
794.112375	0.997820
794.434464	0.998487
794.756507	0.999328
795.078505	0.998974
795.400457	0.999234
795.722364	0.999458
796.044226	0.998770
796.366042	0.998431
796.687812	0.998039
797.009538	0.998024
797.331218	0.999557
797.652852	1.000134
797.974442	0.997848
798.295986	0.998638
798.617484	0.998463
798.938938	0.999277
799.260346	0.997696
799.581709	0.998272
799.903026	0.999012
800.224299	0.998129
800.545526	0.998458
800.866708	0.999105
801.187845	0.999039
801.508936	0.998749
801.829983	0.998308
802.150984	0.999295
802.471940	0.999155
802.792851	0.998747
803.113717	0.999435
803.434538	0.999441
803.755314	0.999889
804.076045	0.998568
804.396731	0.997835
804.717372	0.997999
805.037967	0.999058
805.358518	0.999997
805.679024	0.997958
805.999485	0.999343
806.319901	0.999835
806.640272	0.999210
806.960598	0.999676
807.280879	0.998217
807.601115	1.000656
807.921306	1.000314
808.241453	0.998642
808.561554	0.999038
808.881611	0.999399
809.201623	0.998315
809.521590	0.998885
809.841513	0.999026
810.161390	0.998737
810.481223	0.998520
810.801011	0.999360
811.120755	0.999682
811.440453	0.998019
811.760107	0.998769
812.079716	0.998615
812.399281	0.999268
812.718801	0.998405
813.038276	0.999136
813.357707	0.998398
813.677093	0.999589
813.996434	0.999183
814.315731	1.000366
814.634983	0.998824
814.954191	1.000050
815.273354	0.998406
815.592473	0.997722
815.911547	0.999599
816.230577	0.998145
816.549562	0.999306
816.868502	0.997840
817.187399	0.999680
817.506250	0.999715
817.825058	0.997637
818.143821	0.998570
818.462539	0.997973
818.781213	0.999225
819.099843	0.999767
819.418429	0.998521
819.736970	0.998547
820.055466	0.996991
820.373919	0.996941
820.692327	0.996797
821.010691	0.996988
821.329011	0.995502
821.647286	0.994623
821.965517	0.993431
822.283704	0.991257
822.601847	0.990307
822.919945	0.990685
823.237999	0.992285
823.556010	0.991886
823.873976	0.993163
824.191897	0.994185
824.509775	0.995043
824.827609	0.995455
825.145398	0.997098
825.463144	0.995480
825.780845	0.995083
826.098502	0.995524
826.416116	0.995755
826.733685	0.995305
827.051210	0.992593
827.368692	0.994494
827.686129	0.994004
828.003522	0.996161
828.320872	0.994765
828.638177	0.996956
828.955439	0.997182
829.272656	0.997788
829.589830	0.996862
829.906960	0.998835
830.224046	0.997084
830.541088	0.998166
830.858086	0.998063
831.175041	0.999486
831.491952	0.998231
831.808819	0.998055
832.125642	0.998796
832.442421	0.999279
832.759157	0.998747
833.075849	0.997215
833.392497	0.997555
833.709101	0.996152
834.025662	0.995010
834.342179	0.995934
834.658653	0.997968
834.975083	0.997152
835.291469	0.997287
835.607811	0.997362
835.924110	0.997675
836.240366	0.998715
836.556578	0.999099
836.872746	0.999083
837.188871	0.997911
837.504952	0.998339
837.820990	0.999847
838.136984	0.997797
838.452935	0.998608
838.768842	0.999353
839.084706	0.998740
839.400526	0.998968
839.716303	0.997481
840.032037	0.997800
840.347727	0.998741
840.663373	0.997745
840.978977	0.998626
841.294537	0.997848
841.610054	0.999156
841.925527	0.999398
842.240957	0.999610
842.556344	0.998267
842.871687	0.998760
843.186987	0.999878
843.502244	0.999695
843.817458	0.999214
844.132629	0.999302
844.447756	0.998439
844.762840	1.000034
845.077881	1.001748
845.392879	0.999215
845.707833	0.998926
846.022745	1.000480
846.337613	1.000341
846.652438	0.999410
846.967221	1.001213
847.281960	1.000346
847.596656	1.000021
847.911309	1.000551
848.225919	0.999509
848.540485	0.999879
848.855009	1.000493
849.169490	0.999694
849.483928	0.999849
849.798323	0.998551
850.112675	1.000558
850.426984	0.999776
850.741251	1.000217
851.055474	0.999340
851.369654	1.000456
851.683792	0.998503
851.997887	0.999341
852.311938	1.000645
852.625947	0.999301
852.939914	0.998959
853.253837	1.000910
853.567718	0.999947
853.881555	1.000224
854.195350	0.999555
854.509103	1.000379
854.822812	0.999042
855.136479	0.999638
855.450103	1.001535
855.763685	1.000133
856.077224	0.999692
856.390720	0.998613
856.704173	1.000473
857.017584	1.001150
857.330953	1.000973
857.644278	0.999712
857.957561	1.000475
858.270802	1.000373
858.584000	0.999307
858.897155	0.999116
859.210268	0.999597
859.523339	1.001310
859.836367	0.998819
860.149352	1.000056
860.462295	0.999388
860.775195	1.000892
861.088054	0.998586
861.400869	0.999743
861.713642	0.998739
862.026373	1.000521
862.339062	0.999860
862.651708	1.000305
862.964312	1.000936
863.276873	0.998771
863.589392	0.999332
863.901869	0.998134
864.214303	1.000355
864.526696	0.999824
864.839045	0.999697
865.151353	0.998812
865.463619	0.999482
865.775842	1.000041
866.088023	1.000701
866.400162	0.999991
866.712258	1.000665
867.024313	0.999746
867.336325	1.000409
867.648296	0.999533
867.960224	0.999549
868.272110	1.000749
868.583954	1.000786
868.895755	0.999778
869.207515	0.998389
869.519233	1.000361
869.830909	0.998445
870.142542	0.998045
870.454134	0.999112
870.765684	0.998911
871.077191	1.000136
871.388657	0.999307
871.700081	0.999661
872.011463	1.000590
872.322803	0.999790
872.634101	0.998320
872.945357	0.998262
873.256571	0.998583
873.567744	0.999978
873.878874	0.999938
874.189963	0.999000
874.501010	1.001513
874.812015	0.999140
875.122979	0.999039
875.433900	0.998513
875.744780	0.999512
876.055618	0.998991
876.366415	0.999425
876.677169	0.998688
876.987882	0.999467
877.298554	1.000524
877.609183	0.998530
877.919771	0.999478
878.230317	1.000115
878.540822	0.998479
878.851285	0.998656
879.161707	0.998673
879.472087	0.999746
879.782425	0.997596
880.092722	0.996957
880.402977	0.996784
880.713191	0.993715
881.023363	0.991845
881.333494	0.991466
881.643583	0.992427
881.953631	0.992723
882.263637	0.990784
882.573602	0.992514
882.883526	0.992570
883.193408	0.994586
883.503248	0.994713
883.813048	0.993566
884.122806	0.995820
884.432522	0.996198
884.742197	0.996742
885.051831	0.997239
885.361424	0.997478
885.670975	0.999259
885.980485	0.998199
886.289954	0.998329
886.599382	0.997278
886.908768	0.997905
887.218113	0.998192
887.527417	0.998223
887.836680	0.998011
888.145901	0.999469
888.455082	0.999355
888.764221	1.000234
889.073319	0.999054
889.382376	1.000290
889.691392	0.998702
890.000366	0.998550
890.309300	0.999154
890.618193	0.998821
890.927044	0.998739
891.235855	0.998352
891.544625	0.999363
891.853353	0.997790
892.162041	0.998830
892.470687	0.999057
892.779293	0.998873
893.087858	0.997723
893.396381	0.998337
893.704864	0.997746
894.013306	0.997082
894.321707	0.997241
894.630068	0.995705
894.938387	0.995617
895.246665	0.995841
895.554903	0.995192
895.863100	0.996355
896.171256	0.996555
896.479371	0.997264
896.787446	0.996521
897.095480	0.998402
897.403473	0.998413
897.711425	0.998595
898.019336	0.998872
898.327207	0.999335
898.635038	0.997773
898.942827	0.999264
899.250576	0.997577
899.558284	0.999071
899.865952	0.997962
900.173579	1.000178
900.481165	0.999153
900.788711	0.997982
901.096216	0.998686
901.403681	0.999763
901.711105	0.998456
902.018489	0.998863
902.325832	0.999655
902.633135	0.999309
902.940397	0.999579
903.247619	0.999762
903.554800	0.997447
903.861941	0.997181
904.169041	0.995299
904.476101	0.994937
904.783121	0.993451
905.090100	0.995209
905.397039	0.995029
905.703938	0.996290
906.010796	0.996727
906.317614	0.997302
906.624391	0.997491
906.931129	0.999463
907.237826	0.998090
907.544483	0.999745
907.851099	0.998575
908.157675	0.998799
908.464211	0.999765
908.770707	0.998890
909.077163	0.999083
909.383578	1.000193
909.689954	0.998686
909.996289	1.000032
910.302584	0.999935
910.608839	1.000791
910.915054	0.999410
911.221229	1.001223
911.527363	0.998777
911.833458	0.999469
912.139513	0.999339
912.445527	0.999481
912.751502	0.999540
913.057436	0.999095
913.363331	1.000149
913.669186	0.999311
913.975000	0.999254
914.280775	0.998924
914.586510	0.997554
914.892205	0.997557
915.197859	0.997682
915.503475	0.997115
915.809050	0.996064
916.114585	0.993260
916.420081	0.994824
916.725536	0.996040
917.030952	0.995130
917.336328	0.996501
917.641665	0.995532
917.946961	0.995423
918.252218	0.996288
918.557435	0.997745
918.862612	0.997609
919.167750	0.998200
919.472848	0.998936
919.777906	0.999012
920.082925	0.999754
920.387904	0.999436
920.692843	0.998426
920.997743	0.998433
921.302603	0.999758
921.607423	0.997954
921.912204	0.998310
922.216946	0.999887
922.521647	1.000183
922.826310	0.999603
923.130932	1.000796
923.435516	0.998864
923.740059	0.998651
924.044564	0.999762
924.349028	0.999051
924.653454	0.999292
924.957840	0.999085
925.262186	0.999214
925.566493	0.998739
925.870761	1.000011
926.174989	0.998937
926.479178	1.000942
926.783328	1.000778
927.087438	0.999662
927.391509	0.998982
927.695541	1.000397
927.999533	1.000733
928.303486	0.999382
928.607400	0.999917
928.911275	0.999334
929.215110	1.000626
929.518906	1.001131
929.822663	1.001443
930.126381	1.000982
930.430060	0.999690
930.733699	1.000242
931.037299	0.999855
931.340861	0.999712
931.644383	0.999205
931.947866	0.999929
932.251309	1.000122
932.554714	0.998057
932.858080	1.000230
933.161407	0.999378
933.464694	0.999627
933.767943	0.999730
934.071153	1.000343
934.374323	1.000312
934.677455	0.999432
934.980548	0.999265
935.283602	0.999466
935.586617	0.999845
935.889593	1.000179
936.192530	1.000856
936.495428	0.998783
936.798287	0.999869
937.101108	0.999882
937.403890	0.998687
937.706632	1.001265
938.009336	0.999691
938.312002	0.999962
938.614628	1.001522
938.917216	0.999116
939.219765	0.998028
939.522275	1.000330
939.824747	0.999236
940.127179	0.999901
940.429573	1.000687
940.731929	0.998411
941.034246	0.999949
941.336524	0.999671
941.638763	1.000653
941.940964	0.999803
942.243126	0.998979
942.545250	0.999373
942.847335	1.000898
943.149381	0.999675
943.451389	0.997458
943.753359	0.999322
944.055290	1.001763
944.357182	1.000180
944.659036	1.000740
944.960851	0.999840
945.262628	1.000417
945.564367	0.999998
945.866067	0.999487
946.167729	0.999929
946.469352	0.999713
946.770937	0.998382
947.072484	0.999966
947.373992	0.999515
947.675462	0.999392
947.976893	0.998617
948.278286	1.000247
948.579641	1.001153
948.880958	0.999920
949.182236	1.000135
949.483476	1.000749
949.784678	0.999347
950.085841	0.999895
950.386967	0.999374
950.688054	0.999722
950.989103	0.998647
951.290114	0.998201
951.591087	0.999160
951.892021	0.999604
952.192917	1.000711
952.493776	1.000266
952.794596	0.999222
953.095378	1.000304
953.396122	0.998631
953.696828	1.000368
953.997496	1.000234
954.298126	1.000558
954.598718	0.999205
954.899272	1.000454
955.199788	0.999501
955.500266	1.000423
955.800706	1.000272
956.101108	0.999334
956.401472	1.001927
956.701798	0.999611
957.002087	0.999951
957.302337	1.000849
957.602550	1.000041
957.902724	1.000905
958.202861	1.000295
958.502960	0.999769
958.803022	1.000871
959.103045	1.000319
959.403031	1.001103
959.702979	1.001254
960.002889	0.999552
960.302762	1.000106
960.602596	1.001720
960.902393	1.000130
961.202153	1.001192
961.501875	1.000329
961.801559	1.000867
962.101205	0.999320
962.400814	1.001829
962.700385	1.001627
962.999918	1.001406
963.299414	0.999303
963.598873	1.000646
963.898293	1.000251
964.197677	0.999613
964.497022	1.000119
964.796331	0.999502
965.095601	1.001074
965.394835	1.000674
965.694030	1.001090
965.993189	1.000230
966.292309	1.000124
966.591393	1.000258
966.890439	1.001481
967.189447	0.998831
967.488419	1.000724
967.787353	1.001047
968.086249	1.001070
968.385108	1.000534
968.683930	1.001247
968.982714	1.000809
969.281462	1.000739
969.580172	1.000100
969.878844	1.000916
970.177480	0.999894
970.476078	1.001320
970.774639	1.000948
971.073162	1.000703
971.371649	0.999426
971.670098	0.999477
971.968510	1.001091
972.266885	0.999442
972.565223	1.000556
972.863524	0.999440
973.161788	1.000262
973.460014	1.000905
973.758204	1.000193
974.056356	1.000176
974.354471	0.999629
974.652550	1.002093
974.950591	0.999918
975.248595	0.999702
975.546563	1.001106
975.844493	1.001555
976.142386	1.000372
976.440243	1.000987
976.738062	1.000418
977.035845	0.999936
977.333590	1.001278
977.631299	1.001294
977.928971	1.000253
978.226606	0.999833
978.524204	1.000043
978.821765	1.001266
979.119290	1.001178
979.416777	1.000440
979.714228	1.000214
980.011642	1.001076
980.309020	1.000429
980.606360	0.999906
980.903664	1.000372
981.200931	0.999712
981.498162	1.001092
981.795356	1.000278
982.092513	1.000516
982.389633	1.001240
982.686717	1.000475
982.983764	0.999749
983.280775	0.999958
983.577749	1.000090
983.874686	1.000109
984.171587	0.999019
984.468451	1.000631
984.765279	1.000183
985.062070	1.000583
985.358824	1.000502
985.655543	1.000721
985.952224	0.999964
986.248869	1.000739
986.545478	1.001371
986.842050	1.000204
987.138586	0.998852
987.435086	1.000583
987.731549	1.001324
988.027975	1.001603
988.324366	0.999893
988.620719	1.001863
988.917037	1.001561
989.213318	1.000823
989.509563	1.001374
989.805772	1.001415
990.101944	1.000587
990.398080	1.001109
990.694180	0.999905
990.990244	1.000398
991.286271	0.999710
991.582262	1.000569
991.878217	1.000845
992.174136	1.001176
992.470019	1.000637
992.765865	1.001815
993.061676	1.000613
993.357450	1.001324
993.653188	1.002139
993.948890	0.999363
994.244556	0.999500
994.540186	1.000166
994.835780	1.000853
995.131337	1.001070
995.426859	1.000509
995.722345	1.000952
996.017795	0.999430
996.313208	1.001141
996.608586	1.000454
996.903928	0.999212
997.199234	0.999979
997.494504	1.001479
997.789738	0.998345
998.084936	1.001321
998.380099	0.999516
998.675225	1.001262
998.970316	1.001550
999.265371	0.999840
999.560390	1.000632
999.855373	1.000836
1000.150320	1.001210
1000.445232	1.002104
1000.740108	1.000277
1001.034948	0.999321
1001.329752	1.000124
1001.624521	0.999956
1001.919254	1.000204
1002.213951	1.000162
1002.508613	0.999441
1002.803239	1.000857
1003.097829	1.001227
1003.392384	1.001329
1003.686903	1.000596
1003.981386	1.000869
1004.275834	1.001970
1004.570246	0.999137
1004.864623	1.000561
1005.158964	1.000362
1005.453270	0.999782
1005.747540	0.999337
1006.041775	1.001222
1006.335974	1.001009
1006.630138	1.001125
1006.924266	0.999412
1007.218359	0.998537
1007.512416	1.000398
1007.806438	0.999799
1008.100425	1.000910
1008.394376	1.002643
1008.688292	0.998992
1008.982172	1.000626
1009.276017	1.001582
1009.569827	1.002836
1009.863602	0.999019
1010.157341	1.001093
1010.451045	1.000186
1010.744714	1.001154
1011.038347	1.000725
1011.331945	0.998917
1011.625508	0.999937
1011.919036	1.001758
1012.212528	1.000910
1012.505986	1.000384
1012.799408	1.001192
1013.092795	1.002028
1013.386147	1.000293
1013.679464	1.002159
1013.972745	0.999701
1014.265992	1.000973
1014.559204	0.999067
1014.852380	1.001193
1015.145521	1.000591
1015.438628	1.000505
1015.731699	1.000693
1016.024736	1.002598
1016.317737	1.000376
1016.610703	1.000561
1016.903635	1.000660
1017.196531	0.999397
1017.489393	0.998556
1017.782219	1.000889
1018.075011	1.000510
1018.367768	1.000071
1018.660490	1.001169
1018.953177	1.001169
1019.245829	1.001169
