Dividing Wavelength (nm)	Counts (n)	Blue Motor Position (mm): 40.800000	Red Motor Position (mm): 0.000000	
326.493990	0.998785
326.888308	0.998785
327.282561	0.998785
327.676750	0.999834
328.070874	1.000434
328.464933	0.999876
328.858929	1.000205
329.252859	0.999370
329.646726	0.998837
330.040528	0.998586
330.434265	0.999791
330.827938	0.999701
331.221547	0.999523
331.615091	0.999919
332.008571	1.001694
332.401986	0.998638
332.795338	0.999329
333.188625	1.000018
333.581847	0.999250
333.975006	0.999568
334.368100	1.000369
334.761129	0.998249
335.154095	0.998881
335.546996	1.000071
335.939833	0.999588
336.332606	1.000204
336.725315	0.997683
337.117960	1.000214
337.510540	0.999340
337.903056	0.999907
338.295508	1.000540
338.687896	0.999540
339.080220	0.999710
339.472480	0.999938
339.864676	0.999007
340.256807	0.999117
340.648875	1.000577
341.040879	0.999995
341.432818	1.000693
341.824694	0.998658
342.216506	1.000996
342.608253	0.999795
342.999937	0.999623
343.391557	0.998859
343.783113	1.000454
344.174605	0.999788
344.566033	0.998872
344.957397	1.000563
345.348697	0.999265
345.739934	0.998728
346.131106	0.999210
346.522215	0.998981
346.913260	0.999261
347.304241	0.999027
347.695159	0.998868
348.086012	0.999230
348.476802	0.999871
348.867528	0.998749
349.258191	0.998951
349.648789	0.999274
350.039324	0.998626
350.429796	0.999539
350.820203	0.997649
351.210548	0.999979
351.600828	0.999300
351.991045	0.999403
352.381198	0.999299
352.771288	0.998836
353.161314	0.999449
353.551276	0.997192
353.941175	0.997796
354.331010	0.999026
354.720782	0.997843
355.110490	0.997880
355.500135	0.998036
355.889717	0.997581
356.279235	0.998281
356.668689	0.999065
357.058080	0.998617
357.447408	0.998042
357.836672	0.997028
358.225873	0.997660
358.615010	0.998556
359.004084	0.996845
359.393095	0.998340
359.782043	0.998245
360.170927	0.998056
360.559748	0.998603
360.948505	0.998733
361.337199	0.997935
361.725830	0.998700
362.114398	0.998547
362.502903	0.996881
362.891344	0.996231
363.279722	0.997408
363.668037	0.998380
364.056289	0.997538
364.444478	0.999437
364.832603	0.997872
365.220665	0.998927
365.608665	0.998347
365.996601	0.998611
366.384474	0.996443
366.772284	0.996898
367.160031	0.996442
367.547715	0.996450
367.935336	0.995081
368.322893	0.995802
368.710388	0.992946
369.097820	0.992791
369.485189	0.990034
369.872495	0.988194
370.259738	0.987023
370.646918	0.982289
371.034035	0.981098
371.421090	0.978511
371.808081	0.973561
372.195010	0.970897
372.581875	0.966357
372.968678	0.962003
373.355418	0.957642
373.742096	0.950043
374.128710	0.946900
374.515262	0.941648
374.901751	0.935655
375.288177	0.930770
375.674540	0.924378
376.060841	0.917770
376.447079	0.911330
376.833254	0.905954
377.219367	0.900633
377.605417	0.889351
377.991404	0.885244
378.377329	0.878778
378.763191	0.873067
379.148991	0.864914
379.534727	0.856841
379.920402	0.848831
380.306013	0.845016
380.691563	0.832492
381.077049	0.825186
381.462474	0.822260
381.847835	0.809905
382.233134	0.805474
382.618371	0.805671
383.003545	0.788647
383.388657	0.786546
383.773706	0.779236
384.158693	0.774772
384.543618	0.770265
384.928480	0.762400
385.313280	0.753107
385.698017	0.752524
386.082692	0.742667
386.467305	0.742774
386.851856	0.738455
387.236344	0.735545
387.620770	0.731975
388.005133	0.729647
388.389435	0.727121
388.773674	0.727353
389.157851	0.723562
389.541965	0.724521
389.926018	0.734192
390.310008	0.726317
390.693936	0.727717
391.077802	0.726064
391.461606	0.732731
391.845348	0.729382
392.229027	0.732858
392.612645	0.737612
392.996200	0.733362
393.379694	0.734886
393.763125	0.733739
394.146494	0.744515
394.529801	0.743873
394.913047	0.746778
395.296230	0.757726
395.679351	0.760364
396.062410	0.765881
396.445408	0.775547
396.828343	0.781218
397.211217	0.787129
397.594028	0.801549
397.976778	0.805314
398.359466	0.812225
398.742092	0.818547
399.124656	0.831492
399.507158	0.834269
399.889598	0.841447
400.271977	0.846557
400.654294	0.855817
401.036549	0.864159
401.418742	0.874126
401.800874	0.877214
402.182944	0.882510
402.564952	0.888158
402.946898	0.895978
403.328783	0.903175
403.710606	0.912503
404.092367	0.913749
404.474067	0.921582
404.855705	0.926832
405.237282	0.933622
405.618797	0.935952
406.000250	0.940836
406.381642	0.943872
406.762972	0.950261
407.144240	0.954338
407.525447	0.957587
407.906593	0.962426
408.287677	0.965114
408.668700	0.969477
409.049661	0.972358
409.430560	0.974209
409.811399	0.977432
410.192176	0.979047
410.572891	0.982785
410.953545	0.983285
411.334138	0.985973
411.714669	0.986792
412.095139	0.989802
412.475547	0.990219
412.855894	0.991552
413.236180	0.992064
413.616405	0.992695
413.996568	0.993398
414.376670	0.993997
414.756711	0.994042
415.136691	0.995822
415.516609	0.995447
415.896466	0.996513
416.276262	0.995765
416.655997	0.997757
417.035670	0.996932
417.415283	0.996551
417.794834	0.997644
418.174324	0.997660
418.553753	0.997973
418.933121	0.997018
419.312428	0.998060
419.691674	0.997929
420.070859	0.998868
420.449983	0.998068
420.829045	0.997377
421.208047	0.998370
421.586988	0.998172
421.965867	0.997858
422.344686	0.998344
422.723444	0.998338
423.102141	0.998457
423.480777	0.997269
423.859352	0.998728
424.237866	0.998814
424.616319	0.998443
424.994712	0.998594
425.373044	0.998476
425.751314	0.998050
426.129524	0.999329
426.507673	0.997890
426.885762	0.998695
427.263789	0.998298
427.641756	0.998739
428.019662	0.998744
428.397508	0.998538
428.775292	0.998681
429.153016	0.998484
429.530679	0.998633
429.908282	1.000012
430.285824	0.997543
430.663305	0.998208
431.040726	0.998754
431.418086	0.998429
431.795385	0.999556
432.172624	0.999898
432.549802	0.998592
432.926920	0.998123
433.303977	0.998657
433.680974	0.999661
434.057910	0.999066
434.434786	0.998244
434.811601	0.999363
435.188355	0.998693
435.565050	0.999007
435.941683	0.997920
436.318257	0.998551
436.694770	0.998961
437.071222	0.999049
437.447614	0.998532
437.823946	0.998797
438.200218	0.998893
438.576429	0.998969
438.952580	0.998602
439.328670	0.997944
439.704700	0.997783
440.080670	0.999168
440.456580	0.999115
440.832429	0.998889
441.208218	0.999774
441.583947	0.998975
441.959616	0.998365
442.335224	0.999420
442.710773	0.999092
443.086261	0.998963
443.461689	0.998986
443.837057	0.998093
444.212365	0.999655
444.587612	0.999584
444.962800	0.999306
445.337927	0.999717
445.712995	0.999135
446.088002	0.998170
446.462949	0.998969
446.837837	1.000036
447.212664	0.999110
447.587431	0.999102
447.962139	0.998666
448.336786	0.998183
448.711374	0.998643
449.085901	0.999237
449.460369	0.999023
449.834776	0.998476
450.209124	0.999056
450.583412	0.999575
450.957640	0.998534
451.331808	0.999285
451.705917	0.998429
452.079965	0.999440
452.453954	0.998755
452.827883	0.999173
453.201752	0.999054
453.575562	0.998255
453.949311	0.998715
454.323001	0.998693
454.696632	0.999266
455.070202	0.998335
455.443713	0.998607
455.817164	0.999008
456.190556	0.999308
456.563888	0.999610
456.937160	0.998587
457.310373	0.998616
457.683526	0.998870
458.056619	0.998817
458.429653	0.998545
458.802628	0.999317
459.175542	0.999359
459.548398	0.998845
459.921194	0.999169
460.293930	0.999592
460.666607	0.999704
461.039224	0.998210
461.411782	0.998468
461.784280	0.998129
462.156719	0.998767
462.529099	0.999089
462.901419	0.998674
463.273680	0.997982
463.645882	0.998493
464.018024	0.998254
464.390106	0.998892
464.762130	0.999537
465.134094	0.999114
465.505999	0.998998
465.877845	0.998392
466.249631	0.998111
466.621358	0.998079
466.993026	0.997952
467.364634	0.998460
467.736184	0.998147
468.107674	0.999000
468.479105	0.998264
468.850477	0.998446
469.221790	0.998526
469.593043	0.998332
469.964238	0.997978
470.335373	0.998602
470.706449	0.998933
471.077467	0.998646
471.448425	0.999024
471.819324	0.998344
472.190164	0.997934
472.560945	0.998389
472.931667	0.998186
473.302330	0.998650
473.672934	0.998784
474.043479	0.998333
474.413965	0.998523
474.784393	0.998092
475.154761	0.997747
475.525070	0.998154
475.895321	0.998743
476.265513	0.998782
476.635645	0.999192
477.005719	0.998892
477.375734	0.997991
477.745691	0.998060
478.115588	0.998828
478.485427	0.998517
478.855207	0.998755
479.224928	0.998555
479.594591	0.998141
479.964194	0.997911
480.333739	0.998427
480.703226	0.997865
481.072653	0.998443
481.442022	0.998707
481.811333	0.997941
482.180584	0.998313
482.549777	0.998419
482.918912	0.998113
483.287988	0.999067
483.657005	0.998591
484.025964	0.998510
484.394864	0.998539
484.763706	0.998480
485.132489	0.998649
485.501213	0.998401
485.869879	0.998192
486.238487	0.997624
486.607036	0.998962
486.975527	0.997968
487.343959	0.997825
487.712333	0.997831
488.080648	0.997667
488.448905	0.998665
488.817104	0.997635
489.185244	0.998365
489.553326	0.998624
489.921350	0.999180
490.289315	0.998450
490.657222	0.997882
491.025070	0.998543
491.392861	0.998865
491.760593	0.998303
492.128267	0.997995
492.495883	0.997246
492.863440	0.998858
493.230939	0.998440
493.598380	0.998874
493.965763	0.998534
494.333088	0.997521
494.700354	0.997756
495.067563	0.997775
495.434713	0.998708
495.801805	0.998138
496.168839	0.998150
496.535815	0.998605
496.902733	0.997868
497.269593	0.997938
497.636395	0.997677
498.003139	0.997918
498.369825	0.999173
498.736453	0.998651
499.103023	0.998416
499.469535	0.998252
499.835989	0.998596
500.202385	0.998162
500.568723	0.997936
500.935003	0.998406
501.301226	0.998506
501.667390	0.997758
502.033497	0.998339
502.399546	0.998356
502.765537	0.997940
503.131470	0.998909
503.497345	0.998855
503.863163	0.998325
504.228923	0.998484
504.594625	0.998061
504.960269	0.998080
505.325856	0.999053
505.691385	0.998249
506.056856	0.998410
506.422270	0.998360
506.787625	0.998755
507.152924	0.998524
507.518164	0.997778
507.883347	0.998154
508.248472	0.997658
508.613540	0.998228
508.978550	0.998389
509.343503	0.998544
509.708398	0.998977
510.073236	0.998338
510.438016	0.998515
510.802738	0.998326
511.167403	0.998067
511.532010	0.999011
511.896561	0.998299
512.261053	0.998061
512.625488	0.998355
512.989866	0.997830
513.354186	0.997325
513.718449	0.998800
514.082655	0.997711
514.446803	0.997318
514.810894	0.998708
515.174927	0.998885
515.538904	0.998887
515.902822	0.998512
516.266684	0.998334
516.630488	0.998428
516.994235	0.998468
517.357925	0.999044
517.721558	0.998422
518.085133	0.998314
518.448651	0.998791
518.812112	0.998718
519.175516	0.998655
519.538863	0.998857
519.902152	0.998547
520.265385	0.998288
520.628560	0.997996
520.991678	0.998938
521.354739	0.998746
521.717743	0.998274
522.080690	0.998425
522.443580	0.998140
522.806413	0.997782
523.169189	0.998704
523.531908	0.997939
523.894569	0.998782
524.257174	0.998450
524.619722	0.998118
524.982213	0.998496
525.344647	0.998123
525.707025	0.998071
526.069345	0.998036
526.431608	0.998714
526.793815	0.998567
527.155964	0.999078
527.518057	0.999244
527.880093	0.998007
528.242072	0.998305
528.603995	0.998180
528.965860	0.998071
529.327669	0.998664
529.689421	0.997994
530.051117	0.998459
530.412755	0.998878
530.774337	0.998428
531.135862	0.998945
531.497331	0.998715
531.858743	0.998867
532.220098	0.998122
532.581396	0.998402
532.942638	0.998313
533.303824	0.999085
533.664953	0.997758
534.026025	0.999269
534.387040	0.998397
534.747999	0.998061
535.108902	0.997756
535.469748	0.999198
535.830537	0.998668
536.191270	0.998654
536.551947	0.998147
536.912567	0.998737
537.273131	0.998481
537.633638	0.998667
537.994089	0.997978
538.354483	0.998274
538.714821	0.998631
539.075103	0.999206
539.435328	0.998787
539.795497	0.998513
540.155609	0.998505
540.515665	0.999345
540.875665	0.998071
541.235609	0.998930
541.595496	0.997728
541.955328	0.998325
542.315102	0.998462
542.674821	0.999243
543.034483	0.998396
543.394090	0.997778
543.753640	0.998357
544.113134	0.998767
544.472571	0.999522
544.831953	0.998595
545.191278	0.998389
545.550548	0.998310
545.909761	0.998383
546.268918	0.998935
546.628019	0.998745
546.987064	0.998323
547.346053	0.998483
547.704986	0.998306
548.063863	0.998720
548.422684	0.998932
548.781449	0.998738
549.140158	0.998390
549.498811	0.998359
549.857408	0.998013
550.215949	0.997800
550.574434	0.998635
550.932864	0.998746
551.291237	0.998401
551.649555	0.998827
552.007817	0.998916
552.366022	0.998486
552.724173	0.998873
553.082267	0.998308
553.440305	0.998106
553.798288	0.998022
554.156215	0.998123
554.514086	0.998481
554.871902	0.998612
555.229661	0.998106
555.587365	0.998540
555.945014	0.999641
556.302606	0.998050
556.660143	0.998739
557.017625	0.998665
557.375050	0.997787
557.732421	0.998574
558.089735	0.997815
558.446994	0.998435
558.804197	0.999361
559.161345	0.998455
559.518437	0.998809
559.875474	0.999216
560.232455	0.998917
560.589381	0.998688
560.946251	0.998479
561.303065	0.998878
561.659825	0.998065
562.016528	0.999305
562.373177	0.999056
562.729770	0.999096
563.086307	0.997916
563.442789	0.999104
563.799216	0.998386
564.155587	0.998518
564.511904	0.999377
564.868164	0.997448
565.224370	0.998163
565.580520	0.998405
565.936615	0.998454
566.292654	0.998087
566.648638	0.999335
567.004567	0.997662
567.360441	0.999219
567.716260	0.998594
568.072023	0.997934
568.427732	0.998710
568.783385	0.998897
569.138982	0.998569
569.494525	0.998229
569.850013	0.999446
570.205445	0.999435
570.560823	0.998613
570.916145	0.998037
571.271412	0.998661
571.626625	0.998555
571.981782	0.998564
572.336884	0.999159
572.691931	0.998606
573.046923	0.999178
573.401860	0.998421
573.756743	0.998588
574.111570	0.998487
574.466342	0.999198
574.821059	0.998415
575.175722	0.998494
575.530330	0.998646
575.884882	0.998389
576.239380	0.998808
576.593823	0.998995
576.948211	0.998559
577.302544	0.999130
577.656823	0.999465
578.011047	0.998312
578.365216	0.999519
578.719330	0.998475
579.073389	0.998083
579.427394	0.997830
579.781344	0.999401
580.135239	0.998309
580.489080	0.999063
580.842866	0.999023
581.196597	0.998582
581.550273	0.998190
581.903895	0.999155
582.257463	0.998054
582.610975	0.997758
582.964434	0.998397
583.317837	0.999039
583.671186	0.999686
584.024481	0.998620
584.377721	0.998070
584.730906	0.999229
585.084037	0.999907
585.437113	0.999232
585.790135	0.998777
586.143103	0.999295
586.496016	0.998568
586.848874	0.999430
587.201679	0.999209
587.554428	0.998671
587.907124	0.999404
588.259765	0.999382
588.612352	0.999256
588.964884	0.998918
589.317362	0.999032
589.669786	0.998550
590.022155	0.998950
590.374470	0.998882
590.726731	0.998316
591.078937	0.998875
591.431090	0.999357
591.783188	0.997925
592.135232	0.999684
592.487222	0.998776
592.839157	0.999177
593.191038	0.999052
593.542866	0.998765
593.894639	0.997227
594.246358	0.999166
594.598022	0.998672
594.949633	0.999079
595.301190	0.998720
595.652692	0.998454
596.004141	0.998464
596.355535	0.998774
596.706876	0.998604
597.058162	0.998966
597.409395	0.999068
597.760573	0.998583
598.111698	0.998476
598.462768	0.998122
598.813785	0.998282
599.164748	0.998755
599.515657	0.998266
599.866511	0.999274
600.217312	0.998891
600.568060	0.998386
600.918753	0.999515
601.269392	0.998490
601.619978	0.998696
601.970510	0.999058
602.320988	0.998768
602.671412	0.998567
603.021783	0.999554
603.372100	0.998544
603.722363	0.999232
604.072572	0.999342
604.422728	0.998635
604.772830	0.998518
605.122878	0.998173
605.472872	0.999395
605.822813	0.998323
606.172701	0.998591
606.522534	0.999151
606.872314	0.999487
607.222041	0.998286
607.571714	0.999821
607.921333	0.999106
608.270899	0.998314
608.620411	0.998426
608.969870	1.000074
609.319276	0.999567
609.668627	0.999706
610.017926	0.997983
610.367171	0.998920
610.716362	0.998666
611.065500	0.997952
611.414585	0.999348
611.763616	0.998006
612.112594	0.999069
612.461518	0.998116
612.810389	0.998678
613.159207	0.998861
613.507971	0.997712
613.856682	0.999715
614.205340	0.998615
614.553945	0.999418
614.902496	0.998809
615.250994	0.998588
615.599439	0.998952
615.947830	0.998638
616.296169	0.999064
616.644454	0.998726
616.992686	0.998812
617.340864	0.999205
617.688990	0.998839
618.037063	0.999462
618.385082	0.998583
618.733048	0.998829
619.080961	0.998894
619.428821	0.999353
619.776628	0.998555
620.124382	0.999914
620.472083	0.999430
620.819731	0.999928
621.167326	0.999229
621.514868	0.998877
621.862357	0.999151
622.209793	0.999248
622.557176	0.998176
622.904506	0.998142
623.251783	0.999056
623.599007	0.999141
623.946179	0.998247
624.293297	0.998910
624.640363	0.999739
624.987376	0.997989
625.334336	0.998389
625.681243	0.999297
626.028097	0.998816
626.374899	0.998673
626.721647	0.999485
627.068343	0.998666
627.414987	0.999434
627.761577	0.998121
628.108115	0.998213
628.454600	0.999113
628.801032	0.998811
629.147412	0.999112
629.493739	0.999900
629.840014	0.999007
630.186236	0.998191
630.532405	0.999038
630.878521	0.998109
631.224585	0.999177
631.570597	0.998927
631.916556	0.999136
632.262462	0.997752
632.608316	0.999016
632.954117	0.998953
633.299866	0.999144
633.645562	0.998498
633.991206	0.999241
634.336797	0.998196
634.682336	1.000265
635.027823	0.999056
635.373257	0.998842
635.718639	0.998978
636.063968	0.998246
636.409245	0.999086
636.754470	0.998657
637.099642	0.999281
637.444762	0.999012
637.789829	0.998621
638.134845	0.999045
638.479808	0.998926
638.824719	0.998979
639.169577	0.999144
639.514383	0.999298
639.859137	0.999269
640.203839	0.998919
640.548489	0.999012
640.893086	0.998753
641.237632	0.999670
641.582125	0.998551
641.926566	0.999023
642.270955	1.000052
642.615292	0.999224
642.959576	0.999281
643.303809	0.999965
643.647990	0.998872
643.992118	1.000123
644.336195	0.998548
644.680219	0.998507
645.024192	0.999466
645.368112	0.998429
645.711981	0.999001
646.055797	0.998840
646.399562	0.998049
646.743274	0.998771
647.086935	0.998961
647.430544	0.998379
647.774101	0.998654
648.117606	0.999796
648.461059	0.998616
648.804460	0.998874
649.147810	0.998702
649.491108	0.998801
649.834354	0.999346
650.177548	0.999483
650.520690	0.999482
650.863781	0.998937
651.206820	0.998307
651.549807	0.998507
651.892742	0.998899
652.235626	0.998997
652.578458	0.998637
652.921238	0.999054
653.263967	0.999594
653.606644	0.998071
653.949269	0.999363
654.291843	0.997792
654.634365	0.998808
654.976836	0.998475
655.319255	0.999072
655.661622	0.999292
656.003938	0.997997
656.346203	0.998318
656.688416	0.999835
657.030577	0.999300
657.372687	0.999290
657.714746	0.999008
658.056753	0.998958
658.398708	0.998126
658.740612	0.999821
659.082465	0.998842
659.424266	0.999736
659.766016	0.998467
660.107715	0.999208
660.449362	0.998969
660.790958	0.998100
661.132503	1.000257
661.473996	0.999000
661.815438	0.998919
662.156829	0.999893
662.498168	0.998801
662.839456	0.997929
663.180693	0.998600
663.521879	0.999338
663.863013	0.999505
664.204097	0.998323
664.545129	0.999009
664.886110	0.999112
665.227040	0.998202
665.567918	0.998298
665.908746	0.998770
666.249522	0.997934
666.590248	0.997951
666.930922	0.998274
667.271545	0.998509
667.612118	0.998654
667.952639	0.999073
668.293109	0.998323
668.633528	0.998312
668.973896	0.999467
669.314213	0.998593
669.654480	0.998998
669.994695	0.998751
670.334859	0.999021
670.674973	0.999091
671.015035	0.998382
671.355047	0.998523
671.695008	0.997780
672.034918	0.998968
672.374777	0.998806
672.714585	0.998317
673.054342	0.999008
673.394049	0.998349
673.733705	0.998922
674.073310	0.998821
674.412864	0.998106
674.752368	0.998123
675.091820	1.000241
675.431223	0.998886
675.770574	0.997996
676.109875	0.998204
676.449125	0.998141
676.788324	0.997698
677.127473	0.998421
677.466571	0.999135
677.805619	0.998815
678.144616	0.998683
678.483562	0.998803
678.822458	0.999084
679.161303	0.997841
679.500098	0.999449
679.838842	0.998957
680.177535	0.997804
680.516179	0.997986
680.854771	0.997884
681.193314	0.998085
681.531805	0.999337
681.870247	0.999162
682.208638	0.998246
682.546978	0.997864
682.885268	0.998046
683.223508	0.997618
683.561697	0.997339
683.899836	0.998516
684.237925	0.997827
684.575963	0.998929
684.913951	0.998171
685.251889	0.998433
685.589776	0.998439
685.927614	0.997771
686.265401	0.998393
686.603137	0.998665
686.940824	0.997723
687.278460	0.999269
687.616046	0.998075
687.953582	0.998546
688.291068	0.998928
688.628504	0.997872
688.965889	0.997672
689.303224	0.996889
689.640510	0.998103
689.977745	0.997858
690.314930	0.997572
690.652065	0.998831
690.989150	0.997953
691.326185	0.998536
691.663170	0.997582
692.000105	0.998540
692.336990	0.998663
692.673825	0.997766
693.010610	0.998496
693.347345	0.998177
693.684030	0.998307
694.020665	0.997643
694.357251	0.997681
694.693786	0.997791
695.030272	0.997036
695.366707	0.997894
695.703093	0.998515
696.039429	0.997799
696.375716	0.998584
696.711952	0.997620
697.048139	0.998808
697.384276	0.999045
697.720363	0.997814
698.056400	0.997244
698.392388	0.997284
698.728326	0.998595
699.064214	0.998318
699.400053	0.997464
699.735842	0.999186
700.071581	0.997822
700.407270	0.997982
700.742910	0.998365
701.078501	0.998160
701.414042	0.998845
701.749533	0.996772
702.084974	0.997964
702.420366	0.998745
702.755709	0.998131
703.091002	0.998942
703.426246	0.998787
703.761440	0.997663
704.096584	0.997607
704.431679	0.997898
704.766725	0.998026
705.101721	0.998675
705.436668	0.998407
705.771565	0.997733
706.106413	0.997095
706.441212	0.998365
706.775961	0.998835
707.110661	0.997286
707.445311	0.997778
707.779913	0.999331
708.114465	0.999052
708.448967	0.998755
708.783421	0.998123
709.117825	0.997530
709.452180	0.998386
709.786485	0.998311
710.120742	0.997903
710.454949	0.997894
710.789107	0.998153
711.123216	0.997914
711.457275	0.997398
711.791286	0.997637
712.125247	0.999502
712.459159	0.997709
712.793023	0.997742
713.126837	0.997577
713.460602	0.997136
713.794318	0.996663
714.127985	0.996589
714.461602	0.997344
714.795171	0.996716
715.128691	0.997046
715.462162	0.998085
715.795584	0.997584
716.128957	0.998425
716.462281	0.997631
716.795556	0.997201
717.128782	0.998480
717.461960	0.997299
717.795088	0.997049
718.128167	0.998346
718.461198	0.997859
718.794180	0.997842
719.127113	0.998209
719.459997	0.997191
719.792833	0.998201
720.125619	0.997552
720.458357	0.997484
720.791046	0.998365
721.123686	0.998056
721.456278	0.997823
721.788821	0.997602
722.121315	0.998763
722.453761	0.997920
722.786158	0.996868
723.118506	0.997534
723.450805	0.996603
723.783056	0.998371
724.115259	0.997061
724.447412	0.998853
724.779518	0.998135
725.111574	0.997600
725.443582	0.998052
725.775542	0.998065
726.107453	0.997912
726.439315	0.998946
726.771129	0.998368
727.102895	0.998046
727.434612	0.997611
727.766281	0.997565
728.097901	0.997105
728.429473	0.997662
728.760996	0.997177
729.092471	0.997719
729.423897	0.998484
729.755276	0.997828
730.086606	0.998016
730.417887	0.998756
730.749120	0.997734
731.080305	0.997603
731.411442	0.997721
731.742530	0.997031
732.073570	0.997428
732.404562	0.998240
732.735506	0.997531
733.066401	0.997555
733.397249	0.997430
733.728048	0.997797
734.058798	0.997770
734.389501	0.998087
734.720156	0.997885
735.050762	0.998206
735.381320	0.997061
735.711831	0.997289
736.042293	0.996732
736.372707	0.998596
736.703073	0.996728
737.033391	0.997400
737.363661	0.997847
737.693883	0.997902
738.024056	0.997379
738.354182	0.997892
738.684260	0.998009
739.014290	0.997868
739.344272	0.998073
739.674207	0.997643
740.004093	0.998756
740.333931	0.997984
740.663722	0.996731
740.993464	0.998579
741.323159	0.998040
741.652806	0.997419
741.982405	0.997512
742.311956	0.998273
742.641460	0.997579
742.970915	0.997026
743.300323	0.996949
743.629683	0.997442
743.958996	0.998208
744.288260	0.997237
744.617477	0.998220
744.946647	0.998369
745.275768	0.998012
745.604842	0.997763
745.933869	0.997696
746.262847	0.998654
746.591778	0.997212
746.920662	0.998928
747.249498	0.999465
747.578286	0.999146
747.907027	0.998170
748.235720	0.998252
748.564365	0.997758
748.892963	0.997689
749.221514	0.998088
749.550017	0.998034
749.878473	0.997898
750.206881	0.998438
750.535242	0.997694
750.863555	0.996653
751.191821	0.997296
751.520039	0.997602
751.848210	0.995902
752.176334	0.997829
752.504411	0.998306
752.832440	0.996614
753.160421	0.998342
753.488356	0.997369
753.816243	0.997790
754.144082	0.997141
754.471875	0.997801
754.799620	0.997795
755.127318	0.996066
755.454969	0.997698
755.782572	0.998775
756.110129	0.996936
756.437638	0.998225
756.765100	0.998333
757.092515	0.998101
757.419882	0.998104
757.747203	0.996210
758.074477	0.998627
758.401703	0.997422
758.728882	0.997605
759.056014	0.997355
759.383099	0.997991
759.710138	0.997072
760.037129	0.997620
760.364073	0.998138
760.690970	0.997386
761.017820	0.997171
761.344623	0.998095
761.671379	0.998310
761.998088	0.997164
762.324751	0.998125
762.651366	0.996476
762.977935	0.996302
763.304456	0.997092
763.630931	0.995106
763.957359	0.994780
764.283740	0.995790
764.610074	0.995595
764.936362	0.996924
765.262602	0.996100
765.588796	0.996846
765.914943	0.997415
766.241044	0.998344
766.567097	0.997453
766.893104	0.998263
767.219064	0.996322
767.544978	0.997966
767.870845	0.997636
768.196665	0.997866
768.522438	0.998212
768.848165	0.998021
769.173846	0.999327
769.499479	0.998803
769.825066	0.998466
770.150607	0.999031
770.476101	0.998590
770.801548	0.999261
771.126949	0.999005
771.452303	0.998532
771.777611	0.997817
772.102872	0.998147
772.428087	0.997623
772.753256	0.998098
773.078378	0.998199
773.403453	0.997004
773.728482	0.999101
774.053465	0.996954
774.378401	0.998315
774.703291	0.998842
775.028135	0.999649
775.352932	0.997184
775.677683	0.998585
776.002388	0.999321
776.327046	0.997891
776.651658	0.999461
776.976224	0.998852
777.300743	0.997368
777.625216	0.997877
777.949643	0.998539
778.274024	0.997305
778.598359	0.997829
778.922647	0.998084
779.246889	0.997814
779.571086	0.998530
779.895236	0.998110
780.219339	0.998713
780.543397	0.996853
780.867409	0.998521
781.191374	0.998883
781.515294	0.999617
781.839167	0.999486
782.162995	0.998026
782.486776	0.997244
782.810511	0.999271
783.134201	0.998235
783.457844	0.998680
783.781441	0.998219
784.104993	0.997852
784.428498	0.998793
784.751958	0.999162
785.075372	0.999157
785.398739	0.998361
785.722061	0.997579
786.045337	0.998869
786.368568	0.998096
786.691752	0.998456
787.014891	0.998067
787.337983	0.998166
787.661030	0.998379
787.984031	0.998304
788.306987	0.997812
788.629897	0.996801
788.952760	0.998232
789.275579	0.997842
789.598351	0.997931
789.921078	0.998925
790.243759	0.997505
790.566395	0.997417
790.888984	0.998963
791.211529	0.998304
791.534027	0.998072
791.856480	0.998620
792.178888	0.997907
792.501249	0.998709
792.823566	1.000304
793.145836	0.998267
793.468062	0.998602
793.790241	0.998769
794.112375	0.997974
794.434464	0.997453
794.756507	0.998036
795.078505	0.998433
795.400457	0.998520
795.722364	0.997994
796.044226	0.997983
796.366042	0.998306
796.687812	0.996845
797.009538	0.997458
797.331218	0.998407
797.652852	0.999787
797.974442	0.996773
798.295986	0.997963
798.617484	0.997187
798.938938	0.998581
799.260346	0.998670
799.581709	0.997118
799.903026	0.998374
800.224299	0.998599
800.545526	0.997618
800.866708	0.998604
801.187845	0.997805
801.508936	0.997627
801.829983	0.998574
802.150984	0.997860
802.471940	0.998878
802.792851	0.997680
803.113717	0.998586
803.434538	1.000218
803.755314	0.998976
804.076045	0.998729
804.396731	0.998820
804.717372	0.997407
805.037967	0.999507
805.358518	0.999125
805.679024	0.997884
805.999485	0.998838
806.319901	0.998287
806.640272	0.998766
806.960598	0.997847
807.280879	0.997837
807.601115	0.998946
807.921306	0.999327
808.241453	0.998507
808.561554	0.997932
808.881611	0.998775
809.201623	0.997891
809.521590	0.998615
809.841513	0.999178
810.161390	0.998447
810.481223	0.997665
810.801011	0.998805
811.120755	0.999680
811.440453	0.998481
811.760107	0.998427
812.079716	0.997999
812.399281	0.998691
812.718801	0.998431
813.038276	0.998335
813.357707	0.998710
813.677093	0.999547
813.996434	0.998589
814.315731	1.000814
814.634983	0.998258
814.954191	0.999386
815.273354	0.998906
815.592473	0.997546
815.911547	0.999641
816.230577	0.998541
816.549562	0.998023
816.868502	0.997319
817.187399	0.998986
817.506250	0.998518
817.825058	0.997522
818.143821	0.998702
818.462539	0.998480
818.781213	0.998414
819.099843	0.997920
819.418429	0.998458
819.736970	0.997987
820.055466	0.996509
820.373919	0.997544
820.692327	0.995910
821.010691	0.996540
821.329011	0.995302
821.647286	0.993958
821.965517	0.994030
822.283704	0.992862
822.601847	0.992030
822.919945	0.991689
823.237999	0.992104
823.556010	0.993004
823.873976	0.993554
824.191897	0.994423
824.509775	0.994628
824.827609	0.995335
825.145398	0.996126
825.463144	0.994002
825.780845	0.994923
826.098502	0.995892
826.416116	0.994582
826.733685	0.995907
827.051210	0.994369
827.368692	0.994485
827.686129	0.993562
828.003522	0.996835
828.320872	0.995532
828.638177	0.996999
828.955439	0.997834
829.272656	0.997512
829.589830	0.998144
829.906960	0.998461
830.224046	0.997395
830.541088	0.997765
830.858086	0.997481
831.175041	0.999558
831.491952	0.997624
831.808819	0.998475
832.125642	0.997760
832.442421	0.998635
832.759157	0.998424
833.075849	0.997129
833.392497	0.995735
833.709101	0.995682
834.025662	0.996513
834.342179	0.996450
834.658653	0.997005
834.975083	0.997791
835.291469	0.998335
835.607811	0.997163
835.924110	0.997446
836.240366	1.000232
836.556578	0.999200
836.872746	0.998753
837.188871	0.997941
837.504952	0.998457
837.820990	0.998891
838.136984	0.998301
838.452935	0.999289
838.768842	0.999313
839.084706	0.998659
839.400526	0.998728
839.716303	0.997688
840.032037	0.999061
840.347727	0.998358
840.663373	0.998117
840.978977	0.997905
841.294537	0.998718
841.610054	0.999276
841.925527	0.999001
842.240957	0.998669
842.556344	0.997995
842.871687	0.998359
843.186987	0.999201
843.502244	0.999130
843.817458	0.997960
844.132629	0.998777
844.447756	0.998673
844.762840	0.998954
845.077881	0.999778
845.392879	0.998370
845.707833	0.998882
846.022745	0.998848
846.337613	0.999656
846.652438	0.999496
846.967221	0.999150
847.281960	0.999692
847.596656	0.999246
847.911309	0.998887
848.225919	0.998893
848.540485	1.000474
848.855009	1.000917
849.169490	0.998828
849.483928	0.998980
849.798323	0.998747
850.112675	1.000101
850.426984	0.999176
850.741251	0.999016
851.055474	0.999134
851.369654	0.999640
851.683792	0.998719
851.997887	0.999419
852.311938	0.998606
852.625947	0.998170
852.939914	0.998198
853.253837	1.000187
853.567718	0.999113
853.881555	0.999452
854.195350	0.999561
854.509103	0.999428
854.822812	1.000189
855.136479	0.999463
855.450103	0.999958
855.763685	0.998835
856.077224	0.999725
856.390720	0.999408
856.704173	1.000948
857.017584	0.999145
857.330953	0.999063
857.644278	0.999415
857.957561	0.999832
858.270802	0.999730
858.584000	0.998974
858.897155	0.998690
859.210268	0.999950
859.523339	1.000124
859.836367	0.998750
860.149352	0.997954
860.462295	0.998946
860.775195	0.999293
861.088054	0.998306
861.400869	0.999324
861.713642	0.997764
862.026373	1.000021
862.339062	0.999877
862.651708	0.999269
862.964312	0.999527
863.276873	0.999072
863.589392	0.998333
863.901869	0.999683
864.214303	0.998432
864.526696	0.999840
864.839045	0.998760
865.151353	0.999243
865.463619	0.998815
865.775842	0.998710
866.088023	1.000636
866.400162	0.998689
866.712258	0.999259
867.024313	0.999378
867.336325	0.999760
867.648296	0.999244
867.960224	1.000042
868.272110	1.000158
868.583954	0.998661
868.895755	1.000284
869.207515	0.998616
869.519233	1.000098
869.830909	0.999151
870.142542	0.998615
870.454134	0.998350
870.765684	0.999131
871.077191	0.998787
871.388657	0.998909
871.700081	0.999582
872.011463	0.999652
872.322803	0.999628
872.634101	0.998680
872.945357	0.997945
873.256571	0.998741
873.567744	0.998267
873.878874	0.999465
874.189963	0.998187
874.501010	1.000962
874.812015	0.999226
875.122979	0.998731
875.433900	0.998675
875.744780	1.000311
876.055618	0.997982
876.366415	0.998889
876.677169	0.998857
876.987882	0.999380
877.298554	1.001330
877.609183	0.998400
877.919771	0.999555
878.230317	0.998673
878.540822	0.998211
878.851285	0.999071
879.161707	0.997790
879.472087	0.999838
879.782425	0.996735
880.092722	0.997383
880.402977	0.995872
880.713191	0.994533
881.023363	0.994962
881.333494	0.994508
881.643583	0.995161
881.953631	0.994199
882.263637	0.993413
882.573602	0.993677
882.883526	0.994802
883.193408	0.996492
883.503248	0.994902
883.813048	0.994733
884.122806	0.996161
884.432522	0.996773
884.742197	0.998134
885.051831	0.997436
885.361424	0.997563
885.670975	0.998525
885.980485	0.997039
886.289954	0.998319
886.599382	0.996859
886.908768	0.998899
887.218113	0.998212
887.527417	0.998716
887.836680	0.998763
888.145901	0.999596
888.455082	1.000169
888.764221	0.999698
889.073319	0.998448
889.382376	0.999497
889.691392	0.997789
890.000366	0.999619
890.309300	0.999804
890.618193	0.998829
890.927044	0.999097
891.235855	0.998075
891.544625	0.999486
891.853353	0.998709
892.162041	0.998619
892.470687	0.999221
892.779293	0.997945
893.087858	0.996922
893.396381	0.998114
893.704864	0.997379
894.013306	0.997329
894.321707	0.996511
894.630068	0.995827
894.938387	0.996126
895.246665	0.996812
895.554903	0.996523
895.863100	0.997492
896.171256	0.996889
896.479371	0.997355
896.787446	0.998066
897.095480	0.998092
897.403473	0.998443
897.711425	0.997788
898.019336	0.998853
898.327207	0.999141
898.635038	0.998046
898.942827	0.999744
899.250576	0.998447
899.558284	0.999682
899.865952	0.997746
900.173579	0.998376
900.481165	0.997392
900.788711	0.997952
901.096216	0.999983
901.403681	0.998783
901.711105	0.998403
902.018489	0.997866
902.325832	0.998633
902.633135	0.999067
902.940397	0.999501
903.247619	0.997601
903.554800	0.998019
903.861941	0.998269
904.169041	0.997477
904.476101	0.998102
904.783121	0.994828
905.090100	0.997483
905.397039	0.995679
905.703938	0.997809
906.010796	0.996315
906.317614	0.997007
906.624391	0.999747
906.931129	0.998812
907.237826	0.998717
907.544483	0.999004
907.851099	0.998923
908.157675	0.998455
908.464211	0.999131
908.770707	0.997055
909.077163	0.998571
909.383578	1.000071
909.689954	0.998912
909.996289	0.999185
910.302584	0.999922
910.608839	1.000383
910.915054	0.999299
911.221229	1.000891
911.527363	0.998310
911.833458	0.999553
912.139513	0.999301
912.445527	1.000083
912.751502	0.999934
913.057436	0.998456
913.363331	0.999281
913.669186	0.999849
913.975000	0.999185
914.280775	0.999344
914.586510	0.998789
914.892205	0.998643
915.197859	0.997859
915.503475	0.997427
915.809050	0.996742
916.114585	0.996342
916.420081	0.997348
916.725536	0.997249
917.030952	0.997255
917.336328	0.997191
917.641665	0.997021
917.946961	0.996076
918.252218	0.997570
918.557435	0.997995
918.862612	0.998172
919.167750	0.998411
919.472848	0.998670
919.777906	0.999547
920.082925	0.999326
920.387904	0.998716
920.692843	0.998041
920.997743	0.998549
921.302603	0.998346
921.607423	0.997457
921.912204	0.999303
922.216946	1.000042
922.521647	0.999832
922.826310	0.998454
923.130932	0.999640
923.435516	0.999539
923.740059	0.998306
924.044564	0.998039
924.349028	0.998019
924.653454	0.999230
924.957840	0.998752
925.262186	0.998997
925.566493	0.999152
925.870761	0.998515
926.174989	0.999472
926.479178	1.000405
926.783328	0.999096
927.087438	0.999357
927.391509	0.997850
927.695541	0.999155
927.999533	0.999026
928.303486	0.999653
928.607400	0.999471
928.911275	0.998408
929.215110	0.999998
929.518906	0.999492
929.822663	1.000747
930.126381	0.999664
930.430060	0.999924
930.733699	1.000191
931.037299	0.999943
931.340861	0.999616
931.644383	0.998425
931.947866	0.999649
932.251309	0.999626
932.554714	1.000355
932.858080	1.000614
933.161407	0.998747
933.464694	0.999747
933.767943	1.000012
934.071153	1.000133
934.374323	1.000155
934.677455	0.998062
934.980548	0.999626
935.283602	1.000331
935.586617	0.997767
935.889593	1.000130
936.192530	1.000597
936.495428	0.998842
936.798287	0.999627
937.101108	0.998233
937.403890	0.997880
937.706632	1.001068
938.009336	0.999424
938.312002	0.998537
938.614628	0.998669
938.917216	0.999034
939.219765	0.998303
939.522275	1.000093
939.824747	0.998998
940.127179	0.999395
940.429573	1.000138
940.731929	0.997865
941.034246	0.999113
941.336524	0.997888
941.638763	0.999566
941.940964	0.998716
942.243126	1.000147
942.545250	0.999631
942.847335	1.000133
943.149381	0.999700
943.451389	0.999445
943.753359	0.998436
944.055290	1.000207
944.357182	1.000282
944.659036	0.999357
944.960851	0.999315
945.262628	0.999454
945.564367	0.999296
945.866067	1.000055
946.167729	1.001553
946.469352	0.998996
946.770937	0.998470
947.072484	1.000843
947.373992	0.999679
947.675462	0.999847
947.976893	0.998353
948.278286	1.000717
948.579641	1.000606
948.880958	0.999702
949.182236	0.999594
949.483476	0.999163
949.784678	0.999045
950.085841	0.999259
950.386967	0.999062
950.688054	1.000925
950.989103	0.999241
951.290114	0.998658
951.591087	1.000464
951.892021	0.998556
952.192917	1.000303
952.493776	1.000509
952.794596	0.999694
953.095378	0.998975
953.396122	0.998585
953.696828	0.999516
953.997496	0.999137
954.298126	1.000280
954.598718	0.998404
954.899272	0.999933
955.199788	0.998969
955.500266	0.999807
955.800706	0.999018
956.101108	0.998405
956.401472	1.000852
956.701798	0.998944
957.002087	0.999156
957.302337	0.999244
957.602550	1.000235
957.902724	0.999030
958.202861	0.999283
958.502960	0.999217
958.803022	1.001095
959.103045	1.000534
959.403031	1.001381
959.702979	1.000514
960.002889	0.998423
960.302762	0.999498
960.602596	0.999948
960.902393	1.000140
961.202153	1.000522
961.501875	1.000159
961.801559	1.000615
962.101205	0.998916
962.400814	1.000961
962.700385	0.999700
962.999918	1.000582
963.299414	0.998365
963.598873	0.999935
963.898293	0.999927
964.197677	0.998802
964.497022	1.000033
964.796331	0.998174
965.095601	1.000784
965.394835	0.999407
965.694030	0.999839
965.993189	1.000229
966.292309	1.000386
966.591393	0.998073
966.890439	1.000289
967.189447	0.998592
967.488419	0.999063
967.787353	0.999547
968.086249	0.999706
968.385108	0.998971
968.683930	1.000117
968.982714	0.999560
969.281462	0.999166
969.580172	0.999336
969.878844	1.000298
970.177480	1.000321
970.476078	1.001459
970.774639	1.000707
971.073162	0.998828
971.371649	0.999747
971.670098	0.999030
971.968510	1.000064
972.266885	0.999099
972.565223	0.999075
972.863524	0.999124
973.161788	0.999825
973.460014	1.001103
973.758204	0.999133
974.056356	0.999612
974.354471	0.998733
974.652550	0.999362
974.950591	0.999977
975.248595	0.997795
975.546563	0.999983
975.844493	1.000844
976.142386	0.999379
976.440243	1.000452
976.738062	0.999477
977.035845	0.999375
977.333590	1.000089
977.631299	0.998853
977.928971	0.999181
978.226606	0.998911
978.524204	0.998590
978.821765	1.000468
979.119290	1.001015
979.416777	0.998808
979.714228	0.999730
980.011642	0.999928
980.309020	0.998864
980.606360	0.998614
980.903664	0.999449
981.200931	0.999420
981.498162	0.999990
981.795356	1.000182
982.092513	0.998945
982.389633	1.000684
982.686717	0.998724
982.983764	0.999854
983.280775	0.998485
983.577749	1.000649
983.874686	0.997194
984.171587	0.998724
984.468451	0.999732
984.765279	1.000938
985.062070	0.999362
985.358824	0.999130
985.655543	0.999170
985.952224	0.999824
986.248869	0.999822
986.545478	1.000729
986.842050	0.999795
987.138586	0.998771
987.435086	0.999591
987.731549	1.001246
988.027975	1.000254
988.324366	0.998783
988.620719	1.000891
988.917037	0.999282
989.213318	0.999894
989.509563	0.998745
989.805772	1.000017
990.101944	0.999043
990.398080	0.999714
990.694180	0.999663
990.990244	0.999376
991.286271	0.999993
991.582262	0.999656
991.878217	0.999210
992.174136	1.000966
992.470019	0.999027
992.765865	1.000663
993.061676	0.999596
993.357450	0.999698
993.653188	1.001181
993.948890	0.999591
994.244556	0.998173
994.540186	0.999012
994.835780	0.998683
995.131337	0.999688
995.426859	1.000425
995.722345	0.998728
996.017795	1.000151
996.313208	0.998976
996.608586	0.999760
996.903928	1.000068
997.199234	0.999264
997.494504	1.000172
997.789738	0.999406
998.084936	1.000752
998.380099	0.997919
998.675225	1.000345
998.970316	1.000141
999.265371	0.999940
999.560390	0.998719
999.855373	0.999553
1000.150320	0.999572
1000.445232	1.000164
1000.740108	0.999976
1001.034948	0.999013
1001.329752	1.000759
1001.624521	0.999967
1001.919254	0.999692
1002.213951	0.999677
1002.508613	0.998854
1002.803239	0.999367
1003.097829	0.999885
1003.392384	0.999640
1003.686903	1.000498
1003.981386	1.000357
1004.275834	1.001017
1004.570246	0.998046
1004.864623	1.000336
1005.158964	0.999945
1005.453270	0.999052
1005.747540	0.998087
1006.041775	1.001212
1006.335974	0.999864
1006.630138	0.998926
1006.924266	0.998493
1007.218359	0.999178
1007.512416	1.000562
1007.806438	0.999499
1008.100425	1.000172
1008.394376	0.999748
1008.688292	0.999453
1008.982172	0.998860
1009.276017	1.000573
1009.569827	1.001022
1009.863602	0.999650
1010.157341	0.999705
1010.451045	0.998969
1010.744714	1.001035
1011.038347	0.999553
1011.331945	0.999367
1011.625508	0.999521
1011.919036	1.000634
1012.212528	0.999230
1012.505986	0.999130
1012.799408	0.999433
1013.092795	0.999163
1013.386147	1.000773
1013.679464	0.999731
1013.972745	0.999673
1014.265992	0.999657
1014.559204	0.999245
1014.852380	1.001392
1015.145521	0.999706
1015.438628	1.001172
1015.731699	0.999305
1016.024736	0.999897
1016.317737	0.999895
1016.610703	0.999800
1016.903635	0.999343
1017.196531	0.998955
1017.489393	0.998602
1017.782219	0.999777
1018.075011	0.997616
1018.367768	0.999225
1018.660490	0.999531
1018.953177	0.999531
1019.245829	0.999531
