Dividing Wavelength (nm)	Counts (n)	Blue Motor Position (mm): 23.500000	Red Motor Position (mm): 0.000000	
326.493990	1.002997
326.888308	1.002997
327.282561	1.002997
327.676750	1.001708
328.070874	1.003819
328.464933	1.002935
328.858929	1.003209
329.252859	1.001706
329.646726	1.001385
330.040528	1.001509
330.434265	1.002269
330.827938	1.002395
331.221547	1.002080
331.615091	1.002531
332.008571	1.003090
332.401986	1.000665
332.795338	1.001661
333.188625	1.001821
333.581847	1.000480
333.975006	1.002265
334.368100	1.002285
334.761129	1.000170
335.154095	1.002849
335.546996	1.000963
335.939833	0.999696
336.332606	0.998881
336.725315	0.998809
337.117960	1.000598
337.510540	0.999238
337.903056	1.000412
338.295508	1.000806
338.687896	1.001259
339.080220	0.999571
339.472480	0.999487
339.864676	1.000316
340.256807	0.999344
340.648875	1.000467
341.040879	0.999204
341.432818	1.000211
341.824694	0.999575
342.216506	1.000888
342.608253	0.999574
342.999937	0.998693
343.391557	0.999956
343.783113	1.000032
344.174605	0.999205
344.566033	0.999388
344.957397	1.001462
345.348697	0.999715
345.739934	1.000311
346.131106	0.999720
346.522215	0.999068
346.913260	0.999398
347.304241	0.998780
347.695159	1.000654
348.086012	0.998804
348.476802	0.999610
348.867528	0.999555
349.258191	0.998893
349.648789	0.999625
350.039324	0.999915
350.429796	0.998384
350.820203	0.997668
351.210548	0.999874
351.600828	0.998428
351.991045	0.999993
352.381198	0.999978
352.771288	0.998579
353.161314	0.999047
353.551276	0.998933
353.941175	0.997435
354.331010	0.999004
354.720782	0.998769
355.110490	0.998772
355.500135	0.998680
355.889717	0.997305
356.279235	0.998992
356.668689	0.999428
357.058080	0.998284
357.447408	0.998983
357.836672	0.998922
358.225873	0.998637
358.615010	0.997456
359.004084	0.997293
359.393095	0.999021
359.782043	0.997302
360.170927	0.999634
360.559748	0.998054
360.948505	0.998279
361.337199	0.997487
361.725830	0.998937
362.114398	0.997996
362.502903	0.997418
362.891344	0.997345
363.279722	0.998024
363.668037	0.997652
364.056289	0.997517
364.444478	0.997518
364.832603	0.997693
365.220665	0.998741
365.608665	0.996809
365.996601	0.997611
366.384474	0.995676
366.772284	0.997129
367.160031	0.996251
367.547715	0.995624
367.935336	0.995533
368.322893	0.994479
368.710388	0.992926
369.097820	0.991745
369.485189	0.989277
369.872495	0.987282
370.259738	0.984973
370.646918	0.982876
371.034035	0.981162
371.421090	0.977460
371.808081	0.972194
372.195010	0.969235
372.581875	0.965008
372.968678	0.960039
373.355418	0.956884
373.742096	0.949259
374.128710	0.943661
374.515262	0.940963
374.901751	0.934894
375.288177	0.929815
375.674540	0.922675
376.060841	0.917310
376.447079	0.910014
376.833254	0.903513
377.219367	0.897865
377.605417	0.886730
377.991404	0.884253
378.377329	0.876922
378.763191	0.870480
379.148991	0.861096
379.534727	0.854751
379.920402	0.846986
380.306013	0.841970
380.691563	0.829840
381.077049	0.823117
381.462474	0.819452
381.847835	0.807304
382.233134	0.803572
382.618371	0.803904
383.003545	0.785789
383.388657	0.784736
383.773706	0.775360
384.158693	0.772487
384.543618	0.766683
384.928480	0.758273
385.313280	0.747587
385.698017	0.747877
386.082692	0.735961
386.467305	0.734344
386.851856	0.729136
387.236344	0.723309
387.620770	0.718716
388.005133	0.712159
388.389435	0.706576
388.773674	0.704207
389.157851	0.695455
389.541965	0.694201
389.926018	0.699566
390.310008	0.687028
390.693936	0.684505
391.077802	0.676255
391.461606	0.677728
391.845348	0.667229
392.229027	0.666190
392.612645	0.664781
392.996200	0.651887
393.379694	0.644456
393.763125	0.634486
394.146494	0.638925
394.529801	0.630183
394.913047	0.622074
395.296230	0.627197
395.679351	0.618906
396.062410	0.616750
396.445408	0.619643
396.828343	0.613814
397.211217	0.609325
397.594028	0.621060
397.976778	0.611512
398.359466	0.609106
398.742092	0.603323
399.124656	0.615563
399.507158	0.603365
399.889598	0.601025
400.271977	0.592564
400.654294	0.596125
401.036549	0.594704
401.418742	0.599335
401.800874	0.585335
402.182944	0.581988
402.564952	0.574052
402.946898	0.575964
403.328783	0.576443
403.710606	0.587344
404.092367	0.562089
404.474067	0.567576
404.855705	0.566379
405.237282	0.574990
405.618797	0.561353
406.000250	0.556835
406.381642	0.547435
406.762972	0.552481
407.144240	0.551055
407.525447	0.551098
407.906593	0.543758
408.287677	0.538951
408.668700	0.547039
409.049661	0.541711
409.430560	0.536686
409.811399	0.545242
410.192176	0.527058
410.572891	0.534065
410.953545	0.522925
411.334138	0.536000
411.714669	0.528381
412.095139	0.540310
412.475547	0.524939
412.855894	0.526817
413.236180	0.524398
413.616405	0.531017
413.996568	0.521038
414.376670	0.527995
414.756711	0.532668
415.136691	0.528935
415.516609	0.520509
415.896466	0.516611
416.276262	0.513228
416.655997	0.514144
417.035670	0.495968
417.415283	0.488106
417.794834	0.492453
418.174324	0.497948
418.553753	0.507153
418.933121	0.489304
419.312428	0.483518
419.691674	0.488406
420.070859	0.477863
420.449983	0.485111
420.829045	0.473981
421.208047	0.483386
421.586988	0.476814
421.965867	0.476010
422.344686	0.464301
422.723444	0.476790
423.102141	0.493332
423.480777	0.466603
423.859352	0.487248
424.237866	0.464426
424.616319	0.465314
424.994712	0.456222
425.373044	0.467000
425.751314	0.454938
426.129524	0.470996
426.507673	0.454421
426.885762	0.447851
427.263789	0.453495
427.641756	0.463675
428.019662	0.453667
428.397508	0.453352
428.775292	0.457340
429.153016	0.448733
429.530679	0.455333
429.908282	0.449085
430.285824	0.458675
430.663305	0.436887
431.040726	0.458075
431.418086	0.457999
431.795385	0.450193
432.172624	0.449000
432.549802	0.449115
432.926920	0.448236
433.303977	0.447709
433.680974	0.444822
434.057910	0.443811
434.434786	0.442679
434.811601	0.445193
435.188355	0.428167
435.565050	0.437056
435.941683	0.438349
436.318257	0.422299
436.694770	0.423353
437.071222	0.421419
437.447614	0.426116
437.823946	0.432188
438.200218	0.421827
438.576429	0.431335
438.952580	0.424603
439.328670	0.420962
439.704700	0.427716
440.080670	0.428821
440.456580	0.410142
440.832429	0.418243
441.208218	0.429251
441.583947	0.418303
441.959616	0.417955
442.335224	0.423100
442.710773	0.413635
443.086261	0.411875
443.461689	0.425764
443.837057	0.415934
444.212365	0.405833
444.587612	0.413058
444.962800	0.402234
445.337927	0.404405
445.712995	0.430511
446.088002	0.392203
446.462949	0.402533
446.837837	0.407526
447.212664	0.396499
447.587431	0.388178
447.962139	0.358385
448.336786	0.317082
448.711374	0.327894
449.085901	0.371660
449.460369	0.376148
449.834776	0.379985
450.209124	0.359459
450.583412	0.351937
450.957640	0.344877
451.331808	0.356343
451.705917	0.379920
452.079965	0.385019
452.453954	0.372579
452.827883	0.379232
453.201752	0.374537
453.575562	0.385642
453.949311	0.374053
454.323001	0.380763
454.696632	0.376502
455.070202	0.368728
455.443713	0.361251
455.817164	0.355420
456.190556	0.351541
456.563888	0.348408
456.937160	0.346038
457.310373	0.363379
457.683526	0.362010
458.056619	0.368287
458.429653	0.368816
458.802628	0.372376
459.175542	0.366786
459.548398	0.349653
459.921194	0.342494
460.293930	0.342627
460.666607	0.320981
461.039224	0.309506
461.411782	0.305742
461.784280	0.305265
462.156719	0.309265
462.529099	0.314190
462.901419	0.330884
463.273680	0.335495
463.645882	0.335270
464.018024	0.341928
464.390106	0.335366
464.762130	0.320807
465.134094	0.305273
465.505999	0.275926
465.877845	0.247840
466.249631	0.235621
466.621358	0.243161
466.993026	0.257632
467.364634	0.264711
467.736184	0.274168
468.107674	0.284147
468.479105	0.284932
468.850477	0.292585
469.221790	0.300654
469.593043	0.311781
469.964238	0.318104
470.335373	0.318982
470.706449	0.318976
471.077467	0.321024
471.448425	0.287124
471.819324	0.265460
472.190164	0.266145
472.560945	0.295651
472.931667	0.319390
473.302330	0.325633
473.672934	0.339127
474.043479	0.330292
474.413965	0.334050
474.784393	0.340537
475.154761	0.338406
475.525070	0.338323
475.895321	0.346752
476.265513	0.344331
476.635645	0.342525
477.005719	0.346372
477.375734	0.346720
477.745691	0.343190
478.115588	0.344041
478.485427	0.341877
478.855207	0.334767
479.224928	0.325068
479.594591	0.318544
479.964194	0.325312
480.333739	0.328868
480.703226	0.335283
481.072653	0.338935
481.442022	0.341958
481.811333	0.343613
482.180584	0.351423
482.549777	0.361081
482.918912	0.369219
483.287988	0.374657
483.657005	0.379708
484.025964	0.390587
484.394864	0.393846
484.763706	0.400399
485.132489	0.409695
485.501213	0.416666
485.869879	0.420351
486.238487	0.430452
486.607036	0.433815
486.975527	0.445210
487.343959	0.447268
487.712333	0.453797
488.080648	0.460642
488.448905	0.467637
488.817104	0.474661
489.185244	0.476944
489.553326	0.482935
489.921350	0.483140
490.289315	0.478240
490.657222	0.480768
491.025070	0.490013
491.392861	0.498362
491.760593	0.509643
492.128267	0.520937
492.495883	0.531363
492.863440	0.543290
493.230939	0.554729
493.598380	0.562956
493.965763	0.572344
494.333088	0.579243
494.700354	0.588835
495.067563	0.593777
495.434713	0.605102
495.801805	0.610066
496.168839	0.618885
496.535815	0.627828
496.902733	0.633213
497.269593	0.642370
497.636395	0.646794
498.003139	0.656131
498.369825	0.664267
498.736453	0.669933
499.103023	0.677440
499.469535	0.684745
499.835989	0.691587
500.202385	0.699283
500.568723	0.707336
500.935003	0.711871
501.301226	0.722577
501.667390	0.725017
502.033497	0.731556
502.399546	0.739086
502.765537	0.746787
503.131470	0.752807
503.497345	0.757991
503.863163	0.767311
504.228923	0.771788
504.594625	0.776513
504.960269	0.784978
505.325856	0.789763
505.691385	0.796891
506.056856	0.801279
506.422270	0.807369
506.787625	0.813168
507.152924	0.818601
507.518164	0.823451
507.883347	0.830325
508.248472	0.835320
508.613540	0.838927
508.978550	0.845954
509.343503	0.850148
509.708398	0.855675
510.073236	0.859809
510.438016	0.863586
510.802738	0.868859
511.167403	0.873505
511.532010	0.878756
511.896561	0.880437
512.261053	0.884630
512.625488	0.889864
512.989866	0.894338
513.354186	0.897091
513.718449	0.901986
514.082655	0.904924
514.446803	0.909102
514.810894	0.912836
515.174927	0.916088
515.538904	0.919205
515.902822	0.921600
516.266684	0.925590
516.630488	0.928802
516.994235	0.931435
517.357925	0.934260
517.721558	0.936629
518.085133	0.939544
518.448651	0.941892
518.812112	0.944960
519.175516	0.947281
519.538863	0.948870
519.902152	0.951349
520.265385	0.954070
520.628560	0.955488
520.991678	0.957768
521.354739	0.960645
521.717743	0.961511
522.080690	0.962830
522.443580	0.965307
522.806413	0.965988
523.169189	0.967925
523.531908	0.969096
523.894569	0.970710
524.257174	0.972256
524.619722	0.973221
524.982213	0.974451
525.344647	0.975856
525.707025	0.976471
526.069345	0.977614
526.431608	0.979138
526.793815	0.979692
527.155964	0.981638
527.518057	0.981892
527.880093	0.982446
528.242072	0.983207
528.603995	0.983577
528.965860	0.985156
529.327669	0.985080
529.689421	0.985311
530.051117	0.986766
530.412755	0.987294
530.774337	0.986983
531.135862	0.988625
531.497331	0.987992
531.858743	0.989212
532.220098	0.988894
532.581396	0.990416
532.942638	0.989758
533.303824	0.990464
533.664953	0.990104
534.026025	0.991881
534.387040	0.991326
534.747999	0.990968
535.108902	0.991576
535.469748	0.992398
535.830537	0.992447
536.191270	0.992611
536.551947	0.992633
536.912567	0.992087
537.273131	0.992907
537.633638	0.992648
537.994089	0.993298
538.354483	0.993832
538.714821	0.993257
539.075103	0.993497
539.435328	0.993634
539.795497	0.993888
540.155609	0.993503
540.515665	0.994234
540.875665	0.994243
541.235609	0.994729
541.595496	0.993585
541.955328	0.994747
542.315102	0.994664
542.674821	0.994867
543.034483	0.994787
543.394090	0.993404
543.753640	0.994245
544.113134	0.994016
544.472571	0.994918
544.831953	0.994911
545.191278	0.994752
545.550548	0.994673
545.909761	0.994484
546.268918	0.995843
546.628019	0.995925
546.987064	0.994954
547.346053	0.995021
547.704986	0.995634
548.063863	0.995020
548.422684	0.995194
548.781449	0.995086
549.140158	0.996372
549.498811	0.995240
549.857408	0.995366
550.215949	0.994724
550.574434	0.995012
550.932864	0.995589
551.291237	0.994833
551.649555	0.996041
552.007817	0.995892
552.366022	0.996015
552.724173	0.995525
553.082267	0.995051
553.440305	0.995677
553.798288	0.995247
554.156215	0.995322
554.514086	0.995881
554.871902	0.995141
555.229661	0.994914
555.587365	0.995507
555.945014	0.995999
556.302606	0.995225
556.660143	0.996381
557.017625	0.996106
557.375050	0.995590
557.732421	0.995669
558.089735	0.995341
558.446994	0.995122
558.804197	0.996308
559.161345	0.995389
559.518437	0.995732
559.875474	0.996324
560.232455	0.996025
560.589381	0.995904
560.946251	0.995823
561.303065	0.995458
561.659825	0.995900
562.016528	0.996255
562.373177	0.996356
562.729770	0.996040
563.086307	0.994797
563.442789	0.996466
563.799216	0.995695
564.155587	0.996372
564.511904	0.996430
564.868164	0.995089
565.224370	0.995910
565.580520	0.995760
565.936615	0.995976
566.292654	0.995753
566.648638	0.996052
567.004567	0.995330
567.360441	0.996160
567.716260	0.995448
568.072023	0.995677
568.427732	0.996154
568.783385	0.995703
569.138982	0.996083
569.494525	0.995486
569.850013	0.996136
570.205445	0.996342
570.560823	0.995936
570.916145	0.995535
571.271412	0.996061
571.626625	0.995917
571.981782	0.996348
572.336884	0.996816
572.691931	0.995512
573.046923	0.996531
573.401860	0.995986
573.756743	0.996109
574.111570	0.995748
574.466342	0.996510
574.821059	0.995974
575.175722	0.996226
575.530330	0.996334
575.884882	0.995748
576.239380	0.996258
576.593823	0.995945
576.948211	0.996596
577.302544	0.995629
577.656823	0.996775
578.011047	0.995449
578.365216	0.997029
578.719330	0.995986
579.073389	0.995804
579.427394	0.996102
579.781344	0.996070
580.135239	0.995203
580.489080	0.995434
580.842866	0.995756
581.196597	0.995841
581.550273	0.995806
581.903895	0.995998
582.257463	0.995133
582.610975	0.995489
582.964434	0.995545
583.317837	0.995982
583.671186	0.996488
584.024481	0.995738
584.377721	0.995245
584.730906	0.995821
585.084037	0.996327
585.437113	0.996335
585.790135	0.995780
586.143103	0.996187
586.496016	0.995816
586.848874	0.996493
587.201679	0.996201
587.554428	0.996408
587.907124	0.996126
588.259765	0.997346
588.612352	0.996845
588.964884	0.995927
589.317362	0.996193
589.669786	0.996213
590.022155	0.995710
590.374470	0.996336
590.726731	0.995444
591.078937	0.996412
591.431090	0.995881
591.783188	0.995242
592.135232	0.996445
592.487222	0.995553
592.839157	0.995801
593.191038	0.995567
593.542866	0.996422
593.894639	0.995151
594.246358	0.995955
594.598022	0.995582
594.949633	0.995922
595.301190	0.995333
595.652692	0.995806
596.004141	0.995854
596.355535	0.995579
596.706876	0.995901
597.058162	0.996329
597.409395	0.995903
597.760573	0.995599
598.111698	0.996094
598.462768	0.995229
598.813785	0.995268
599.164748	0.996175
599.515657	0.995996
599.866511	0.995949
600.217312	0.996384
600.568060	0.995774
600.918753	0.995689
601.269392	0.995877
601.619978	0.996520
601.970510	0.995783
602.320988	0.995890
602.671412	0.996035
603.021783	0.996233
603.372100	0.996557
603.722363	0.995593
604.072572	0.996074
604.422728	0.995241
604.772830	0.995261
605.122878	0.996290
605.472872	0.996568
605.822813	0.995154
606.172701	0.996711
606.522534	0.996303
606.872314	0.996963
607.222041	0.995909
607.571714	0.996231
607.921333	0.996173
608.270899	0.996144
608.620411	0.996181
608.969870	0.996449
609.319276	0.995609
609.668627	0.996466
610.017926	0.995739
610.367171	0.995881
610.716362	0.996051
611.065500	0.996213
611.414585	0.995972
611.763616	0.995008
612.112594	0.995773
612.461518	0.995248
612.810389	0.995750
613.159207	0.996116
613.507971	0.995752
613.856682	0.997304
614.205340	0.994601
614.553945	0.996435
614.902496	0.995791
615.250994	0.995948
615.599439	0.995778
615.947830	0.995201
616.296169	0.995843
616.644454	0.995924
616.992686	0.995399
617.340864	0.995687
617.688990	0.995144
618.037063	0.995575
618.385082	0.994725
618.733048	0.995090
619.080961	0.995255
619.428821	0.995687
619.776628	0.995126
620.124382	0.995904
620.472083	0.996079
620.819731	0.996284
621.167326	0.995441
621.514868	0.996158
621.862357	0.995626
622.209793	0.995864
622.557176	0.995172
622.904506	0.995725
623.251783	0.995088
623.599007	0.996275
623.946179	0.995361
624.293297	0.996431
624.640363	0.996095
624.987376	0.995470
625.334336	0.995876
625.681243	0.995763
626.028097	0.996703
626.374899	0.995883
626.721647	0.996128
627.068343	0.996200
627.414987	0.996877
627.761577	0.995012
628.108115	0.994729
628.454600	0.996169
628.801032	0.996062
629.147412	0.995876
629.493739	0.996921
629.840014	0.996230
630.186236	0.995283
630.532405	0.995838
630.878521	0.995058
631.224585	0.995525
631.570597	0.995663
631.916556	0.995466
632.262462	0.994940
632.608316	0.996210
632.954117	0.995111
633.299866	0.996313
633.645562	0.995529
633.991206	0.996225
634.336797	0.995944
634.682336	0.996190
635.027823	0.995446
635.373257	0.996528
635.718639	0.995909
636.063968	0.995269
636.409245	0.995726
636.754470	0.995691
637.099642	0.996260
637.444762	0.996095
637.789829	0.995275
638.134845	0.996329
638.479808	0.995342
638.824719	0.995662
639.169577	0.995959
639.514383	0.996459
639.859137	0.995675
640.203839	0.995652
640.548489	0.995646
640.893086	0.995919
641.237632	0.996137
641.582125	0.995882
641.926566	0.996483
642.270955	0.995166
642.615292	0.995635
642.959576	0.996408
643.303809	0.996835
643.647990	0.995630
643.992118	0.996290
644.336195	0.995792
644.680219	0.995735
645.024192	0.995464
645.368112	0.994585
645.711981	0.996189
646.055797	0.995270
646.399562	0.995300
646.743274	0.995723
647.086935	0.995175
647.430544	0.994818
647.774101	0.994797
648.117606	0.996220
648.461059	0.995969
648.804460	0.994998
649.147810	0.994992
649.491108	0.994946
649.834354	0.995151
650.177548	0.996527
650.520690	0.995063
650.863781	0.995387
651.206820	0.995625
651.549807	0.995766
651.892742	0.996090
652.235626	0.996322
652.578458	0.996514
652.921238	0.996050
653.263967	0.995786
653.606644	0.995311
653.949269	0.995706
654.291843	0.995558
654.634365	0.996566
654.976836	0.995250
655.319255	0.996764
655.661622	0.995445
656.003938	0.995203
656.346203	0.995521
656.688416	0.996460
657.030577	0.995428
657.372687	0.995613
657.714746	0.995776
658.056753	0.995423
658.398708	0.995275
658.740612	0.996131
659.082465	0.995036
659.424266	0.995535
659.766016	0.994566
660.107715	0.996161
660.449362	0.994734
660.790958	0.995275
661.132503	0.995994
661.473996	0.994904
661.815438	0.996292
662.156829	0.996000
662.498168	0.996338
662.839456	0.994771
663.180693	0.996094
663.521879	0.995532
663.863013	0.995239
664.204097	0.995560
664.545129	0.995152
664.886110	0.996221
665.227040	0.995655
665.567918	0.994786
665.908746	0.994740
666.249522	0.995717
666.590248	0.994441
666.930922	0.994997
667.271545	0.994892
667.612118	0.995530
667.952639	0.995593
668.293109	0.995083
668.633528	0.994967
668.973896	0.994725
669.314213	0.995119
669.654480	0.995346
669.994695	0.995615
670.334859	0.995265
670.674973	0.995560
671.015035	0.995074
671.355047	0.995303
671.695008	0.995435
672.034918	0.994951
672.374777	0.995571
672.714585	0.995677
673.054342	0.995380
673.394049	0.994718
673.733705	0.995179
674.073310	0.995151
674.412864	0.995281
674.752368	0.994334
675.091820	0.996027
675.431223	0.995435
675.770574	0.994913
676.109875	0.994328
676.449125	0.994649
676.788324	0.994619
677.127473	0.995880
677.466571	0.995886
677.805619	0.995980
678.144616	0.995489
678.483562	0.996023
678.822458	0.995058
679.161303	0.994686
679.500098	0.995308
679.838842	0.995906
680.177535	0.995452
680.516179	0.995046
680.854771	0.995179
681.193314	0.995216
681.531805	0.995457
681.870247	0.995469
682.208638	0.994453
682.546978	0.994148
682.885268	0.994673
683.223508	0.994774
683.561697	0.994672
683.899836	0.994345
684.237925	0.994488
684.575963	0.995269
684.913951	0.994360
685.251889	0.994268
685.589776	0.994302
685.927614	0.994727
686.265401	0.995232
686.603137	0.994552
686.940824	0.994015
687.278460	0.994788
687.616046	0.994698
687.953582	0.994220
688.291068	0.995020
688.628504	0.994354
688.965889	0.993768
689.303224	0.992734
689.640510	0.993911
689.977745	0.994776
690.314930	0.994313
690.652065	0.994885
690.989150	0.993419
691.326185	0.995146
691.663170	0.994328
692.000105	0.993735
692.336990	0.994607
692.673825	0.995031
693.010610	0.994333
693.347345	0.995058
693.684030	0.994278
694.020665	0.994648
694.357251	0.994729
694.693786	0.994806
695.030272	0.994542
695.366707	0.995563
695.703093	0.994968
696.039429	0.994120
696.375716	0.995091
696.711952	0.995358
697.048139	0.995866
697.384276	0.994780
697.720363	0.995615
698.056400	0.994289
698.392388	0.993428
698.728326	0.995055
699.064214	0.995998
699.400053	0.995177
699.735842	0.996702
700.071581	0.995610
700.407270	0.994488
700.742910	0.996288
701.078501	0.994968
701.414042	0.996354
701.749533	0.994363
702.084974	0.995343
702.420366	0.996470
702.755709	0.995347
703.091002	0.995383
703.426246	0.995805
703.761440	0.996127
704.096584	0.995035
704.431679	0.994231
704.766725	0.994961
705.101721	0.995407
705.436668	0.995642
705.771565	0.994985
706.106413	0.994844
706.441212	0.995061
706.775961	0.995494
707.110661	0.995465
707.445311	0.995952
707.779913	0.996274
708.114465	0.996640
708.448967	0.996317
708.783421	0.995294
709.117825	0.995397
709.452180	0.996245
709.786485	0.995470
710.120742	0.995145
710.454949	0.993755
710.789107	0.994730
711.123216	0.993870
711.457275	0.994208
711.791286	0.994349
712.125247	0.995508
712.459159	0.994196
712.793023	0.993874
713.126837	0.995195
713.460602	0.993841
713.794318	0.992634
714.127985	0.994399
714.461602	0.995641
714.795171	0.994745
715.128691	0.994222
715.462162	0.995700
715.795584	0.994487
716.128957	0.995359
716.462281	0.994648
716.795556	0.994589
717.128782	0.995203
717.461960	0.994969
717.795088	0.994785
718.128167	0.994972
718.461198	0.995334
718.794180	0.995626
719.127113	0.995771
719.459997	0.994327
719.792833	0.994955
720.125619	0.994731
720.458357	0.995360
720.791046	0.996046
721.123686	0.995480
721.456278	0.995596
721.788821	0.995530
722.121315	0.996356
722.453761	0.996022
722.786158	0.995345
723.118506	0.996175
723.450805	0.994142
723.783056	0.995421
724.115259	0.995320
724.447412	0.996352
724.779518	0.995675
725.111574	0.994007
725.443582	0.996133
725.775542	0.996167
726.107453	0.996278
726.439315	0.996119
726.771129	0.995573
727.102895	0.995795
727.434612	0.995475
727.766281	0.995051
728.097901	0.994447
728.429473	0.995311
728.760996	0.994343
729.092471	0.995689
729.423897	0.995433
729.755276	0.994891
730.086606	0.994798
730.417887	0.995531
730.749120	0.995505
731.080305	0.994165
731.411442	0.993538
731.742530	0.993585
732.073570	0.993672
732.404562	0.995510
732.735506	0.994336
733.066401	0.994367
733.397249	0.994450
733.728048	0.994794
734.058798	0.994689
734.389501	0.995562
734.720156	0.995651
735.050762	0.996437
735.381320	0.995668
735.711831	0.995069
736.042293	0.995671
736.372707	0.995959
736.703073	0.994786
737.033391	0.995506
737.363661	0.995146
737.693883	0.995133
738.024056	0.995007
738.354182	0.995187
738.684260	0.994774
739.014290	0.995389
739.344272	0.994971
739.674207	0.994050
740.004093	0.994957
740.333931	0.994960
740.663722	0.995057
740.993464	0.995697
741.323159	0.994656
741.652806	0.995112
741.982405	0.994875
742.311956	0.996067
742.641460	0.995872
742.970915	0.994739
743.300323	0.994587
743.629683	0.994793
743.958996	0.996172
744.288260	0.994467
744.617477	0.994898
744.946647	0.995215
745.275768	0.996770
745.604842	0.995474
745.933869	0.995746
746.262847	0.996084
746.591778	0.995691
746.920662	0.995888
747.249498	0.996214
747.578286	0.996133
747.907027	0.995483
748.235720	0.995642
748.564365	0.995022
748.892963	0.995519
749.221514	0.995891
749.550017	0.995424
749.878473	0.996221
750.206881	0.996001
750.535242	0.995039
750.863555	0.994658
751.191821	0.995327
751.520039	0.995489
751.848210	0.994804
752.176334	0.995416
752.504411	0.995526
752.832440	0.995025
753.160421	0.996082
753.488356	0.995763
753.816243	0.995993
754.144082	0.995170
754.471875	0.996675
754.799620	0.996519
755.127318	0.996235
755.454969	0.995952
755.782572	0.996925
756.110129	0.995600
756.437638	0.997810
756.765100	0.996088
757.092515	0.994676
757.419882	0.997136
757.747203	0.996067
758.074477	0.995938
758.401703	0.995311
758.728882	0.995853
759.056014	0.995958
759.383099	0.995751
759.710138	0.995476
760.037129	0.995523
760.364073	0.995740
760.690970	0.994656
761.017820	0.994770
761.344623	0.995482
761.671379	0.996760
761.998088	0.996078
762.324751	0.995177
762.651366	0.994311
762.977935	0.993900
763.304456	0.992624
763.630931	0.990160
763.957359	0.990130
764.283740	0.992026
764.610074	0.992884
764.936362	0.992863
765.262602	0.993560
765.588796	0.995609
765.914943	0.993969
766.241044	0.995724
766.567097	0.995152
766.893104	0.995852
767.219064	0.995260
767.544978	0.995638
767.870845	0.996442
768.196665	0.996175
768.522438	0.996669
768.848165	0.996977
769.173846	0.996555
769.499479	0.997337
769.825066	0.996968
770.150607	0.997202
770.476101	0.997531
770.801548	0.996418
771.126949	0.997502
771.452303	0.996977
771.777611	0.997406
772.102872	0.997117
772.428087	0.995962
772.753256	0.996545
773.078378	0.996706
773.403453	0.995889
773.728482	0.998830
774.053465	0.997547
774.378401	0.997456
774.703291	0.998704
775.028135	0.998183
775.352932	0.996000
775.677683	0.997126
776.002388	0.997802
776.327046	0.996499
776.651658	0.998290
776.976224	0.998427
777.300743	0.997646
777.625216	0.997297
777.949643	0.997539
778.274024	0.996797
778.598359	0.997555
778.922647	0.997899
779.246889	0.997905
779.571086	0.997140
779.895236	0.997472
780.219339	0.999032
780.543397	0.996470
780.867409	0.998018
781.191374	0.997150
781.515294	0.997820
781.839167	0.998091
782.162995	0.997407
782.486776	0.997181
782.810511	0.997645
783.134201	0.998141
783.457844	0.998081
783.781441	0.997271
784.104993	0.997057
784.428498	0.997632
784.751958	0.999509
785.075372	0.998449
785.398739	0.997494
785.722061	0.996704
786.045337	0.998084
786.368568	0.997686
786.691752	0.997084
787.014891	0.997343
787.337983	0.996140
787.661030	0.996959
787.984031	0.997647
788.306987	0.997642
788.629897	0.994751
788.952760	0.996756
789.275579	0.996494
789.598351	0.996895
789.921078	0.998050
790.243759	0.997083
790.566395	0.996616
790.888984	0.996781
791.211529	0.997525
791.534027	0.998145
791.856480	0.996249
792.178888	0.996863
792.501249	0.997846
792.823566	0.998915
793.145836	0.997544
793.468062	0.997282
793.790241	0.998014
794.112375	0.997306
794.434464	0.997183
794.756507	0.997581
795.078505	0.998241
795.400457	0.998366
795.722364	0.997499
796.044226	0.997374
796.366042	0.996672
796.687812	0.996309
797.009538	0.997616
797.331218	0.997177
797.652852	0.997878
797.974442	0.996649
798.295986	0.997733
798.617484	0.996552
798.938938	0.998081
799.260346	0.997129
799.581709	0.997286
799.903026	0.998424
800.224299	0.997150
800.545526	0.997511
800.866708	0.997995
801.187845	0.998531
801.508936	0.997615
801.829983	0.998099
802.150984	0.997425
802.471940	0.997447
802.792851	0.997748
803.113717	0.999330
803.434538	0.998962
803.755314	0.999640
804.076045	0.997844
804.396731	0.998243
804.717372	0.997048
805.037967	0.998819
805.358518	0.998273
805.679024	0.997061
805.999485	0.997881
806.319901	0.998027
806.640272	0.998887
806.960598	0.997416
807.280879	0.998376
807.601115	0.998678
807.921306	0.998905
808.241453	0.998135
808.561554	0.998068
808.881611	0.998290
809.201623	0.998282
809.521590	0.997678
809.841513	0.998031
810.161390	0.997120
810.481223	0.997003
810.801011	0.997635
811.120755	0.998149
811.440453	0.996784
811.760107	0.998153
812.079716	0.998339
812.399281	0.997541
812.718801	0.998413
813.038276	0.998835
813.357707	0.997944
813.677093	0.999004
813.996434	0.997891
814.315731	0.999567
814.634983	0.998938
814.954191	0.998391
815.273354	0.997163
815.592473	0.997206
815.911547	0.998328
816.230577	0.997245
816.549562	0.997973
816.868502	0.996407
817.187399	0.997450
817.506250	0.998441
817.825058	0.996699
818.143821	0.997136
818.462539	0.996757
818.781213	0.998162
819.099843	0.997333
819.418429	0.995757
819.736970	0.995786
820.055466	0.993825
820.373919	0.994182
820.692327	0.991489
821.010691	0.991587
821.329011	0.988364
821.647286	0.985292
821.965517	0.981627
822.283704	0.978130
822.601847	0.976576
822.919945	0.977558
823.237999	0.979343
823.556010	0.981534
823.873976	0.982936
824.191897	0.985838
824.509775	0.987550
824.827609	0.988987
825.145398	0.989928
825.463144	0.988721
825.780845	0.989294
826.098502	0.990194
826.416116	0.988760
826.733685	0.986480
827.051210	0.984332
827.368692	0.984985
827.686129	0.985765
828.003522	0.989174
828.320872	0.990123
828.638177	0.992414
828.955439	0.994537
829.272656	0.994247
829.589830	0.994209
829.906960	0.996325
830.224046	0.995436
830.541088	0.996053
830.858086	0.996247
831.175041	0.997369
831.491952	0.996958
831.808819	0.997098
832.125642	0.996195
832.442421	0.996511
832.759157	0.996280
833.075849	0.993655
833.392497	0.992056
833.709101	0.990338
834.025662	0.990062
834.342179	0.991306
834.658653	0.992735
834.975083	0.993396
835.291469	0.993421
835.607811	0.994304
835.924110	0.995313
836.240366	0.996922
836.556578	0.997858
836.872746	0.998457
837.188871	0.997601
837.504952	0.998075
837.820990	0.998569
838.136984	0.997910
838.452935	0.998418
838.768842	0.998525
839.084706	0.997499
839.400526	0.997526
839.716303	0.995496
840.032037	0.995313
840.347727	0.994836
840.663373	0.996046
840.978977	0.996594
841.294537	0.998154
841.610054	0.998084
841.925527	0.998758
842.240957	0.999180
842.556344	0.998198
842.871687	0.998997
843.186987	0.999533
843.502244	0.999474
843.817458	0.998159
844.132629	0.999310
844.447756	0.998964
844.762840	0.999246
845.077881	1.000096
845.392879	0.998791
845.707833	0.999487
846.022745	0.999519
846.337613	0.999385
846.652438	0.999177
846.967221	0.999495
847.281960	0.999463
847.596656	1.000557
847.911309	1.000344
848.225919	0.999462
848.540485	0.999292
848.855009	1.000716
849.169490	1.000238
849.483928	1.000092
849.798323	0.998768
850.112675	1.000992
850.426984	1.000293
850.741251	1.000074
851.055474	0.999839
851.369654	1.000267
851.683792	0.999517
851.997887	0.999429
852.311938	1.000722
852.625947	0.999507
852.939914	0.999335
853.253837	1.001167
853.567718	1.001436
853.881555	0.999542
854.195350	1.000291
854.509103	0.999070
854.822812	0.999842
855.136479	1.000190
855.450103	0.999888
855.763685	1.000934
856.077224	1.000585
856.390720	0.999896
856.704173	0.999762
857.017584	1.000479
857.330953	1.000220
857.644278	1.000693
857.957561	0.999859
858.270802	0.999849
858.584000	0.999934
858.897155	1.000114
859.210268	1.000966
859.523339	1.000039
859.836367	1.000686
860.149352	0.998715
860.462295	0.999888
860.775195	0.998976
861.088054	1.000204
861.400869	1.000642
861.713642	0.999149
862.026373	1.000042
862.339062	0.999995
862.651708	1.000448
862.964312	0.999391
863.276873	0.998778
863.589392	0.999965
863.901869	0.999378
864.214303	1.000308
864.526696	0.999596
864.839045	0.999465
865.151353	0.999491
865.463619	0.998713
865.775842	0.999039
866.088023	1.001429
866.400162	1.000328
866.712258	1.000804
867.024313	1.000109
867.336325	1.000386
867.648296	0.999677
867.960224	0.999815
868.272110	0.999754
868.583954	1.000730
868.895755	1.000875
869.207515	0.998942
869.519233	0.999408
869.830909	0.998557
870.142542	0.998153
870.454134	0.999856
870.765684	0.998802
871.077191	0.998783
871.388657	0.999413
871.700081	0.999266
872.011463	1.000287
872.322803	0.998998
872.634101	0.998582
872.945357	0.998875
873.256571	0.998292
873.567744	0.998373
873.878874	0.998403
874.189963	0.998114
874.501010	1.000202
874.812015	0.998521
875.122979	0.999328
875.433900	0.998702
875.744780	0.998359
876.055618	0.999241
876.366415	0.998399
876.677169	0.997671
876.987882	0.998283
877.298554	0.997674
877.609183	0.998911
877.919771	0.998847
878.230317	0.998847
878.540822	0.997534
878.851285	0.997137
879.161707	0.997108
879.472087	0.997374
879.782425	0.994911
880.092722	0.993370
880.402977	0.991023
880.713191	0.986725
881.023363	0.981582
881.333494	0.980038
881.643583	0.980610
881.953631	0.980336
882.263637	0.979870
882.573602	0.982254
882.883526	0.983870
883.193408	0.985816
883.503248	0.987673
883.813048	0.988415
884.122806	0.990128
884.432522	0.991542
884.742197	0.993672
885.051831	0.994560
885.361424	0.994029
885.670975	0.996210
885.980485	0.995274
886.289954	0.995532
886.599382	0.996413
886.908768	0.996924
887.218113	0.996379
887.527417	0.997464
887.836680	0.997777
888.145901	0.998369
888.455082	0.998380
888.764221	0.998507
889.073319	0.997940
889.382376	0.999132
889.691392	0.997825
890.000366	0.998990
890.309300	0.998725
890.618193	0.997829
890.927044	0.998713
891.235855	0.998548
891.544625	0.997662
891.853353	0.997854
892.162041	0.998533
892.470687	0.999214
892.779293	0.997649
893.087858	0.996626
893.396381	0.996212
893.704864	0.994955
894.013306	0.993721
894.321707	0.992819
894.630068	0.991421
894.938387	0.990061
895.246665	0.990582
895.554903	0.990365
895.863100	0.992557
896.171256	0.993125
896.479371	0.994340
896.787446	0.994613
897.095480	0.995734
897.403473	0.996571
897.711425	0.996467
898.019336	0.997282
898.327207	0.997118
898.635038	0.996554
898.942827	0.997842
899.250576	0.997849
899.558284	0.998637
899.865952	0.997293
900.173579	0.997512
900.481165	0.997777
900.788711	0.998532
901.096216	0.998042
901.403681	0.997756
901.711105	0.997918
902.018489	0.998295
902.325832	0.998129
902.633135	0.998009
902.940397	0.998025
903.247619	0.997179
903.554800	0.994963
903.861941	0.992830
904.169041	0.989731
904.476101	0.987282
904.783121	0.987203
905.090100	0.988402
905.397039	0.990589
905.703938	0.991697
906.010796	0.993784
906.317614	0.994986
906.624391	0.997170
906.931129	0.996773
907.237826	0.996727
907.544483	0.997377
907.851099	0.998386
908.157675	0.997199
908.464211	0.999319
908.770707	0.998182
909.077163	0.998852
909.383578	0.998872
909.689954	0.999200
909.996289	0.999080
910.302584	0.998827
910.608839	0.999963
910.915054	0.998679
911.221229	1.001305
911.527363	0.998582
911.833458	0.999040
912.139513	0.999982
912.445527	0.999836
912.751502	0.999643
913.057436	0.998989
913.363331	1.000241
913.669186	0.999686
913.975000	0.998415
914.280775	0.997401
914.586510	0.997184
914.892205	0.994936
915.197859	0.993607
915.503475	0.992176
915.809050	0.990225
916.114585	0.987588
916.420081	0.988951
916.725536	0.989700
917.030952	0.990789
917.336328	0.990225
917.641665	0.991052
917.946961	0.991787
918.252218	0.992763
918.557435	0.994086
918.862612	0.995481
919.167750	0.996354
919.472848	0.997559
919.777906	0.997303
920.082925	0.998492
920.387904	0.998794
920.692843	0.997318
920.997743	0.997706
921.302603	0.998970
921.607423	0.997593
921.912204	0.997905
922.216946	0.999644
922.521647	0.999985
922.826310	0.998910
923.130932	0.999995
923.435516	0.999555
923.740059	0.999337
924.044564	0.999499
924.349028	0.997860
924.653454	1.000056
924.957840	0.999694
925.262186	1.000021
925.566493	0.999949
925.870761	1.000091
926.174989	0.999728
926.479178	1.000639
926.783328	1.000277
927.087438	1.000513
927.391509	0.998806
927.695541	1.001329
927.999533	1.000293
928.303486	1.001235
928.607400	0.999411
928.911275	0.999578
929.215110	1.001952
929.518906	1.001034
929.822663	1.001653
930.126381	1.001185
930.430060	1.000535
930.733699	1.001515
931.037299	1.001731
931.340861	1.001390
931.644383	1.000364
931.947866	1.000815
932.251309	1.001326
932.554714	0.999930
932.858080	1.000501
933.161407	0.999955
933.464694	1.001329
933.767943	0.998957
934.071153	1.001035
934.374323	1.001387
934.677455	1.000423
934.980548	1.000130
935.283602	1.001358
935.586617	1.000621
935.889593	1.001843
936.192530	1.002149
936.495428	1.000112
936.798287	1.000635
937.101108	1.002066
937.403890	1.000512
937.706632	1.001203
938.009336	1.001178
938.312002	1.000889
938.614628	1.000884
938.917216	0.999645
939.219765	0.999931
939.522275	1.001020
939.824747	1.000167
940.127179	0.999239
940.429573	1.001441
940.731929	0.999789
941.034246	0.999066
941.336524	0.998947
941.638763	0.999381
941.940964	0.999791
942.243126	0.999640
942.545250	1.000034
942.847335	0.999972
943.149381	1.000892
943.451389	1.000076
943.753359	1.000392
944.055290	1.001346
944.357182	1.000330
944.659036	1.000112
944.960851	1.000813
945.262628	1.001261
945.564367	1.000574
945.866067	0.999669
946.167729	1.000531
946.469352	1.000735
946.770937	0.998419
947.072484	1.001399
947.373992	1.001562
947.675462	1.000449
947.976893	1.001040
948.278286	1.002565
948.579641	1.001394
948.880958	1.001540
949.182236	1.000644
949.483476	1.000839
949.784678	1.000569
950.085841	1.000450
950.386967	0.999749
950.688054	1.001393
950.989103	0.998800
951.290114	0.999505
951.591087	1.000479
951.892021	0.999555
952.192917	1.000989
952.493776	0.999743
952.794596	0.999957
953.095378	1.000092
953.396122	1.000131
953.696828	0.999916
953.997496	1.000487
954.298126	1.000823
954.598718	1.000592
954.899272	1.001214
955.199788	0.999445
955.500266	1.001373
955.800706	1.000908
956.101108	1.000328
956.401472	1.002243
956.701798	1.000717
957.002087	1.001069
957.302337	1.000516
957.602550	1.001222
957.902724	1.000466
958.202861	1.000344
958.502960	1.000630
958.803022	1.002087
959.103045	1.001033
959.403031	1.002076
959.702979	1.002105
960.002889	1.000325
960.302762	1.000882
960.602596	1.001886
960.902393	1.001804
961.202153	1.001845
961.501875	1.000830
961.801559	1.001423
962.101205	1.000848
962.400814	1.001576
962.700385	1.002353
962.999918	1.001594
963.299414	1.000582
963.598873	1.000906
963.898293	1.002069
964.197677	1.001058
964.497022	1.000671
964.796331	1.001333
965.095601	1.002822
965.394835	1.000770
965.694030	1.002695
965.993189	1.001622
966.292309	1.001447
966.591393	1.000424
966.890439	1.003512
967.189447	1.001601
967.488419	1.000844
967.787353	1.001364
968.086249	1.001703
968.385108	1.001220
968.683930	1.002486
968.982714	1.001339
969.281462	1.001648
969.580172	1.000877
969.878844	1.001444
970.177480	1.000407
970.476078	1.002038
970.774639	1.001893
971.073162	1.001548
971.371649	1.001522
971.670098	1.000551
971.968510	1.001600
972.266885	0.999835
972.565223	1.002119
972.863524	0.999647
973.161788	1.001530
973.460014	1.002554
973.758204	0.999865
974.056356	1.000423
974.354471	1.000462
974.652550	1.002174
974.950591	1.001845
975.248595	1.000896
975.546563	1.001992
975.844493	1.002210
976.142386	1.001105
976.440243	1.002222
976.738062	1.002087
977.035845	1.000583
977.333590	1.002838
977.631299	1.000722
977.928971	1.001155
978.226606	1.000254
978.524204	0.999865
978.821765	1.001936
979.119290	1.002925
979.416777	1.001234
979.714228	1.001452
980.011642	1.001328
980.309020	1.000788
980.606360	1.000961
980.903664	1.001326
981.200931	1.001632
981.498162	1.001897
981.795356	1.002470
982.092513	0.999624
982.389633	1.001433
982.686717	1.000786
982.983764	1.000531
983.280775	1.000683
983.577749	1.001710
983.874686	0.999479
984.171587	1.000356
984.468451	1.000402
984.765279	1.001866
985.062070	1.000634
985.358824	1.000968
985.655543	1.001436
985.952224	1.001344
986.248869	1.000741
986.545478	1.003543
986.842050	1.001049
987.138586	1.000889
987.435086	1.000758
987.731549	1.002982
988.027975	1.002237
988.324366	1.000712
988.620719	1.002787
988.917037	0.999687
989.213318	1.002201
989.509563	1.000961
989.805772	1.002377
990.101944	1.002973
990.398080	1.001696
990.694180	1.001213
990.990244	1.001072
991.286271	1.000997
991.582262	1.001829
991.878217	1.001397
992.174136	1.002085
992.470019	1.001925
992.765865	1.002516
993.061676	1.001303
993.357450	1.002058
993.653188	1.003480
993.948890	1.001553
994.244556	1.001238
994.540186	1.000782
994.835780	1.001754
995.131337	1.002993
995.426859	1.001182
995.722345	1.001685
996.017795	1.002706
996.313208	1.001167
996.608586	1.000388
996.903928	1.002110
997.199234	1.000316
997.494504	1.002702
997.789738	1.000913
998.084936	1.001566
998.380099	0.999779
998.675225	1.002438
998.970316	1.001889
999.265371	1.000708
999.560390	1.000759
999.855373	1.001361
1000.150320	1.002611
1000.445232	1.001140
1000.740108	1.001651
1001.034948	1.001520
1001.329752	1.002253
1001.624521	1.001528
1001.919254	1.002014
1002.213951	1.001601
1002.508613	1.001702
1002.803239	1.002470
1003.097829	1.001463
1003.392384	1.002403
1003.686903	1.000340
1003.981386	1.001146
1004.275834	1.001840
1004.570246	1.000313
1004.864623	1.003286
1005.158964	1.001683
1005.453270	1.002537
1005.747540	1.001415
1006.041775	1.001085
1006.335974	1.001718
1006.630138	1.002383
1006.924266	1.000297
1007.218359	0.999219
1007.512416	1.002884
1007.806438	1.001769
1008.100425	1.000974
1008.394376	1.002863
1008.688292	1.000914
1008.982172	1.001022
1009.276017	1.002583
1009.569827	1.002872
1009.863602	1.000871
1010.157341	1.001739
1010.451045	1.001172
1010.744714	1.004024
1011.038347	1.002708
1011.331945	1.001333
1011.625508	1.002274
1011.919036	1.001375
1012.212528	1.001770
1012.505986	1.001043
1012.799408	1.001683
1013.092795	1.001373
1013.386147	1.002171
1013.679464	1.001392
1013.972745	1.001829
1014.265992	1.001249
1014.559204	1.001026
1014.852380	1.002648
1015.145521	1.001602
1015.438628	1.001776
1015.731699	1.000759
1016.024736	1.002692
1016.317737	1.001973
1016.610703	1.001648
1016.903635	1.001679
1017.196531	1.001103
1017.489393	1.001612
1017.782219	1.001835
1018.075011	1.000932
1018.367768	0.999762
1018.660490	1.002308
1018.953177	1.002308
1019.245829	1.002308
