Dividing Wavelength (nm)	Counts (n)	Blue Motor Position (mm): 41.100000	Red Motor Position (mm): 0.000000	
326.493990	0.999540
326.888308	0.999540
327.282561	0.999540
327.676750	1.000577
328.070874	1.000647
328.464933	0.999428
328.858929	1.000139
329.252859	0.998834
329.646726	0.999634
330.040528	0.999703
330.434265	0.999559
330.827938	0.999287
331.221547	1.000070
331.615091	1.000929
332.008571	1.001393
332.401986	0.998379
332.795338	0.999530
333.188625	1.000810
333.581847	0.999503
333.975006	1.000707
334.368100	1.000187
334.761129	0.998277
335.154095	1.000667
335.546996	1.000573
335.939833	0.999627
336.332606	0.999985
336.725315	0.998666
337.117960	1.000640
337.510540	0.999698
337.903056	0.998438
338.295508	1.000188
338.687896	1.000081
339.080220	0.999675
339.472480	1.000213
339.864676	1.001338
340.256807	0.998203
340.648875	1.001083
341.040879	1.000314
341.432818	1.000382
341.824694	1.000410
342.216506	1.000137
342.608253	0.999856
342.999937	0.999316
343.391557	0.999404
343.783113	1.001444
344.174605	1.000558
344.566033	0.999360
344.957397	1.000226
345.348697	1.000700
345.739934	1.000308
346.131106	0.999937
346.522215	0.998935
346.913260	0.999673
347.304241	0.999029
347.695159	0.999092
348.086012	0.998917
348.476802	0.999611
348.867528	0.998739
349.258191	0.999346
349.648789	0.999638
350.039324	0.999694
350.429796	1.000193
350.820203	0.998070
351.210548	0.999653
351.600828	0.998827
351.991045	0.999813
352.381198	0.999649
352.771288	0.999764
353.161314	1.000218
353.551276	0.998852
353.941175	0.998035
354.331010	0.999144
354.720782	1.000877
355.110490	0.999628
355.500135	0.999487
355.889717	0.998910
356.279235	0.998605
356.668689	0.999579
357.058080	0.998420
357.447408	0.997733
357.836672	0.998594
358.225873	0.998508
358.615010	0.997814
359.004084	0.998134
359.393095	0.999420
359.782043	0.999183
360.170927	0.999026
360.559748	0.998785
360.948505	0.997960
361.337199	0.998461
361.725830	0.998667
362.114398	0.998837
362.502903	0.997924
362.891344	0.998055
363.279722	0.998512
363.668037	0.998282
364.056289	0.996958
364.444478	0.998911
364.832603	0.998787
365.220665	0.998124
365.608665	0.998092
365.996601	0.998615
366.384474	0.997444
366.772284	0.998114
367.160031	0.995191
367.547715	0.997639
367.935336	0.996449
368.322893	0.995072
368.710388	0.993373
369.097820	0.992567
369.485189	0.989171
369.872495	0.987971
370.259738	0.986916
370.646918	0.983043
371.034035	0.981594
371.421090	0.977979
371.808081	0.973102
372.195010	0.971901
372.581875	0.965575
372.968678	0.963005
373.355418	0.957521
373.742096	0.950421
374.128710	0.946420
374.515262	0.941167
374.901751	0.937210
375.288177	0.930986
375.674540	0.924976
376.060841	0.917883
376.447079	0.911787
376.833254	0.905852
377.219367	0.901173
377.605417	0.888858
377.991404	0.885850
378.377329	0.879450
378.763191	0.872337
379.148991	0.864062
379.534727	0.856470
379.920402	0.847812
380.306013	0.845423
380.691563	0.832400
381.077049	0.826337
381.462474	0.821575
381.847835	0.810367
382.233134	0.805764
382.618371	0.807348
383.003545	0.788919
383.388657	0.787894
383.773706	0.779864
384.158693	0.776216
384.543618	0.772145
384.928480	0.764379
385.313280	0.755363
385.698017	0.755410
386.082692	0.747163
386.467305	0.746831
386.851856	0.744511
387.236344	0.741846
387.620770	0.739135
388.005133	0.737021
388.389435	0.735227
388.773674	0.736779
389.157851	0.732887
389.541965	0.735764
389.926018	0.745531
390.310008	0.738468
390.693936	0.741088
391.077802	0.739242
391.461606	0.746699
391.845348	0.743751
392.229027	0.749009
392.612645	0.753623
392.996200	0.751248
393.379694	0.752680
393.763125	0.752280
394.146494	0.763917
394.529801	0.765398
394.913047	0.767216
395.296230	0.779416
395.679351	0.781263
396.062410	0.788800
396.445408	0.799735
396.828343	0.803921
397.211217	0.810116
397.594028	0.824690
397.976778	0.829270
398.359466	0.835881
398.742092	0.842883
399.124656	0.854080
399.507158	0.857842
399.889598	0.865417
400.271977	0.870439
400.654294	0.878205
401.036549	0.886938
401.418742	0.894795
401.800874	0.898163
402.182944	0.903489
402.564952	0.908809
402.946898	0.915927
403.328783	0.923015
403.710606	0.930733
404.092367	0.932683
404.474067	0.939035
404.855705	0.943744
405.237282	0.949097
405.618797	0.951579
406.000250	0.955799
406.381642	0.957931
406.762972	0.963108
407.144240	0.967517
407.525447	0.969379
407.906593	0.972095
408.287677	0.976230
408.668700	0.979275
409.049661	0.980880
409.430560	0.982781
409.811399	0.985092
410.192176	0.987202
410.572891	0.988123
410.953545	0.988624
411.334138	0.991111
411.714669	0.992337
412.095139	0.992421
412.475547	0.993263
412.855894	0.994485
413.236180	0.995133
413.616405	0.995714
413.996568	0.996750
414.376670	0.996434
414.756711	0.996543
415.136691	0.997350
415.516609	0.996638
415.896466	0.998256
416.276262	0.997890
416.655997	0.998158
417.035670	0.998754
417.415283	0.998684
417.794834	0.998642
418.174324	0.999340
418.553753	0.999280
418.933121	0.998834
419.312428	1.000604
419.691674	1.000154
420.070859	0.999840
420.449983	0.999107
420.829045	0.998723
421.208047	0.999942
421.586988	0.998709
421.965867	0.998294
422.344686	0.999084
422.723444	0.998838
423.102141	0.999640
423.480777	0.998009
423.859352	0.999265
424.237866	0.999230
424.616319	0.999857
424.994712	0.999330
425.373044	0.999186
425.751314	0.999116
426.129524	1.000076
426.507673	0.998599
426.885762	0.999308
427.263789	0.998539
427.641756	0.999141
428.019662	0.999463
428.397508	0.999629
428.775292	0.998749
429.153016	0.998600
429.530679	0.999030
429.908282	1.000068
430.285824	0.999434
430.663305	0.999168
431.040726	0.999644
431.418086	0.999349
431.795385	1.000537
432.172624	1.000548
432.549802	0.999582
432.926920	1.000402
433.303977	0.999583
433.680974	0.999683
434.057910	0.998936
434.434786	0.999687
434.811601	1.000638
435.188355	1.000065
435.565050	0.999974
435.941683	0.999406
436.318257	0.998776
436.694770	0.999508
437.071222	1.000455
437.447614	0.999515
437.823946	1.000094
438.200218	0.999318
438.576429	0.998898
438.952580	0.999309
439.328670	0.998584
439.704700	0.999269
440.080670	0.999724
440.456580	0.999727
440.832429	0.999976
441.208218	1.000083
441.583947	1.000351
441.959616	0.998709
442.335224	1.000740
442.710773	1.000717
443.086261	1.000327
443.461689	1.000010
443.837057	0.999324
444.212365	1.000124
444.587612	1.000573
444.962800	1.000138
445.337927	0.999879
445.712995	0.999466
446.088002	0.999614
446.462949	0.999601
446.837837	1.001208
447.212664	0.999593
447.587431	0.999949
447.962139	0.999412
448.336786	0.999012
448.711374	0.999547
449.085901	1.000585
449.460369	1.000159
449.834776	0.999593
450.209124	0.999702
450.583412	1.000333
450.957640	0.999616
451.331808	1.000704
451.705917	0.999345
452.079965	0.999467
452.453954	1.000257
452.827883	0.999109
453.201752	1.000037
453.575562	0.999154
453.949311	1.000238
454.323001	1.000177
454.696632	1.000068
455.070202	0.999478
455.443713	0.999397
455.817164	0.999539
456.190556	0.999481
456.563888	1.000727
456.937160	0.999439
457.310373	0.999313
457.683526	1.000328
458.056619	1.000804
458.429653	0.998941
458.802628	0.999294
459.175542	0.998898
459.548398	0.999673
459.921194	1.000070
460.293930	1.000551
460.666607	0.999914
461.039224	0.999363
461.411782	0.999109
461.784280	0.999239
462.156719	1.000492
462.529099	0.999216
462.901419	0.999565
463.273680	0.999112
463.645882	0.999617
464.018024	1.001002
464.390106	0.999323
464.762130	0.999587
465.134094	0.999395
465.505999	1.000390
465.877845	0.999287
466.249631	0.999437
466.621358	0.999267
466.993026	0.999746
467.364634	0.999450
467.736184	0.999663
468.107674	0.999377
468.479105	0.999044
468.850477	0.999829
469.221790	0.999429
469.593043	0.999682
469.964238	0.999998
470.335373	0.998558
470.706449	0.999394
471.077467	1.000192
471.448425	0.999998
471.819324	0.999434
472.190164	0.999283
472.560945	0.999634
472.931667	0.999938
473.302330	0.999656
473.672934	1.000080
474.043479	0.999739
474.413965	0.999600
474.784393	0.999536
475.154761	0.999198
475.525070	0.999047
475.895321	0.999889
476.265513	0.999709
476.635645	1.000080
477.005719	0.999290
477.375734	0.999197
477.745691	0.999698
478.115588	0.999146
478.485427	0.999747
478.855207	0.998925
479.224928	0.999385
479.594591	0.999574
479.964194	0.999840
480.333739	0.999723
480.703226	0.998644
481.072653	0.998693
481.442022	0.999493
481.811333	0.999051
482.180584	0.999512
482.549777	1.000186
482.918912	0.999707
483.287988	0.998855
483.657005	1.000047
484.025964	0.999350
484.394864	0.999570
484.763706	0.999341
485.132489	0.999717
485.501213	0.999474
485.869879	0.999554
486.238487	0.999463
486.607036	1.000227
486.975527	0.999655
487.343959	0.999037
487.712333	0.999374
488.080648	0.999343
488.448905	0.999721
488.817104	0.998945
489.185244	0.999236
489.553326	0.999533
489.921350	0.999683
490.289315	0.999389
490.657222	0.998682
491.025070	0.999762
491.392861	0.999429
491.760593	0.999561
492.128267	0.999744
492.495883	0.999068
492.863440	0.999126
493.230939	0.999621
493.598380	0.999584
493.965763	0.999450
494.333088	0.998623
494.700354	0.999632
495.067563	0.999261
495.434713	1.000182
495.801805	0.999653
496.168839	1.000327
496.535815	0.999581
496.902733	0.999467
497.269593	0.998433
497.636395	0.998554
498.003139	0.999272
498.369825	0.999728
498.736453	0.999268
499.103023	0.999591
499.469535	0.999835
499.835989	0.999332
500.202385	0.999006
500.568723	0.999524
500.935003	0.999098
501.301226	0.999332
501.667390	0.999092
502.033497	0.999525
502.399546	0.999119
502.765537	0.999482
503.131470	0.999798
503.497345	0.999433
503.863163	0.999910
504.228923	0.998965
504.594625	0.999268
504.960269	0.999680
505.325856	0.999907
505.691385	0.999922
506.056856	0.999496
506.422270	0.999858
506.787625	0.999557
507.152924	0.999785
507.518164	0.999079
507.883347	0.999318
508.248472	1.000443
508.613540	0.999034
508.978550	0.999616
509.343503	0.999181
509.708398	0.999949
510.073236	0.999480
510.438016	0.999531
510.802738	0.999799
511.167403	0.999230
511.532010	0.999745
511.896561	0.999853
512.261053	0.999128
512.625488	0.999591
512.989866	0.998925
513.354186	0.999348
513.718449	0.999577
514.082655	0.999237
514.446803	0.999396
514.810894	0.999505
515.174927	0.999652
515.538904	0.999649
515.902822	1.000110
516.266684	1.000032
516.630488	0.999696
516.994235	0.999354
517.357925	0.999810
517.721558	0.999902
518.085133	0.998974
518.448651	0.999230
518.812112	1.000553
519.175516	0.999661
519.538863	0.999031
519.902152	0.999762
520.265385	0.999796
520.628560	0.999141
520.991678	0.999474
521.354739	1.000219
521.717743	0.999606
522.080690	0.999011
522.443580	0.999575
522.806413	0.998642
523.169189	0.999795
523.531908	0.999154
523.894569	0.999105
524.257174	0.999297
524.619722	0.999419
524.982213	0.999390
525.344647	0.999520
525.707025	0.998808
526.069345	0.999371
526.431608	0.999547
526.793815	0.999930
527.155964	0.999487
527.518057	1.000396
527.880093	0.999725
528.242072	0.999993
528.603995	1.000063
528.965860	0.999805
529.327669	0.999708
529.689421	0.999450
530.051117	0.999355
530.412755	0.999818
530.774337	1.000147
531.135862	0.999945
531.497331	0.999342
531.858743	0.999451
532.220098	0.999287
532.581396	0.999012
532.942638	0.999783
533.303824	1.000105
533.664953	0.999574
534.026025	1.000646
534.387040	0.999408
534.747999	0.999682
535.108902	0.999603
535.469748	1.000591
535.830537	0.999819
536.191270	0.999781
536.551947	0.999136
536.912567	0.999513
537.273131	1.000111
537.633638	0.999377
537.994089	0.999938
538.354483	0.999684
538.714821	0.999872
539.075103	0.999806
539.435328	0.999877
539.795497	0.999763
540.155609	0.999979
540.515665	0.999485
540.875665	0.999837
541.235609	1.000136
541.595496	0.998988
541.955328	0.999692
542.315102	0.999773
542.674821	0.999756
543.034483	1.000350
543.394090	0.999180
543.753640	1.000123
544.113134	0.999533
544.472571	1.000164
544.831953	1.000441
545.191278	0.999520
545.550548	0.998896
545.909761	0.999381
546.268918	1.000077
546.628019	1.000391
546.987064	0.999697
547.346053	0.999306
547.704986	0.999376
548.063863	1.000106
548.422684	0.999303
548.781449	0.999527
549.140158	0.999742
549.498811	0.999851
549.857408	0.998769
550.215949	0.999008
550.574434	0.999505
550.932864	0.999649
551.291237	0.998770
551.649555	1.000068
552.007817	0.999880
552.366022	1.000671
552.724173	1.000251
553.082267	0.999681
553.440305	0.999438
553.798288	0.999443
554.156215	0.999675
554.514086	0.999572
554.871902	0.999724
555.229661	0.998787
555.587365	0.999983
555.945014	1.000113
556.302606	0.999224
556.660143	1.000372
557.017625	1.000450
557.375050	0.999856
557.732421	0.999639
558.089735	0.999567
558.446994	0.999439
558.804197	1.000037
559.161345	0.999144
559.518437	0.999852
559.875474	1.000028
560.232455	0.999876
560.589381	0.999954
560.946251	0.999736
561.303065	0.999761
561.659825	0.999304
562.016528	1.000257
562.373177	0.999274
562.729770	0.999313
563.086307	0.998816
563.442789	0.999983
563.799216	0.999273
564.155587	0.999898
564.511904	1.000435
564.868164	0.998780
565.224370	0.999687
565.580520	1.000360
565.936615	0.999681
566.292654	0.999570
566.648638	1.000107
567.004567	0.999723
567.360441	0.999973
567.716260	0.999180
568.072023	0.998955
568.427732	0.999944
568.783385	0.999207
569.138982	0.999492
569.494525	0.999224
569.850013	1.000421
570.205445	0.999802
570.560823	0.999629
570.916145	0.999280
571.271412	0.999962
571.626625	0.999891
571.981782	0.999884
572.336884	1.000146
572.691931	1.000210
573.046923	0.999426
573.401860	0.999499
573.756743	0.999721
574.111570	0.999965
574.466342	1.000083
574.821059	0.999414
575.175722	1.000022
575.530330	0.999449
575.884882	0.999556
576.239380	0.999834
576.593823	0.999420
576.948211	0.999898
577.302544	1.000000
577.656823	0.999765
578.011047	0.998920
578.365216	0.999431
578.719330	1.000264
579.073389	0.999343
579.427394	0.999506
579.781344	1.000000
580.135239	0.999009
580.489080	0.999561
580.842866	1.000247
581.196597	0.998781
581.550273	0.999416
581.903895	0.999251
582.257463	0.998912
582.610975	0.999576
582.964434	1.000077
583.317837	0.999153
583.671186	1.000034
584.024481	0.999154
584.377721	0.999505
584.730906	1.000242
585.084037	1.000422
585.437113	1.000508
585.790135	1.000059
586.143103	0.999364
586.496016	0.999561
586.848874	0.999899
587.201679	0.999434
587.554428	0.999984
587.907124	0.999723
588.259765	1.000043
588.612352	0.999927
588.964884	0.999474
589.317362	1.000029
589.669786	0.999257
590.022155	0.999803
590.374470	0.999719
590.726731	0.998944
591.078937	1.000382
591.431090	0.999567
591.783188	0.999645
592.135232	0.999913
592.487222	1.000328
592.839157	0.999851
593.191038	1.000036
593.542866	0.999411
593.894639	0.999143
594.246358	0.999791
594.598022	0.999273
594.949633	1.000351
595.301190	0.999889
595.652692	0.999318
596.004141	0.999676
596.355535	0.999681
596.706876	1.000029
597.058162	0.999875
597.409395	1.000596
597.760573	0.999475
598.111698	1.000022
598.462768	0.999060
598.813785	0.999232
599.164748	0.999903
599.515657	1.000774
599.866511	1.000276
600.217312	1.000588
600.568060	0.999471
600.918753	0.999896
601.269392	0.999678
601.619978	0.999385
601.970510	0.999772
602.320988	0.999727
602.671412	0.999400
603.021783	1.000060
603.372100	1.000288
603.722363	0.999851
604.072572	0.999082
604.422728	0.999223
604.772830	0.998797
605.122878	1.000253
605.472872	1.000449
605.822813	0.999187
606.172701	0.999272
606.522534	1.000040
606.872314	1.000029
607.222041	0.999568
607.571714	0.999952
607.921333	0.999288
608.270899	0.999423
608.620411	1.000471
608.969870	1.000347
609.319276	1.000257
609.668627	1.000558
610.017926	0.999464
610.367171	0.999148
610.716362	0.999665
611.065500	0.998848
611.414585	0.999977
611.763616	0.998848
612.112594	0.999315
612.461518	0.999119
612.810389	0.999480
613.159207	0.998964
613.507971	0.998923
613.856682	1.000537
614.205340	0.998982
614.553945	0.999526
614.902496	0.999592
615.250994	1.000092
615.599439	1.000059
615.947830	0.999618
616.296169	0.999312
616.644454	0.999558
616.992686	0.999602
617.340864	0.999874
617.688990	0.999000
618.037063	0.999892
618.385082	0.999352
618.733048	0.998842
619.080961	0.999145
619.428821	0.999765
619.776628	0.999439
620.124382	0.999937
620.472083	1.000042
620.819731	1.000595
621.167326	1.000230
621.514868	1.000428
621.862357	0.999222
622.209793	0.999762
622.557176	0.998812
622.904506	0.998681
623.251783	1.000029
623.599007	0.999789
623.946179	0.998935
624.293297	1.000589
624.640363	0.999558
624.987376	0.998216
625.334336	0.999109
625.681243	0.999327
626.028097	0.999813
626.374899	0.998912
626.721647	1.000656
627.068343	0.999413
627.414987	0.999533
627.761577	0.999104
628.108115	0.999160
628.454600	1.000280
628.801032	1.000188
629.147412	0.999962
629.493739	1.000491
629.840014	0.999359
630.186236	0.999770
630.532405	0.999441
630.878521	0.999122
631.224585	0.999558
631.570597	0.999102
631.916556	0.999331
632.262462	0.998588
632.608316	1.000208
632.954117	0.999141
633.299866	0.999368
633.645562	0.999657
633.991206	0.999221
634.336797	0.999619
634.682336	0.999703
635.027823	0.999713
635.373257	0.999997
635.718639	0.999829
636.063968	0.999779
636.409245	0.998023
636.754470	1.000049
637.099642	0.999933
637.444762	1.000566
637.789829	0.999392
638.134845	0.999613
638.479808	0.999007
638.824719	1.000333
639.169577	0.999026
639.514383	1.000370
639.859137	0.999845
640.203839	0.998690
640.548489	0.999153
640.893086	0.999067
641.237632	0.999368
641.582125	0.999478
641.926566	1.000179
642.270955	0.999844
642.615292	0.999193
642.959576	0.999309
643.303809	0.999887
643.647990	0.999254
643.992118	1.000193
644.336195	0.999241
644.680219	0.999791
645.024192	0.998540
645.368112	0.998669
645.711981	0.999812
646.055797	0.999407
646.399562	0.998112
646.743274	1.000266
647.086935	0.999724
647.430544	0.998918
647.774101	0.998560
648.117606	0.999522
648.461059	0.999878
648.804460	0.998994
649.147810	0.999060
649.491108	0.998658
649.834354	0.999511
650.177548	0.999056
650.520690	0.999919
650.863781	0.998769
651.206820	0.998838
651.549807	0.999273
651.892742	1.000250
652.235626	0.999454
652.578458	0.999045
652.921238	0.999477
653.263967	1.000881
653.606644	0.998955
653.949269	0.999130
654.291843	0.998489
654.634365	0.999692
654.976836	0.998585
655.319255	1.000545
655.661622	0.999138
656.003938	0.999027
656.346203	0.999476
656.688416	0.999787
657.030577	0.999774
657.372687	0.999055
657.714746	0.999182
658.056753	0.999123
658.398708	0.998285
658.740612	1.000074
659.082465	0.999566
659.424266	0.999359
659.766016	0.998926
660.107715	0.999855
660.449362	0.998696
660.790958	0.999391
661.132503	0.999595
661.473996	0.999179
661.815438	0.999714
662.156829	0.999731
662.498168	0.999597
662.839456	0.998052
663.180693	0.999840
663.521879	0.999537
663.863013	0.999880
664.204097	0.998995
664.545129	0.998694
664.886110	0.999008
665.227040	0.998852
665.567918	0.998770
665.908746	0.999603
666.249522	0.998391
666.590248	0.999219
666.930922	0.998743
667.271545	0.999050
667.612118	0.999059
667.952639	0.999830
668.293109	0.999636
668.633528	0.999065
668.973896	0.998887
669.314213	0.998636
669.654480	0.999212
669.994695	0.997891
670.334859	0.998620
670.674973	0.999021
671.015035	0.999463
671.355047	0.999144
671.695008	0.997948
672.034918	0.998126
672.374777	0.998686
672.714585	0.999095
673.054342	0.998971
673.394049	0.998362
673.733705	0.999096
674.073310	0.999327
674.412864	0.999063
674.752368	0.997833
675.091820	1.000410
675.431223	0.999621
675.770574	0.998137
676.109875	0.998577
676.449125	0.999211
676.788324	0.998475
677.127473	0.999899
677.466571	0.999051
677.805619	0.998157
678.144616	0.999555
678.483562	0.998597
678.822458	0.999213
679.161303	0.998462
679.500098	0.999715
679.838842	0.998665
680.177535	0.999033
680.516179	0.998132
680.854771	0.999075
681.193314	0.999265
681.531805	0.998902
681.870247	0.998727
682.208638	0.998486
682.546978	0.998325
682.885268	0.998484
683.223508	0.999436
683.561697	0.998262
683.899836	0.998869
684.237925	0.998279
684.575963	0.998535
684.913951	0.998546
685.251889	0.998332
685.589776	0.998957
685.927614	0.998920
686.265401	0.998648
686.603137	0.997879
686.940824	0.998437
687.278460	0.999039
687.616046	0.998740
687.953582	0.998727
688.291068	0.999235
688.628504	0.998438
688.965889	0.998141
689.303224	0.997902
689.640510	0.998967
689.977745	0.998286
690.314930	0.998213
690.652065	0.998884
690.989150	0.998226
691.326185	0.998670
691.663170	0.998993
692.000105	0.998857
692.336990	0.997888
692.673825	0.998590
693.010610	0.998962
693.347345	0.999306
693.684030	0.998340
694.020665	0.998646
694.357251	0.997890
694.693786	0.999876
695.030272	0.997160
695.366707	0.997846
695.703093	0.997719
696.039429	0.998695
696.375716	0.998477
696.711952	0.998175
697.048139	0.998202
697.384276	0.998146
697.720363	0.998696
698.056400	0.997018
698.392388	0.997497
698.728326	0.998371
699.064214	0.999665
699.400053	0.999069
699.735842	0.999926
700.071581	0.998508
700.407270	0.998095
700.742910	0.999130
701.078501	0.997733
701.414042	0.998337
701.749533	0.997738
702.084974	0.999043
702.420366	0.998752
702.755709	0.998645
703.091002	0.998063
703.426246	0.999392
703.761440	0.997901
704.096584	0.998214
704.431679	0.997780
704.766725	0.998761
705.101721	0.997898
705.436668	0.998252
705.771565	0.997943
706.106413	0.997168
706.441212	0.997756
706.775961	0.998819
707.110661	0.997721
707.445311	0.998594
707.779913	0.998996
708.114465	0.999277
708.448967	0.999017
708.783421	0.998919
709.117825	0.998410
709.452180	0.998260
709.786485	0.999130
710.120742	0.998133
710.454949	0.998223
710.789107	0.998603
711.123216	0.998205
711.457275	0.997600
711.791286	0.997721
712.125247	0.999215
712.459159	0.998190
712.793023	0.997848
713.126837	0.998569
713.460602	0.997373
713.794318	0.996882
714.127985	0.997764
714.461602	0.997919
714.795171	0.998013
715.128691	0.998259
715.462162	0.998348
715.795584	0.998021
716.128957	0.998116
716.462281	0.998647
716.795556	0.997472
717.128782	0.998591
717.461960	0.997502
717.795088	0.997694
718.128167	0.998819
718.461198	0.998377
718.794180	0.998974
719.127113	0.997934
719.459997	0.997916
719.792833	0.998299
720.125619	0.997804
720.458357	0.997927
720.791046	0.999127
721.123686	0.997573
721.456278	0.998436
721.788821	0.997690
722.121315	0.998913
722.453761	0.998319
722.786158	0.998638
723.118506	0.997617
723.450805	0.997722
723.783056	0.999110
724.115259	0.997983
724.447412	0.999501
724.779518	0.999308
725.111574	0.997166
725.443582	0.998358
725.775542	0.997666
726.107453	0.998631
726.439315	0.998720
726.771129	0.998465
727.102895	0.998254
727.434612	0.999010
727.766281	0.997949
728.097901	0.997510
728.429473	0.998471
728.760996	0.997425
729.092471	0.997389
729.423897	0.998148
729.755276	0.997830
730.086606	0.997814
730.417887	0.998679
730.749120	0.998432
731.080305	0.998229
731.411442	0.997283
731.742530	0.997198
732.073570	0.997626
732.404562	0.997719
732.735506	0.997754
733.066401	0.998247
733.397249	0.997991
733.728048	0.998396
734.058798	0.997729
734.389501	0.998428
734.720156	0.998065
735.050762	0.998809
735.381320	0.997922
735.711831	0.996803
736.042293	0.997785
736.372707	0.999164
736.703073	0.997649
737.033391	0.998436
737.363661	0.998404
737.693883	0.998178
738.024056	0.996989
738.354182	0.998349
738.684260	0.997549
739.014290	0.998186
739.344272	0.998642
739.674207	0.998314
740.004093	0.998201
740.333931	0.997568
740.663722	0.997878
740.993464	0.998725
741.323159	0.997872
741.652806	0.997874
741.982405	0.998788
742.311956	0.998642
742.641460	0.998132
742.970915	0.997879
743.300323	0.996852
743.629683	0.997730
743.958996	0.999997
744.288260	0.997685
744.617477	0.998555
744.946647	0.998506
745.275768	0.998801
745.604842	0.997130
745.933869	0.998664
746.262847	0.999040
746.591778	0.996656
746.920662	0.998576
747.249498	0.998900
747.578286	0.998957
747.907027	0.997533
748.235720	0.998382
748.564365	0.997804
748.892963	0.997100
749.221514	0.997822
749.550017	0.998001
749.878473	0.997736
750.206881	0.999351
750.535242	0.998019
750.863555	0.997342
751.191821	0.998089
751.520039	0.997991
751.848210	0.997370
752.176334	0.998112
752.504411	0.997596
752.832440	0.998113
753.160421	0.997876
753.488356	0.997786
753.816243	0.997590
754.144082	0.997639
754.471875	0.998966
754.799620	0.999467
755.127318	0.998332
755.454969	0.997498
755.782572	1.000570
756.110129	0.997610
756.437638	0.999251
756.765100	0.998979
757.092515	0.998322
757.419882	0.999156
757.747203	0.998601
758.074477	0.998356
758.401703	0.997784
758.728882	0.998214
759.056014	0.998877
759.383099	0.998130
759.710138	0.997658
760.037129	0.997996
760.364073	0.998330
760.690970	0.997590
761.017820	0.997939
761.344623	0.998739
761.671379	0.998573
761.998088	0.998331
762.324751	0.997877
762.651366	0.996383
762.977935	0.996345
763.304456	0.997411
763.630931	0.996261
763.957359	0.996249
764.283740	0.997055
764.610074	0.996822
764.936362	0.997106
765.262602	0.998848
765.588796	0.997735
765.914943	0.996790
766.241044	0.997689
766.567097	0.997848
766.893104	0.997704
767.219064	0.997227
767.544978	0.997363
767.870845	0.999760
768.196665	0.997828
768.522438	0.998191
768.848165	0.998523
769.173846	0.998441
769.499479	0.999431
769.825066	0.998986
770.150607	0.998770
770.476101	0.998806
770.801548	0.998086
771.126949	0.999387
771.452303	0.998707
771.777611	0.999362
772.102872	0.999689
772.428087	0.997780
772.753256	0.998288
773.078378	0.998627
773.403453	0.998055
773.728482	1.000158
774.053465	0.998230
774.378401	0.997750
774.703291	0.999158
775.028135	0.998992
775.352932	0.997309
775.677683	0.999007
776.002388	0.998548
776.327046	0.998016
776.651658	0.999988
776.976224	1.000081
777.300743	0.998195
777.625216	0.998290
777.949643	0.999031
778.274024	0.998251
778.598359	0.998290
778.922647	0.998740
779.246889	0.999129
779.571086	0.998787
779.895236	0.999027
780.219339	0.999049
780.543397	0.997719
780.867409	0.999741
781.191374	0.998184
781.515294	0.999514
781.839167	0.998370
782.162995	0.998109
782.486776	0.998057
782.810511	0.999547
783.134201	0.999284
783.457844	0.998895
783.781441	0.998913
784.104993	0.998401
784.428498	0.998941
784.751958	1.000599
785.075372	0.999984
785.398739	0.998315
785.722061	0.997887
786.045337	0.998144
786.368568	0.998136
786.691752	0.999388
787.014891	0.998739
787.337983	0.997326
787.661030	0.999449
787.984031	0.998921
788.306987	0.999061
788.629897	0.996951
788.952760	0.998560
789.275579	0.999327
789.598351	0.998451
789.921078	0.999034
790.243759	0.997905
790.566395	0.997299
790.888984	1.000045
791.211529	0.998075
791.534027	0.998828
791.856480	1.000048
792.178888	0.998671
792.501249	0.998278
792.823566	0.999670
793.145836	0.999120
793.468062	0.999342
793.790241	0.999034
794.112375	0.997703
794.434464	0.998561
794.756507	0.999728
795.078505	0.999025
795.400457	0.999264
795.722364	0.999352
796.044226	0.998747
796.366042	0.998085
796.687812	0.997660
797.009538	0.998086
797.331218	0.999806
797.652852	0.998997
797.974442	0.997651
798.295986	0.999086
798.617484	0.997370
798.938938	0.999285
799.260346	0.998088
799.581709	0.997965
799.903026	0.999347
800.224299	0.997651
800.545526	0.998793
800.866708	0.997657
801.187845	0.999516
801.508936	0.998813
801.829983	0.998010
802.150984	0.998230
802.471940	0.999615
802.792851	0.999672
803.113717	1.001131
803.434538	0.999562
803.755314	1.000192
804.076045	1.000473
804.396731	0.998644
804.717372	0.997396
805.037967	0.999190
805.358518	0.998735
805.679024	0.998704
805.999485	0.999215
806.319901	0.999242
806.640272	0.999589
806.960598	0.998635
807.280879	0.999373
807.601115	1.000286
807.921306	0.999073
808.241453	0.998145
808.561554	0.999156
808.881611	0.998952
809.201623	0.997924
809.521590	0.999198
809.841513	0.999013
810.161390	0.998490
810.481223	0.998208
810.801011	0.998936
811.120755	1.000121
811.440453	0.998237
811.760107	0.999076
812.079716	0.998996
812.399281	0.998679
812.718801	0.998315
813.038276	0.998438
813.357707	0.999494
813.677093	1.000085
813.996434	1.000023
814.315731	1.000586
814.634983	0.999456
814.954191	0.998714
815.273354	0.999499
815.592473	0.999242
815.911547	0.999872
816.230577	0.998420
816.549562	0.999310
816.868502	0.998404
817.187399	0.999661
817.506250	0.999719
817.825058	0.997999
818.143821	0.999506
818.462539	0.999283
818.781213	0.998916
819.099843	0.998994
819.418429	0.998825
819.736970	0.999656
820.055466	0.997465
820.373919	0.998481
820.692327	0.997260
821.010691	0.997884
821.329011	0.995818
821.647286	0.996345
821.965517	0.995670
822.283704	0.995639
822.601847	0.994663
822.919945	0.994664
823.237999	0.994620
823.556010	0.994464
823.873976	0.995287
824.191897	0.995587
824.509775	0.996843
824.827609	0.997170
825.145398	0.996847
825.463144	0.995471
825.780845	0.995513
826.098502	0.996642
826.416116	0.996813
826.733685	0.995915
827.051210	0.994991
827.368692	0.995565
827.686129	0.996156
828.003522	0.996888
828.320872	0.997257
828.638177	0.996557
828.955439	0.998571
829.272656	0.998406
829.589830	0.998768
829.906960	0.999013
830.224046	0.998483
830.541088	0.997554
830.858086	0.998484
831.175041	0.999454
831.491952	0.998511
831.808819	0.999099
832.125642	0.998643
832.442421	0.999156
832.759157	0.998670
833.075849	0.998053
833.392497	0.997533
833.709101	0.996314
834.025662	0.998190
834.342179	0.996935
834.658653	0.998740
834.975083	0.999116
835.291469	0.998827
835.607811	0.998486
835.924110	0.999049
836.240366	0.999770
836.556578	0.999130
836.872746	0.999352
837.188871	0.999165
837.504952	0.999201
837.820990	0.999052
838.136984	0.998280
838.452935	0.999056
838.768842	0.999450
839.084706	0.997815
839.400526	0.998523
839.716303	0.997443
840.032037	0.998467
840.347727	0.999400
840.663373	0.998923
840.978977	0.998380
841.294537	0.999720
841.610054	0.999393
841.925527	0.999019
842.240957	0.999277
842.556344	0.999095
842.871687	0.999590
843.186987	0.999929
843.502244	0.998646
843.817458	0.998440
844.132629	0.999460
844.447756	0.999389
844.762840	0.999682
845.077881	1.000212
845.392879	0.997216
845.707833	0.999047
846.022745	0.999626
846.337613	0.998987
846.652438	0.999524
846.967221	0.999433
847.281960	0.999018
847.596656	1.000750
847.911309	0.999593
848.225919	0.998948
848.540485	0.999983
848.855009	1.000464
849.169490	0.999447
849.483928	0.999843
849.798323	0.998888
850.112675	1.000412
850.426984	0.999283
850.741251	0.999223
851.055474	0.998786
851.369654	0.998859
851.683792	0.999112
851.997887	1.000008
852.311938	0.999833
852.625947	0.998718
852.939914	0.998311
853.253837	0.999848
853.567718	1.000347
853.881555	0.999747
854.195350	1.000108
854.509103	0.999493
854.822812	0.999649
855.136479	0.999693
855.450103	0.999404
855.763685	0.999942
856.077224	1.000077
856.390720	0.999292
856.704173	1.000124
857.017584	1.000355
857.330953	0.998773
857.644278	0.998858
857.957561	1.000360
858.270802	0.999830
858.584000	0.999475
858.897155	0.999136
859.210268	0.999507
859.523339	1.000437
859.836367	0.999596
860.149352	1.000178
860.462295	0.998811
860.775195	1.000366
861.088054	0.997964
861.400869	0.998661
861.713642	0.998757
862.026373	1.000083
862.339062	1.000466
862.651708	0.998965
862.964312	0.999998
863.276873	0.999463
863.589392	0.999867
863.901869	0.998522
864.214303	0.999754
864.526696	0.999615
864.839045	0.999997
865.151353	0.998853
865.463619	0.998907
865.775842	0.999854
866.088023	1.000892
866.400162	0.999759
866.712258	1.001212
867.024313	0.999692
867.336325	1.000796
867.648296	1.000529
867.960224	0.999303
868.272110	0.999321
868.583954	1.000043
868.895755	1.000612
869.207515	0.999206
869.519233	1.000319
869.830909	0.998845
870.142542	0.998943
870.454134	0.999159
870.765684	0.998923
871.077191	1.000238
871.388657	1.000147
871.700081	0.999401
872.011463	1.000466
872.322803	0.998477
872.634101	0.997908
872.945357	0.999349
873.256571	0.999257
873.567744	0.999493
873.878874	0.999468
874.189963	0.998837
874.501010	1.000968
874.812015	0.999310
875.122979	0.999472
875.433900	0.999518
875.744780	0.999536
876.055618	0.997888
876.366415	0.999418
876.677169	0.999736
876.987882	0.999991
877.298554	1.000235
877.609183	0.999750
877.919771	0.998063
878.230317	1.000480
878.540822	0.999258
878.851285	0.999173
879.161707	0.998699
879.472087	0.999393
879.782425	0.998313
880.092722	0.999478
880.402977	0.997525
880.713191	0.996029
881.023363	0.996185
881.333494	0.995658
881.643583	0.996364
881.953631	0.996489
882.263637	0.996043
882.573602	0.996416
882.883526	0.996477
883.193408	0.996884
883.503248	0.996773
883.813048	0.996260
884.122806	0.997549
884.432522	0.997702
884.742197	0.999297
885.051831	0.998032
885.361424	0.998031
885.670975	0.999442
885.980485	0.998152
886.289954	0.998384
886.599382	0.997783
886.908768	1.000283
887.218113	0.998454
887.527417	0.999547
887.836680	0.998569
888.145901	0.999749
888.455082	1.000464
888.764221	0.999905
889.073319	0.998148
889.382376	0.999717
889.691392	0.998445
890.000366	1.000046
890.309300	0.999870
890.618193	1.000116
890.927044	0.998781
891.235855	0.999800
891.544625	0.999426
891.853353	0.998847
892.162041	0.998903
892.470687	0.998717
892.779293	0.999302
893.087858	0.998231
893.396381	0.998154
893.704864	0.997728
894.013306	0.998983
894.321707	0.998003
894.630068	0.997742
894.938387	0.997574
895.246665	0.997316
895.554903	0.996717
895.863100	0.998238
896.171256	0.997272
896.479371	0.997025
896.787446	0.998569
897.095480	0.999169
897.403473	0.998368
897.711425	0.999398
898.019336	0.999732
898.327207	0.998802
898.635038	0.998155
898.942827	0.999338
899.250576	0.998411
899.558284	0.999443
899.865952	0.999060
900.173579	0.998754
900.481165	0.999267
900.788711	0.999427
901.096216	0.998448
901.403681	0.999238
901.711105	0.999069
902.018489	0.999292
902.325832	0.999775
902.633135	0.999707
902.940397	0.999609
903.247619	0.999232
903.554800	0.999144
903.861941	0.998384
904.169041	0.997777
904.476101	0.997333
904.783121	0.998268
905.090100	0.998270
905.397039	0.997239
905.703938	0.998644
906.010796	0.998290
906.317614	0.999090
906.624391	0.998774
906.931129	0.999227
907.237826	0.999757
907.544483	0.999736
907.851099	0.998793
908.157675	0.999365
908.464211	1.000212
908.770707	0.999164
909.077163	1.000641
909.383578	0.999911
909.689954	0.998755
909.996289	1.000624
910.302584	1.000909
910.608839	1.000070
910.915054	0.999753
911.221229	1.000639
911.527363	0.998729
911.833458	0.999189
912.139513	0.999289
912.445527	0.999401
912.751502	0.999650
913.057436	0.998205
913.363331	0.999802
913.669186	0.999905
913.975000	0.999282
914.280775	0.999358
914.586510	0.999043
914.892205	0.999183
915.197859	0.997951
915.503475	0.998647
915.809050	0.997584
916.114585	0.996473
916.420081	0.996914
916.725536	0.998186
917.030952	0.997825
917.336328	0.997768
917.641665	0.997317
917.946961	0.997769
918.252218	0.998581
918.557435	0.997736
918.862612	0.999286
919.167750	0.999114
919.472848	0.999587
919.777906	1.000090
920.082925	0.999862
920.387904	0.998553
920.692843	0.998615
920.997743	0.999468
921.302603	0.998744
921.607423	0.998939
921.912204	0.999987
922.216946	0.999789
922.521647	0.999214
922.826310	0.999332
923.130932	0.997581
923.435516	1.000320
923.740059	0.999314
924.044564	0.997522
924.349028	0.999944
924.653454	0.999359
924.957840	1.000686
925.262186	0.999352
925.566493	1.000642
925.870761	0.998690
926.174989	0.999316
926.479178	1.000808
926.783328	0.999417
927.087438	0.998958
927.391509	0.998360
927.695541	0.999900
927.999533	0.999463
928.303486	0.999872
928.607400	1.000629
928.911275	0.998727
929.215110	1.000611
929.518906	1.001067
929.822663	1.000292
930.126381	1.000233
930.430060	0.999027
930.733699	0.999716
931.037299	1.000317
931.340861	1.000874
931.644383	0.998224
931.947866	0.999785
932.251309	0.999618
932.554714	1.000106
932.858080	1.000134
933.161407	0.999782
933.464694	1.000236
933.767943	1.000020
934.071153	1.000722
934.374323	1.001400
934.677455	1.000138
934.980548	1.000251
935.283602	0.999804
935.586617	0.998863
935.889593	0.999693
936.192530	0.998982
936.495428	0.999527
936.798287	0.999510
937.101108	0.999476
937.403890	1.000079
937.706632	1.001772
938.009336	0.999576
938.312002	0.999290
938.614628	1.000307
938.917216	0.999221
939.219765	0.999404
939.522275	1.000203
939.824747	0.999519
940.127179	0.999585
940.429573	1.000904
940.731929	0.998989
941.034246	0.998671
941.336524	0.999278
941.638763	0.998120
941.940964	0.998462
942.243126	0.999914
942.545250	1.000634
942.847335	1.000008
943.149381	1.000084
943.451389	0.999305
943.753359	0.999528
944.055290	1.001772
944.357182	0.998963
944.659036	0.999637
944.960851	0.999966
945.262628	0.998903
945.564367	1.000160
945.866067	1.000343
946.167729	0.999317
946.469352	0.999250
946.770937	0.997785
947.072484	1.001093
947.373992	1.000068
947.675462	0.999731
947.976893	0.999032
948.278286	1.000865
948.579641	1.000848
948.880958	0.999428
949.182236	0.999346
949.483476	1.000299
949.784678	1.000226
950.085841	0.999452
950.386967	0.999070
950.688054	0.999878
950.989103	0.998794
951.290114	0.998224
951.591087	0.999130
951.892021	1.000148
952.192917	0.999490
952.493776	1.000502
952.794596	0.999739
953.095378	0.999733
953.396122	1.000381
953.696828	1.000023
953.997496	0.999846
954.298126	1.001005
954.598718	0.998989
954.899272	1.000460
955.199788	0.998852
955.500266	1.001054
955.800706	0.998948
956.101108	0.999749
956.401472	1.000405
956.701798	0.999663
957.002087	0.999956
957.302337	0.998631
957.602550	1.000449
957.902724	0.998722
958.202861	1.000094
958.502960	0.999106
958.803022	0.999848
959.103045	0.999809
959.403031	1.000067
959.702979	1.001151
960.002889	0.999575
960.302762	0.999558
960.602596	1.000910
960.902393	0.999618
961.202153	1.000571
961.501875	0.999714
961.801559	0.999633
962.101205	0.998855
962.400814	1.000451
962.700385	1.000948
962.999918	1.000541
963.299414	0.999277
963.598873	0.998885
963.898293	0.999611
964.197677	0.999135
964.497022	0.999030
964.796331	0.999901
965.095601	1.000570
965.394835	0.998917
965.694030	1.000207
965.993189	0.999413
966.292309	1.000179
966.591393	0.997793
966.890439	1.000685
967.189447	0.999388
967.488419	1.000594
967.787353	0.998960
968.086249	1.000291
968.385108	1.000362
968.683930	1.000538
968.982714	0.999998
969.281462	0.999293
969.580172	0.999598
969.878844	1.000304
970.177480	1.000141
970.476078	1.000765
970.774639	1.000225
971.073162	0.999313
971.371649	0.999591
971.670098	0.999710
971.968510	1.000395
972.266885	0.999223
972.565223	1.000002
972.863524	0.999100
973.161788	0.999676
973.460014	1.000433
973.758204	0.999349
974.056356	0.999938
974.354471	0.999518
974.652550	1.000393
974.950591	0.999670
975.248595	0.998769
975.546563	1.000734
975.844493	1.000951
976.142386	0.999579
976.440243	0.999306
976.738062	1.000793
977.035845	1.000157
977.333590	1.000544
977.631299	0.999789
977.928971	1.000458
978.226606	0.999961
978.524204	0.999367
978.821765	1.000453
979.119290	1.001649
979.416777	0.999678
979.714228	0.998867
980.011642	0.999570
980.309020	0.998846
980.606360	0.999116
980.903664	1.000787
981.200931	0.999622
981.498162	0.999775
981.795356	1.000153
982.092513	0.999542
982.389633	0.999717
982.686717	0.999388
982.983764	0.998496
983.280775	1.001057
983.577749	1.000538
983.874686	0.999014
984.171587	0.999537
984.468451	1.000290
984.765279	1.001003
985.062070	1.000013
985.358824	0.999551
985.655543	1.000059
985.952224	0.999196
986.248869	0.998429
986.545478	1.001094
986.842050	0.999717
987.138586	0.998653
987.435086	0.998553
987.731549	1.000993
988.027975	1.000942
988.324366	0.999288
988.620719	1.000985
988.917037	1.000118
989.213318	1.001698
989.509563	0.999390
989.805772	1.000807
990.101944	1.000197
990.398080	1.001077
990.694180	1.001184
990.990244	0.999289
991.286271	1.000475
991.582262	1.000302
991.878217	1.000380
992.174136	0.999836
992.470019	1.000334
992.765865	1.001374
993.061676	1.000101
993.357450	0.999994
993.653188	1.001442
993.948890	0.999769
994.244556	0.999569
994.540186	0.999522
994.835780	0.999873
995.131337	1.001030
995.426859	0.999718
995.722345	1.000646
996.017795	0.998139
996.313208	1.000115
996.608586	1.000503
996.903928	0.999931
997.199234	0.999078
997.494504	1.000534
997.789738	0.998869
998.084936	1.000040
998.380099	0.998342
998.675225	1.000283
998.970316	1.000938
999.265371	1.000190
999.560390	0.999127
999.855373	0.999186
1000.150320	0.999901
1000.445232	0.999671
1000.740108	0.999115
1001.034948	0.998823
1001.329752	1.001239
1001.624521	0.998804
1001.919254	0.998370
1002.213951	0.999988
1002.508613	0.997889
1002.803239	1.000548
1003.097829	1.000704
1003.392384	0.999684
1003.686903	1.000478
1003.981386	0.999412
1004.275834	1.000243
1004.570246	0.999670
1004.864623	1.001102
1005.158964	1.000322
1005.453270	0.998976
1005.747540	0.999737
1006.041775	0.999095
1006.335974	0.999342
1006.630138	1.000438
1006.924266	0.998586
1007.218359	0.998802
1007.512416	1.000504
1007.806438	0.999820
1008.100425	0.999790
1008.394376	1.000072
1008.688292	0.999188
1008.982172	0.998715
1009.276017	1.000206
1009.569827	1.000863
1009.863602	0.998986
1010.157341	1.000211
1010.451045	0.999531
1010.744714	1.000454
1011.038347	1.000793
1011.331945	0.998558
1011.625508	0.999965
1011.919036	0.999366
1012.212528	1.000468
1012.505986	0.999505
1012.799408	1.001218
1013.092795	0.999524
1013.386147	0.999238
1013.679464	0.999906
1013.972745	0.999265
1014.265992	0.999647
1014.559204	0.998660
1014.852380	1.000124
1015.145521	0.999587
1015.438628	1.000187
1015.731699	0.998908
1016.024736	0.999930
1016.317737	1.000895
1016.610703	1.000073
1016.903635	0.999500
1017.196531	0.998760
1017.489393	0.999866
1017.782219	0.999342
1018.075011	0.999129
1018.367768	1.000174
1018.660490	1.000111
1018.953177	1.000111
1019.245829	1.000111
