Dividing Wavelength (nm)	Counts (n)	Blue Motor Position (mm): 33.200000	Red Motor Position (mm): 0.000000	
326.493990	0.998937
326.888308	0.998937
327.282561	0.998937
327.676750	0.999345
328.070874	1.000389
328.464933	1.000691
328.858929	1.000458
329.252859	1.000607
329.646726	0.999450
330.040528	0.999415
330.434265	1.000489
330.827938	0.999935
331.221547	0.999333
331.615091	1.000261
332.008571	1.001220
332.401986	0.999129
332.795338	0.998644
333.188625	1.000396
333.581847	0.999452
333.975006	0.999392
334.368100	0.999534
334.761129	0.998505
335.154095	1.000140
335.546996	0.999659
335.939833	0.998762
336.332606	0.999268
336.725315	0.997508
337.117960	1.000673
337.510540	0.999355
337.903056	0.999295
338.295508	1.000749
338.687896	1.001241
339.080220	0.999210
339.472480	1.000036
339.864676	0.999482
340.256807	0.998816
340.648875	1.000420
341.040879	0.999150
341.432818	0.999457
341.824694	0.998989
342.216506	1.000110
342.608253	0.999859
342.999937	0.999900
343.391557	0.999408
343.783113	0.999654
344.174605	1.000451
344.566033	0.997926
344.957397	1.000721
345.348697	0.998689
345.739934	0.999253
346.131106	0.998479
346.522215	0.999439
346.913260	0.998816
347.304241	0.998177
347.695159	0.999375
348.086012	0.999770
348.476802	0.999283
348.867528	0.998584
349.258191	1.000085
349.648789	0.999786
350.039324	0.999381
350.429796	0.998651
350.820203	0.998587
351.210548	0.999125
351.600828	1.000541
351.991045	0.998659
352.381198	0.998421
352.771288	0.998265
353.161314	0.999259
353.551276	0.998829
353.941175	0.997010
354.331010	1.000017
354.720782	0.997874
355.110490	0.999384
355.500135	0.999181
355.889717	0.998058
356.279235	0.997419
356.668689	0.998492
357.058080	0.998004
357.447408	0.998346
357.836672	0.998570
358.225873	0.998593
358.615010	0.997522
359.004084	0.996682
359.393095	0.999060
359.782043	0.998699
360.170927	0.998723
360.559748	0.997401
360.948505	0.997925
361.337199	0.997524
361.725830	0.998280
362.114398	0.998332
362.502903	0.996662
362.891344	0.997076
363.279722	0.997921
363.668037	0.997743
364.056289	0.997591
364.444478	0.998555
364.832603	0.997388
365.220665	0.997571
365.608665	0.997402
365.996601	0.997954
366.384474	0.995867
366.772284	0.996796
367.160031	0.995980
367.547715	0.994961
367.935336	0.995774
368.322893	0.993726
368.710388	0.993756
369.097820	0.991881
369.485189	0.989169
369.872495	0.986697
370.259738	0.985465
370.646918	0.981883
371.034035	0.979504
371.421090	0.976828
371.808081	0.971573
372.195010	0.969666
372.581875	0.963626
372.968678	0.960626
373.355418	0.956105
373.742096	0.950045
374.128710	0.944170
374.515262	0.940467
374.901751	0.934308
375.288177	0.929915
375.674540	0.922832
376.060841	0.916500
376.447079	0.909127
376.833254	0.904907
377.219367	0.897999
377.605417	0.886842
377.991404	0.882873
378.377329	0.876937
378.763191	0.871225
379.148991	0.861471
379.534727	0.854191
379.920402	0.846717
380.306013	0.842762
380.691563	0.829871
381.077049	0.823338
381.462474	0.820398
381.847835	0.807636
382.233134	0.803377
382.618371	0.802729
383.003545	0.786379
383.388657	0.784137
383.773706	0.775244
384.158693	0.772155
384.543618	0.767222
384.928480	0.758206
385.313280	0.748559
385.698017	0.747892
386.082692	0.736519
386.467305	0.734399
386.851856	0.729362
387.236344	0.724039
387.620770	0.718996
388.005133	0.713210
388.389435	0.707297
388.773674	0.704814
389.157851	0.697665
389.541965	0.694935
389.926018	0.700935
390.310008	0.687175
390.693936	0.685264
391.077802	0.676557
391.461606	0.678510
391.845348	0.667761
392.229027	0.667463
392.612645	0.666009
392.996200	0.653007
393.379694	0.645758
393.763125	0.636048
394.146494	0.639969
394.529801	0.630949
394.913047	0.622530
395.296230	0.628270
395.679351	0.619908
396.062410	0.616756
396.445408	0.619559
396.828343	0.614927
397.211217	0.609891
397.594028	0.622533
397.976778	0.612431
398.359466	0.609631
398.742092	0.605045
399.124656	0.616194
399.507158	0.604981
399.889598	0.601646
400.271977	0.593022
400.654294	0.597346
401.036549	0.595981
401.418742	0.600249
401.800874	0.586663
402.182944	0.583149
402.564952	0.575072
402.946898	0.576954
403.328783	0.577705
403.710606	0.589276
404.092367	0.564147
404.474067	0.569286
404.855705	0.568152
405.237282	0.576645
405.618797	0.563893
406.000250	0.558742
406.381642	0.549297
406.762972	0.554088
407.144240	0.553371
407.525447	0.552699
407.906593	0.545804
408.287677	0.541327
408.668700	0.550127
409.049661	0.544923
409.430560	0.539544
409.811399	0.549389
410.192176	0.531460
410.572891	0.539442
410.953545	0.528692
411.334138	0.543235
411.714669	0.535532
412.095139	0.549547
412.475547	0.534974
412.855894	0.538047
413.236180	0.538655
413.616405	0.546082
413.996568	0.539226
414.376670	0.546792
414.756711	0.553850
415.136691	0.552756
415.516609	0.547240
415.896466	0.546586
416.276262	0.545669
416.655997	0.551229
417.035670	0.536782
417.415283	0.532183
417.794834	0.540828
418.174324	0.549013
418.553753	0.560963
418.933121	0.549047
419.312428	0.548220
419.691674	0.558322
420.070859	0.552835
420.449983	0.564826
420.829045	0.560997
421.208047	0.574218
421.586988	0.574219
421.965867	0.578657
422.344686	0.576474
422.723444	0.592994
423.102141	0.612901
423.480777	0.597814
423.859352	0.621490
424.237866	0.612077
424.616319	0.620043
424.994712	0.620176
425.373044	0.635468
425.751314	0.634914
426.129524	0.654886
426.507673	0.651847
426.885762	0.654745
427.263789	0.667841
427.641756	0.681936
428.019662	0.684525
428.397508	0.692755
428.775292	0.705547
429.153016	0.708610
429.530679	0.722053
429.908282	0.726314
430.285824	0.739065
430.663305	0.738019
431.040726	0.757361
431.418086	0.765571
431.795385	0.771014
432.172624	0.779780
432.549802	0.787196
432.926920	0.795601
433.303977	0.802797
433.680974	0.811176
434.057910	0.819173
434.434786	0.826522
434.811601	0.834956
435.188355	0.838209
435.565050	0.847323
435.941683	0.855563
436.318257	0.857629
436.694770	0.866145
437.071222	0.873635
437.447614	0.880354
437.823946	0.888538
438.200218	0.892121
438.576429	0.900061
438.952580	0.905224
439.328670	0.910010
439.704700	0.916212
440.080670	0.921745
440.456580	0.924994
440.832429	0.931418
441.208218	0.937122
441.583947	0.940054
441.959616	0.943083
442.335224	0.949834
442.710773	0.952706
443.086261	0.955786
443.461689	0.958722
443.837057	0.961955
444.212365	0.964845
444.587612	0.968271
444.962800	0.970218
445.337927	0.972654
445.712995	0.976694
446.088002	0.976177
446.462949	0.979035
446.837837	0.981768
447.212664	0.981819
447.587431	0.984145
447.962139	0.984443
448.336786	0.983166
448.711374	0.985291
449.085901	0.988117
449.460369	0.989522
449.834776	0.989745
450.209124	0.991092
450.583412	0.992143
450.957640	0.991467
451.331808	0.993676
451.705917	0.992745
452.079965	0.994344
452.453954	0.994600
452.827883	0.994962
453.201752	0.995664
453.575562	0.994724
453.949311	0.996162
454.323001	0.996197
454.696632	0.996393
455.070202	0.995693
455.443713	0.995921
455.817164	0.996334
456.190556	0.996457
456.563888	0.997186
456.937160	0.996894
457.310373	0.996907
457.683526	0.997431
458.056619	0.996729
458.429653	0.996721
458.802628	0.996386
459.175542	0.996610
459.548398	0.997869
459.921194	0.997606
460.293930	0.998714
460.666607	0.997949
461.039224	0.998158
461.411782	0.997060
461.784280	0.997323
462.156719	0.998403
462.529099	0.997982
462.901419	0.998433
463.273680	0.997654
463.645882	0.997199
464.018024	0.998346
464.390106	0.997550
464.762130	0.998117
465.134094	0.997428
465.505999	0.997513
465.877845	0.997382
466.249631	0.997500
466.621358	0.996740
466.993026	0.997137
467.364634	0.997953
467.736184	0.997617
468.107674	0.997401
468.479105	0.997169
468.850477	0.997576
469.221790	0.997568
469.593043	0.997594
469.964238	0.997736
470.335373	0.997684
470.706449	0.997228
471.077467	0.998086
471.448425	0.997504
471.819324	0.997655
472.190164	0.997083
472.560945	0.996775
472.931667	0.996748
473.302330	0.997154
473.672934	0.998194
474.043479	0.997093
474.413965	0.998183
474.784393	0.998497
475.154761	0.997289
475.525070	0.997800
475.895321	0.998066
476.265513	0.997875
476.635645	0.998087
477.005719	0.997415
477.375734	0.996940
477.745691	0.996515
478.115588	0.997098
478.485427	0.996632
478.855207	0.997571
479.224928	0.997164
479.594591	0.997644
479.964194	0.996853
480.333739	0.997263
480.703226	0.996455
481.072653	0.996862
481.442022	0.997356
481.811333	0.996901
482.180584	0.996722
482.549777	0.996605
482.918912	0.997328
483.287988	0.996970
483.657005	0.996823
484.025964	0.997135
484.394864	0.997184
484.763706	0.996593
485.132489	0.997174
485.501213	0.997737
485.869879	0.996768
486.238487	0.996071
486.607036	0.997768
486.975527	0.997224
487.343959	0.996387
487.712333	0.997108
488.080648	0.996825
488.448905	0.997661
488.817104	0.997326
489.185244	0.996441
489.553326	0.997568
489.921350	0.997198
490.289315	0.997249
490.657222	0.996184
491.025070	0.997358
491.392861	0.996863
491.760593	0.997144
492.128267	0.997082
492.495883	0.996575
492.863440	0.997101
493.230939	0.997181
493.598380	0.998006
493.965763	0.997673
494.333088	0.996675
494.700354	0.996821
495.067563	0.996934
495.434713	0.997546
495.801805	0.997117
496.168839	0.997410
496.535815	0.997826
496.902733	0.997132
497.269593	0.997204
497.636395	0.996607
498.003139	0.996659
498.369825	0.997697
498.736453	0.997646
499.103023	0.997749
499.469535	0.997503
499.835989	0.997471
500.202385	0.997531
500.568723	0.997241
500.935003	0.997293
501.301226	0.997802
501.667390	0.997174
502.033497	0.997342
502.399546	0.997155
502.765537	0.997128
503.131470	0.997489
503.497345	0.997776
503.863163	0.997715
504.228923	0.996784
504.594625	0.997223
504.960269	0.997171
505.325856	0.998192
505.691385	0.997602
506.056856	0.997196
506.422270	0.997579
506.787625	0.997357
507.152924	0.997304
507.518164	0.997212
507.883347	0.996732
508.248472	0.997329
508.613540	0.996946
508.978550	0.997256
509.343503	0.997564
509.708398	0.997640
510.073236	0.997432
510.438016	0.996766
510.802738	0.996765
511.167403	0.996704
511.532010	0.997666
511.896561	0.996788
512.261053	0.996783
512.625488	0.997324
512.989866	0.996961
513.354186	0.996719
513.718449	0.997145
514.082655	0.996630
514.446803	0.996810
514.810894	0.997445
515.174927	0.998186
515.538904	0.997385
515.902822	0.996996
516.266684	0.997289
516.630488	0.997390
516.994235	0.997549
517.357925	0.997113
517.721558	0.997235
518.085133	0.996684
518.448651	0.997367
518.812112	0.997530
519.175516	0.996761
519.538863	0.996961
519.902152	0.998090
520.265385	0.997134
520.628560	0.997211
520.991678	0.997390
521.354739	0.997671
521.717743	0.997120
522.080690	0.996920
522.443580	0.997180
522.806413	0.996880
523.169189	0.997437
523.531908	0.996993
523.894569	0.997831
524.257174	0.997589
524.619722	0.997068
524.982213	0.997100
525.344647	0.997018
525.707025	0.996764
526.069345	0.996914
526.431608	0.997604
526.793815	0.997837
527.155964	0.997859
527.518057	0.997941
527.880093	0.997347
528.242072	0.996775
528.603995	0.996458
528.965860	0.997370
529.327669	0.997016
529.689421	0.997041
530.051117	0.996904
530.412755	0.997594
530.774337	0.997225
531.135862	0.997421
531.497331	0.996853
531.858743	0.997851
532.220098	0.996807
532.581396	0.997250
532.942638	0.997136
533.303824	0.997961
533.664953	0.996559
534.026025	0.997939
534.387040	0.997132
534.747999	0.996763
535.108902	0.997376
535.469748	0.997482
535.830537	0.997569
536.191270	0.997720
536.551947	0.997279
536.912567	0.996676
537.273131	0.997973
537.633638	0.996875
537.994089	0.997961
538.354483	0.997313
538.714821	0.997097
539.075103	0.997608
539.435328	0.998134
539.795497	0.998161
540.155609	0.997758
540.515665	0.997720
540.875665	0.996884
541.235609	0.997484
541.595496	0.997150
541.955328	0.997453
542.315102	0.997050
542.674821	0.997606
543.034483	0.998015
543.394090	0.996719
543.753640	0.998058
544.113134	0.997601
544.472571	0.998209
544.831953	0.997776
545.191278	0.997913
545.550548	0.997268
545.909761	0.996820
546.268918	0.997834
546.628019	0.997526
546.987064	0.997032
547.346053	0.996311
547.704986	0.997136
548.063863	0.997157
548.422684	0.998140
548.781449	0.997336
549.140158	0.997522
549.498811	0.997163
549.857408	0.996966
550.215949	0.996250
550.574434	0.997012
550.932864	0.997785
551.291237	0.997114
551.649555	0.997784
552.007817	0.997015
552.366022	0.997624
552.724173	0.997977
553.082267	0.997546
553.440305	0.997154
553.798288	0.996604
554.156215	0.997386
554.514086	0.997221
554.871902	0.997241
555.229661	0.996961
555.587365	0.997678
555.945014	0.998047
556.302606	0.996686
556.660143	0.998166
557.017625	0.997078
557.375050	0.997060
557.732421	0.997139
558.089735	0.996896
558.446994	0.997484
558.804197	0.997952
559.161345	0.996574
559.518437	0.996822
559.875474	0.997943
560.232455	0.997640
560.589381	0.997576
560.946251	0.997313
561.303065	0.998340
561.659825	0.997648
562.016528	0.997153
562.373177	0.997828
562.729770	0.997602
563.086307	0.996895
563.442789	0.997557
563.799216	0.996869
564.155587	0.997439
564.511904	0.997864
564.868164	0.996383
565.224370	0.997360
565.580520	0.997219
565.936615	0.997415
566.292654	0.997651
566.648638	0.998249
567.004567	0.997356
567.360441	0.998776
567.716260	0.997330
568.072023	0.996800
568.427732	0.997303
568.783385	0.996999
569.138982	0.997940
569.494525	0.997162
569.850013	0.997971
570.205445	0.997940
570.560823	0.997764
570.916145	0.997073
571.271412	0.997897
571.626625	0.997412
571.981782	0.997394
572.336884	0.997672
572.691931	0.997558
573.046923	0.998367
573.401860	0.997074
573.756743	0.997883
574.111570	0.997194
574.466342	0.998037
574.821059	0.997495
575.175722	0.997508
575.530330	0.997362
575.884882	0.997237
576.239380	0.997676
576.593823	0.997820
576.948211	0.998412
577.302544	0.997412
577.656823	0.997749
578.011047	0.997114
578.365216	0.998315
578.719330	0.997508
579.073389	0.997095
579.427394	0.997611
579.781344	0.997595
580.135239	0.997205
580.489080	0.997568
580.842866	0.997716
581.196597	0.997737
581.550273	0.997171
581.903895	0.997878
582.257463	0.996984
582.610975	0.997707
582.964434	0.998179
583.317837	0.997895
583.671186	0.998132
584.024481	0.997539
584.377721	0.997366
584.730906	0.998298
585.084037	0.998926
585.437113	0.998218
585.790135	0.998368
586.143103	0.998328
586.496016	0.997484
586.848874	0.997415
587.201679	0.997422
587.554428	0.997469
587.907124	0.998036
588.259765	0.998917
588.612352	0.998305
588.964884	0.998107
589.317362	0.997884
589.669786	0.998076
590.022155	0.997266
590.374470	0.997506
590.726731	0.997299
591.078937	0.998037
591.431090	0.997807
591.783188	0.997960
592.135232	0.998929
592.487222	0.997368
592.839157	0.997434
593.191038	0.998116
593.542866	0.997110
593.894639	0.997381
594.246358	0.997308
594.598022	0.998348
594.949633	0.997983
595.301190	0.997722
595.652692	0.997502
596.004141	0.997179
596.355535	0.997528
596.706876	0.998126
597.058162	0.997956
597.409395	0.998133
597.760573	0.997890
598.111698	0.998092
598.462768	0.997443
598.813785	0.996998
599.164748	0.997927
599.515657	0.997192
599.866511	0.998070
600.217312	0.998550
600.568060	0.997752
600.918753	0.997897
601.269392	0.998206
601.619978	0.997645
601.970510	0.997775
602.320988	0.997512
602.671412	0.997662
603.021783	0.998699
603.372100	0.998367
603.722363	0.998543
604.072572	0.997911
604.422728	0.997220
604.772830	0.997875
605.122878	0.997960
605.472872	0.998219
605.822813	0.998285
606.172701	0.998582
606.522534	0.998554
606.872314	0.998819
607.222041	0.996997
607.571714	0.998579
607.921333	0.998460
608.270899	0.997939
608.620411	0.997953
608.969870	0.998879
609.319276	0.998819
609.668627	0.998608
610.017926	0.998548
610.367171	0.997887
610.716362	0.998296
611.065500	0.997283
611.414585	0.997821
611.763616	0.997661
612.112594	0.998127
612.461518	0.997528
612.810389	0.998223
613.159207	0.997837
613.507971	0.997468
613.856682	0.998614
614.205340	0.997114
614.553945	0.998040
614.902496	0.997579
615.250994	0.998206
615.599439	0.998468
615.947830	0.997886
616.296169	0.997948
616.644454	0.998622
616.992686	0.997748
617.340864	0.998495
617.688990	0.997793
618.037063	0.997876
618.385082	0.998000
618.733048	0.997666
619.080961	0.998011
619.428821	0.998338
619.776628	0.997563
620.124382	0.998435
620.472083	0.998577
620.819731	0.999299
621.167326	0.998594
621.514868	0.998528
621.862357	0.998049
622.209793	0.997941
622.557176	0.997496
622.904506	0.997933
623.251783	0.997921
623.599007	0.998416
623.946179	0.998046
624.293297	0.998632
624.640363	0.999196
624.987376	0.998051
625.334336	0.998036
625.681243	0.998549
626.028097	0.999237
626.374899	0.997913
626.721647	0.998883
627.068343	0.997543
627.414987	0.997744
627.761577	0.997678
628.108115	0.998057
628.454600	0.998893
628.801032	0.998118
629.147412	0.998159
629.493739	0.999356
629.840014	0.997807
630.186236	0.997744
630.532405	0.998387
630.878521	0.998478
631.224585	0.998279
631.570597	0.997784
631.916556	0.998844
632.262462	0.997261
632.608316	0.998629
632.954117	0.997776
633.299866	0.998220
633.645562	0.998133
633.991206	0.998599
634.336797	0.997904
634.682336	0.998504
635.027823	0.998325
635.373257	0.998573
635.718639	0.999202
636.063968	0.998030
636.409245	0.998198
636.754470	0.997738
637.099642	0.998862
637.444762	0.998770
637.789829	0.998398
638.134845	0.998431
638.479808	0.998244
638.824719	0.998370
639.169577	0.997324
639.514383	0.998455
639.859137	0.998265
640.203839	0.998445
640.548489	0.997736
640.893086	0.997987
641.237632	0.998239
641.582125	0.998195
641.926566	0.998842
642.270955	0.998420
642.615292	0.997653
642.959576	0.998523
643.303809	0.998506
643.647990	0.998314
643.992118	0.998017
644.336195	0.997591
644.680219	0.998280
645.024192	0.998379
645.368112	0.997253
645.711981	0.998110
646.055797	0.998357
646.399562	0.997484
646.743274	0.998951
647.086935	0.997527
647.430544	0.997740
647.774101	0.997748
648.117606	0.998864
648.461059	0.998833
648.804460	0.998218
649.147810	0.998233
649.491108	0.998042
649.834354	0.997762
650.177548	0.997888
650.520690	0.998347
650.863781	0.998378
651.206820	0.997723
651.549807	0.998070
651.892742	0.998760
652.235626	0.998829
652.578458	0.999126
652.921238	0.999286
653.263967	0.998679
653.606644	0.997977
653.949269	0.998254
654.291843	0.997589
654.634365	0.998551
654.976836	0.997943
655.319255	0.998695
655.661622	0.997774
656.003938	0.997848
656.346203	0.997188
656.688416	0.998095
657.030577	0.998601
657.372687	0.998591
657.714746	0.998110
658.056753	0.998718
658.398708	0.997927
658.740612	0.998592
659.082465	0.997367
659.424266	0.998613
659.766016	0.997167
660.107715	0.998770
660.449362	0.997090
660.790958	0.998103
661.132503	0.998482
661.473996	0.997653
661.815438	0.998401
662.156829	0.997911
662.498168	0.999677
662.839456	0.997170
663.180693	0.998604
663.521879	0.997788
663.863013	0.998271
664.204097	0.998137
664.545129	0.997511
664.886110	0.997567
665.227040	0.998556
665.567918	0.998034
665.908746	0.997116
666.249522	0.997786
666.590248	0.998050
666.930922	0.998039
667.271545	0.998502
667.612118	0.997661
667.952639	0.997634
668.293109	0.997248
668.633528	0.997300
668.973896	0.997951
669.314213	0.997314
669.654480	0.998363
669.994695	0.997112
670.334859	0.997591
670.674973	0.997811
671.015035	0.998140
671.355047	0.997508
671.695008	0.997367
672.034918	0.997534
672.374777	0.998320
672.714585	0.997379
673.054342	0.998509
673.394049	0.997331
673.733705	0.997166
674.073310	0.997639
674.412864	0.997093
674.752368	0.997688
675.091820	0.999163
675.431223	0.997961
675.770574	0.997524
676.109875	0.998114
676.449125	0.997486
676.788324	0.997599
677.127473	0.997861
677.466571	0.998713
677.805619	0.997822
678.144616	0.998426
678.483562	0.998649
678.822458	0.998885
679.161303	0.997738
679.500098	0.997508
679.838842	0.997839
680.177535	0.997512
680.516179	0.997404
680.854771	0.997928
681.193314	0.997664
681.531805	0.997203
681.870247	0.997036
682.208638	0.998093
682.546978	0.997051
682.885268	0.997689
683.223508	0.997248
683.561697	0.997816
683.899836	0.997498
684.237925	0.997382
684.575963	0.998177
684.913951	0.997172
685.251889	0.996964
685.589776	0.997098
685.927614	0.997251
686.265401	0.997269
686.603137	0.997304
686.940824	0.997101
687.278460	0.997734
687.616046	0.997209
687.953582	0.997559
688.291068	0.997802
688.628504	0.997554
688.965889	0.996323
689.303224	0.996032
689.640510	0.997581
689.977745	0.997446
690.314930	0.996658
690.652065	0.997178
690.989150	0.997281
691.326185	0.997465
691.663170	0.996885
692.000105	0.997754
692.336990	0.997856
692.673825	0.996868
693.010610	0.997331
693.347345	0.997661
693.684030	0.996710
694.020665	0.996964
694.357251	0.996673
694.693786	0.997732
695.030272	0.995887
695.366707	0.997063
695.703093	0.996961
696.039429	0.996510
696.375716	0.997500
696.711952	0.996817
697.048139	0.997907
697.384276	0.997284
697.720363	0.996702
698.056400	0.996544
698.392388	0.996226
698.728326	0.996400
699.064214	0.998833
699.400053	0.996661
699.735842	0.997593
700.071581	0.997869
700.407270	0.996856
700.742910	0.998093
701.078501	0.997757
701.414042	0.997319
701.749533	0.996510
702.084974	0.997760
702.420366	0.997854
702.755709	0.997544
703.091002	0.997729
703.426246	0.997363
703.761440	0.997240
704.096584	0.996389
704.431679	0.997245
704.766725	0.997393
705.101721	0.997799
705.436668	0.997946
705.771565	0.997054
706.106413	0.996140
706.441212	0.996947
706.775961	0.997436
707.110661	0.996508
707.445311	0.997275
707.779913	0.997097
708.114465	0.997980
708.448967	0.997960
708.783421	0.997919
709.117825	0.998127
709.452180	0.997927
709.786485	0.996755
710.120742	0.997269
710.454949	0.996474
710.789107	0.996555
711.123216	0.995879
711.457275	0.996667
711.791286	0.996705
712.125247	0.998458
712.459159	0.996913
712.793023	0.995846
713.126837	0.997075
713.460602	0.997079
713.794318	0.996168
714.127985	0.995750
714.461602	0.997042
714.795171	0.996703
715.128691	0.996660
715.462162	0.997841
715.795584	0.996501
716.128957	0.997843
716.462281	0.997243
716.795556	0.996369
717.128782	0.997873
717.461960	0.997631
717.795088	0.996910
718.128167	0.998430
718.461198	0.996879
718.794180	0.997162
719.127113	0.998177
719.459997	0.996224
719.792833	0.997278
720.125619	0.996729
720.458357	0.997711
720.791046	0.997842
721.123686	0.997427
721.456278	0.997211
721.788821	0.996296
722.121315	0.997988
722.453761	0.997660
722.786158	0.995840
723.118506	0.997061
723.450805	0.996265
723.783056	0.997988
724.115259	0.996051
724.447412	0.998035
724.779518	0.996850
725.111574	0.996641
725.443582	0.996969
725.775542	0.997287
726.107453	0.997071
726.439315	0.997719
726.771129	0.997574
727.102895	0.997421
727.434612	0.997501
727.766281	0.996664
728.097901	0.995898
728.429473	0.997374
728.760996	0.995801
729.092471	0.996699
729.423897	0.996930
729.755276	0.996957
730.086606	0.997025
730.417887	0.997229
730.749120	0.997250
731.080305	0.996425
731.411442	0.995814
731.742530	0.996616
732.073570	0.996179
732.404562	0.996052
732.735506	0.996533
733.066401	0.997095
733.397249	0.996893
733.728048	0.996205
734.058798	0.996299
734.389501	0.997654
734.720156	0.996912
735.050762	0.997903
735.381320	0.996634
735.711831	0.995722
736.042293	0.997018
736.372707	0.997057
736.703073	0.995979
737.033391	0.996970
737.363661	0.997101
737.693883	0.997022
738.024056	0.996483
738.354182	0.997609
738.684260	0.996875
739.014290	0.996964
739.344272	0.996903
739.674207	0.997054
740.004093	0.997063
740.333931	0.996666
740.663722	0.996270
740.993464	0.996732
741.323159	0.996570
741.652806	0.997661
741.982405	0.996509
742.311956	0.997447
742.641460	0.996751
742.970915	0.996481
743.300323	0.995456
743.629683	0.997239
743.958996	0.997608
744.288260	0.996215
744.617477	0.996974
744.946647	0.996562
745.275768	0.997435
745.604842	0.996638
745.933869	0.996898
746.262847	0.997230
746.591778	0.995441
746.920662	0.997913
747.249498	0.997617
747.578286	0.998028
747.907027	0.997334
748.235720	0.997124
748.564365	0.996965
748.892963	0.996570
749.221514	0.996909
749.550017	0.996434
749.878473	0.997692
750.206881	0.997865
750.535242	0.996863
750.863555	0.997582
751.191821	0.996347
751.520039	0.996983
751.848210	0.995895
752.176334	0.997145
752.504411	0.997398
752.832440	0.996152
753.160421	0.996109
753.488356	0.996725
753.816243	0.996922
754.144082	0.996564
754.471875	0.996462
754.799620	0.997324
755.127318	0.997080
755.454969	0.997837
755.782572	0.998927
756.110129	0.996356
756.437638	0.998832
756.765100	0.997615
757.092515	0.997660
757.419882	0.998081
757.747203	0.996715
758.074477	0.998124
758.401703	0.997288
758.728882	0.997505
759.056014	0.996573
759.383099	0.996932
759.710138	0.996741
760.037129	0.998450
760.364073	0.997744
760.690970	0.997315
761.017820	0.997032
761.344623	0.997099
761.671379	0.997499
761.998088	0.996440
762.324751	0.996881
762.651366	0.996704
762.977935	0.995069
763.304456	0.996455
763.630931	0.994689
763.957359	0.993871
764.283740	0.995319
764.610074	0.995183
764.936362	0.995789
765.262602	0.996640
765.588796	0.996462
765.914943	0.996405
766.241044	0.997004
766.567097	0.996308
766.893104	0.997578
767.219064	0.996621
767.544978	0.997681
767.870845	0.997403
768.196665	0.996885
768.522438	0.998038
768.848165	0.996626
769.173846	0.997730
769.499479	0.998973
769.825066	0.998198
770.150607	0.998361
770.476101	0.997755
770.801548	0.999113
771.126949	0.998702
771.452303	0.997260
771.777611	0.998317
772.102872	0.997753
772.428087	0.997804
772.753256	0.998893
773.078378	0.998802
773.403453	0.996506
773.728482	0.999418
774.053465	0.997510
774.378401	0.998130
774.703291	0.998782
775.028135	0.998933
775.352932	0.996663
775.677683	0.999043
776.002388	0.997070
776.327046	0.997068
776.651658	0.998944
776.976224	0.998052
777.300743	0.997945
777.625216	0.997763
777.949643	0.997896
778.274024	0.997193
778.598359	0.998891
778.922647	0.997756
779.246889	0.998225
779.571086	0.997820
779.895236	0.998096
780.219339	0.998138
780.543397	0.997812
780.867409	0.999299
781.191374	0.998504
781.515294	0.998738
781.839167	0.997849
782.162995	0.997755
782.486776	0.997258
782.810511	0.997757
783.134201	0.998719
783.457844	0.998024
783.781441	0.997754
784.104993	0.997494
784.428498	0.997726
784.751958	0.999237
785.075372	0.998875
785.398739	0.997976
785.722061	0.997846
786.045337	0.998297
786.368568	0.997737
786.691752	0.997742
787.014891	0.997393
787.337983	0.997391
787.661030	0.997793
787.984031	0.998517
788.306987	0.998268
788.629897	0.997107
788.952760	0.996780
789.275579	0.997968
789.598351	0.997608
789.921078	0.999228
790.243759	0.997193
790.566395	0.997078
790.888984	0.998435
791.211529	0.998499
791.534027	0.997915
791.856480	0.997266
792.178888	0.997613
792.501249	0.997605
792.823566	0.999194
793.145836	0.998522
793.468062	0.998735
793.790241	0.999218
794.112375	0.996847
794.434464	0.997931
794.756507	0.999903
795.078505	0.998437
795.400457	0.998635
795.722364	0.997769
796.044226	0.998030
796.366042	0.997857
796.687812	0.996358
797.009538	0.996767
797.331218	0.999142
797.652852	0.998707
797.974442	0.997384
798.295986	0.997986
798.617484	0.997306
798.938938	0.999117
799.260346	0.997570
799.581709	0.997104
799.903026	0.998704
800.224299	0.997586
800.545526	0.997489
800.866708	0.997227
801.187845	0.998273
801.508936	0.999100
801.829983	0.997631
802.150984	0.998895
802.471940	0.997788
802.792851	0.997754
803.113717	0.999384
803.434538	0.998740
803.755314	0.998810
804.076045	0.997571
804.396731	0.997706
804.717372	0.997634
805.037967	0.998993
805.358518	0.999599
805.679024	0.997560
805.999485	0.998104
806.319901	0.998732
806.640272	0.998925
806.960598	0.997791
807.280879	0.997462
807.601115	0.998692
807.921306	0.998887
808.241453	0.997795
808.561554	0.998456
808.881611	0.997743
809.201623	0.998367
809.521590	0.998438
809.841513	0.997920
810.161390	0.997071
810.481223	0.998200
810.801011	0.997513
811.120755	0.999376
811.440453	0.998519
811.760107	0.998360
812.079716	0.998904
812.399281	0.998474
812.718801	0.998305
813.038276	0.998629
813.357707	0.998771
813.677093	0.997907
813.996434	0.997706
814.315731	0.999174
814.634983	0.998578
814.954191	0.998327
815.273354	0.998064
815.592473	0.998266
815.911547	0.998652
816.230577	0.997258
816.549562	0.998002
816.868502	0.997811
817.187399	0.999234
817.506250	0.997967
817.825058	0.996898
818.143821	0.997329
818.462539	0.996618
818.781213	0.997497
819.099843	0.997075
819.418429	0.997286
819.736970	0.997733
820.055466	0.994905
820.373919	0.995775
820.692327	0.994668
821.010691	0.995284
821.329011	0.992065
821.647286	0.989961
821.965517	0.989612
822.283704	0.987504
822.601847	0.986949
822.919945	0.987082
823.237999	0.988364
823.556010	0.988903
823.873976	0.989496
824.191897	0.991077
824.509775	0.992575
824.827609	0.993146
825.145398	0.993579
825.463144	0.992748
825.780845	0.993071
826.098502	0.992850
826.416116	0.992710
826.733685	0.991451
827.051210	0.990302
827.368692	0.991436
827.686129	0.991498
828.003522	0.993476
828.320872	0.993522
828.638177	0.994304
828.955439	0.995480
829.272656	0.996022
829.589830	0.996069
829.906960	0.997110
830.224046	0.996350
830.541088	0.996941
830.858086	0.997444
831.175041	0.999109
831.491952	0.997999
831.808819	0.997680
832.125642	0.996836
832.442421	0.997849
832.759157	0.997692
833.075849	0.994729
833.392497	0.994177
833.709101	0.992373
834.025662	0.993848
834.342179	0.994436
834.658653	0.995543
834.975083	0.994720
835.291469	0.996380
835.607811	0.996194
835.924110	0.997012
836.240366	0.998815
836.556578	0.997542
836.872746	0.998256
837.188871	0.997843
837.504952	0.997489
837.820990	0.999089
838.136984	0.997372
838.452935	0.998062
838.768842	0.997890
839.084706	0.998345
839.400526	0.998236
839.716303	0.995856
840.032037	0.997509
840.347727	0.995391
840.663373	0.996870
840.978977	0.998187
841.294537	0.997857
841.610054	0.998566
841.925527	0.998488
842.240957	0.998763
842.556344	0.998934
842.871687	0.998616
843.186987	0.998532
843.502244	0.998706
843.817458	0.998044
844.132629	0.998648
844.447756	0.999295
844.762840	0.999546
845.077881	1.000301
845.392879	0.998145
845.707833	0.999127
846.022745	0.998137
846.337613	0.998822
846.652438	0.998697
846.967221	0.998629
847.281960	0.999821
847.596656	0.998866
847.911309	0.998813
848.225919	0.999390
848.540485	0.999636
848.855009	1.000803
849.169490	0.999021
849.483928	0.999021
849.798323	0.997565
850.112675	1.000322
850.426984	0.998765
850.741251	0.999999
851.055474	0.997695
851.369654	0.999307
851.683792	0.997862
851.997887	0.999044
852.311938	0.998539
852.625947	0.998668
852.939914	0.998307
853.253837	1.000573
853.567718	1.000318
853.881555	0.999488
854.195350	0.999287
854.509103	0.999208
854.822812	0.999193
855.136479	0.999355
855.450103	0.999275
855.763685	1.000231
856.077224	0.999759
856.390720	0.997971
856.704173	0.998607
857.017584	0.999405
857.330953	0.999408
857.644278	0.999787
857.957561	0.998242
858.270802	0.999514
858.584000	0.999075
858.897155	0.998141
859.210268	0.999134
859.523339	1.000098
859.836367	0.998431
860.149352	0.999112
860.462295	0.999160
860.775195	0.999903
861.088054	0.998652
861.400869	0.998853
861.713642	0.997887
862.026373	0.998927
862.339062	1.000066
862.651708	0.998769
862.964312	0.999908
863.276873	0.999715
863.589392	0.998804
863.901869	0.999135
864.214303	0.999285
864.526696	0.999429
864.839045	0.999701
865.151353	0.999157
865.463619	0.998021
865.775842	0.998829
866.088023	0.999204
866.400162	0.998969
866.712258	0.999785
867.024313	0.999286
867.336325	0.999139
867.648296	0.999054
867.960224	0.998549
868.272110	0.999499
868.583954	0.999034
868.895755	1.000145
869.207515	0.998632
869.519233	0.999907
869.830909	0.998235
870.142542	0.998174
870.454134	0.999212
870.765684	0.998126
871.077191	0.999345
871.388657	0.998423
871.700081	0.997988
872.011463	1.000052
872.322803	0.999712
872.634101	0.997441
872.945357	0.997866
873.256571	0.998007
873.567744	0.998873
873.878874	0.998928
874.189963	0.998864
874.501010	1.000769
874.812015	0.998066
875.122979	0.999106
875.433900	0.998175
875.744780	0.998649
876.055618	0.998498
876.366415	0.997962
876.677169	0.998430
876.987882	0.997942
877.298554	1.000444
877.609183	0.998899
877.919771	0.998242
878.230317	0.998422
878.540822	0.997504
878.851285	0.998067
879.161707	0.997835
879.472087	0.998219
879.782425	0.995575
880.092722	0.994687
880.402977	0.994275
880.713191	0.991711
881.023363	0.989052
881.333494	0.988892
881.643583	0.989954
881.953631	0.989090
882.263637	0.987965
882.573602	0.989082
882.883526	0.989225
883.193408	0.991419
883.503248	0.991586
883.813048	0.992291
884.122806	0.994441
884.432522	0.995065
884.742197	0.996745
885.051831	0.995539
885.361424	0.996648
885.670975	0.997526
885.980485	0.996227
886.289954	0.996981
886.599382	0.997267
886.908768	0.998934
887.218113	0.997373
887.527417	0.998046
887.836680	0.998183
888.145901	0.997884
888.455082	0.999685
888.764221	0.999439
889.073319	0.998022
889.382376	0.998665
889.691392	0.998158
890.000366	0.999394
890.309300	0.998653
890.618193	0.998857
890.927044	0.998238
891.235855	0.998391
891.544625	0.998804
891.853353	0.997342
892.162041	0.997733
892.470687	0.998841
892.779293	0.998346
893.087858	0.996501
893.396381	0.997540
893.704864	0.996947
894.013306	0.996755
894.321707	0.994739
894.630068	0.993794
894.938387	0.993271
895.246665	0.993780
895.554903	0.993872
895.863100	0.995395
896.171256	0.995388
896.479371	0.996052
896.787446	0.996687
897.095480	0.996561
897.403473	0.996455
897.711425	0.998469
898.019336	0.998522
898.327207	0.998204
898.635038	0.997229
898.942827	0.998216
899.250576	0.997728
899.558284	0.998262
899.865952	0.998056
900.173579	0.998088
900.481165	0.998289
900.788711	0.997720
901.096216	0.998755
901.403681	0.999873
901.711105	0.998933
902.018489	0.998013
902.325832	0.999293
902.633135	0.998928
902.940397	0.998726
903.247619	0.997435
903.554800	0.995770
903.861941	0.994681
904.169041	0.993016
904.476101	0.993406
904.783121	0.992297
905.090100	0.993229
905.397039	0.995119
905.703938	0.994389
906.010796	0.995425
906.317614	0.996610
906.624391	0.997324
906.931129	0.997581
907.237826	0.997952
907.544483	0.998632
907.851099	0.998945
908.157675	0.997397
908.464211	0.998484
908.770707	0.997489
909.077163	0.999248
909.383578	0.998817
909.689954	0.997689
909.996289	0.999087
910.302584	0.999068
910.608839	0.999518
910.915054	0.998815
911.221229	0.999404
911.527363	0.998817
911.833458	0.999200
912.139513	0.998666
912.445527	0.999103
912.751502	0.998523
913.057436	0.997589
913.363331	0.999192
913.669186	0.999590
913.975000	0.998648
914.280775	0.998459
914.586510	0.996959
914.892205	0.995998
915.197859	0.995596
915.503475	0.995483
915.809050	0.993503
916.114585	0.991478
916.420081	0.992497
916.725536	0.993475
917.030952	0.993062
917.336328	0.993554
917.641665	0.993242
917.946961	0.993641
918.252218	0.995561
918.557435	0.995517
918.862612	0.997375
919.167750	0.997158
919.472848	0.996889
919.777906	0.998571
920.082925	0.997902
920.387904	0.999743
920.692843	0.997800
920.997743	0.997801
921.302603	0.999486
921.607423	0.996656
921.912204	0.999192
922.216946	0.999290
922.521647	0.998320
922.826310	0.998293
923.130932	0.999445
923.435516	0.999218
923.740059	0.997610
924.044564	0.996630
924.349028	0.998650
924.653454	0.999426
924.957840	0.999583
925.262186	0.998693
925.566493	0.999112
925.870761	0.998950
926.174989	0.998277
926.479178	1.000039
926.783328	0.999745
927.087438	0.998352
927.391509	0.998942
927.695541	0.998945
927.999533	0.999962
928.303486	0.998622
928.607400	1.000357
928.911275	1.000620
929.215110	1.000291
929.518906	0.999526
929.822663	0.999570
930.126381	0.999951
930.430060	0.998419
930.733699	0.999490
931.037299	1.000660
931.340861	0.999502
931.644383	0.998350
931.947866	0.999254
932.251309	0.999408
932.554714	0.999380
932.858080	0.999258
933.161407	0.998049
933.464694	0.999546
933.767943	0.999224
934.071153	0.999167
934.374323	1.000451
934.677455	0.999202
934.980548	0.999775
935.283602	0.999885
935.586617	0.999702
935.889593	1.001068
936.192530	0.999387
936.495428	0.999036
936.798287	0.999748
937.101108	0.999926
937.403890	0.999686
937.706632	0.999934
938.009336	1.000470
938.312002	0.998991
938.614628	1.000253
938.917216	0.998579
939.219765	0.998358
939.522275	1.000182
939.824747	0.999480
940.127179	0.998637
940.429573	0.999510
940.731929	0.997420
941.034246	0.998915
941.336524	0.998248
941.638763	0.999545
941.940964	0.997202
942.243126	0.998502
942.545250	0.999781
942.847335	0.999286
943.149381	0.999887
943.451389	0.999644
943.753359	0.999861
944.055290	1.000229
944.357182	1.000349
944.659036	0.999776
944.960851	0.999199
945.262628	0.999889
945.564367	0.999851
945.866067	0.999495
946.167729	0.999988
946.469352	0.999413
946.770937	0.997774
947.072484	1.000962
947.373992	0.999572
947.675462	0.998032
947.976893	0.999209
948.278286	1.001340
948.579641	0.999716
948.880958	0.999576
949.182236	0.999973
949.483476	1.000675
949.784678	0.999589
950.085841	1.000287
950.386967	0.998602
950.688054	0.999037
950.989103	0.998727
951.290114	0.998914
951.591087	0.999231
951.892021	0.998640
952.192917	0.999419
952.493776	1.000416
952.794596	0.999464
953.095378	0.998417
953.396122	0.998973
953.696828	1.000159
953.997496	0.999402
954.298126	1.000069
954.598718	0.998458
954.899272	0.999631
955.199788	0.999008
955.500266	1.000334
955.800706	0.999516
956.101108	0.998882
956.401472	1.000587
956.701798	0.999784
957.002087	0.998424
957.302337	0.999577
957.602550	1.000554
957.902724	0.999345
958.202861	0.999482
958.502960	0.999811
958.803022	1.000417
959.103045	1.000726
959.403031	1.000862
959.702979	0.999819
960.002889	0.999790
960.302762	0.997945
960.602596	1.000350
960.902393	0.999664
961.202153	0.999678
961.501875	1.000345
961.801559	1.000113
962.101205	0.999951
962.400814	1.000363
962.700385	1.001040
962.999918	0.999992
963.299414	0.999471
963.598873	1.001247
963.898293	1.000218
964.197677	0.999030
964.497022	1.000104
964.796331	1.000727
965.095601	1.000998
965.394835	0.999475
965.694030	1.000803
965.993189	0.999104
966.292309	0.999789
966.591393	0.998208
966.890439	1.001096
967.189447	1.000770
967.488419	0.999905
967.787353	0.999346
968.086249	0.999654
968.385108	0.999734
968.683930	1.000635
968.982714	0.999728
969.281462	1.000337
969.580172	0.998974
969.878844	0.999664
970.177480	1.000455
970.476078	1.001015
970.774639	1.000602
971.073162	0.999160
971.371649	1.000081
971.670098	0.998995
971.968510	0.999411
972.266885	1.000261
972.565223	0.999610
972.863524	0.999549
973.161788	0.999886
973.460014	1.001162
973.758204	0.999064
974.056356	0.999084
974.354471	0.999335
974.652550	1.001448
974.950591	0.998658
975.248595	0.998622
975.546563	1.000332
975.844493	1.001599
976.142386	0.999752
976.440243	1.000481
976.738062	1.000220
977.035845	0.998602
977.333590	1.001303
977.631299	0.999988
977.928971	1.000783
978.226606	1.000208
978.524204	0.998951
978.821765	1.001175
979.119290	1.000899
979.416777	0.999840
979.714228	0.999102
980.011642	1.000215
980.309020	0.999555
980.606360	1.000031
980.903664	0.999681
981.200931	0.998473
981.498162	0.998878
981.795356	1.000398
982.092513	0.999714
982.389633	1.000189
982.686717	0.998492
982.983764	0.999498
983.280775	0.999279
983.577749	1.000447
983.874686	0.999157
984.171587	0.997326
984.468451	1.000214
984.765279	1.000802
985.062070	0.999818
985.358824	0.999835
985.655543	0.999586
985.952224	0.999949
986.248869	1.000000
986.545478	1.002164
986.842050	0.999530
987.138586	0.999637
987.435086	0.998568
987.731549	1.000405
988.027975	1.000845
988.324366	0.998753
988.620719	1.000118
988.917037	0.999639
989.213318	0.999451
989.509563	0.999746
989.805772	1.000304
990.101944	1.001082
990.398080	0.999777
990.694180	1.001553
990.990244	0.999491
991.286271	1.000528
991.582262	0.999957
991.878217	0.999564
992.174136	0.999462
992.470019	0.999977
992.765865	1.000980
993.061676	1.000105
993.357450	1.001158
993.653188	1.000583
993.948890	0.999663
994.244556	0.998993
994.540186	1.000135
994.835780	0.999375
995.131337	1.001153
995.426859	0.999574
995.722345	0.999813
996.017795	1.000719
996.313208	0.999958
996.608586	0.999475
996.903928	1.000540
997.199234	1.000314
997.494504	1.001473
997.789738	0.999219
998.084936	1.000089
998.380099	0.998994
998.675225	1.001551
998.970316	1.001580
999.265371	1.000446
999.560390	0.999060
999.855373	0.998786
1000.150320	1.000968
1000.445232	1.000259
1000.740108	0.998904
1001.034948	1.001254
1001.329752	1.001548
1001.624521	0.998181
1001.919254	0.999795
1002.213951	0.999923
1002.508613	0.998839
1002.803239	0.999080
1003.097829	1.001105
1003.392384	1.001502
1003.686903	1.000606
1003.981386	1.000884
1004.275834	1.001083
1004.570246	0.999000
1004.864623	1.000475
1005.158964	1.000293
1005.453270	0.998943
1005.747540	0.998559
1006.041775	1.001267
1006.335974	1.001017
1006.630138	1.000258
1006.924266	0.999625
1007.218359	0.997703
1007.512416	1.001005
1007.806438	0.999251
1008.100425	1.000593
1008.394376	1.000641
1008.688292	0.999081
1008.982172	0.999495
1009.276017	0.999978
1009.569827	1.001003
1009.863602	0.999302
1010.157341	1.000873
1010.451045	0.999997
1010.744714	1.001248
1011.038347	1.000134
1011.331945	0.999905
1011.625508	1.000960
1011.919036	1.001205
1012.212528	0.999860
1012.505986	1.000765
1012.799408	1.001679
1013.092795	1.000874
1013.386147	1.001292
1013.679464	1.001752
1013.972745	1.000483
1014.265992	0.999354
1014.559204	0.999790
1014.852380	1.000434
1015.145521	1.000547
1015.438628	0.999942
1015.731699	0.999700
1016.024736	1.001004
1016.317737	1.000523
1016.610703	1.000452
1016.903635	1.000857
1017.196531	0.999099
1017.489393	1.000014
1017.782219	0.998949
1018.075011	0.998674
1018.367768	1.000127
1018.660490	1.000265
1018.953177	1.000265
1019.245829	1.000265
