Dividing Wavelength (nm)	Counts (n)	Blue Motor Position (mm): 9.200000	Red Motor Position (mm): 0.000000	
326.493990	1.003595
326.888308	1.003595
327.282561	1.003595
327.676750	1.005103
328.070874	1.005879
328.464933	1.005324
328.858929	1.005373
329.252859	1.004249
329.646726	1.003756
330.040528	1.004826
330.434265	1.004959
330.827938	1.004758
331.221547	1.005498
331.615091	1.005305
332.008571	1.005567
332.401986	1.003670
332.795338	1.004115
333.188625	1.005378
333.581847	1.003853
333.975006	1.004852
334.368100	1.005087
334.761129	1.003718
335.154095	1.003847
335.546996	1.002734
335.939833	0.997705
336.332606	0.999165
336.725315	0.996831
337.117960	1.000040
337.510540	0.998944
337.903056	0.999474
338.295508	1.000419
338.687896	0.999524
339.080220	0.999239
339.472480	0.999002
339.864676	0.999764
340.256807	0.998392
340.648875	0.999266
341.040879	0.997788
341.432818	0.999604
341.824694	0.997983
342.216506	0.999853
342.608253	0.999049
342.999937	0.999250
343.391557	0.997698
343.783113	1.000124
344.174605	0.998503
344.566033	0.998235
344.957397	0.998282
345.348697	0.999943
345.739934	0.999161
346.131106	0.998670
346.522215	0.997786
346.913260	0.999195
347.304241	0.997681
347.695159	0.998801
348.086012	0.998092
348.476802	0.998780
348.867528	0.998852
349.258191	0.998481
349.648789	0.998758
350.039324	0.998330
350.429796	0.996905
350.820203	0.996608
351.210548	0.998077
351.600828	0.998177
351.991045	0.998423
352.381198	0.998776
352.771288	0.998582
353.161314	0.998471
353.551276	0.997018
353.941175	0.996686
354.331010	0.998780
354.720782	0.998347
355.110490	0.997768
355.500135	0.997659
355.889717	0.997090
356.279235	0.996406
356.668689	0.998523
357.058080	0.997866
357.447408	0.997155
357.836672	0.997771
358.225873	0.998360
358.615010	0.997275
359.004084	0.996526
359.393095	0.997063
359.782043	0.996917
360.170927	0.997988
360.559748	0.997514
360.948505	0.996447
361.337199	0.996313
361.725830	0.998571
362.114398	0.996576
362.502903	0.996742
362.891344	0.996768
363.279722	0.996825
363.668037	0.996957
364.056289	0.996561
364.444478	0.998363
364.832603	0.995745
365.220665	0.996611
365.608665	0.994894
365.996601	0.995884
366.384474	0.995970
366.772284	0.995781
367.160031	0.995248
367.547715	0.994995
367.935336	0.993930
368.322893	0.994174
368.710388	0.992338
369.097820	0.990683
369.485189	0.988373
369.872495	0.986670
370.259738	0.983261
370.646918	0.982508
371.034035	0.979035
371.421090	0.976106
371.808081	0.970169
372.195010	0.969183
372.581875	0.962392
372.968678	0.958970
373.355418	0.956102
373.742096	0.946995
374.128710	0.943767
374.515262	0.939800
374.901751	0.933542
375.288177	0.928879
375.674540	0.921446
376.060841	0.915592
376.447079	0.909309
376.833254	0.902534
377.219367	0.898057
377.605417	0.886078
377.991404	0.882949
378.377329	0.875797
378.763191	0.870867
379.148991	0.861023
379.534727	0.854588
379.920402	0.845775
380.306013	0.840885
380.691563	0.829102
381.077049	0.822732
381.462474	0.819017
381.847835	0.806042
382.233134	0.802131
382.618371	0.802407
383.003545	0.785448
383.388657	0.782798
383.773706	0.775091
384.158693	0.771481
384.543618	0.765403
384.928480	0.756181
385.313280	0.747100
385.698017	0.746315
386.082692	0.735701
386.467305	0.734064
386.851856	0.727991
387.236344	0.723060
387.620770	0.718242
388.005133	0.711802
388.389435	0.706837
388.773674	0.703861
389.157851	0.695785
389.541965	0.693573
389.926018	0.699319
390.310008	0.686465
390.693936	0.683402
391.077802	0.674927
391.461606	0.676012
391.845348	0.666324
392.229027	0.665818
392.612645	0.663825
392.996200	0.650770
393.379694	0.643571
393.763125	0.634111
394.146494	0.639567
394.529801	0.629161
394.913047	0.620737
395.296230	0.627104
395.679351	0.618785
396.062410	0.615556
396.445408	0.617925
396.828343	0.613466
397.211217	0.608763
397.594028	0.620618
397.976778	0.610846
398.359466	0.607839
398.742092	0.603145
399.124656	0.614740
399.507158	0.603324
399.889598	0.600636
400.271977	0.591081
400.654294	0.595121
401.036549	0.594883
401.418742	0.598656
401.800874	0.584661
402.182944	0.581649
402.564952	0.572839
402.946898	0.574939
403.328783	0.576141
403.710606	0.587183
404.092367	0.561981
404.474067	0.566792
404.855705	0.565855
405.237282	0.574647
405.618797	0.559978
406.000250	0.556289
406.381642	0.546700
406.762972	0.551360
407.144240	0.550080
407.525447	0.549809
407.906593	0.542407
408.287677	0.538592
408.668700	0.546625
409.049661	0.540916
409.430560	0.535667
409.811399	0.544223
410.192176	0.525862
410.572891	0.532879
410.953545	0.521075
411.334138	0.534833
411.714669	0.527164
412.095139	0.540098
412.475547	0.524004
412.855894	0.525525
413.236180	0.524810
413.616405	0.529937
413.996568	0.519807
414.376670	0.526085
414.756711	0.531276
415.136691	0.528593
415.516609	0.519159
415.896466	0.515560
416.276262	0.512211
416.655997	0.513921
417.035670	0.495608
417.415283	0.486993
417.794834	0.491668
418.174324	0.497303
418.553753	0.506211
418.933121	0.488408
419.312428	0.482448
419.691674	0.487970
420.070859	0.476943
420.449983	0.484488
420.829045	0.473760
421.208047	0.482006
421.586988	0.475607
421.965867	0.475199
422.344686	0.463508
422.723444	0.475903
423.102141	0.493054
423.480777	0.465865
423.859352	0.486954
424.237866	0.463703
424.616319	0.464173
424.994712	0.455428
425.373044	0.465617
425.751314	0.453684
426.129524	0.470252
426.507673	0.453963
426.885762	0.447195
427.263789	0.452853
427.641756	0.462567
428.019662	0.452967
428.397508	0.452132
428.775292	0.456705
429.153016	0.447927
429.530679	0.454826
429.908282	0.447262
430.285824	0.458016
430.663305	0.435854
431.040726	0.457483
431.418086	0.457776
431.795385	0.448846
432.172624	0.448120
432.549802	0.448073
432.926920	0.447104
433.303977	0.446696
433.680974	0.443733
434.057910	0.442231
434.434786	0.441702
434.811601	0.444703
435.188355	0.426886
435.565050	0.436736
435.941683	0.437389
436.318257	0.421114
436.694770	0.422422
437.071222	0.420212
437.447614	0.424761
437.823946	0.431406
438.200218	0.420696
438.576429	0.429917
438.952580	0.423170
439.328670	0.419625
439.704700	0.426918
440.080670	0.428037
440.456580	0.409025
440.832429	0.417370
441.208218	0.427653
441.583947	0.417172
441.959616	0.416479
442.335224	0.422224
442.710773	0.412561
443.086261	0.411024
443.461689	0.424453
443.837057	0.414379
444.212365	0.404321
444.587612	0.411326
444.962800	0.401334
445.337927	0.402840
445.712995	0.429195
446.088002	0.390900
446.462949	0.401265
446.837837	0.406670
447.212664	0.394681
447.587431	0.386903
447.962139	0.357036
448.336786	0.315918
448.711374	0.326591
449.085901	0.371382
449.460369	0.374927
449.834776	0.378489
450.209124	0.357552
450.583412	0.350477
450.957640	0.343200
451.331808	0.354736
451.705917	0.378330
452.079965	0.382834
452.453954	0.370921
452.827883	0.377829
453.201752	0.372283
453.575562	0.384097
453.949311	0.372426
454.323001	0.378432
454.696632	0.374862
455.070202	0.367460
455.443713	0.358789
455.817164	0.353654
456.190556	0.349282
456.563888	0.346093
456.937160	0.344076
457.310373	0.361114
457.683526	0.359872
458.056619	0.365923
458.429653	0.366068
458.802628	0.370162
459.175542	0.364093
459.548398	0.346041
459.921194	0.339125
460.293930	0.338704
460.666607	0.316619
461.039224	0.304786
461.411782	0.300386
461.784280	0.299689
462.156719	0.303655
462.529099	0.308182
462.901419	0.324590
463.273680	0.328658
463.645882	0.328129
464.018024	0.334099
464.390106	0.327123
464.762130	0.311201
465.134094	0.294363
465.505999	0.263264
465.877845	0.233671
466.249631	0.220576
466.621358	0.227875
466.993026	0.241728
467.364634	0.248017
467.736184	0.257201
468.107674	0.265966
468.479105	0.265049
468.850477	0.271638
469.221790	0.278373
469.593043	0.288730
469.964238	0.293327
470.335373	0.292640
470.706449	0.290898
471.077467	0.291611
471.448425	0.253715
471.819324	0.229086
472.190164	0.228662
472.560945	0.257741
472.931667	0.280140
473.302330	0.284337
473.672934	0.296237
474.043479	0.283998
474.413965	0.286154
474.784393	0.289579
475.154761	0.284336
475.525070	0.281629
475.895321	0.287516
476.265513	0.281374
476.635645	0.276977
477.005719	0.276688
477.375734	0.273346
477.745691	0.266669
478.115588	0.262728
478.485427	0.256213
478.855207	0.243496
479.224928	0.225623
479.594591	0.213780
479.964194	0.217032
480.333739	0.218472
480.703226	0.219828
481.072653	0.218002
481.442022	0.213888
481.811333	0.210613
482.180584	0.214080
482.549777	0.219653
482.918912	0.222637
483.287988	0.222477
483.657005	0.222250
484.025964	0.228555
484.394864	0.225630
484.763706	0.226212
485.132489	0.231425
485.501213	0.232323
485.869879	0.230346
486.238487	0.233743
486.607036	0.231707
486.975527	0.236460
487.343959	0.231685
487.712333	0.231467
488.080648	0.232472
488.448905	0.231924
488.817104	0.233126
489.185244	0.227483
489.553326	0.224590
489.921350	0.214165
490.289315	0.196641
490.657222	0.191413
491.025070	0.193004
491.392861	0.194953
491.760593	0.200747
492.128267	0.206413
492.495883	0.211705
492.863440	0.218244
493.230939	0.224794
493.598380	0.226321
493.965763	0.228231
494.333088	0.230325
494.700354	0.231751
495.067563	0.230950
495.434713	0.234472
495.801805	0.231949
496.168839	0.233473
496.535815	0.234902
496.902733	0.235005
497.269593	0.236439
497.636395	0.234223
498.003139	0.234425
498.369825	0.237615
498.736453	0.234059
499.103023	0.235604
499.469535	0.235016
499.835989	0.235235
500.202385	0.236050
500.568723	0.239606
500.935003	0.234609
501.301226	0.238781
501.667390	0.233233
502.033497	0.231326
502.399546	0.233970
502.765537	0.235926
503.131470	0.234362
503.497345	0.230801
503.863163	0.239310
504.228923	0.232575
504.594625	0.230872
504.960269	0.236482
505.325856	0.231790
505.691385	0.236203
506.056856	0.232883
506.422270	0.232298
506.787625	0.234837
507.152924	0.232427
507.518164	0.232558
507.883347	0.234233
508.248472	0.236242
508.613540	0.231023
508.978550	0.233331
509.343503	0.234075
509.708398	0.231679
510.073236	0.229401
510.438016	0.229109
510.802738	0.230030
511.167403	0.229138
511.532010	0.231059
511.896561	0.226588
512.261053	0.224929
512.625488	0.227063
512.989866	0.227624
513.354186	0.227983
513.718449	0.229884
514.082655	0.226205
514.446803	0.228242
514.810894	0.226225
515.174927	0.228968
515.538904	0.228329
515.902822	0.225208
516.266684	0.227612
516.630488	0.228872
516.994235	0.227501
517.357925	0.226517
517.721558	0.224453
518.085133	0.224276
518.448651	0.223975
518.812112	0.226541
519.175516	0.226176
519.538863	0.223688
519.902152	0.225506
520.265385	0.222126
520.628560	0.224038
520.991678	0.224428
521.354739	0.223293
521.717743	0.224269
522.080690	0.224600
522.443580	0.222153
522.806413	0.222906
523.169189	0.222703
523.531908	0.221275
523.894569	0.224925
524.257174	0.224976
524.619722	0.222455
524.982213	0.223640
525.344647	0.222367
525.707025	0.223445
526.069345	0.221366
526.431608	0.223332
526.793815	0.221200
527.155964	0.225315
527.518057	0.224105
527.880093	0.225057
528.242072	0.223721
528.603995	0.225770
528.965860	0.227605
529.327669	0.226568
529.689421	0.227523
530.051117	0.228172
530.412755	0.225928
530.774337	0.228283
531.135862	0.228779
531.497331	0.228027
531.858743	0.230878
532.220098	0.227539
532.581396	0.229962
532.942638	0.230709
533.303824	0.231676
533.664953	0.231326
534.026025	0.233380
534.387040	0.231024
534.747999	0.230909
535.108902	0.229911
535.469748	0.235232
535.830537	0.232996
536.191270	0.232932
536.551947	0.232695
536.912567	0.232889
537.273131	0.234422
537.633638	0.234815
537.994089	0.235114
538.354483	0.236162
538.714821	0.233328
539.075103	0.232891
539.435328	0.233657
539.795497	0.237227
540.155609	0.234231
540.515665	0.232332
540.875665	0.237887
541.235609	0.236636
541.595496	0.236344
541.955328	0.233302
542.315102	0.235923
542.674821	0.237057
543.034483	0.236894
543.394090	0.236656
543.753640	0.238575
544.113134	0.233506
544.472571	0.236782
544.831953	0.233899
545.191278	0.237893
545.550548	0.237357
545.909761	0.234419
546.268918	0.234971
546.628019	0.233206
546.987064	0.236103
547.346053	0.237833
547.704986	0.235757
548.063863	0.235857
548.422684	0.236141
548.781449	0.238060
549.140158	0.235755
549.498811	0.238575
549.857408	0.241425
550.215949	0.236197
550.574434	0.239313
550.932864	0.237403
551.291237	0.236043
551.649555	0.237746
552.007817	0.237245
552.366022	0.238096
552.724173	0.238424
553.082267	0.238565
553.440305	0.235285
553.798288	0.239598
554.156215	0.236581
554.514086	0.237086
554.871902	0.240293
555.229661	0.239382
555.587365	0.240001
555.945014	0.242618
556.302606	0.239860
556.660143	0.242154
557.017625	0.238904
557.375050	0.241062
557.732421	0.237560
558.089735	0.239725
558.446994	0.239768
558.804197	0.239033
559.161345	0.238999
559.518437	0.242258
559.875474	0.240611
560.232455	0.239740
560.589381	0.240663
560.946251	0.240800
561.303065	0.238687
561.659825	0.239849
562.016528	0.241792
562.373177	0.244476
562.729770	0.241681
563.086307	0.243554
563.442789	0.241675
563.799216	0.244280
564.155587	0.243424
564.511904	0.244254
564.868164	0.244242
565.224370	0.244030
565.580520	0.246011
565.936615	0.245617
566.292654	0.248601
566.648638	0.245802
567.004567	0.246613
567.360441	0.247084
567.716260	0.249096
568.072023	0.246843
568.427732	0.247717
568.783385	0.250149
569.138982	0.248344
569.494525	0.247898
569.850013	0.250981
570.205445	0.249352
570.560823	0.251654
570.916145	0.253592
571.271412	0.252044
571.626625	0.253643
571.981782	0.253966
572.336884	0.254910
572.691931	0.254590
573.046923	0.255768
573.401860	0.257136
573.756743	0.258948
574.111570	0.257549
574.466342	0.258108
574.821059	0.257156
575.175722	0.260116
575.530330	0.259866
575.884882	0.259868
576.239380	0.261997
576.593823	0.262641
576.948211	0.261896
577.302544	0.265525
577.656823	0.265027
578.011047	0.264728
578.365216	0.265545
578.719330	0.267906
579.073389	0.267132
579.427394	0.268493
579.781344	0.269546
580.135239	0.270634
580.489080	0.270646
580.842866	0.273563
581.196597	0.273547
581.550273	0.271941
581.903895	0.273038
582.257463	0.271146
582.610975	0.274343
582.964434	0.273900
583.317837	0.276099
583.671186	0.276668
584.024481	0.276747
584.377721	0.279268
584.730906	0.279987
585.084037	0.279251
585.437113	0.281176
585.790135	0.280287
586.143103	0.283742
586.496016	0.284438
586.848874	0.282104
587.201679	0.282681
587.554428	0.286238
587.907124	0.285050
588.259765	0.285842
588.612352	0.286065
588.964884	0.290146
589.317362	0.289360
589.669786	0.289365
590.022155	0.287946
590.374470	0.287225
590.726731	0.289107
591.078937	0.294542
591.431090	0.290813
591.783188	0.294436
592.135232	0.295210
592.487222	0.295376
592.839157	0.293412
593.191038	0.295171
593.542866	0.297377
593.894639	0.300304
594.246358	0.299135
594.598022	0.298650
594.949633	0.302273
595.301190	0.302969
595.652692	0.302016
596.004141	0.297810
596.355535	0.306355
596.706876	0.306770
597.058162	0.309385
597.409395	0.306012
597.760573	0.303878
598.111698	0.307242
598.462768	0.307853
598.813785	0.309002
599.164748	0.310319
599.515657	0.310894
599.866511	0.314458
600.217312	0.309382
600.568060	0.314689
600.918753	0.310986
601.269392	0.311967
601.619978	0.315626
601.970510	0.313114
602.320988	0.313261
602.671412	0.310663
603.021783	0.313259
603.372100	0.314837
603.722363	0.314447
604.072572	0.315362
604.422728	0.314862
604.772830	0.317254
605.122878	0.316662
605.472872	0.317288
605.822813	0.315903
606.172701	0.318505
606.522534	0.315541
606.872314	0.315877
607.222041	0.317095
607.571714	0.314990
607.921333	0.316374
608.270899	0.315881
608.620411	0.312751
608.969870	0.317151
609.319276	0.316982
609.668627	0.316825
610.017926	0.315593
610.367171	0.314112
610.716362	0.314765
611.065500	0.314937
611.414585	0.313698
611.763616	0.313973
612.112594	0.314536
612.461518	0.314079
612.810389	0.311764
613.159207	0.313753
613.507971	0.315386
613.856682	0.311409
614.205340	0.312694
614.553945	0.310178
614.902496	0.313805
615.250994	0.311838
615.599439	0.312329
615.947830	0.311958
616.296169	0.313192
616.644454	0.312777
616.992686	0.312567
617.340864	0.310814
617.688990	0.313953
618.037063	0.310643
618.385082	0.312540
618.733048	0.309756
619.080961	0.311672
619.428821	0.311237
619.776628	0.310722
620.124382	0.313405
620.472083	0.313922
620.819731	0.313102
621.167326	0.316958
621.514868	0.316856
621.862357	0.320554
622.209793	0.320280
622.557176	0.322974
622.904506	0.323790
623.251783	0.326381
623.599007	0.328585
623.946179	0.327982
624.293297	0.330493
624.640363	0.334005
624.987376	0.334481
625.334336	0.336647
625.681243	0.339398
626.028097	0.340274
626.374899	0.341109
626.721647	0.341445
627.068343	0.344392
627.414987	0.346119
627.761577	0.348091
628.108115	0.345997
628.454600	0.351483
628.801032	0.349172
629.147412	0.350867
629.493739	0.351672
629.840014	0.354381
630.186236	0.351807
630.532405	0.357641
630.878521	0.355041
631.224585	0.357034
631.570597	0.361041
631.916556	0.359933
632.262462	0.359653
632.608316	0.361876
632.954117	0.363068
633.299866	0.364061
633.645562	0.364152
633.991206	0.368513
634.336797	0.370916
634.682336	0.374084
635.027823	0.375852
635.373257	0.376098
635.718639	0.379657
636.063968	0.379089
636.409245	0.384927
636.754470	0.385554
637.099642	0.387797
637.444762	0.391388
637.789829	0.390744
638.134845	0.394141
638.479808	0.395044
638.824719	0.394960
639.169577	0.399279
639.514383	0.398386
639.859137	0.402815
640.203839	0.402561
640.548489	0.403337
640.893086	0.404191
641.237632	0.406475
641.582125	0.404895
641.926566	0.407237
642.270955	0.407144
642.615292	0.407211
642.959576	0.406402
643.303809	0.407503
643.647990	0.407260
643.992118	0.407605
644.336195	0.410834
644.680219	0.409781
645.024192	0.410261
645.368112	0.404407
645.711981	0.403953
646.055797	0.399219
646.399562	0.401503
646.743274	0.395011
647.086935	0.391600
647.430544	0.392352
647.774101	0.391453
648.117606	0.391327
648.461059	0.392108
648.804460	0.394425
649.147810	0.399359
649.491108	0.401351
649.834354	0.403702
650.177548	0.408709
650.520690	0.414100
650.863781	0.415265
651.206820	0.415110
651.549807	0.419845
651.892742	0.424298
652.235626	0.424403
652.578458	0.424625
652.921238	0.431677
653.263967	0.429015
653.606644	0.432809
653.949269	0.433932
654.291843	0.437457
654.634365	0.435492
654.976836	0.438088
655.319255	0.438426
655.661622	0.440998
656.003938	0.441073
656.346203	0.443973
656.688416	0.442509
657.030577	0.445433
657.372687	0.448434
657.714746	0.449369
658.056753	0.446792
658.398708	0.451100
658.740612	0.451721
659.082465	0.448757
659.424266	0.449759
659.766016	0.449099
660.107715	0.453164
660.449362	0.452271
660.790958	0.453038
661.132503	0.453650
661.473996	0.452099
661.815438	0.453370
662.156829	0.453901
662.498168	0.454435
662.839456	0.456018
663.180693	0.454706
663.521879	0.454836
663.863013	0.455803
664.204097	0.455660
664.545129	0.452491
664.886110	0.453551
665.227040	0.451681
665.567918	0.454416
665.908746	0.452645
666.249522	0.452999
666.590248	0.454552
666.930922	0.452949
667.271545	0.452590
667.612118	0.452985
667.952639	0.454790
668.293109	0.454577
668.633528	0.457633
668.973896	0.457271
669.314213	0.458735
669.654480	0.461325
669.994695	0.460833
670.334859	0.461951
670.674973	0.463288
671.015035	0.463678
671.355047	0.464978
671.695008	0.465897
672.034918	0.467864
672.374777	0.468039
672.714585	0.469872
673.054342	0.470698
673.394049	0.471371
673.733705	0.470088
674.073310	0.471964
674.412864	0.473592
674.752368	0.475684
675.091820	0.476631
675.431223	0.481035
675.770574	0.481353
676.109875	0.484662
676.449125	0.484894
676.788324	0.487439
677.127473	0.492873
677.466571	0.492928
677.805619	0.495556
678.144616	0.497818
678.483562	0.499581
678.822458	0.502249
679.161303	0.502689
679.500098	0.504749
679.838842	0.506474
680.177535	0.506474
680.516179	0.505298
680.854771	0.505561
681.193314	0.500271
681.531805	0.492638
681.870247	0.484581
682.208638	0.479108
682.546978	0.477971
682.885268	0.479446
683.223508	0.487414
683.561697	0.490802
683.899836	0.493718
684.237925	0.497346
684.575963	0.501052
684.913951	0.504066
685.251889	0.501559
685.589776	0.503485
685.927614	0.505486
686.265401	0.502845
686.603137	0.503907
686.940824	0.500453
687.278460	0.499646
687.616046	0.500685
687.953582	0.496402
688.291068	0.499049
688.628504	0.496360
688.965889	0.498502
689.303224	0.502650
689.640510	0.507176
689.977745	0.512809
690.314930	0.519707
690.652065	0.524306
690.989150	0.530626
691.326185	0.538194
691.663170	0.543322
692.000105	0.549053
692.336990	0.555134
692.673825	0.558927
693.010610	0.565216
693.347345	0.569329
693.684030	0.574309
694.020665	0.577821
694.357251	0.584781
694.693786	0.585709
695.030272	0.589034
695.366707	0.594209
695.703093	0.596718
696.039429	0.596096
696.375716	0.599771
696.711952	0.601639
697.048139	0.603070
697.384276	0.605991
697.720363	0.605700
698.056400	0.606206
698.392388	0.611531
698.728326	0.613842
699.064214	0.616417
699.400053	0.617389
699.735842	0.623803
700.071581	0.624962
700.407270	0.628134
700.742910	0.631423
701.078501	0.636655
701.414042	0.638909
701.749533	0.642206
702.084974	0.649115
702.420366	0.644612
702.755709	0.651234
703.091002	0.656865
703.426246	0.654499
703.761440	0.657036
704.096584	0.660274
704.431679	0.660490
704.766725	0.663306
705.101721	0.665691
705.436668	0.664078
705.771565	0.667413
706.106413	0.664516
706.441212	0.665110
706.775961	0.665818
707.110661	0.665516
707.445311	0.662081
707.779913	0.664521
708.114465	0.662800
708.448967	0.658981
708.783421	0.654787
709.117825	0.651985
709.452180	0.651749
709.786485	0.645995
710.120742	0.640349
710.454949	0.641106
710.789107	0.635643
711.123216	0.629446
711.457275	0.630042
711.791286	0.626002
712.125247	0.627456
712.459159	0.631528
712.793023	0.625639
713.126837	0.635626
713.460602	0.635339
713.794318	0.638777
714.127985	0.640452
714.461602	0.651665
714.795171	0.651706
715.128691	0.658571
715.462162	0.666259
715.795584	0.672713
716.128957	0.675290
716.462281	0.677511
716.795556	0.682953
717.128782	0.689226
717.461960	0.695388
717.795088	0.696253
718.128167	0.702331
718.461198	0.706070
718.794180	0.707700
719.127113	0.712724
719.459997	0.715509
719.792833	0.720055
720.125619	0.719849
720.458357	0.726576
720.791046	0.727763
721.123686	0.730734
721.456278	0.734797
721.788821	0.734690
722.121315	0.739300
722.453761	0.740535
722.786158	0.741364
723.118506	0.739575
723.450805	0.742047
723.783056	0.740704
724.115259	0.742031
724.447412	0.742592
724.779518	0.742078
725.111574	0.741517
725.443582	0.739209
725.775542	0.742281
726.107453	0.737793
726.439315	0.738507
726.771129	0.735223
727.102895	0.731465
727.434612	0.727985
727.766281	0.726224
728.097901	0.725112
728.429473	0.726026
728.760996	0.725072
729.092471	0.725335
729.423897	0.730074
729.755276	0.731326
730.086606	0.730295
730.417887	0.726121
730.749120	0.721115
731.080305	0.717531
731.411442	0.713995
731.742530	0.715916
732.073570	0.716402
732.404562	0.713124
732.735506	0.715190
733.066401	0.718163
733.397249	0.724205
733.728048	0.733396
734.058798	0.746303
734.389501	0.754101
734.720156	0.758983
735.050762	0.765305
735.381320	0.768758
735.711831	0.772862
736.042293	0.776359
736.372707	0.777627
736.703073	0.779318
737.033391	0.779257
737.363661	0.778551
737.693883	0.777776
738.024056	0.776047
738.354182	0.775525
738.684260	0.769188
739.014290	0.766921
739.344272	0.766597
739.674207	0.763205
740.004093	0.763026
740.333931	0.762890
740.663722	0.764727
740.993464	0.765682
741.323159	0.767841
741.652806	0.772554
741.982405	0.777104
742.311956	0.781229
742.641460	0.783002
742.970915	0.785872
743.300323	0.789851
743.629683	0.794696
743.958996	0.797924
744.288260	0.800896
744.617477	0.806674
744.946647	0.806718
745.275768	0.813010
745.604842	0.812858
745.933869	0.816849
746.262847	0.819301
746.591778	0.817925
746.920662	0.820994
747.249498	0.823554
747.578286	0.821467
747.907027	0.818393
748.235720	0.815007
748.564365	0.815477
748.892963	0.818010
749.221514	0.819512
749.550017	0.819752
749.878473	0.821296
750.206881	0.826898
750.535242	0.827423
750.863555	0.828074
751.191821	0.830150
751.520039	0.829408
751.848210	0.830647
752.176334	0.830827
752.504411	0.832016
752.832440	0.834785
753.160421	0.835706
753.488356	0.838124
753.816243	0.837416
754.144082	0.841275
754.471875	0.843032
754.799620	0.843159
755.127318	0.843085
755.454969	0.844078
755.782572	0.845724
756.110129	0.844657
756.437638	0.847636
756.765100	0.847269
757.092515	0.846035
757.419882	0.845996
757.747203	0.848129
758.074477	0.847510
758.401703	0.846531
758.728882	0.844252
759.056014	0.844692
759.383099	0.843714
759.710138	0.842913
760.037129	0.840401
760.364073	0.841018
760.690970	0.842795
761.017820	0.842325
761.344623	0.841945
761.671379	0.837913
761.998088	0.832371
762.324751	0.819789
762.651366	0.792044
762.977935	0.748102
763.304456	0.719980
763.630931	0.718529
763.957359	0.741362
764.283740	0.769029
764.610074	0.788922
764.936362	0.809040
765.262602	0.822988
765.588796	0.836365
765.914943	0.845678
766.241044	0.855626
766.567097	0.859610
766.893104	0.866286
767.219064	0.869617
767.544978	0.874958
767.870845	0.880630
768.196665	0.882421
768.522438	0.884659
768.848165	0.886676
769.173846	0.890043
769.499479	0.892425
769.825066	0.893971
770.150607	0.897696
770.476101	0.897015
770.801548	0.898008
771.126949	0.902882
771.452303	0.904432
771.777611	0.906873
772.102872	0.906730
772.428087	0.908882
772.753256	0.910869
773.078378	0.913225
773.403453	0.916419
773.728482	0.918760
774.053465	0.917146
774.378401	0.918263
774.703291	0.922457
775.028135	0.923673
775.352932	0.922708
775.677683	0.925375
776.002388	0.925869
776.327046	0.925843
776.651658	0.927409
776.976224	0.930133
777.300743	0.930003
777.625216	0.931004
777.949643	0.932819
778.274024	0.932086
778.598359	0.933602
778.922647	0.933225
779.246889	0.934801
779.571086	0.935750
779.895236	0.935156
780.219339	0.935361
780.543397	0.932670
780.867409	0.933083
781.191374	0.934366
781.515294	0.936123
781.839167	0.935108
782.162995	0.935911
782.486776	0.935043
782.810511	0.935247
783.134201	0.938302
783.457844	0.938647
783.781441	0.939388
784.104993	0.941206
784.428498	0.942262
784.751958	0.942338
785.075372	0.942401
785.398739	0.943394
785.722061	0.942621
786.045337	0.942065
786.368568	0.941423
786.691752	0.942232
787.014891	0.937965
787.337983	0.932967
787.661030	0.926851
787.984031	0.918013
788.306987	0.913710
788.629897	0.912976
788.952760	0.918339
789.275579	0.921564
789.598351	0.929039
789.921078	0.934980
790.243759	0.938284
790.566395	0.940040
790.888984	0.942812
791.211529	0.945021
791.534027	0.945721
791.856480	0.948884
792.178888	0.949134
792.501249	0.951606
792.823566	0.952854
793.145836	0.953172
793.468062	0.953875
793.790241	0.955595
794.112375	0.952480
794.434464	0.953179
794.756507	0.950964
795.078505	0.949877
795.400457	0.947068
795.722364	0.941080
796.044226	0.937874
796.366042	0.937330
796.687812	0.939312
797.009538	0.938781
797.331218	0.941045
797.652852	0.943526
797.974442	0.945012
798.295986	0.946387
798.617484	0.946462
798.938938	0.950053
799.260346	0.951616
799.581709	0.952725
799.903026	0.954402
800.224299	0.953667
800.545526	0.956109
800.866708	0.956935
801.187845	0.959319
801.508936	0.958493
801.829983	0.960001
802.150984	0.960441
802.471940	0.962518
802.792851	0.961476
803.113717	0.962620
803.434538	0.962668
803.755314	0.964110
804.076045	0.963226
804.396731	0.962882
804.717372	0.962011
805.037967	0.963789
805.358518	0.962888
805.679024	0.961110
805.999485	0.960694
806.319901	0.961511
806.640272	0.962783
806.960598	0.962515
807.280879	0.961544
807.601115	0.961170
807.921306	0.961951
808.241453	0.962330
808.561554	0.961106
808.881611	0.961319
809.201623	0.962556
809.521590	0.962267
809.841513	0.963532
810.161390	0.962567
810.481223	0.963225
810.801011	0.966131
811.120755	0.966697
811.440453	0.966084
811.760107	0.966640
812.079716	0.966337
812.399281	0.967846
812.718801	0.968029
813.038276	0.968969
813.357707	0.969875
813.677093	0.969210
813.996434	0.969716
814.315731	0.970957
814.634983	0.971072
814.954191	0.971623
815.273354	0.969852
815.592473	0.968203
815.911547	0.968695
816.230577	0.967580
816.549562	0.966793
816.868502	0.966023
817.187399	0.966631
817.506250	0.965572
817.825058	0.964968
818.143821	0.964306
818.462539	0.963612
818.781213	0.960483
819.099843	0.956860
819.418429	0.949446
819.736970	0.943823
820.055466	0.935962
820.373919	0.928909
820.692327	0.919951
821.010691	0.905927
821.329011	0.867299
821.647286	0.801328
821.965517	0.737615
822.283704	0.713319
822.601847	0.718439
822.919945	0.748212
823.237999	0.780652
823.556010	0.809492
823.873976	0.836665
824.191897	0.858428
824.509775	0.878085
824.827609	0.892903
825.145398	0.901400
825.463144	0.901705
825.780845	0.897639
826.098502	0.889339
826.416116	0.868929
826.733685	0.847765
827.051210	0.842677
827.368692	0.854408
827.686129	0.873882
828.003522	0.895638
828.320872	0.912417
828.638177	0.927555
828.955439	0.938165
829.272656	0.945233
829.589830	0.951314
829.906960	0.957722
830.224046	0.961126
830.541088	0.965205
830.858086	0.966072
831.175041	0.969932
831.491952	0.968121
831.808819	0.968479
832.125642	0.966101
832.442421	0.962773
832.759157	0.954843
833.075849	0.936483
833.392497	0.915452
833.709101	0.901309
834.025662	0.904802
834.342179	0.916487
834.658653	0.932541
834.975083	0.943677
835.291469	0.952985
835.607811	0.959766
835.924110	0.964750
836.240366	0.970465
836.556578	0.973202
836.872746	0.976726
837.188871	0.977776
837.504952	0.980110
837.820990	0.981378
838.136984	0.981457
838.452935	0.982848
838.768842	0.983466
839.084706	0.981030
839.400526	0.973649
839.716303	0.957700
840.032037	0.950235
840.347727	0.952670
840.663373	0.959673
840.978977	0.968147
841.294537	0.975510
841.610054	0.979307
841.925527	0.982311
842.240957	0.983454
842.556344	0.985470
842.871687	0.987827
843.186987	0.988344
843.502244	0.990306
843.817458	0.989167
844.132629	0.991080
844.447756	0.990430
844.762840	0.991916
845.077881	0.991523
845.392879	0.991556
845.707833	0.992378
846.022745	0.992900
846.337613	0.993362
846.652438	0.992094
846.967221	0.993340
847.281960	0.992805
847.596656	0.992900
847.911309	0.993465
848.225919	0.992365
848.540485	0.993250
848.855009	0.995781
849.169490	0.992822
849.483928	0.994072
849.798323	0.992672
850.112675	0.994841
850.426984	0.994605
850.741251	0.994611
851.055474	0.994489
851.369654	0.994817
851.683792	0.993894
851.997887	0.994826
852.311938	0.995247
852.625947	0.993375
852.939914	0.993170
853.253837	0.995331
853.567718	0.995745
853.881555	0.994583
854.195350	0.993471
854.509103	0.994562
854.822812	0.995304
855.136479	0.994817
855.450103	0.994911
855.763685	0.993866
856.077224	0.994634
856.390720	0.994594
856.704173	0.995023
857.017584	0.995083
857.330953	0.994141
857.644278	0.993606
857.957561	0.993497
858.270802	0.994606
858.584000	0.994042
858.897155	0.993442
859.210268	0.994146
859.523339	0.995223
859.836367	0.995402
860.149352	0.993568
860.462295	0.994242
860.775195	0.995326
861.088054	0.992983
861.400869	0.994625
861.713642	0.994211
862.026373	0.995215
862.339062	0.995657
862.651708	0.995013
862.964312	0.994278
863.276873	0.993902
863.589392	0.994933
863.901869	0.993880
864.214303	0.993747
864.526696	0.993089
864.839045	0.993123
865.151353	0.993918
865.463619	0.991419
865.775842	0.994104
866.088023	0.993791
866.400162	0.993013
866.712258	0.994242
867.024313	0.994333
867.336325	0.994890
867.648296	0.993663
867.960224	0.993664
868.272110	0.993809
868.583954	0.993035
868.895755	0.994686
869.207515	0.992513
869.519233	0.993664
869.830909	0.992530
870.142542	0.993237
870.454134	0.992919
870.765684	0.991056
871.077191	0.992265
871.388657	0.992978
871.700081	0.993187
872.011463	0.992771
872.322803	0.991190
872.634101	0.990676
872.945357	0.991397
873.256571	0.990998
873.567744	0.991317
873.878874	0.990544
874.189963	0.989974
874.501010	0.992950
874.812015	0.991191
875.122979	0.991174
875.433900	0.990575
875.744780	0.991594
876.055618	0.990785
876.366415	0.990328
876.677169	0.990180
876.987882	0.990566
877.298554	0.990653
877.609183	0.989871
877.919771	0.989614
878.230317	0.989134
878.540822	0.988040
878.851285	0.987116
879.161707	0.985635
879.472087	0.985000
879.782425	0.978722
880.092722	0.969338
880.402977	0.955294
880.713191	0.931285
881.023363	0.901043
881.333494	0.884373
881.643583	0.880374
881.953631	0.886573
882.263637	0.898568
882.573602	0.910343
882.883526	0.922575
883.193408	0.933569
883.503248	0.941292
883.813048	0.947745
884.122806	0.957211
884.432522	0.962906
884.742197	0.968352
885.051831	0.972632
885.361424	0.975445
885.670975	0.979102
885.980485	0.981231
886.289954	0.983271
886.599382	0.983406
886.908768	0.984732
887.218113	0.986749
887.527417	0.988599
887.836680	0.989362
888.145901	0.989516
888.455082	0.990691
888.764221	0.991130
889.073319	0.989711
889.382376	0.992578
889.691392	0.990337
890.000366	0.991773
890.309300	0.991241
890.618193	0.991194
890.927044	0.990695
891.235855	0.989886
891.544625	0.990119
891.853353	0.991058
892.162041	0.990949
892.470687	0.988279
892.779293	0.987517
893.087858	0.986418
893.396381	0.984026
893.704864	0.980594
894.013306	0.975496
894.321707	0.967355
894.630068	0.962378
894.938387	0.962166
895.246665	0.961923
895.554903	0.965554
895.863100	0.970931
896.171256	0.974863
896.479371	0.978327
896.787446	0.981634
897.095480	0.983756
897.403473	0.985584
897.711425	0.986678
898.019336	0.988919
898.327207	0.988614
898.635038	0.988948
898.942827	0.990072
899.250576	0.989936
899.558284	0.990688
899.865952	0.990294
900.173579	0.992193
900.481165	0.991775
900.788711	0.990827
901.096216	0.991678
901.403681	0.993262
901.711105	0.991979
902.018489	0.993473
902.325832	0.992510
902.633135	0.992545
902.940397	0.991966
903.247619	0.988973
903.554800	0.982257
903.861941	0.971498
904.169041	0.959625
904.476101	0.955405
904.783121	0.955415
905.090100	0.960142
905.397039	0.966174
905.703938	0.972180
906.010796	0.977768
906.317614	0.982468
906.624391	0.985253
906.931129	0.989258
907.237826	0.990579
907.544483	0.991144
907.851099	0.992189
908.157675	0.993839
908.464211	0.994893
908.770707	0.993936
909.077163	0.994829
909.383578	0.995717
909.689954	0.995226
909.996289	0.995137
910.302584	0.996123
910.608839	0.997752
910.915054	0.997122
911.221229	0.997411
911.527363	0.996105
911.833458	0.997467
912.139513	0.996222
912.445527	0.995707
912.751502	0.995598
913.057436	0.993875
913.363331	0.994788
913.669186	0.994297
913.975000	0.993169
914.280775	0.990959
914.586510	0.988146
914.892205	0.983845
915.197859	0.979696
915.503475	0.972884
915.809050	0.967354
916.114585	0.963542
916.420081	0.962379
916.725536	0.963450
917.030952	0.965978
917.336328	0.970374
917.641665	0.973069
917.946961	0.976624
918.252218	0.980377
918.557435	0.983056
918.862612	0.986269
919.167750	0.986403
919.472848	0.989031
919.777906	0.990820
920.082925	0.992048
920.387904	0.991900
920.692843	0.991727
920.997743	0.992725
921.302603	0.994007
921.607423	0.993030
921.912204	0.994206
922.216946	0.995860
922.521647	0.994741
922.826310	0.995054
923.130932	0.996267
923.435516	0.995410
923.740059	0.996586
924.044564	0.997024
924.349028	0.996240
924.653454	0.997110
924.957840	0.997614
925.262186	0.997187
925.566493	0.999388
925.870761	0.998536
926.174989	0.997375
926.479178	0.998420
926.783328	0.998710
927.087438	0.997792
927.391509	0.997886
927.695541	0.998889
927.999533	0.999144
928.303486	0.999269
928.607400	0.998828
928.911275	0.999213
929.215110	1.001090
929.518906	0.999597
929.822663	1.000516
930.126381	0.999769
930.430060	1.000433
930.733699	1.000121
931.037299	0.999443
931.340861	1.000347
931.644383	0.997095
931.947866	0.999229
932.251309	0.999146
932.554714	0.999246
932.858080	1.000069
933.161407	0.999297
933.464694	1.000044
933.767943	1.000638
934.071153	1.000041
934.374323	1.000269
934.677455	0.999682
934.980548	0.999407
935.283602	1.000343
935.586617	0.999962
935.889593	1.000112
936.192530	1.000380
936.495428	1.000234
936.798287	0.998808
937.101108	0.999995
937.403890	0.999313
937.706632	0.999518
938.009336	0.998238
938.312002	0.998513
938.614628	0.998641
938.917216	0.997270
939.219765	0.997517
939.522275	0.998118
939.824747	0.997634
940.127179	0.997603
940.429573	0.998958
940.731929	0.996575
941.034246	0.998034
941.336524	0.996465
941.638763	0.997975
941.940964	0.998103
942.243126	0.998270
942.545250	0.998906
942.847335	0.998277
943.149381	0.998423
943.451389	0.998827
943.753359	0.999397
944.055290	1.000470
944.357182	0.999442
944.659036	0.999422
944.960851	0.999582
945.262628	0.999189
945.564367	0.999514
945.866067	0.999178
946.167729	1.000019
946.469352	0.999684
946.770937	0.997808
947.072484	0.999156
947.373992	0.999888
947.675462	0.998325
947.976893	0.998989
948.278286	0.999844
948.579641	0.999465
948.880958	0.999759
949.182236	0.999810
949.483476	1.000295
949.784678	0.999105
950.085841	0.999897
950.386967	0.999031
950.688054	0.998830
950.989103	0.998236
951.290114	0.998514
951.591087	0.999459
951.892021	0.999342
952.192917	0.999097
952.493776	1.000882
952.794596	0.998836
953.095378	0.998371
953.396122	0.998450
953.696828	0.999415
953.997496	0.999014
954.298126	1.000502
954.598718	0.999150
954.899272	0.999463
955.199788	0.999488
955.500266	1.000767
955.800706	0.999319
956.101108	0.999480
956.401472	1.001914
956.701798	0.999686
957.002087	1.001529
957.302337	1.000188
957.602550	1.001619
957.902724	1.000967
958.202861	1.001001
958.502960	1.001839
958.803022	1.001836
959.103045	1.000975
959.403031	1.002746
959.702979	1.002767
960.002889	1.001214
960.302762	0.999858
960.602596	1.001802
960.902393	1.000483
961.202153	1.002195
961.501875	1.002097
961.801559	1.002868
962.101205	1.001406
962.400814	1.002634
962.700385	1.001638
962.999918	1.001703
963.299414	1.002690
963.598873	1.001544
963.898293	1.001741
964.197677	1.001262
964.497022	1.001525
964.796331	1.001925
965.095601	1.001825
965.394835	1.002009
965.694030	1.003008
965.993189	1.002552
966.292309	1.001539
966.591393	1.000916
966.890439	1.002432
967.189447	1.002044
967.488419	1.002360
967.787353	1.002229
968.086249	1.001668
968.385108	1.002063
968.683930	1.002683
968.982714	1.001256
969.281462	1.003040
969.580172	1.001293
969.878844	1.002475
970.177480	1.001357
970.476078	1.002804
970.774639	1.002349
971.073162	1.002644
971.371649	1.001051
971.670098	1.001003
971.968510	1.002501
972.266885	1.001755
972.565223	1.001059
972.863524	1.000821
973.161788	1.001906
973.460014	1.003448
973.758204	1.000945
974.056356	1.001501
974.354471	1.000851
974.652550	1.002025
974.950591	1.001906
975.248595	0.999817
975.546563	1.002693
975.844493	1.002150
976.142386	1.001384
976.440243	1.002573
976.738062	1.002275
977.035845	1.000717
977.333590	1.002869
977.631299	1.001082
977.928971	1.002123
978.226606	1.001671
978.524204	1.002098
978.821765	1.003164
979.119290	1.002841
979.416777	1.003066
979.714228	1.002088
980.011642	1.004119
980.309020	1.001522
980.606360	1.000640
980.903664	1.002113
981.200931	1.000890
981.498162	1.000965
981.795356	1.002074
982.092513	1.001183
982.389633	1.003021
982.686717	1.000680
982.983764	1.000722
983.280775	1.000264
983.577749	1.001415
983.874686	1.000232
984.171587	1.001116
984.468451	1.001656
984.765279	1.002498
985.062070	1.001958
985.358824	1.001540
985.655543	1.002377
985.952224	1.001719
986.248869	1.002580
986.545478	1.003380
986.842050	1.001696
987.138586	1.002305
987.435086	1.001663
987.731549	1.003561
988.027975	1.003481
988.324366	1.002984
988.620719	1.003428
988.917037	1.002341
989.213318	1.003416
989.509563	1.002943
989.805772	1.002504
990.101944	1.004021
990.398080	1.001913
990.694180	1.004257
990.990244	1.001015
991.286271	1.002074
991.582262	1.002464
991.878217	1.001964
992.174136	1.002597
992.470019	1.003039
992.765865	1.003867
993.061676	1.002471
993.357450	1.002947
993.653188	1.002962
993.948890	1.002573
994.244556	1.002400
994.540186	1.002570
994.835780	1.001979
995.131337	1.004483
995.426859	1.002282
995.722345	1.002528
996.017795	1.001725
996.313208	1.002448
996.608586	1.000687
996.903928	1.001682
997.199234	1.001506
997.494504	1.003288
997.789738	1.001413
998.084936	1.002021
998.380099	1.001283
998.675225	1.003115
998.970316	1.002693
999.265371	1.002401
999.560390	1.002833
999.855373	1.002747
1000.150320	1.003578
1000.445232	1.003267
1000.740108	1.003098
1001.034948	1.002327
1001.329752	1.004502
1001.624521	1.002134
1001.919254	1.002611
1002.213951	1.002889
1002.508613	1.002383
1002.803239	1.002757
1003.097829	1.003619
1003.392384	1.003431
1003.686903	1.002853
1003.981386	1.002155
1004.275834	1.004384
1004.570246	1.002238
1004.864623	1.003762
1005.158964	1.004257
1005.453270	1.003996
1005.747540	1.003095
1006.041775	1.002621
1006.335974	1.003905
1006.630138	1.003469
1006.924266	1.001943
1007.218359	1.002455
1007.512416	1.003643
1007.806438	1.002035
1008.100425	1.002790
1008.394376	1.003427
1008.688292	1.003446
1008.982172	1.002714
1009.276017	1.003019
1009.569827	1.003810
1009.863602	1.001913
1010.157341	1.003202
1010.451045	1.002537
1010.744714	1.004219
1011.038347	1.003916
1011.331945	1.001827
1011.625508	1.002533
1011.919036	1.003676
1012.212528	1.003178
1012.505986	1.002630
1012.799408	1.003502
1013.092795	1.002407
1013.386147	1.002711
1013.679464	1.004235
1013.972745	1.002812
1014.265992	1.003571
1014.559204	1.002797
1014.852380	1.004186
1015.145521	1.002315
1015.438628	1.004102
1015.731699	1.002229
1016.024736	1.003467
1016.317737	1.003584
1016.610703	1.002970
1016.903635	1.003462
1017.196531	1.003144
1017.489393	1.002405
1017.782219	1.001992
1018.075011	1.002528
1018.367768	1.002600
1018.660490	1.003732
1018.953177	1.003732
1019.245829	1.003732
