Dividing Wavelength (nm)	Counts (n)	Blue Motor Position (mm): 6.700000	Red Motor Position (mm): 0.000000	
326.493990	1.005159
326.888308	1.005159
327.282561	1.005159
327.676750	1.005585
328.070874	1.006914
328.464933	1.006574
328.858929	1.005931
329.252859	1.006295
329.646726	1.005564
330.040528	1.006044
330.434265	1.006295
330.827938	1.004729
331.221547	1.004901
331.615091	1.006535
332.008571	1.005819
332.401986	1.004513
332.795338	1.004451
333.188625	1.005890
333.581847	1.005570
333.975006	1.004364
334.368100	1.006995
334.761129	1.004811
335.154095	1.004807
335.546996	1.003501
335.939833	0.996967
336.332606	0.998877
336.725315	0.997676
337.117960	0.999615
337.510540	0.999658
337.903056	0.999887
338.295508	0.999709
338.687896	0.999250
339.080220	0.998388
339.472480	0.998285
339.864676	0.998959
340.256807	0.998511
340.648875	0.999349
341.040879	0.998340
341.432818	1.000839
341.824694	0.998774
342.216506	1.000296
342.608253	0.998658
342.999937	0.998487
343.391557	0.999038
343.783113	1.000018
344.174605	0.999777
344.566033	0.998844
344.957397	0.999466
345.348697	0.999200
345.739934	0.999070
346.131106	0.999452
346.522215	0.997725
346.913260	0.999306
347.304241	0.997789
347.695159	0.998569
348.086012	0.998719
348.476802	0.998284
348.867528	0.998080
349.258191	0.999256
349.648789	0.998581
350.039324	0.997481
350.429796	0.998569
350.820203	0.996802
351.210548	0.999853
351.600828	0.998502
351.991045	0.999328
352.381198	0.998112
352.771288	0.997300
353.161314	0.998261
353.551276	0.997662
353.941175	0.996919
354.331010	0.998420
354.720782	0.998611
355.110490	0.997797
355.500135	0.998523
355.889717	0.997194
356.279235	0.998609
356.668689	0.997553
357.058080	0.997372
357.447408	0.997528
357.836672	0.996719
358.225873	0.998698
358.615010	0.998543
359.004084	0.997242
359.393095	0.998205
359.782043	0.996526
360.170927	0.998187
360.559748	0.997623
360.948505	0.997324
361.337199	0.996670
361.725830	0.997588
362.114398	0.996338
362.502903	0.995216
362.891344	0.996399
363.279722	0.996640
363.668037	0.997894
364.056289	0.997223
364.444478	0.997031
364.832603	0.996689
365.220665	0.997677
365.608665	0.996702
365.996601	0.995400
366.384474	0.995681
366.772284	0.996396
367.160031	0.994535
367.547715	0.995799
367.935336	0.994098
368.322893	0.992887
368.710388	0.993045
369.097820	0.991072
369.485189	0.989053
369.872495	0.986015
370.259738	0.985352
370.646918	0.981921
371.034035	0.978927
371.421090	0.976187
371.808081	0.971060
372.195010	0.968745
372.581875	0.963682
372.968678	0.958915
373.355418	0.955108
373.742096	0.948285
374.128710	0.943808
374.515262	0.939779
374.901751	0.933356
375.288177	0.927572
375.674540	0.921358
376.060841	0.915152
376.447079	0.908823
376.833254	0.903408
377.219367	0.898586
377.605417	0.886004
377.991404	0.881253
378.377329	0.875982
378.763191	0.870129
379.148991	0.860290
379.534727	0.853046
379.920402	0.845507
380.306013	0.841417
380.691563	0.829574
381.077049	0.822118
381.462474	0.818547
381.847835	0.807606
382.233134	0.802094
382.618371	0.802419
383.003545	0.785816
383.388657	0.783256
383.773706	0.775451
384.158693	0.770851
384.543618	0.765302
384.928480	0.756850
385.313280	0.747408
385.698017	0.746814
386.082692	0.735830
386.467305	0.733779
386.851856	0.727522
387.236344	0.723497
387.620770	0.717698
388.005133	0.712107
388.389435	0.706355
388.773674	0.703491
389.157851	0.695998
389.541965	0.692622
389.926018	0.700331
390.310008	0.686481
390.693936	0.683198
391.077802	0.675278
391.461606	0.676737
391.845348	0.666051
392.229027	0.665269
392.612645	0.664285
392.996200	0.650758
393.379694	0.643681
393.763125	0.634822
394.146494	0.638679
394.529801	0.629438
394.913047	0.620696
395.296230	0.627413
395.679351	0.618623
396.062410	0.615522
396.445408	0.618151
396.828343	0.613773
397.211217	0.609148
397.594028	0.620533
397.976778	0.610693
398.359466	0.607261
398.742092	0.603342
399.124656	0.615294
399.507158	0.602904
399.889598	0.600840
400.271977	0.591430
400.654294	0.595472
401.036549	0.594347
401.418742	0.598973
401.800874	0.583841
402.182944	0.581074
402.564952	0.572537
402.946898	0.575197
403.328783	0.575276
403.710606	0.587412
404.092367	0.561749
404.474067	0.566149
404.855705	0.565392
405.237282	0.574517
405.618797	0.560728
406.000250	0.557051
406.381642	0.546346
406.762972	0.551565
407.144240	0.550192
407.525447	0.550199
407.906593	0.543277
408.287677	0.538053
408.668700	0.547080
409.049661	0.541466
409.430560	0.536265
409.811399	0.543838
410.192176	0.525861
410.572891	0.533922
410.953545	0.520791
411.334138	0.535241
411.714669	0.526513
412.095139	0.539039
412.475547	0.523047
412.855894	0.525841
413.236180	0.524601
413.616405	0.529902
413.996568	0.520383
414.376670	0.526489
414.756711	0.531414
415.136691	0.528424
415.516609	0.519705
415.896466	0.515954
416.276262	0.511987
416.655997	0.513976
417.035670	0.495604
417.415283	0.487010
417.794834	0.492168
418.174324	0.497308
418.553753	0.505977
418.933121	0.488491
419.312428	0.482459
419.691674	0.488056
420.070859	0.476752
420.449983	0.484741
420.829045	0.473456
421.208047	0.482971
421.586988	0.475453
421.965867	0.474918
422.344686	0.463515
422.723444	0.475885
423.102141	0.492805
423.480777	0.465507
423.859352	0.486386
424.237866	0.463949
424.616319	0.464240
424.994712	0.454888
425.373044	0.465721
425.751314	0.453378
426.129524	0.470544
426.507673	0.453666
426.885762	0.447388
427.263789	0.452889
427.641756	0.462055
428.019662	0.452742
428.397508	0.452294
428.775292	0.456034
429.153016	0.448289
429.530679	0.454516
429.908282	0.447926
430.285824	0.457380
430.663305	0.435737
431.040726	0.457210
431.418086	0.456936
431.795385	0.448958
432.172624	0.447854
432.549802	0.448156
432.926920	0.447583
433.303977	0.446616
433.680974	0.443435
434.057910	0.442364
434.434786	0.441795
434.811601	0.444650
435.188355	0.427009
435.565050	0.436801
435.941683	0.437315
436.318257	0.420984
436.694770	0.422300
437.071222	0.420428
437.447614	0.425007
437.823946	0.431754
438.200218	0.420735
438.576429	0.430494
438.952580	0.423662
439.328670	0.420013
439.704700	0.426260
440.080670	0.427663
440.456580	0.409267
440.832429	0.417265
441.208218	0.428003
441.583947	0.416977
441.959616	0.416312
442.335224	0.422305
442.710773	0.412724
443.086261	0.411014
443.461689	0.424373
443.837057	0.414457
444.212365	0.404677
444.587612	0.411788
444.962800	0.400814
445.337927	0.402729
445.712995	0.428639
446.088002	0.391119
446.462949	0.401956
446.837837	0.406569
447.212664	0.394850
447.587431	0.386440
447.962139	0.356927
448.336786	0.316150
448.711374	0.326354
449.085901	0.370836
449.460369	0.374940
449.834776	0.378381
450.209124	0.357494
450.583412	0.350185
450.957640	0.343174
451.331808	0.354688
451.705917	0.378478
452.079965	0.383086
452.453954	0.370989
452.827883	0.377701
453.201752	0.372384
453.575562	0.383860
453.949311	0.372460
454.323001	0.378258
454.696632	0.374848
455.070202	0.366546
455.443713	0.358797
455.817164	0.353477
456.190556	0.349943
456.563888	0.346451
456.937160	0.343423
457.310373	0.360897
457.683526	0.360014
458.056619	0.365605
458.429653	0.366398
458.802628	0.369618
459.175542	0.364077
459.548398	0.346118
459.921194	0.339152
460.293930	0.339037
460.666607	0.316610
461.039224	0.304687
461.411782	0.300045
461.784280	0.299840
462.156719	0.303999
462.529099	0.308428
462.901419	0.324322
463.273680	0.328612
463.645882	0.328190
464.018024	0.334053
464.390106	0.326933
464.762130	0.311388
465.134094	0.294343
465.505999	0.263269
465.877845	0.233626
466.249631	0.220471
466.621358	0.227704
466.993026	0.242044
467.364634	0.248155
467.736184	0.256999
468.107674	0.266045
468.479105	0.265212
468.850477	0.271597
469.221790	0.278746
469.593043	0.288667
469.964238	0.293607
470.335373	0.293140
470.706449	0.291010
471.077467	0.291926
471.448425	0.253867
471.819324	0.229303
472.190164	0.228888
472.560945	0.257696
472.931667	0.279883
473.302330	0.284089
473.672934	0.296051
474.043479	0.284076
474.413965	0.286037
474.784393	0.289239
475.154761	0.284227
475.525070	0.281709
475.895321	0.287314
476.265513	0.281277
476.635645	0.276810
477.005719	0.276785
477.375734	0.272967
477.745691	0.266917
478.115588	0.262729
478.485427	0.256561
478.855207	0.243514
479.224928	0.225670
479.594591	0.213789
479.964194	0.217149
480.333739	0.218420
480.703226	0.219833
481.072653	0.218176
481.442022	0.213806
481.811333	0.210614
482.180584	0.213989
482.549777	0.219417
482.918912	0.222696
483.287988	0.222440
483.657005	0.222301
484.025964	0.228360
484.394864	0.225644
484.763706	0.226458
485.132489	0.231493
485.501213	0.232216
485.869879	0.230580
486.238487	0.233846
486.607036	0.231668
486.975527	0.236501
487.343959	0.232053
487.712333	0.231226
488.080648	0.232364
488.448905	0.231654
488.817104	0.232925
489.185244	0.227496
489.553326	0.224404
489.921350	0.214343
490.289315	0.196407
490.657222	0.191717
491.025070	0.193207
491.392861	0.194829
491.760593	0.200558
492.128267	0.206472
492.495883	0.212151
492.863440	0.218256
493.230939	0.224755
493.598380	0.226208
493.965763	0.228272
494.333088	0.230362
494.700354	0.232010
495.067563	0.230942
495.434713	0.234329
495.801805	0.231724
496.168839	0.233626
496.535815	0.235153
496.902733	0.234860
497.269593	0.236546
497.636395	0.234029
498.003139	0.234596
498.369825	0.237501
498.736453	0.234031
499.103023	0.235664
499.469535	0.234989
499.835989	0.235006
500.202385	0.236030
500.568723	0.239132
500.935003	0.234280
501.301226	0.238883
501.667390	0.232732
502.033497	0.231045
502.399546	0.233855
502.765537	0.235908
503.131470	0.234314
503.497345	0.230951
503.863163	0.239430
504.228923	0.232309
504.594625	0.231184
504.960269	0.236261
505.325856	0.232047
505.691385	0.236268
506.056856	0.233161
506.422270	0.232397
506.787625	0.234840
507.152924	0.232053
507.518164	0.232516
507.883347	0.234339
508.248472	0.235931
508.613540	0.231089
508.978550	0.233509
509.343503	0.234103
509.708398	0.231685
510.073236	0.229324
510.438016	0.228954
510.802738	0.229859
511.167403	0.228896
511.532010	0.231235
511.896561	0.226430
512.261053	0.225119
512.625488	0.227368
512.989866	0.227562
513.354186	0.227928
513.718449	0.230011
514.082655	0.226192
514.446803	0.228421
514.810894	0.225987
515.174927	0.228800
515.538904	0.228328
515.902822	0.225169
516.266684	0.227064
516.630488	0.228756
516.994235	0.227405
517.357925	0.226417
517.721558	0.224600
518.085133	0.224106
518.448651	0.223956
518.812112	0.226445
519.175516	0.225959
519.538863	0.223586
519.902152	0.225409
520.265385	0.221989
520.628560	0.223926
520.991678	0.224258
521.354739	0.223110
521.717743	0.224447
522.080690	0.224729
522.443580	0.221983
522.806413	0.222949
523.169189	0.222367
523.531908	0.221186
523.894569	0.224796
524.257174	0.224809
524.619722	0.222267
524.982213	0.223483
525.344647	0.222330
525.707025	0.223330
526.069345	0.221283
526.431608	0.223116
526.793815	0.221302
527.155964	0.225533
527.518057	0.224312
527.880093	0.225067
528.242072	0.223758
528.603995	0.225695
528.965860	0.227424
529.327669	0.226442
529.689421	0.226969
530.051117	0.227656
530.412755	0.225711
530.774337	0.227917
531.135862	0.228768
531.497331	0.227778
531.858743	0.230864
532.220098	0.227227
532.581396	0.229686
532.942638	0.230458
533.303824	0.231159
533.664953	0.231208
534.026025	0.233219
534.387040	0.230911
534.747999	0.230690
535.108902	0.229608
535.469748	0.234907
535.830537	0.232469
536.191270	0.232894
536.551947	0.232482
536.912567	0.232396
537.273131	0.234163
537.633638	0.234445
537.994089	0.234607
538.354483	0.235869
538.714821	0.232658
539.075103	0.232383
539.435328	0.233238
539.795497	0.237170
540.155609	0.233775
540.515665	0.231881
540.875665	0.237339
541.235609	0.236032
541.595496	0.235845
541.955328	0.232856
542.315102	0.235239
542.674821	0.236446
543.034483	0.236289
543.394090	0.235943
543.753640	0.237713
544.113134	0.233124
544.472571	0.236542
544.831953	0.233275
545.191278	0.237275
545.550548	0.236660
545.909761	0.233509
546.268918	0.234622
546.628019	0.232481
546.987064	0.235441
547.346053	0.237227
547.704986	0.234932
548.063863	0.235398
548.422684	0.235371
548.781449	0.237311
549.140158	0.235017
549.498811	0.237794
549.857408	0.240751
550.215949	0.235544
550.574434	0.238553
550.932864	0.236778
551.291237	0.235146
551.649555	0.237006
552.007817	0.236345
552.366022	0.237155
552.724173	0.237487
553.082267	0.237858
553.440305	0.234800
553.798288	0.239198
554.156215	0.235774
554.514086	0.236291
554.871902	0.239695
555.229661	0.238502
555.587365	0.239431
555.945014	0.241827
556.302606	0.238871
556.660143	0.241365
557.017625	0.237897
557.375050	0.240037
557.732421	0.236972
558.089735	0.238813
558.446994	0.239099
558.804197	0.238195
559.161345	0.238300
559.518437	0.241570
559.875474	0.239669
560.232455	0.239345
560.589381	0.240008
560.946251	0.240184
561.303065	0.237674
561.659825	0.239152
562.016528	0.240640
562.373177	0.243461
562.729770	0.240893
563.086307	0.242697
563.442789	0.240605
563.799216	0.243602
564.155587	0.242345
564.511904	0.243485
564.868164	0.243396
565.224370	0.243286
565.580520	0.245124
565.936615	0.245210
566.292654	0.247927
566.648638	0.245000
567.004567	0.245916
567.360441	0.246089
567.716260	0.248352
568.072023	0.245884
568.427732	0.247322
568.783385	0.249328
569.138982	0.247420
569.494525	0.247331
569.850013	0.250304
570.205445	0.248894
570.560823	0.250889
570.916145	0.253288
571.271412	0.251392
571.626625	0.252919
571.981782	0.253397
572.336884	0.254051
572.691931	0.254295
573.046923	0.255394
573.401860	0.256398
573.756743	0.258178
574.111570	0.256909
574.466342	0.257546
574.821059	0.256538
575.175722	0.259458
575.530330	0.259362
575.884882	0.259381
576.239380	0.261288
576.593823	0.262160
576.948211	0.261507
577.302544	0.264920
577.656823	0.264082
578.011047	0.264165
578.365216	0.265052
578.719330	0.267212
579.073389	0.266694
579.427394	0.267735
579.781344	0.269320
580.135239	0.270107
580.489080	0.269960
580.842866	0.272879
581.196597	0.272973
581.550273	0.271737
581.903895	0.272594
582.257463	0.270607
582.610975	0.273842
582.964434	0.273385
583.317837	0.275656
583.671186	0.276366
584.024481	0.276205
584.377721	0.278776
584.730906	0.279623
585.084037	0.278880
585.437113	0.280515
585.790135	0.280093
586.143103	0.282982
586.496016	0.283889
586.848874	0.281378
587.201679	0.282296
587.554428	0.285664
587.907124	0.284532
588.259765	0.285315
588.612352	0.285720
588.964884	0.289250
589.317362	0.288950
589.669786	0.288851
590.022155	0.287199
590.374470	0.286948
590.726731	0.288595
591.078937	0.294028
591.431090	0.289647
591.783188	0.294084
592.135232	0.294471
592.487222	0.294574
592.839157	0.292645
593.191038	0.294989
593.542866	0.297010
593.894639	0.300173
594.246358	0.298523
594.598022	0.297879
594.949633	0.301632
595.301190	0.302530
595.652692	0.301572
596.004141	0.297489
596.355535	0.305739
596.706876	0.306186
597.058162	0.308717
597.409395	0.306056
597.760573	0.303537
598.111698	0.306828
598.462768	0.307508
598.813785	0.309034
599.164748	0.309849
599.515657	0.310314
599.866511	0.313541
600.217312	0.309161
600.568060	0.314126
600.918753	0.310733
601.269392	0.311360
601.619978	0.315091
601.970510	0.312551
602.320988	0.312549
602.671412	0.310021
603.021783	0.312772
603.372100	0.313974
603.722363	0.313956
604.072572	0.314845
604.422728	0.314257
604.772830	0.316543
605.122878	0.316355
605.472872	0.316945
605.822813	0.315435
606.172701	0.317774
606.522534	0.315061
606.872314	0.315730
607.222041	0.316156
607.571714	0.314061
607.921333	0.315628
608.270899	0.315237
608.620411	0.312168
608.969870	0.316260
609.319276	0.316142
609.668627	0.316023
610.017926	0.314737
610.367171	0.313295
610.716362	0.313710
611.065500	0.313963
611.414585	0.312812
611.763616	0.313029
612.112594	0.314027
612.461518	0.313100
612.810389	0.310747
613.159207	0.313135
613.507971	0.315196
613.856682	0.311053
614.205340	0.312054
614.553945	0.309480
614.902496	0.312906
615.250994	0.311117
615.599439	0.311887
615.947830	0.311065
616.296169	0.312272
616.644454	0.312088
616.992686	0.311861
617.340864	0.309149
617.688990	0.313210
618.037063	0.309507
618.385082	0.311376
618.733048	0.308321
619.080961	0.311027
619.428821	0.310147
619.776628	0.309691
620.124382	0.312120
620.472083	0.312478
620.819731	0.311700
621.167326	0.315315
621.514868	0.315530
621.862357	0.319382
622.209793	0.318896
622.557176	0.321397
622.904506	0.322105
623.251783	0.324782
623.599007	0.327134
623.946179	0.326797
624.293297	0.328789
624.640363	0.332758
624.987376	0.333070
625.334336	0.335522
625.681243	0.337797
626.028097	0.338404
626.374899	0.339526
626.721647	0.340098
627.068343	0.342947
627.414987	0.343986
627.761577	0.346169
628.108115	0.344221
628.454600	0.350070
628.801032	0.347447
629.147412	0.348912
629.493739	0.349819
629.840014	0.352853
630.186236	0.349714
630.532405	0.355358
630.878521	0.352921
631.224585	0.355122
631.570597	0.358747
631.916556	0.357227
632.262462	0.357401
632.608316	0.359460
632.954117	0.360603
633.299866	0.361283
633.645562	0.361287
633.991206	0.365690
634.336797	0.368054
634.682336	0.371215
635.027823	0.372597
635.373257	0.373428
635.718639	0.376937
636.063968	0.376191
636.409245	0.382010
636.754470	0.382449
637.099642	0.384390
637.444762	0.388610
637.789829	0.387328
638.134845	0.390725
638.479808	0.391750
638.824719	0.391368
639.169577	0.395882
639.514383	0.394905
639.859137	0.399207
640.203839	0.398870
640.548489	0.399758
640.893086	0.400523
641.237632	0.402115
641.582125	0.400643
641.926566	0.403245
642.270955	0.402384
642.615292	0.402802
642.959576	0.401957
643.303809	0.402940
643.647990	0.402254
643.992118	0.402925
644.336195	0.405607
644.680219	0.404434
645.024192	0.405056
645.368112	0.398885
645.711981	0.397704
646.055797	0.392960
646.399562	0.395390
646.743274	0.388293
647.086935	0.384861
647.430544	0.385115
647.774101	0.384046
648.117606	0.383993
648.461059	0.384378
648.804460	0.387300
649.147810	0.391816
649.491108	0.393446
649.834354	0.395447
650.177548	0.399805
650.520690	0.406034
650.863781	0.406748
651.206820	0.406307
651.549807	0.410561
651.892742	0.415044
652.235626	0.414349
652.578458	0.415775
652.921238	0.421842
653.263967	0.419028
653.606644	0.423037
653.949269	0.423207
654.291843	0.427377
654.634365	0.423449
654.976836	0.426664
655.319255	0.427462
655.661622	0.428649
656.003938	0.428897
656.346203	0.432050
656.688416	0.429426
657.030577	0.432882
657.372687	0.435287
657.714746	0.435911
658.056753	0.432627
658.398708	0.436145
658.740612	0.437914
659.082465	0.433436
659.424266	0.434272
659.766016	0.433680
660.107715	0.437411
660.449362	0.435474
660.790958	0.436317
661.132503	0.436868
661.473996	0.434344
661.815438	0.435225
662.156829	0.435572
662.498168	0.436119
662.839456	0.437349
663.180693	0.435408
663.521879	0.435415
663.863013	0.435986
664.204097	0.434495
664.545129	0.431699
664.886110	0.431971
665.227040	0.429117
665.567918	0.431921
665.908746	0.429842
666.249522	0.429696
666.590248	0.430254
666.930922	0.428685
667.271545	0.427873
667.612118	0.427829
667.952639	0.429550
668.293109	0.427753
668.633528	0.431122
668.973896	0.430736
669.314213	0.431136
669.654480	0.432780
669.994695	0.433172
670.334859	0.434042
670.674973	0.434335
671.015035	0.434214
671.355047	0.433966
671.695008	0.435182
672.034918	0.437028
672.374777	0.436474
672.714585	0.437397
673.054342	0.437445
673.394049	0.437551
673.733705	0.435617
674.073310	0.436833
674.412864	0.439896
674.752368	0.439841
675.091820	0.440128
675.431223	0.444983
675.770574	0.444731
676.109875	0.447895
676.449125	0.447077
676.788324	0.449449
677.127473	0.454992
677.466571	0.455022
677.805619	0.457276
678.144616	0.458373
678.483562	0.459766
678.822458	0.462387
679.161303	0.463713
679.500098	0.463449
679.838842	0.465219
680.177535	0.464421
680.516179	0.463428
680.854771	0.461731
681.193314	0.455792
681.531805	0.447022
681.870247	0.435635
682.208638	0.428559
682.546978	0.426983
682.885268	0.428963
683.223508	0.435265
683.561697	0.439141
683.899836	0.441512
684.237925	0.444569
684.575963	0.447719
684.913951	0.451097
685.251889	0.446226
685.589776	0.448814
685.927614	0.450887
686.265401	0.445024
686.603137	0.446553
686.940824	0.441170
687.278460	0.439347
687.616046	0.438180
687.953582	0.433335
688.291068	0.434505
688.628504	0.429938
688.965889	0.433041
689.303224	0.436964
689.640510	0.440834
689.977745	0.445930
690.314930	0.454303
690.652065	0.459128
690.989150	0.466713
691.326185	0.473269
691.663170	0.478085
692.000105	0.484901
692.336990	0.492497
692.673825	0.494469
693.010610	0.501556
693.347345	0.507523
693.684030	0.508974
694.020665	0.512756
694.357251	0.522521
694.693786	0.521660
695.030272	0.524832
695.366707	0.530227
695.703093	0.533328
696.039429	0.530442
696.375716	0.533244
696.711952	0.535606
697.048139	0.537419
697.384276	0.539379
697.720363	0.538463
698.056400	0.536525
698.392388	0.542667
698.728326	0.544974
699.064214	0.548911
699.400053	0.548508
699.735842	0.552536
700.071581	0.555693
700.407270	0.558609
700.742910	0.560848
701.078501	0.567263
701.414042	0.568228
701.749533	0.570928
702.084974	0.580081
702.420366	0.573013
702.755709	0.580001
703.091002	0.587163
703.426246	0.581764
703.761440	0.586537
704.096584	0.591950
704.431679	0.588747
704.766725	0.591335
705.101721	0.592885
705.436668	0.589249
705.771565	0.596129
706.106413	0.592268
706.441212	0.588265
706.775961	0.588007
707.110661	0.588629
707.445311	0.585918
707.779913	0.583710
708.114465	0.582694
708.448967	0.579471
708.783421	0.571130
709.117825	0.565536
709.452180	0.565060
709.786485	0.559373
710.120742	0.549895
710.454949	0.551495
710.789107	0.544125
711.123216	0.534755
711.457275	0.535639
711.791286	0.528664
712.125247	0.527910
712.459159	0.537376
712.793023	0.529883
713.126837	0.534351
713.460602	0.535149
713.794318	0.543642
714.127985	0.543063
714.461602	0.553269
714.795171	0.556353
715.128691	0.564591
715.462162	0.571269
715.795584	0.577580
716.128957	0.580143
716.462281	0.586598
716.795556	0.590142
717.128782	0.595928
717.461960	0.605482
717.795088	0.603862
718.128167	0.609691
718.461198	0.617679
718.794180	0.618904
719.127113	0.621549
719.459997	0.625292
719.792833	0.631586
720.125619	0.633235
720.458357	0.638608
720.791046	0.638408
721.123686	0.642384
721.456278	0.648923
721.788821	0.645928
722.121315	0.651143
722.453761	0.654143
722.786158	0.652383
723.118506	0.649634
723.450805	0.656366
723.783056	0.652631
724.115259	0.651050
724.447412	0.650356
724.779518	0.651067
725.111574	0.650603
725.443582	0.646848
725.775542	0.648020
726.107453	0.640802
726.439315	0.641076
726.771129	0.638915
727.102895	0.632706
727.434612	0.626491
727.766281	0.623797
728.097901	0.623220
728.429473	0.622506
728.760996	0.621360
729.092471	0.622001
729.423897	0.624771
729.755276	0.624451
730.086606	0.624577
730.417887	0.619600
730.749120	0.610545
731.080305	0.601394
731.411442	0.597950
731.742530	0.601617
732.073570	0.600814
732.404562	0.594160
732.735506	0.595214
733.066401	0.599730
733.397249	0.608934
733.728048	0.620417
734.058798	0.633135
734.389501	0.643946
734.720156	0.654222
735.050762	0.661385
735.381320	0.662266
735.711831	0.670389
736.042293	0.675164
736.372707	0.672283
736.703073	0.676843
737.033391	0.678107
737.363661	0.675145
737.693883	0.671587
738.024056	0.670212
738.354182	0.671033
738.684260	0.659989
739.014290	0.656579
739.344272	0.656902
739.674207	0.650290
740.004093	0.650547
740.333931	0.651179
740.663722	0.651320
740.993464	0.651849
741.323159	0.656038
741.652806	0.660705
741.982405	0.665370
742.311956	0.670549
742.641460	0.672381
742.970915	0.675719
743.300323	0.682787
743.629683	0.689099
743.958996	0.692409
744.288260	0.694717
744.617477	0.701613
744.946647	0.702713
745.275768	0.709222
745.604842	0.709404
745.933869	0.717472
746.262847	0.720479
746.591778	0.712483
746.920662	0.719469
747.249498	0.725968
747.578286	0.717737
747.907027	0.713670
748.235720	0.713547
748.564365	0.710134
748.892963	0.709178
749.221514	0.712302
749.550017	0.717149
749.878473	0.718151
750.206881	0.723997
750.535242	0.724522
750.863555	0.723595
751.191821	0.724641
751.520039	0.728110
751.848210	0.731891
752.176334	0.726705
752.504411	0.725880
752.832440	0.733570
753.160421	0.736430
753.488356	0.735243
753.816243	0.733066
754.144082	0.740819
754.471875	0.745317
754.799620	0.741219
755.127318	0.742255
755.454969	0.743334
755.782572	0.742838
756.110129	0.745387
756.437638	0.749560
756.765100	0.747212
757.092515	0.743812
757.419882	0.742833
757.747203	0.748184
758.074477	0.748543
758.401703	0.745491
758.728882	0.740854
759.056014	0.738728
759.383099	0.738769
759.710138	0.739049
760.037129	0.735944
760.364073	0.730650
760.690970	0.732089
761.017820	0.736190
761.344623	0.733811
761.671379	0.725319
761.998088	0.713643
762.324751	0.691851
762.651366	0.649623
762.977935	0.583578
763.304456	0.534675
763.630931	0.526694
763.957359	0.564729
764.283740	0.606881
764.610074	0.634900
764.936362	0.664529
765.262602	0.692148
765.588796	0.713072
765.914943	0.728497
766.241044	0.746091
766.567097	0.752801
766.893104	0.763164
767.219064	0.768628
767.544978	0.775028
767.870845	0.787548
768.196665	0.791543
768.522438	0.789902
768.848165	0.790921
769.173846	0.799288
769.499479	0.804324
769.825066	0.807828
770.150607	0.812431
770.476101	0.808465
770.801548	0.809836
771.126949	0.821149
771.452303	0.824392
771.777611	0.823615
772.102872	0.821775
772.428087	0.828123
772.753256	0.831195
773.078378	0.832717
773.403453	0.841285
773.728482	0.846327
774.053465	0.839466
774.378401	0.842831
774.703291	0.851735
775.028135	0.851896
775.352932	0.850910
775.677683	0.856407
776.002388	0.856033
776.327046	0.854971
776.651658	0.860450
776.976224	0.862960
777.300743	0.861934
777.625216	0.863675
777.949643	0.865656
778.274024	0.865221
778.598359	0.867617
778.922647	0.866657
779.246889	0.866850
779.571086	0.869689
779.895236	0.873407
780.219339	0.870966
780.543397	0.866265
780.867409	0.866239
781.191374	0.868324
781.515294	0.868823
781.839167	0.869352
782.162995	0.871126
782.486776	0.868375
782.810511	0.870351
783.134201	0.874660
783.457844	0.872421
783.781441	0.874188
784.104993	0.879870
784.428498	0.880930
784.751958	0.876528
785.075372	0.878148
785.398739	0.881341
785.722061	0.877175
786.045337	0.874916
786.368568	0.878497
786.691752	0.880162
787.014891	0.866842
787.337983	0.858869
787.661030	0.850935
787.984031	0.835100
788.306987	0.823363
788.629897	0.823414
788.952760	0.829746
789.275579	0.832964
789.598351	0.847593
789.921078	0.859392
790.243759	0.862348
790.566395	0.867536
790.888984	0.873475
791.211529	0.878275
791.534027	0.881751
791.856480	0.884358
792.178888	0.888358
792.501249	0.890474
792.823566	0.893591
793.145836	0.892415
793.468062	0.894570
793.790241	0.895115
794.112375	0.892300
794.434464	0.890328
794.756507	0.888402
795.078505	0.886920
795.400457	0.881571
795.722364	0.870987
796.044226	0.864203
796.366042	0.863467
796.687812	0.865557
797.009538	0.862158
797.331218	0.866955
797.652852	0.870679
797.974442	0.873767
798.295986	0.875285
798.617484	0.876832
798.938938	0.881236
799.260346	0.886459
799.581709	0.886781
799.903026	0.890590
800.224299	0.890798
800.545526	0.892848
800.866708	0.898545
801.187845	0.901651
801.508936	0.900965
801.829983	0.899009
802.150984	0.902428
802.471940	0.906851
802.792851	0.906343
803.113717	0.908241
803.434538	0.906102
803.755314	0.909258
804.076045	0.909330
804.396731	0.909161
804.717372	0.908719
805.037967	0.910705
805.358518	0.908995
805.679024	0.905177
805.999485	0.906885
806.319901	0.905596
806.640272	0.908969
806.960598	0.906836
807.280879	0.902170
807.601115	0.901796
807.921306	0.905526
808.241453	0.906562
808.561554	0.904140
808.881611	0.904181
809.201623	0.906184
809.521590	0.906897
809.841513	0.907742
810.161390	0.905425
810.481223	0.906479
810.801011	0.911176
811.120755	0.912708
811.440453	0.910605
811.760107	0.911192
812.079716	0.911516
812.399281	0.914602
812.718801	0.916049
813.038276	0.916266
813.357707	0.916711
813.677093	0.915930
813.996434	0.917434
814.315731	0.919174
814.634983	0.919821
814.954191	0.918666
815.273354	0.914717
815.592473	0.911644
815.911547	0.912508
816.230577	0.909080
816.549562	0.906413
816.868502	0.905804
817.187399	0.905348
817.506250	0.900133
817.825058	0.900394
818.143821	0.897603
818.462539	0.893406
818.781213	0.885515
819.099843	0.875250
819.418429	0.859123
819.736970	0.844071
820.055466	0.824727
820.373919	0.800970
820.692327	0.770742
821.010691	0.737173
821.329011	0.659300
821.647286	0.546566
821.965517	0.435421
822.283704	0.392433
822.601847	0.395754
822.919945	0.434868
823.237999	0.472242
823.556010	0.517768
823.873976	0.571537
824.191897	0.621480
824.509775	0.662817
824.827609	0.704397
825.145398	0.726635
825.463144	0.727721
825.780845	0.711482
826.098502	0.693165
826.416116	0.650308
826.733685	0.606547
827.051210	0.599366
827.368692	0.614156
827.686129	0.651152
828.003522	0.702287
828.320872	0.747862
828.638177	0.788979
828.955439	0.818781
829.272656	0.839071
829.589830	0.854662
829.906960	0.869352
830.224046	0.881502
830.541088	0.890818
830.858086	0.895227
831.175041	0.901600
831.491952	0.899914
831.808819	0.896340
832.125642	0.889241
832.442421	0.877661
832.759157	0.856757
833.075849	0.812549
833.392497	0.750559
833.709101	0.713123
834.025662	0.724660
834.342179	0.755011
834.658653	0.791857
834.975083	0.825427
835.291469	0.851026
835.607811	0.870650
835.924110	0.886358
836.240366	0.901572
836.556578	0.913167
836.872746	0.920791
837.188871	0.925584
837.504952	0.931187
837.820990	0.935114
838.136984	0.937000
838.452935	0.940058
838.768842	0.941407
839.084706	0.935852
839.400526	0.910370
839.716303	0.871395
840.032037	0.851089
840.347727	0.855260
840.663373	0.872913
840.978977	0.893179
841.294537	0.915611
841.610054	0.929108
841.925527	0.937407
842.240957	0.942668
842.556344	0.949888
842.871687	0.954434
843.186987	0.958432
843.502244	0.958453
843.817458	0.960903
844.132629	0.964608
844.447756	0.968074
844.762840	0.968045
845.077881	0.970162
845.392879	0.966972
845.707833	0.970651
846.022745	0.972096
846.337613	0.972008
846.652438	0.973379
846.967221	0.972839
847.281960	0.973538
847.596656	0.974615
847.911309	0.974029
848.225919	0.974925
848.540485	0.976487
848.855009	0.977798
849.169490	0.976646
849.483928	0.976451
849.798323	0.975111
850.112675	0.978148
850.426984	0.976396
850.741251	0.977313
851.055474	0.977168
851.369654	0.976463
851.683792	0.975210
851.997887	0.977177
852.311938	0.977396
852.625947	0.976009
852.939914	0.975368
853.253837	0.977454
853.567718	0.978322
853.881555	0.977996
854.195350	0.976327
854.509103	0.976003
854.822812	0.977754
855.136479	0.978539
855.450103	0.977688
855.763685	0.976922
856.077224	0.976696
856.390720	0.977266
856.704173	0.978400
857.017584	0.976365
857.330953	0.974892
857.644278	0.974738
857.957561	0.976573
858.270802	0.976570
858.584000	0.976210
858.897155	0.974244
859.210268	0.974530
859.523339	0.977970
859.836367	0.977931
860.149352	0.977094
860.462295	0.977003
860.775195	0.978043
861.088054	0.977437
861.400869	0.978259
861.713642	0.977670
862.026373	0.978720
862.339062	0.978355
862.651708	0.977481
862.964312	0.975806
863.276873	0.976740
863.589392	0.975801
863.901869	0.973603
864.214303	0.972668
864.526696	0.970852
864.839045	0.971853
865.151353	0.970575
865.463619	0.970260
865.775842	0.972148
866.088023	0.972212
866.400162	0.972117
866.712258	0.971999
867.024313	0.972133
867.336325	0.973419
867.648296	0.973238
867.960224	0.970840
868.272110	0.971424
868.583954	0.972320
868.895755	0.973467
869.207515	0.970475
869.519233	0.969796
869.830909	0.969223
870.142542	0.969512
870.454134	0.970825
870.765684	0.968857
871.077191	0.968526
871.388657	0.967066
871.700081	0.968371
872.011463	0.968704
872.322803	0.967208
872.634101	0.966176
872.945357	0.963792
873.256571	0.961846
873.567744	0.962387
873.878874	0.964278
874.189963	0.963276
874.501010	0.964665
874.812015	0.961057
875.122979	0.961648
875.433900	0.963239
875.744780	0.964133
876.055618	0.961534
876.366415	0.960606
876.677169	0.961705
876.987882	0.961219
877.298554	0.962433
877.609183	0.959247
877.919771	0.956401
878.230317	0.955153
878.540822	0.951187
878.851285	0.948623
879.161707	0.941739
879.472087	0.932735
879.782425	0.915505
880.092722	0.885193
880.402977	0.836347
880.713191	0.776679
881.023363	0.717275
881.333494	0.683569
881.643583	0.658446
881.953631	0.659697
882.263637	0.689263
882.573602	0.728503
882.883526	0.753144
883.193408	0.776525
883.503248	0.798890
883.813048	0.824157
884.122806	0.851396
884.432522	0.872941
884.742197	0.891006
885.051831	0.900401
885.361424	0.910562
885.670975	0.921749
885.980485	0.929137
886.289954	0.934896
886.599382	0.938423
886.908768	0.943017
887.218113	0.946677
887.527417	0.951094
887.836680	0.954734
888.145901	0.956040
888.455082	0.959917
888.764221	0.962053
889.073319	0.962938
889.382376	0.964503
889.691392	0.962780
890.000366	0.965248
890.309300	0.964559
890.618193	0.963986
890.927044	0.963161
891.235855	0.962652
891.544625	0.963087
891.853353	0.962734
892.162041	0.960565
892.470687	0.955696
892.779293	0.950042
893.087858	0.946596
893.396381	0.938911
893.704864	0.927190
894.013306	0.905242
894.321707	0.881569
894.630068	0.868575
894.938387	0.863123
895.246665	0.867096
895.554903	0.878334
895.863100	0.891513
896.171256	0.907132
896.479371	0.923495
896.787446	0.933941
897.095480	0.939946
897.403473	0.941829
897.711425	0.947250
898.019336	0.952908
898.327207	0.956748
898.635038	0.955996
898.942827	0.958253
899.250576	0.960021
899.558284	0.964508
899.865952	0.964378
900.173579	0.965341
900.481165	0.967121
900.788711	0.968322
901.096216	0.971612
901.403681	0.972640
901.711105	0.972289
902.018489	0.972026
902.325832	0.972122
902.633135	0.971930
902.940397	0.966356
903.247619	0.955513
903.554800	0.933029
903.861941	0.896632
904.169041	0.862244
904.476101	0.847427
904.783121	0.848789
905.090100	0.864960
905.397039	0.885078
905.703938	0.904651
906.010796	0.922570
906.317614	0.937698
906.624391	0.948001
906.931129	0.956503
907.237826	0.963551
907.544483	0.967880
907.851099	0.972895
908.157675	0.975146
908.464211	0.978288
908.770707	0.980039
909.077163	0.982511
909.383578	0.983512
909.689954	0.983330
909.996289	0.984935
910.302584	0.985514
910.608839	0.986532
910.915054	0.986024
911.221229	0.986393
911.527363	0.983702
911.833458	0.984750
912.139513	0.985858
912.445527	0.984646
912.751502	0.983582
913.057436	0.981225
913.363331	0.979985
913.669186	0.976375
913.975000	0.971494
914.280775	0.966567
914.586510	0.958664
914.892205	0.946334
915.197859	0.927233
915.503475	0.903521
915.809050	0.884898
916.114585	0.879264
916.420081	0.877885
916.725536	0.877223
917.030952	0.884564
917.336328	0.895588
917.641665	0.908243
917.946961	0.923468
918.252218	0.932465
918.557435	0.941911
918.862612	0.949066
919.167750	0.952711
919.472848	0.959473
919.777906	0.964472
920.082925	0.969014
920.387904	0.971224
920.692843	0.971337
920.997743	0.973395
921.302603	0.976610
921.607423	0.978678
921.912204	0.980289
922.216946	0.981305
922.521647	0.982136
922.826310	0.981597
923.130932	0.985652
923.435516	0.986170
923.740059	0.986387
924.044564	0.986830
924.349028	0.986432
924.653454	0.988803
924.957840	0.989740
925.262186	0.990754
925.566493	0.990918
925.870761	0.991397
926.174989	0.991789
926.479178	0.994328
926.783328	0.994408
927.087438	0.994371
927.391509	0.993925
927.695541	0.995093
927.999533	0.995217
928.303486	0.995999
928.607400	0.996079
928.911275	0.997191
929.215110	0.997833
929.518906	0.997586
929.822663	0.996508
930.126381	0.997305
930.430060	0.997385
930.733699	0.995241
931.037299	0.995669
931.340861	0.996663
931.644383	0.995016
931.947866	0.996383
932.251309	0.996436
932.554714	0.996218
932.858080	0.996973
933.161407	0.993804
933.464694	0.996284
933.767943	0.996869
934.071153	0.996810
934.374323	0.997698
934.677455	0.996838
934.980548	0.996382
935.283602	0.997117
935.586617	0.995683
935.889593	0.997642
936.192530	0.997054
936.495428	0.997346
936.798287	0.997224
937.101108	0.995640
937.403890	0.994547
937.706632	0.995454
938.009336	0.992979
938.312002	0.990828
938.614628	0.990557
938.917216	0.988771
939.219765	0.989141
939.522275	0.989342
939.824747	0.991058
940.127179	0.990677
940.429573	0.991899
940.731929	0.990477
941.034246	0.990066
941.336524	0.991382
941.638763	0.992171
941.940964	0.992942
942.243126	0.993490
942.545250	0.994505
942.847335	0.993962
943.149381	0.995244
943.451389	0.993314
943.753359	0.995443
944.055290	0.996825
944.357182	0.995643
944.659036	0.996069
944.960851	0.996896
945.262628	0.997017
945.564367	0.995500
945.866067	0.995562
946.167729	0.995687
946.469352	0.995491
946.770937	0.994007
947.072484	0.996187
947.373992	0.996772
947.675462	0.994733
947.976893	0.997604
948.278286	0.997529
948.579641	0.996872
948.880958	0.997172
949.182236	0.996660
949.483476	0.997423
949.784678	0.997932
950.085841	0.996435
950.386967	0.996705
950.688054	0.997178
950.989103	0.995871
951.290114	0.995170
951.591087	0.996379
951.892021	0.995673
952.192917	0.994836
952.493776	0.995209
952.794596	0.995204
953.095378	0.994031
953.396122	0.993819
953.696828	0.995296
953.997496	0.995790
954.298126	0.997699
954.598718	0.995387
954.899272	0.996677
955.199788	0.995847
955.500266	0.998108
955.800706	0.997465
956.101108	0.997903
956.401472	1.000585
956.701798	0.998629
957.002087	1.000473
957.302337	0.999876
957.602550	1.000509
957.902724	0.998884
958.202861	1.000419
958.502960	1.000542
958.803022	1.001104
959.103045	1.001643
959.403031	1.001698
959.702979	1.002268
960.002889	1.001417
960.302762	1.000925
960.602596	1.002266
960.902393	1.000598
961.202153	1.002145
961.501875	1.002068
961.801559	1.001299
962.101205	1.001833
962.400814	1.003088
962.700385	1.002526
962.999918	1.002153
963.299414	1.001456
963.598873	1.001986
963.898293	1.002206
964.197677	1.000955
964.497022	1.002433
964.796331	1.001700
965.095601	1.002226
965.394835	1.001276
965.694030	1.002406
965.993189	1.001390
966.292309	1.002954
966.591393	1.000876
966.890439	1.002945
967.189447	1.001637
967.488419	1.002288
967.787353	1.002232
968.086249	1.003299
968.385108	1.001347
968.683930	1.003877
968.982714	1.002994
969.281462	1.002724
969.580172	1.002892
969.878844	1.003264
970.177480	1.002185
970.476078	1.002835
970.774639	1.001874
971.073162	1.001640
971.371649	1.002072
971.670098	1.000928
971.968510	1.003215
972.266885	1.001423
972.565223	1.002370
972.863524	1.001020
973.161788	1.001171
973.460014	1.002175
973.758204	1.001416
974.056356	1.000933
974.354471	1.001658
974.652550	1.002574
974.950591	1.001379
975.248595	1.000917
975.546563	1.002645
975.844493	1.002564
976.142386	1.001374
976.440243	1.001176
976.738062	1.002435
977.035845	1.001652
977.333590	1.003390
977.631299	1.002228
977.928971	1.001472
978.226606	1.001643
978.524204	1.001968
978.821765	1.002579
979.119290	1.003587
979.416777	1.002547
979.714228	1.002292
980.011642	1.002437
980.309020	1.002707
980.606360	1.001919
980.903664	1.002143
981.200931	1.001975
981.498162	1.000682
981.795356	1.000676
982.092513	1.000583
982.389633	1.000068
982.686717	0.997771
982.983764	0.997510
983.280775	0.997085
983.577749	0.998160
983.874686	0.997512
984.171587	0.997527
984.468451	0.999610
984.765279	1.000127
985.062070	1.001322
985.358824	1.000323
985.655543	1.002302
985.952224	1.002166
986.248869	1.001328
986.545478	1.002745
986.842050	1.002334
987.138586	1.000560
987.435086	1.003108
987.731549	1.003277
988.027975	1.004085
988.324366	1.002882
988.620719	1.003650
988.917037	1.003142
989.213318	1.003988
989.509563	1.002849
989.805772	1.004013
990.101944	1.004708
990.398080	1.003392
990.694180	1.004317
990.990244	1.002283
991.286271	1.001812
991.582262	1.002940
991.878217	1.004107
992.174136	1.003087
992.470019	1.002533
992.765865	1.004735
993.061676	1.003834
993.357450	1.002272
993.653188	1.004450
993.948890	1.002482
994.244556	1.003358
994.540186	1.003546
994.835780	1.001776
995.131337	1.002715
995.426859	1.002658
995.722345	1.003443
996.017795	1.002648
996.313208	1.002981
996.608586	1.001594
996.903928	1.002561
997.199234	1.002226
997.494504	1.002601
997.789738	1.001244
998.084936	1.003243
998.380099	1.000902
998.675225	1.003692
998.970316	1.003460
999.265371	1.002469
999.560390	1.002595
999.855373	1.002960
1000.150320	1.003438
1000.445232	1.003774
1000.740108	1.002301
1001.034948	1.003730
1001.329752	1.004353
1001.624521	1.003539
1001.919254	1.002734
1002.213951	1.003961
1002.508613	1.003002
1002.803239	1.004574
1003.097829	1.003606
1003.392384	1.003045
1003.686903	1.003411
1003.981386	1.003528
1004.275834	1.004281
1004.570246	1.002743
1004.864623	1.004611
1005.158964	1.003998
1005.453270	1.003883
1005.747540	1.004028
1006.041775	1.004023
1006.335974	1.004159
1006.630138	1.004868
1006.924266	1.003302
1007.218359	1.003330
1007.512416	1.003814
1007.806438	1.004396
1008.100425	1.003277
1008.394376	1.003565
1008.688292	1.003040
1008.982172	1.002826
1009.276017	1.004107
1009.569827	1.006060
1009.863602	1.004769
1010.157341	1.003955
1010.451045	1.002733
1010.744714	1.004567
1011.038347	1.003747
1011.331945	1.003091
1011.625508	1.003375
1011.919036	1.003560
1012.212528	1.005059
1012.505986	1.003554
1012.799408	1.004125
1013.092795	1.004250
1013.386147	1.003814
1013.679464	1.006179
1013.972745	1.003362
1014.265992	1.004135
1014.559204	1.004491
1014.852380	1.004449
1015.145521	1.004525
1015.438628	1.005355
1015.731699	1.003010
1016.024736	1.004327
1016.317737	1.004250
1016.610703	1.004242
1016.903635	1.003893
1017.196531	1.003845
1017.489393	1.003843
1017.782219	1.003156
1018.075011	1.003179
1018.367768	1.003630
1018.660490	1.004378
1018.953177	1.004378
1019.245829	1.004378
