Dividing Wavelength (nm)	Counts (n)	Blue Motor Position (mm): 7.300000	Red Motor Position (mm): 0.000000	
326.493990	1.004599
326.888308	1.004599
327.282561	1.004599
327.676750	1.006786
328.070874	1.006928
328.464933	1.006344
328.858929	1.007048
329.252859	1.004144
329.646726	1.004732
330.040528	1.005153
330.434265	1.005755
330.827938	1.004761
331.221547	1.006058
331.615091	1.006727
332.008571	1.006677
332.401986	1.004534
332.795338	1.004918
333.188625	1.005709
333.581847	1.005675
333.975006	1.006540
334.368100	1.005415
334.761129	1.004278
335.154095	1.006474
335.546996	1.003513
335.939833	0.998336
336.332606	0.999522
336.725315	0.997783
337.117960	0.999876
337.510540	0.998291
337.903056	0.999315
338.295508	0.999353
338.687896	0.999249
339.080220	0.998612
339.472480	0.997896
339.864676	0.999327
340.256807	0.998497
340.648875	1.000591
341.040879	0.997782
341.432818	1.000447
341.824694	0.997397
342.216506	1.000074
342.608253	0.999117
342.999937	0.997853
343.391557	0.999105
343.783113	0.999929
344.174605	0.999092
344.566033	0.998645
344.957397	1.000496
345.348697	0.998594
345.739934	0.999577
346.131106	0.998249
346.522215	0.999191
346.913260	0.998977
347.304241	0.997426
347.695159	0.999458
348.086012	0.998714
348.476802	0.999020
348.867528	0.997105
349.258191	1.000234
349.648789	0.998398
350.039324	0.998402
350.429796	0.997780
350.820203	0.997340
351.210548	0.998981
351.600828	0.997634
351.991045	0.999054
352.381198	0.999310
352.771288	0.998282
353.161314	0.998735
353.551276	0.997887
353.941175	0.997416
354.331010	0.999029
354.720782	0.998085
355.110490	0.999231
355.500135	0.999019
355.889717	0.997294
356.279235	0.997840
356.668689	0.998410
357.058080	0.996969
357.447408	0.997003
357.836672	0.997746
358.225873	0.997373
358.615010	0.997751
359.004084	0.997509
359.393095	0.997993
359.782043	0.997315
360.170927	0.997308
360.559748	0.997247
360.948505	0.997306
361.337199	0.996583
361.725830	0.997808
362.114398	0.996376
362.502903	0.997000
362.891344	0.995575
363.279722	0.996754
363.668037	0.997017
364.056289	0.996155
364.444478	0.996925
364.832603	0.997195
365.220665	0.996898
365.608665	0.996856
365.996601	0.997152
366.384474	0.995593
366.772284	0.996646
367.160031	0.994464
367.547715	0.996084
367.935336	0.994334
368.322893	0.993842
368.710388	0.992045
369.097820	0.990011
369.485189	0.988292
369.872495	0.987303
370.259738	0.984365
370.646918	0.981694
371.034035	0.979535
371.421090	0.976464
371.808081	0.971700
372.195010	0.968869
372.581875	0.963173
372.968678	0.958331
373.355418	0.955713
373.742096	0.947794
374.128710	0.943378
374.515262	0.938997
374.901751	0.933038
375.288177	0.928582
375.674540	0.921607
376.060841	0.915491
376.447079	0.908230
376.833254	0.902300
377.219367	0.897886
377.605417	0.885603
377.991404	0.882606
378.377329	0.875749
378.763191	0.870831
379.148991	0.860387
379.534727	0.854170
379.920402	0.845794
380.306013	0.840883
380.691563	0.829472
381.077049	0.822339
381.462474	0.818056
381.847835	0.807082
382.233134	0.802577
382.618371	0.802566
383.003545	0.785485
383.388657	0.782248
383.773706	0.775142
384.158693	0.771647
384.543618	0.765969
384.928480	0.756459
385.313280	0.746717
385.698017	0.747073
386.082692	0.735376
386.467305	0.733489
386.851856	0.729104
387.236344	0.723143
387.620770	0.717754
388.005133	0.712294
388.389435	0.706606
388.773674	0.703357
389.157851	0.695357
389.541965	0.693233
389.926018	0.698765
390.310008	0.686525
390.693936	0.682990
391.077802	0.676055
391.461606	0.676925
391.845348	0.666349
392.229027	0.665861
392.612645	0.663894
392.996200	0.651362
393.379694	0.643413
393.763125	0.634267
394.146494	0.638658
394.529801	0.628858
394.913047	0.621200
395.296230	0.627333
395.679351	0.618132
396.062410	0.614859
396.445408	0.618136
396.828343	0.613950
397.211217	0.608784
397.594028	0.621787
397.976778	0.611009
398.359466	0.607203
398.742092	0.603137
399.124656	0.614917
399.507158	0.602381
399.889598	0.600901
400.271977	0.591375
400.654294	0.595078
401.036549	0.594259
401.418742	0.598960
401.800874	0.584365
402.182944	0.581252
402.564952	0.573035
402.946898	0.575311
403.328783	0.575364
403.710606	0.587214
404.092367	0.561388
404.474067	0.567177
404.855705	0.566015
405.237282	0.574484
405.618797	0.560112
406.000250	0.556621
406.381642	0.546292
406.762972	0.551510
407.144240	0.549723
407.525447	0.550027
407.906593	0.542677
408.287677	0.537962
408.668700	0.546807
409.049661	0.540957
409.430560	0.536134
409.811399	0.544589
410.192176	0.526864
410.572891	0.533489
410.953545	0.521908
411.334138	0.535401
411.714669	0.527514
412.095139	0.539704
412.475547	0.523330
412.855894	0.525565
413.236180	0.524610
413.616405	0.529936
413.996568	0.520081
414.376670	0.526471
414.756711	0.531608
415.136691	0.528679
415.516609	0.519646
415.896466	0.515923
416.276262	0.512493
416.655997	0.513473
417.035670	0.494964
417.415283	0.486941
417.794834	0.491777
418.174324	0.497784
418.553753	0.506171
418.933121	0.488555
419.312428	0.482588
419.691674	0.488125
420.070859	0.476297
420.449983	0.484449
420.829045	0.473274
421.208047	0.482362
421.586988	0.475759
421.965867	0.474857
422.344686	0.463210
422.723444	0.475288
423.102141	0.493303
423.480777	0.465578
423.859352	0.486986
424.237866	0.463956
424.616319	0.464163
424.994712	0.455292
425.373044	0.465342
425.751314	0.453421
426.129524	0.470731
426.507673	0.454087
426.885762	0.447391
427.263789	0.452787
427.641756	0.462383
428.019662	0.452618
428.397508	0.451714
428.775292	0.456221
429.153016	0.448330
429.530679	0.454484
429.908282	0.447599
430.285824	0.457801
430.663305	0.436120
431.040726	0.457552
431.418086	0.457459
431.795385	0.449252
432.172624	0.448370
432.549802	0.448482
432.926920	0.447349
433.303977	0.446762
433.680974	0.444003
434.057910	0.442192
434.434786	0.441860
434.811601	0.444751
435.188355	0.426474
435.565050	0.436092
435.941683	0.437632
436.318257	0.421545
436.694770	0.422504
437.071222	0.420015
437.447614	0.424918
437.823946	0.431200
438.200218	0.421152
438.576429	0.429821
438.952580	0.423425
439.328670	0.419722
439.704700	0.426551
440.080670	0.427902
440.456580	0.409453
440.832429	0.417303
441.208218	0.427946
441.583947	0.417050
441.959616	0.416222
442.335224	0.422165
442.710773	0.412315
443.086261	0.410979
443.461689	0.424877
443.837057	0.414368
444.212365	0.404465
444.587612	0.411629
444.962800	0.401368
445.337927	0.403007
445.712995	0.429080
446.088002	0.390925
446.462949	0.401464
446.837837	0.406432
447.212664	0.394743
447.587431	0.386410
447.962139	0.356906
448.336786	0.315943
448.711374	0.326410
449.085901	0.371014
449.460369	0.375266
449.834776	0.378787
450.209124	0.357514
450.583412	0.350581
450.957640	0.343170
451.331808	0.355005
451.705917	0.378560
452.079965	0.383091
452.453954	0.371283
452.827883	0.377926
453.201752	0.372407
453.575562	0.383692
453.949311	0.372797
454.323001	0.378588
454.696632	0.374628
455.070202	0.367053
455.443713	0.359105
455.817164	0.353290
456.190556	0.349272
456.563888	0.346223
456.937160	0.344009
457.310373	0.361127
457.683526	0.359883
458.056619	0.365736
458.429653	0.366302
458.802628	0.370008
459.175542	0.364199
459.548398	0.346363
459.921194	0.338938
460.293930	0.339330
460.666607	0.316454
461.039224	0.305003
461.411782	0.300033
461.784280	0.299895
462.156719	0.303640
462.529099	0.308291
462.901419	0.324358
463.273680	0.328974
463.645882	0.328046
464.018024	0.334300
464.390106	0.327014
464.762130	0.311467
465.134094	0.294507
465.505999	0.263411
465.877845	0.233648
466.249631	0.220667
466.621358	0.228015
466.993026	0.242104
467.364634	0.248279
467.736184	0.256789
468.107674	0.266018
468.479105	0.265017
468.850477	0.271982
469.221790	0.278553
469.593043	0.288827
469.964238	0.293592
470.335373	0.293145
470.706449	0.291542
471.077467	0.291583
471.448425	0.253830
471.819324	0.229084
472.190164	0.228735
472.560945	0.257815
472.931667	0.280018
473.302330	0.284416
473.672934	0.296155
474.043479	0.284048
474.413965	0.286230
474.784393	0.289538
475.154761	0.284609
475.525070	0.281638
475.895321	0.287138
476.265513	0.281338
476.635645	0.276766
477.005719	0.276859
477.375734	0.273332
477.745691	0.266528
478.115588	0.263052
478.485427	0.256494
478.855207	0.243161
479.224928	0.225781
479.594591	0.214124
479.964194	0.217288
480.333739	0.218460
480.703226	0.220044
481.072653	0.218172
481.442022	0.213950
481.811333	0.210673
482.180584	0.214005
482.549777	0.219444
482.918912	0.222621
483.287988	0.222517
483.657005	0.222018
484.025964	0.228408
484.394864	0.225855
484.763706	0.226684
485.132489	0.231286
485.501213	0.232300
485.869879	0.230345
486.238487	0.233554
486.607036	0.231445
486.975527	0.236494
487.343959	0.232047
487.712333	0.231236
488.080648	0.232778
488.448905	0.231854
488.817104	0.232931
489.185244	0.227324
489.553326	0.224507
489.921350	0.214432
490.289315	0.196729
490.657222	0.191512
491.025070	0.193087
491.392861	0.194884
491.760593	0.200561
492.128267	0.206764
492.495883	0.211881
492.863440	0.218211
493.230939	0.224755
493.598380	0.226162
493.965763	0.228168
494.333088	0.230284
494.700354	0.232266
495.067563	0.230813
495.434713	0.234214
495.801805	0.231920
496.168839	0.233507
496.535815	0.234894
496.902733	0.234819
497.269593	0.236540
497.636395	0.234139
498.003139	0.234278
498.369825	0.237739
498.736453	0.234312
499.103023	0.235591
499.469535	0.234888
499.835989	0.235193
500.202385	0.236201
500.568723	0.239482
500.935003	0.234590
501.301226	0.238759
501.667390	0.232946
502.033497	0.230924
502.399546	0.234315
502.765537	0.236033
503.131470	0.234291
503.497345	0.230841
503.863163	0.239426
504.228923	0.232354
504.594625	0.231080
504.960269	0.236271
505.325856	0.232141
505.691385	0.236275
506.056856	0.232762
506.422270	0.232533
506.787625	0.234800
507.152924	0.232161
507.518164	0.232637
507.883347	0.234357
508.248472	0.236098
508.613540	0.231005
508.978550	0.233443
509.343503	0.233983
509.708398	0.231754
510.073236	0.229053
510.438016	0.228913
510.802738	0.230096
511.167403	0.229240
511.532010	0.231456
511.896561	0.226547
512.261053	0.225172
512.625488	0.227376
512.989866	0.227556
513.354186	0.228063
513.718449	0.229793
514.082655	0.226241
514.446803	0.228197
514.810894	0.226112
515.174927	0.228762
515.538904	0.228377
515.902822	0.225210
516.266684	0.227487
516.630488	0.228612
516.994235	0.227677
517.357925	0.226661
517.721558	0.224415
518.085133	0.223952
518.448651	0.224042
518.812112	0.226301
519.175516	0.226110
519.538863	0.223588
519.902152	0.225306
520.265385	0.222128
520.628560	0.223866
520.991678	0.224285
521.354739	0.223237
521.717743	0.224389
522.080690	0.224648
522.443580	0.222308
522.806413	0.223165
523.169189	0.222612
523.531908	0.221160
523.894569	0.224934
524.257174	0.224700
524.619722	0.222380
524.982213	0.223650
525.344647	0.222556
525.707025	0.223300
526.069345	0.221587
526.431608	0.223266
526.793815	0.221171
527.155964	0.225612
527.518057	0.224334
527.880093	0.225246
528.242072	0.223796
528.603995	0.226029
528.965860	0.227366
529.327669	0.226328
529.689421	0.227264
530.051117	0.227915
530.412755	0.225786
530.774337	0.228417
531.135862	0.228683
531.497331	0.227850
531.858743	0.230943
532.220098	0.227331
532.581396	0.229682
532.942638	0.230340
533.303824	0.231230
533.664953	0.231013
534.026025	0.233019
534.387040	0.230879
534.747999	0.230460
535.108902	0.229533
535.469748	0.234733
535.830537	0.232387
536.191270	0.232800
536.551947	0.232474
536.912567	0.232547
537.273131	0.234101
537.633638	0.234536
537.994089	0.234695
538.354483	0.235856
538.714821	0.232947
539.075103	0.232903
539.435328	0.233791
539.795497	0.236930
540.155609	0.233713
540.515665	0.231814
540.875665	0.237593
541.235609	0.236146
541.595496	0.235877
541.955328	0.232856
542.315102	0.235337
542.674821	0.236290
543.034483	0.236490
543.394090	0.236330
543.753640	0.238267
544.113134	0.233020
544.472571	0.236289
544.831953	0.233278
545.191278	0.237229
545.550548	0.236691
545.909761	0.233690
546.268918	0.234546
546.628019	0.232638
546.987064	0.235546
547.346053	0.237193
547.704986	0.235361
548.063863	0.235143
548.422684	0.235600
548.781449	0.237467
549.140158	0.235094
549.498811	0.237856
549.857408	0.241020
550.215949	0.235571
550.574434	0.238881
550.932864	0.236743
551.291237	0.235276
551.649555	0.236942
552.007817	0.236674
552.366022	0.237639
552.724173	0.237723
553.082267	0.238189
553.440305	0.234749
553.798288	0.239296
554.156215	0.236103
554.514086	0.236617
554.871902	0.239982
555.229661	0.238831
555.587365	0.239738
555.945014	0.242030
556.302606	0.239240
556.660143	0.241677
557.017625	0.238132
557.375050	0.240214
557.732421	0.237262
558.089735	0.239293
558.446994	0.239298
558.804197	0.238458
559.161345	0.238259
559.518437	0.241829
559.875474	0.239998
560.232455	0.239121
560.589381	0.240711
560.946251	0.240660
561.303065	0.238037
561.659825	0.239311
562.016528	0.241040
562.373177	0.243695
562.729770	0.241000
563.086307	0.242973
563.442789	0.241093
563.799216	0.243856
564.155587	0.242612
564.511904	0.243677
564.868164	0.243735
565.224370	0.243543
565.580520	0.245421
565.936615	0.245168
566.292654	0.248253
566.648638	0.245206
567.004567	0.246258
567.360441	0.246578
567.716260	0.248691
568.072023	0.246217
568.427732	0.246987
568.783385	0.249535
569.138982	0.247619
569.494525	0.247158
569.850013	0.250305
570.205445	0.248659
570.560823	0.251146
570.916145	0.253210
571.271412	0.251348
571.626625	0.252837
571.981782	0.253334
572.336884	0.254240
572.691931	0.254102
573.046923	0.255325
573.401860	0.256425
573.756743	0.258396
574.111570	0.256913
574.466342	0.257627
574.821059	0.256803
575.175722	0.259625
575.530330	0.259253
575.884882	0.259379
576.239380	0.261360
576.593823	0.262212
576.948211	0.261192
577.302544	0.264814
577.656823	0.264549
578.011047	0.264333
578.365216	0.265293
578.719330	0.267280
579.073389	0.266813
579.427394	0.268116
579.781344	0.269053
580.135239	0.270231
580.489080	0.270179
580.842866	0.273230
581.196597	0.273273
581.550273	0.271628
581.903895	0.272814
582.257463	0.270909
582.610975	0.274149
582.964434	0.273506
583.317837	0.275753
583.671186	0.276331
584.024481	0.276350
584.377721	0.278814
584.730906	0.279744
585.084037	0.278809
585.437113	0.280675
585.790135	0.280249
586.143103	0.283349
586.496016	0.284171
586.848874	0.281919
587.201679	0.282341
587.554428	0.285793
587.907124	0.284765
588.259765	0.285198
588.612352	0.285726
588.964884	0.289434
589.317362	0.288999
589.669786	0.289082
590.022155	0.287272
590.374470	0.286695
590.726731	0.288666
591.078937	0.293824
591.431090	0.290270
591.783188	0.294290
592.135232	0.294746
592.487222	0.294511
592.839157	0.292962
593.191038	0.294872
593.542866	0.296990
593.894639	0.300393
594.246358	0.299002
594.598022	0.298061
594.949633	0.301843
595.301190	0.302429
595.652692	0.301595
596.004141	0.297636
596.355535	0.305581
596.706876	0.306513
597.058162	0.308524
597.409395	0.306236
597.760573	0.303705
598.111698	0.306770
598.462768	0.307561
598.813785	0.308473
599.164748	0.309626
599.515657	0.310288
599.866511	0.314031
600.217312	0.309014
600.568060	0.313987
600.918753	0.310763
601.269392	0.311427
601.619978	0.314782
601.970510	0.312527
602.320988	0.312539
602.671412	0.310571
603.021783	0.312802
603.372100	0.314055
603.722363	0.313981
604.072572	0.315081
604.422728	0.314521
604.772830	0.316879
605.122878	0.316359
605.472872	0.316940
605.822813	0.315064
606.172701	0.318156
606.522534	0.315236
606.872314	0.315307
607.222041	0.316488
607.571714	0.314351
607.921333	0.315944
608.270899	0.315477
608.620411	0.312388
608.969870	0.316255
609.319276	0.316342
609.668627	0.316194
610.017926	0.314585
610.367171	0.313003
610.716362	0.314002
611.065500	0.313938
611.414585	0.313293
611.763616	0.312823
612.112594	0.313895
612.461518	0.313037
612.810389	0.310871
613.159207	0.313194
613.507971	0.315027
613.856682	0.310974
614.205340	0.311952
614.553945	0.309592
614.902496	0.312801
615.250994	0.311278
615.599439	0.311797
615.947830	0.311113
616.296169	0.312486
616.644454	0.311829
616.992686	0.311977
617.340864	0.309907
617.688990	0.313030
618.037063	0.310062
618.385082	0.311533
618.733048	0.308730
619.080961	0.310910
619.428821	0.310215
619.776628	0.309695
620.124382	0.312405
620.472083	0.312818
620.819731	0.311912
621.167326	0.315728
621.514868	0.315423
621.862357	0.319922
622.209793	0.319075
622.557176	0.321375
622.904506	0.322429
623.251783	0.324974
623.599007	0.327368
623.946179	0.326715
624.293297	0.329183
624.640363	0.332742
624.987376	0.333334
625.334336	0.335237
625.681243	0.337522
626.028097	0.338834
626.374899	0.339660
626.721647	0.340105
627.068343	0.342952
627.414987	0.344588
627.761577	0.346475
628.108115	0.344553
628.454600	0.349993
628.801032	0.346880
629.147412	0.349238
629.493739	0.350117
629.840014	0.352627
630.186236	0.349899
630.532405	0.355919
630.878521	0.352853
631.224585	0.355414
631.570597	0.358574
631.916556	0.357544
632.262462	0.357229
632.608316	0.359838
632.954117	0.360457
633.299866	0.361327
633.645562	0.361637
633.991206	0.366317
634.336797	0.368805
634.682336	0.370950
635.027823	0.372977
635.373257	0.373897
635.718639	0.377308
636.063968	0.376089
636.409245	0.382179
636.754470	0.382920
637.099642	0.385261
637.444762	0.388703
637.789829	0.387249
638.134845	0.391052
638.479808	0.392052
638.824719	0.391958
639.169577	0.395823
639.514383	0.395096
639.859137	0.399204
640.203839	0.399141
640.548489	0.399128
640.893086	0.400699
641.237632	0.402489
641.582125	0.401294
641.926566	0.403028
642.270955	0.402462
642.615292	0.402742
642.959576	0.402106
643.303809	0.402866
643.647990	0.402559
643.992118	0.403008
644.336195	0.406410
644.680219	0.404592
645.024192	0.405442
645.368112	0.399224
645.711981	0.398069
646.055797	0.393015
646.399562	0.395817
646.743274	0.388457
647.086935	0.384854
647.430544	0.384840
647.774101	0.383949
648.117606	0.384123
648.461059	0.384732
648.804460	0.387092
649.147810	0.391982
649.491108	0.393790
649.834354	0.395214
650.177548	0.400431
650.520690	0.405675
650.863781	0.407197
651.206820	0.406020
651.549807	0.410880
651.892742	0.415791
652.235626	0.414512
652.578458	0.415875
652.921238	0.422259
653.263967	0.419521
653.606644	0.422697
653.949269	0.423171
654.291843	0.426870
654.634365	0.424396
654.976836	0.426861
655.319255	0.427609
655.661622	0.428980
656.003938	0.429623
656.346203	0.431994
656.688416	0.430162
657.030577	0.433104
657.372687	0.435533
657.714746	0.435975
658.056753	0.433055
658.398708	0.436692
658.740612	0.438141
659.082465	0.434086
659.424266	0.434801
659.766016	0.434625
660.107715	0.437404
660.449362	0.436029
660.790958	0.436353
661.132503	0.437757
661.473996	0.434760
661.815438	0.436375
662.156829	0.436191
662.498168	0.436757
662.839456	0.438378
663.180693	0.435957
663.521879	0.435947
663.863013	0.437101
664.204097	0.435301
664.545129	0.431997
664.886110	0.432220
665.227040	0.430075
665.567918	0.432408
665.908746	0.430409
666.249522	0.430198
666.590248	0.431214
666.930922	0.428881
667.271545	0.429061
667.612118	0.428504
667.952639	0.430286
668.293109	0.428711
668.633528	0.431617
668.973896	0.431346
669.314213	0.432073
669.654480	0.433626
669.994695	0.433724
670.334859	0.434429
670.674973	0.435500
671.015035	0.434947
671.355047	0.435329
671.695008	0.436140
672.034918	0.438533
672.374777	0.437807
672.714585	0.438115
673.054342	0.438560
673.394049	0.438978
673.733705	0.436541
674.073310	0.438139
674.412864	0.440581
674.752368	0.440922
675.091820	0.441809
675.431223	0.446428
675.770574	0.445869
676.109875	0.448898
676.449125	0.449075
676.788324	0.451494
677.127473	0.456355
677.466571	0.456434
677.805619	0.458653
678.144616	0.459687
678.483562	0.461391
678.822458	0.463748
679.161303	0.464173
679.500098	0.464943
679.838842	0.466268
680.177535	0.465747
680.516179	0.464796
680.854771	0.464278
681.193314	0.457549
681.531805	0.448428
681.870247	0.437789
682.208638	0.430166
682.546978	0.429269
682.885268	0.430837
683.223508	0.437465
683.561697	0.441600
683.899836	0.444262
684.237925	0.446861
684.575963	0.449821
684.913951	0.453209
685.251889	0.449188
685.589776	0.451062
685.927614	0.454077
686.265401	0.448179
686.603137	0.449648
686.940824	0.444137
687.278460	0.442843
687.616046	0.442137
687.953582	0.436888
688.291068	0.439179
688.628504	0.434146
688.965889	0.436670
689.303224	0.440199
689.640510	0.444257
689.977745	0.450410
690.314930	0.458459
690.652065	0.462805
690.989150	0.470183
691.326185	0.477281
691.663170	0.482292
692.000105	0.489112
692.336990	0.495507
692.673825	0.498807
693.010610	0.504890
693.347345	0.511473
693.684030	0.512909
694.020665	0.517049
694.357251	0.526240
694.693786	0.525960
695.030272	0.529230
695.366707	0.533275
695.703093	0.536617
696.039429	0.534185
696.375716	0.537366
696.711952	0.539595
697.048139	0.541475
697.384276	0.542978
697.720363	0.542488
698.056400	0.540838
698.392388	0.546806
698.728326	0.549665
699.064214	0.553004
699.400053	0.553082
699.735842	0.557045
700.071581	0.560107
700.407270	0.562647
700.742910	0.565143
701.078501	0.571918
701.414042	0.572623
701.749533	0.575361
702.084974	0.584713
702.420366	0.577251
702.755709	0.583997
703.091002	0.592240
703.426246	0.586770
703.761440	0.591530
704.096584	0.596558
704.431679	0.594408
704.766725	0.596727
705.101721	0.599243
705.436668	0.594656
705.771565	0.601311
706.106413	0.597441
706.441212	0.593846
706.775961	0.592434
707.110661	0.595165
707.445311	0.591830
707.779913	0.589981
708.114465	0.588529
708.448967	0.585679
708.783421	0.578290
709.117825	0.572476
709.452180	0.572552
709.786485	0.566570
710.120742	0.556892
710.454949	0.558735
710.789107	0.550766
711.123216	0.542227
711.457275	0.543925
711.791286	0.536804
712.125247	0.536350
712.459159	0.545625
712.793023	0.537658
713.126837	0.543410
713.460602	0.543698
713.794318	0.551650
714.127985	0.551874
714.461602	0.561818
714.795171	0.563920
715.128691	0.572860
715.462162	0.579578
715.795584	0.585863
716.128957	0.588732
716.462281	0.594806
716.795556	0.597557
717.128782	0.604253
717.461960	0.612668
717.795088	0.611584
718.128167	0.617977
718.461198	0.625874
718.794180	0.627816
719.127113	0.630243
719.459997	0.632569
719.792833	0.639017
720.125619	0.639533
720.458357	0.646518
720.791046	0.646053
721.123686	0.649963
721.456278	0.656291
721.788821	0.654273
722.121315	0.659870
722.453761	0.662441
722.786158	0.660787
723.118506	0.657371
723.450805	0.664601
723.783056	0.660932
724.115259	0.658945
724.447412	0.658872
724.779518	0.659797
725.111574	0.659395
725.443582	0.655028
725.775542	0.657672
726.107453	0.649661
726.439315	0.650165
726.771129	0.648666
727.102895	0.642696
727.434612	0.636719
727.766281	0.634646
728.097901	0.633879
728.429473	0.633258
728.760996	0.630997
729.092471	0.632644
729.423897	0.636122
729.755276	0.635388
730.086606	0.635374
730.417887	0.630274
730.749120	0.621467
731.080305	0.613799
731.411442	0.609787
731.742530	0.613298
732.073570	0.613047
732.404562	0.607270
732.735506	0.608581
733.066401	0.612617
733.397249	0.621409
733.728048	0.632433
734.058798	0.644762
734.389501	0.655757
734.720156	0.664290
735.050762	0.672736
735.381320	0.673583
735.711831	0.680992
736.042293	0.686456
736.372707	0.684226
736.703073	0.687946
737.033391	0.689128
737.363661	0.687057
737.693883	0.683565
738.024056	0.681735
738.354182	0.681626
738.684260	0.672962
739.014290	0.669108
739.344272	0.669392
739.674207	0.664155
740.004093	0.664163
740.333931	0.664052
740.663722	0.664666
740.993464	0.665115
741.323159	0.668975
741.652806	0.674346
741.982405	0.678304
742.311956	0.684015
742.641460	0.685688
742.970915	0.689267
743.300323	0.695757
743.629683	0.701783
743.958996	0.704191
744.288260	0.708387
744.617477	0.713805
744.946647	0.716129
745.275768	0.721759
745.604842	0.721475
745.933869	0.730181
746.262847	0.732041
746.591778	0.726559
746.920662	0.732141
747.249498	0.737797
747.578286	0.730574
747.907027	0.727167
748.235720	0.726041
748.564365	0.722496
748.892963	0.722880
749.221514	0.726412
749.550017	0.729527
749.878473	0.730658
750.206881	0.736243
750.535242	0.737001
750.863555	0.737122
751.191821	0.738179
751.520039	0.741037
751.848210	0.744141
752.176334	0.739070
752.504411	0.739124
752.832440	0.745314
753.160421	0.749651
753.488356	0.748324
753.816243	0.746723
754.144082	0.754189
754.471875	0.756438
754.799620	0.753882
755.127318	0.754033
755.454969	0.755123
755.782572	0.755200
756.110129	0.758189
756.437638	0.762488
756.765100	0.758790
757.092515	0.756845
757.419882	0.756185
757.747203	0.760742
758.074477	0.760437
758.401703	0.758965
758.728882	0.754692
759.056014	0.751375
759.383099	0.751880
759.710138	0.752896
760.037129	0.748877
760.364073	0.745415
760.690970	0.747073
761.017820	0.749673
761.344623	0.748117
761.671379	0.739560
761.998088	0.729861
762.324751	0.707992
762.651366	0.667671
762.977935	0.603909
763.304456	0.558491
763.630931	0.551475
763.957359	0.586481
764.283740	0.627256
764.610074	0.655008
764.936362	0.684330
765.262602	0.709329
765.588796	0.729683
765.914943	0.744683
766.241044	0.761379
766.567097	0.767333
766.893104	0.776992
767.219064	0.782064
767.544978	0.789392
767.870845	0.800380
768.196665	0.803372
768.522438	0.802614
768.848165	0.804688
769.173846	0.812379
769.499479	0.816182
769.825066	0.819857
770.150607	0.823331
770.476101	0.820163
770.801548	0.823447
771.126949	0.831875
771.452303	0.836004
771.777611	0.835069
772.102872	0.834585
772.428087	0.840092
772.753256	0.843089
773.078378	0.844622
773.403453	0.852082
773.728482	0.857689
774.053465	0.851188
774.378401	0.853551
774.703291	0.860649
775.028135	0.862039
775.352932	0.861305
775.677683	0.864941
776.002388	0.867172
776.327046	0.866100
776.651658	0.870601
776.976224	0.872240
777.300743	0.871224
777.625216	0.873512
777.949643	0.875761
778.274024	0.875823
778.598359	0.877304
778.922647	0.875239
779.246889	0.877544
779.571086	0.879862
779.895236	0.883016
780.219339	0.881082
780.543397	0.877065
780.867409	0.877214
781.191374	0.878620
781.515294	0.880051
781.839167	0.878579
782.162995	0.881175
782.486776	0.879788
782.810511	0.879810
783.134201	0.883951
783.457844	0.883048
783.781441	0.884986
784.104993	0.889096
784.428498	0.889400
784.751958	0.887124
785.075372	0.888412
785.398739	0.890176
785.722061	0.887569
786.045337	0.885471
786.368568	0.887950
786.691752	0.890340
787.014891	0.878699
787.337983	0.870788
787.661030	0.863688
787.984031	0.847395
788.306987	0.837524
788.629897	0.837245
788.952760	0.841721
789.275579	0.847956
789.598351	0.860983
789.921078	0.872482
790.243759	0.873960
790.566395	0.878171
790.888984	0.885831
791.211529	0.890052
791.534027	0.891690
791.856480	0.893091
792.178888	0.897744
792.501249	0.899911
792.823566	0.903503
793.145836	0.901965
793.468062	0.904235
793.790241	0.904482
794.112375	0.901801
794.434464	0.899315
794.756507	0.898460
795.078505	0.897042
795.400457	0.892523
795.722364	0.882179
796.044226	0.876395
796.366042	0.874578
796.687812	0.876151
797.009538	0.874133
797.331218	0.878403
797.652852	0.882516
797.974442	0.884790
798.295986	0.887309
798.617484	0.888504
798.938938	0.892401
799.260346	0.897003
799.581709	0.898009
799.903026	0.901238
800.224299	0.900794
800.545526	0.903249
800.866708	0.907513
801.187845	0.910358
801.508936	0.909865
801.829983	0.908583
802.150984	0.911596
802.471940	0.916204
802.792851	0.916224
803.113717	0.916699
803.434538	0.915701
803.755314	0.917679
804.076045	0.917918
804.396731	0.918014
804.717372	0.916254
805.037967	0.919975
805.358518	0.918361
805.679024	0.914612
805.999485	0.915708
806.319901	0.914935
806.640272	0.916903
806.960598	0.915604
807.280879	0.912135
807.601115	0.912357
807.921306	0.914229
808.241453	0.915338
808.561554	0.913290
808.881611	0.914486
809.201623	0.915252
809.521590	0.915887
809.841513	0.916555
810.161390	0.914414
810.481223	0.916154
810.801011	0.919639
811.120755	0.921758
811.440453	0.920450
811.760107	0.920923
812.079716	0.920802
812.399281	0.923145
812.718801	0.925217
813.038276	0.926054
813.357707	0.925930
813.677093	0.924945
813.996434	0.926246
814.315731	0.928325
814.634983	0.928821
814.954191	0.928005
815.273354	0.923453
815.592473	0.923096
815.911547	0.921918
816.230577	0.919146
816.549562	0.918082
816.868502	0.916285
817.187399	0.915643
817.506250	0.911050
817.825058	0.912292
818.143821	0.909894
818.462539	0.905864
818.781213	0.898711
819.099843	0.890710
819.418429	0.874967
819.736970	0.860664
820.055466	0.843271
820.373919	0.822615
820.692327	0.796877
821.010691	0.765336
821.329011	0.691559
821.647286	0.583672
821.965517	0.479363
822.283704	0.438420
822.601847	0.441620
822.919945	0.481511
823.237999	0.520876
823.556010	0.564424
823.873976	0.615372
824.191897	0.661756
824.509775	0.700502
824.827609	0.736574
825.145398	0.756419
825.463144	0.758188
825.780845	0.743248
826.098502	0.725631
826.416116	0.685516
826.733685	0.645414
827.051210	0.637797
827.368692	0.652766
827.686129	0.689328
828.003522	0.735853
828.320872	0.777324
828.638177	0.814072
828.955439	0.840740
829.272656	0.858808
829.589830	0.872707
829.906960	0.886654
830.224046	0.895711
830.541088	0.904556
830.858086	0.909094
831.175041	0.914773
831.491952	0.912556
831.808819	0.911807
832.125642	0.904756
832.442421	0.893440
832.759157	0.874298
833.075849	0.833558
833.392497	0.778283
833.709101	0.744732
834.025662	0.755480
834.342179	0.783692
834.658653	0.816845
834.975083	0.846999
835.291469	0.870323
835.607811	0.888819
835.924110	0.902099
836.240366	0.915616
836.556578	0.925223
836.872746	0.932297
837.188871	0.936927
837.504952	0.940776
837.820990	0.943479
838.136984	0.945871
838.452935	0.949443
838.768842	0.950254
839.084706	0.943890
839.400526	0.923606
839.716303	0.886991
840.032037	0.868747
840.347727	0.873913
840.663373	0.890524
840.978977	0.909635
841.294537	0.927667
841.610054	0.939713
841.925527	0.946649
842.240957	0.951569
842.556344	0.957256
842.871687	0.962296
843.186987	0.964997
843.502244	0.966026
843.817458	0.967054
844.132629	0.970607
844.447756	0.973062
844.762840	0.973544
845.077881	0.974244
845.392879	0.971669
845.707833	0.974522
846.022745	0.977097
846.337613	0.976378
846.652438	0.977655
846.967221	0.977699
847.281960	0.978346
847.596656	0.978868
847.911309	0.978279
848.225919	0.978534
848.540485	0.980433
848.855009	0.981213
849.169490	0.980058
849.483928	0.979483
849.798323	0.979216
850.112675	0.981742
850.426984	0.980764
850.741251	0.981679
851.055474	0.979963
851.369654	0.981214
851.683792	0.979314
851.997887	0.980881
852.311938	0.981060
852.625947	0.979958
852.939914	0.979422
853.253837	0.981714
853.567718	0.982246
853.881555	0.982019
854.195350	0.980001
854.509103	0.981221
854.822812	0.980920
855.136479	0.982456
855.450103	0.980888
855.763685	0.981039
856.077224	0.980849
856.390720	0.981966
856.704173	0.981040
857.017584	0.980822
857.330953	0.979446
857.644278	0.980361
857.957561	0.980138
858.270802	0.981487
858.584000	0.980474
858.897155	0.978626
859.210268	0.979503
859.523339	0.981790
859.836367	0.981628
860.149352	0.982400
860.462295	0.982406
860.775195	0.983134
861.088054	0.980814
861.400869	0.981866
861.713642	0.981729
862.026373	0.982370
862.339062	0.983371
862.651708	0.980985
862.964312	0.980919
863.276873	0.981923
863.589392	0.980329
863.901869	0.978507
864.214303	0.978263
864.526696	0.977581
864.839045	0.977523
865.151353	0.976698
865.463619	0.975635
865.775842	0.978042
866.088023	0.977879
866.400162	0.977394
866.712258	0.978002
867.024313	0.977122
867.336325	0.979672
867.648296	0.977662
867.960224	0.976238
868.272110	0.977883
868.583954	0.978591
868.895755	0.978024
869.207515	0.975633
869.519233	0.975831
869.830909	0.973957
870.142542	0.975689
870.454134	0.976254
870.765684	0.975349
871.077191	0.974791
871.388657	0.974721
871.700081	0.974165
872.011463	0.974074
872.322803	0.973636
872.634101	0.971725
872.945357	0.969874
873.256571	0.970354
873.567744	0.969977
873.878874	0.970106
874.189963	0.970010
874.501010	0.970880
874.812015	0.968147
875.122979	0.968548
875.433900	0.970457
875.744780	0.970622
876.055618	0.968537
876.366415	0.967910
876.677169	0.967145
876.987882	0.969379
877.298554	0.969691
877.609183	0.967198
877.919771	0.966549
878.230317	0.964415
878.540822	0.962106
878.851285	0.959058
879.161707	0.953462
879.472087	0.946138
879.782425	0.932415
880.092722	0.906823
880.402977	0.862612
880.713191	0.807363
881.023363	0.751655
881.333494	0.719759
881.643583	0.698229
881.953631	0.702775
882.263637	0.730181
882.573602	0.765398
882.883526	0.789642
883.193408	0.811876
883.503248	0.831047
883.813048	0.854059
884.122806	0.877061
884.432522	0.895621
884.742197	0.910554
885.051831	0.919859
885.361424	0.927563
885.670975	0.937324
885.980485	0.942982
886.289954	0.946603
886.599382	0.949479
886.908768	0.954164
887.218113	0.956514
887.527417	0.961078
887.836680	0.962901
888.145901	0.965440
888.455082	0.967652
888.764221	0.970733
889.073319	0.970658
889.382376	0.973367
889.691392	0.971487
890.000366	0.972022
890.309300	0.971992
890.618193	0.971494
890.927044	0.970252
891.235855	0.970544
891.544625	0.970015
891.853353	0.970022
892.162041	0.968167
892.470687	0.963654
892.779293	0.960494
893.087858	0.955981
893.396381	0.951237
893.704864	0.940457
894.013306	0.922587
894.321707	0.901553
894.630068	0.891250
894.938387	0.887169
895.246665	0.890621
895.554903	0.900710
895.863100	0.913606
896.171256	0.924577
896.479371	0.938958
896.787446	0.947204
897.095480	0.953374
897.403473	0.955210
897.711425	0.958103
898.019336	0.962271
898.327207	0.965632
898.635038	0.965679
898.942827	0.966539
899.250576	0.968233
899.558284	0.971838
899.865952	0.970847
900.173579	0.973826
900.481165	0.974408
900.788711	0.975845
901.096216	0.978059
901.403681	0.978857
901.711105	0.979280
902.018489	0.979425
902.325832	0.978353
902.633135	0.978467
902.940397	0.974371
903.247619	0.964719
903.554800	0.945539
903.861941	0.912808
904.169041	0.884949
904.476101	0.871715
904.783121	0.873474
905.090100	0.888448
905.397039	0.907047
905.703938	0.923238
906.010796	0.937605
906.317614	0.950118
906.624391	0.959001
906.931129	0.966687
907.237826	0.971957
907.544483	0.974666
907.851099	0.978615
908.157675	0.981146
908.464211	0.983456
908.770707	0.985003
909.077163	0.987807
909.383578	0.987859
909.689954	0.986509
909.996289	0.987839
910.302584	0.989976
910.608839	0.991220
910.915054	0.988608
911.221229	0.990526
911.527363	0.988008
911.833458	0.988821
912.139513	0.989532
912.445527	0.988728
912.751502	0.986505
913.057436	0.984403
913.363331	0.984560
913.669186	0.981283
913.975000	0.978531
914.280775	0.973439
914.586510	0.967667
914.892205	0.956915
915.197859	0.940406
915.503475	0.921642
915.809050	0.906077
916.114585	0.899343
916.420081	0.898105
916.725536	0.898081
917.030952	0.905722
917.336328	0.916648
917.641665	0.927300
917.946961	0.938413
918.252218	0.945762
918.557435	0.952179
918.862612	0.958701
919.167750	0.963255
919.472848	0.969038
919.777906	0.972392
920.082925	0.975796
920.387904	0.977181
920.692843	0.978377
920.997743	0.979608
921.302603	0.980769
921.607423	0.981418
921.912204	0.985587
922.216946	0.986142
922.521647	0.986374
922.826310	0.987307
923.130932	0.988913
923.435516	0.989570
923.740059	0.989575
924.044564	0.989036
924.349028	0.990327
924.653454	0.992246
924.957840	0.992650
925.262186	0.993202
925.566493	0.993080
925.870761	0.993628
926.174989	0.993819
926.479178	0.995258
926.783328	0.996215
927.087438	0.995418
927.391509	0.996312
927.695541	0.996478
927.999533	0.996338
928.303486	0.996412
928.607400	0.997438
928.911275	0.998373
929.215110	0.997134
929.518906	0.997908
929.822663	0.999090
930.126381	0.999488
930.430060	0.997266
930.733699	0.998336
931.037299	0.997711
931.340861	0.996885
931.644383	0.996253
931.947866	0.997301
932.251309	0.998352
932.554714	0.996913
932.858080	0.997338
933.161407	0.997780
933.464694	0.998054
933.767943	0.997838
934.071153	0.998016
934.374323	0.997871
934.677455	0.997041
934.980548	0.997928
935.283602	0.998619
935.586617	0.997387
935.889593	0.999202
936.192530	0.998632
936.495428	0.997067
936.798287	0.997228
937.101108	0.997476
937.403890	0.996498
937.706632	0.997231
938.009336	0.995990
938.312002	0.994877
938.614628	0.993629
938.917216	0.991595
939.219765	0.992027
939.522275	0.992886
939.824747	0.992328
940.127179	0.993433
940.429573	0.995664
940.731929	0.993897
941.034246	0.994326
941.336524	0.993350
941.638763	0.994046
941.940964	0.994400
942.243126	0.996496
942.545250	0.996600
942.847335	0.996378
943.149381	0.996558
943.451389	0.996079
943.753359	0.997749
944.055290	0.998438
944.357182	0.996734
944.659036	0.997674
944.960851	0.997011
945.262628	0.997540
945.564367	0.997820
945.866067	0.997537
946.167729	0.998031
946.469352	0.997975
946.770937	0.995729
947.072484	0.998952
947.373992	0.998354
947.675462	0.995995
947.976893	0.996766
948.278286	0.999842
948.579641	0.998755
948.880958	0.997978
949.182236	0.998549
949.483476	0.998511
949.784678	0.998700
950.085841	0.999178
950.386967	0.997815
950.688054	0.999348
950.989103	0.996372
951.290114	0.996348
951.591087	0.997291
951.892021	0.997043
952.192917	0.996786
952.493776	0.996618
952.794596	0.995872
953.095378	0.995700
953.396122	0.995309
953.696828	0.995782
953.997496	0.996689
954.298126	0.998911
954.598718	0.996469
954.899272	0.998312
955.199788	0.997962
955.500266	0.999316
955.800706	0.998076
956.101108	0.998394
956.401472	1.000769
956.701798	1.000469
957.002087	0.999978
957.302337	0.999637
957.602550	1.000669
957.902724	1.000418
958.202861	0.999618
958.502960	1.000151
958.803022	1.002760
959.103045	1.001070
959.403031	1.002113
959.702979	1.003439
960.002889	1.002028
960.302762	1.000175
960.602596	1.002007
960.902393	1.002756
961.202153	1.001630
961.501875	1.002048
961.801559	1.001577
962.101205	1.001003
962.400814	1.003308
962.700385	1.003094
962.999918	1.001998
963.299414	1.000841
963.598873	1.002877
963.898293	1.002381
964.197677	1.001410
964.497022	1.002966
964.796331	1.002190
965.095601	1.003266
965.394835	1.001551
965.694030	1.002447
965.993189	1.002560
966.292309	1.002659
966.591393	1.000595
966.890439	1.002484
967.189447	1.001891
967.488419	1.002147
967.787353	1.002998
968.086249	1.002156
968.385108	1.002074
968.683930	1.001976
968.982714	1.002208
969.281462	1.002985
969.580172	1.002087
969.878844	1.002505
970.177480	1.002209
970.476078	1.002962
970.774639	1.002258
971.073162	1.003074
971.371649	1.002415
971.670098	1.001250
971.968510	1.002605
972.266885	1.000776
972.565223	1.001986
972.863524	1.001474
973.161788	1.001488
973.460014	1.003501
973.758204	1.001982
974.056356	1.001564
974.354471	1.000299
974.652550	1.003078
974.950591	1.000041
975.248595	1.001319
975.546563	1.001884
975.844493	1.003057
976.142386	1.002392
976.440243	1.002975
976.738062	1.002657
977.035845	1.002270
977.333590	1.002658
977.631299	1.001114
977.928971	1.003608
978.226606	1.001920
978.524204	1.000961
978.821765	1.003238
979.119290	1.003053
979.416777	1.002283
979.714228	1.002318
980.011642	1.002558
980.309020	1.002418
980.606360	1.001826
980.903664	1.002777
981.200931	1.002208
981.498162	1.002115
981.795356	1.001607
982.092513	1.000966
982.389633	1.001281
982.686717	0.998410
982.983764	0.998432
983.280775	0.997747
983.577749	0.999666
983.874686	0.998559
984.171587	0.998235
984.468451	1.000191
984.765279	1.000772
985.062070	1.000849
985.358824	1.001177
985.655543	1.002531
985.952224	1.002809
986.248869	1.002897
986.545478	1.003441
986.842050	1.002821
987.138586	1.001338
987.435086	1.002976
987.731549	1.004065
988.027975	1.003778
988.324366	1.001964
988.620719	1.004256
988.917037	1.003391
989.213318	1.003477
989.509563	1.003368
989.805772	1.003158
990.101944	1.005808
990.398080	1.003148
990.694180	1.004061
990.990244	1.002296
991.286271	1.002687
991.582262	1.003490
991.878217	1.003285
992.174136	1.004674
992.470019	1.003562
992.765865	1.005443
993.061676	1.002744
993.357450	1.003210
993.653188	1.004496
993.948890	1.003068
994.244556	1.002611
994.540186	1.003720
994.835780	1.001987
995.131337	1.003619
995.426859	1.001910
995.722345	1.002911
996.017795	1.002961
996.313208	1.003107
996.608586	1.002191
996.903928	1.002670
997.199234	1.002477
997.494504	1.002961
997.789738	1.001086
998.084936	1.002704
998.380099	1.002749
998.675225	1.003127
998.970316	1.004104
999.265371	1.005400
999.560390	1.003138
999.855373	1.004952
1000.150320	1.003204
1000.445232	1.003776
1000.740108	1.003082
1001.034948	1.002971
1001.329752	1.004788
1001.624521	1.003539
1001.919254	1.002910
1002.213951	1.004174
1002.508613	1.003089
1002.803239	1.002654
1003.097829	1.004105
1003.392384	1.004135
1003.686903	1.003608
1003.981386	1.003889
1004.275834	1.003604
1004.570246	1.002075
1004.864623	1.004764
1005.158964	1.004682
1005.453270	1.004196
1005.747540	1.002784
1006.041775	1.004059
1006.335974	1.003693
1006.630138	1.004201
1006.924266	1.002704
1007.218359	1.001760
1007.512416	1.004655
1007.806438	1.003740
1008.100425	1.004033
1008.394376	1.005110
1008.688292	1.003010
1008.982172	1.003478
1009.276017	1.004823
1009.569827	1.004378
1009.863602	1.002924
1010.157341	1.004353
1010.451045	1.003636
1010.744714	1.004980
1011.038347	1.003739
1011.331945	1.002920
1011.625508	1.003881
1011.919036	1.003573
1012.212528	1.003862
1012.505986	1.003894
1012.799408	1.004548
1013.092795	1.004270
1013.386147	1.004143
1013.679464	1.004907
1013.972745	1.004473
1014.265992	1.003564
1014.559204	1.002091
1014.852380	1.004511
1015.145521	1.003077
1015.438628	1.004815
1015.731699	1.003919
1016.024736	1.004486
1016.317737	1.003243
1016.610703	1.004227
1016.903635	1.003538
1017.196531	1.003446
1017.489393	1.003407
1017.782219	1.003907
1018.075011	1.002703
1018.367768	1.003816
1018.660490	1.004486
1018.953177	1.004486
1019.245829	1.004486
