Dividing Wavelength (nm)	Counts (n)	Blue Motor Position (mm): 25.300000	Red Motor Position (mm): 0.000000	
326.493990	1.000384
326.888308	1.000384
327.282561	1.000384
327.676750	1.000932
328.070874	1.002566
328.464933	1.002248
328.858929	1.001331
329.252859	1.000507
329.646726	1.001159
330.040528	1.000080
330.434265	1.001208
330.827938	1.000205
331.221547	1.001202
331.615091	1.001187
332.008571	1.002632
332.401986	0.999959
332.795338	1.001304
333.188625	0.999950
333.581847	0.999680
333.975006	1.000666
334.368100	1.000675
334.761129	0.998697
335.154095	1.001574
335.546996	0.999400
335.939833	0.998384
336.332606	0.999539
336.725315	0.998461
337.117960	0.999857
337.510540	0.998010
337.903056	0.999142
338.295508	0.999444
338.687896	0.999646
339.080220	0.999567
339.472480	0.998450
339.864676	0.999925
340.256807	0.998277
340.648875	1.000077
341.040879	0.999176
341.432818	0.999573
341.824694	0.998808
342.216506	1.000630
342.608253	0.998450
342.999937	0.999552
343.391557	0.999569
343.783113	0.999635
344.174605	0.999617
344.566033	0.998095
344.957397	0.999972
345.348697	0.999214
345.739934	0.999248
346.131106	0.998992
346.522215	0.999018
346.913260	0.998996
347.304241	0.998332
347.695159	1.000414
348.086012	0.997978
348.476802	0.998288
348.867528	0.998635
349.258191	1.000151
349.648789	0.999482
350.039324	0.999975
350.429796	0.997903
350.820203	0.997121
351.210548	0.999167
351.600828	0.997460
351.991045	0.997650
352.381198	0.999269
352.771288	0.998344
353.161314	0.998425
353.551276	0.998111
353.941175	0.997165
354.331010	0.999366
354.720782	0.997901
355.110490	0.998606
355.500135	0.998981
355.889717	0.997923
356.279235	0.998358
356.668689	0.999126
357.058080	0.997406
357.447408	0.997373
357.836672	0.998321
358.225873	0.997456
358.615010	0.998704
359.004084	0.997122
359.393095	0.998198
359.782043	0.996295
360.170927	0.998255
360.559748	0.998526
360.948505	0.996645
361.337199	0.997683
361.725830	0.998234
362.114398	0.997624
362.502903	0.998090
362.891344	0.996067
363.279722	0.997612
363.668037	0.998378
364.056289	0.997430
364.444478	0.998098
364.832603	0.997629
365.220665	0.997918
365.608665	0.996107
365.996601	0.998010
366.384474	0.996765
366.772284	0.996537
367.160031	0.995852
367.547715	0.996257
367.935336	0.995215
368.322893	0.993132
368.710388	0.992574
369.097820	0.990350
369.485189	0.988405
369.872495	0.987618
370.259738	0.984354
370.646918	0.982494
371.034035	0.979064
371.421090	0.976753
371.808081	0.971401
372.195010	0.968308
372.581875	0.963541
372.968678	0.959165
373.355418	0.955958
373.742096	0.948778
374.128710	0.944109
374.515262	0.939151
374.901751	0.934400
375.288177	0.928407
375.674540	0.922714
376.060841	0.915488
376.447079	0.908914
376.833254	0.903166
377.219367	0.897839
377.605417	0.886661
377.991404	0.884374
378.377329	0.877304
378.763191	0.870132
379.148991	0.862153
379.534727	0.853714
379.920402	0.846138
380.306013	0.842115
380.691563	0.829480
381.077049	0.822993
381.462474	0.818706
381.847835	0.807260
382.233134	0.801620
382.618371	0.802921
383.003545	0.785913
383.388657	0.783030
383.773706	0.776125
384.158693	0.770312
384.543618	0.766748
384.928480	0.757714
385.313280	0.747923
385.698017	0.746848
386.082692	0.735479
386.467305	0.734508
386.851856	0.728597
387.236344	0.724384
387.620770	0.717801
388.005133	0.711734
388.389435	0.707519
388.773674	0.703310
389.157851	0.695801
389.541965	0.693497
389.926018	0.699763
390.310008	0.686712
390.693936	0.684715
391.077802	0.676411
391.461606	0.677168
391.845348	0.666617
392.229027	0.665792
392.612645	0.664057
392.996200	0.651509
393.379694	0.644590
393.763125	0.634237
394.146494	0.639680
394.529801	0.630368
394.913047	0.622055
395.296230	0.628033
395.679351	0.618748
396.062410	0.616725
396.445408	0.618296
396.828343	0.614328
397.211217	0.609345
397.594028	0.620526
397.976778	0.611607
398.359466	0.608026
398.742092	0.603499
399.124656	0.614997
399.507158	0.603584
399.889598	0.600371
400.271977	0.592611
400.654294	0.595362
401.036549	0.595223
401.418742	0.599240
401.800874	0.585137
402.182944	0.581089
402.564952	0.573554
402.946898	0.576191
403.328783	0.576274
403.710606	0.587293
404.092367	0.561695
404.474067	0.568051
404.855705	0.566811
405.237282	0.575149
405.618797	0.561438
406.000250	0.557094
406.381642	0.547217
406.762972	0.552171
407.144240	0.551511
407.525447	0.550830
407.906593	0.543366
408.287677	0.539265
408.668700	0.547387
409.049661	0.541847
409.430560	0.536265
409.811399	0.545135
410.192176	0.526670
410.572891	0.534497
410.953545	0.522282
411.334138	0.536043
411.714669	0.528297
412.095139	0.540450
412.475547	0.524316
412.855894	0.526479
413.236180	0.525267
413.616405	0.530537
413.996568	0.521161
414.376670	0.527342
414.756711	0.532080
415.136691	0.528864
415.516609	0.519974
415.896466	0.516794
416.276262	0.512990
416.655997	0.514869
417.035670	0.496164
417.415283	0.487818
417.794834	0.492428
418.174324	0.497875
418.553753	0.506990
418.933121	0.489516
419.312428	0.483446
419.691674	0.489000
420.070859	0.477360
420.449983	0.484980
420.829045	0.475047
421.208047	0.483759
421.586988	0.476558
421.965867	0.475665
422.344686	0.464657
422.723444	0.476535
423.102141	0.493999
423.480777	0.466536
423.859352	0.487344
424.237866	0.465009
424.616319	0.465193
424.994712	0.456385
425.373044	0.466660
425.751314	0.454626
426.129524	0.471438
426.507673	0.454464
426.885762	0.448243
427.263789	0.453873
427.641756	0.463854
428.019662	0.453843
428.397508	0.453360
428.775292	0.456928
429.153016	0.449390
429.530679	0.454988
429.908282	0.448728
430.285824	0.458686
430.663305	0.437108
431.040726	0.459036
431.418086	0.458163
431.795385	0.450211
432.172624	0.449446
432.549802	0.449555
432.926920	0.448381
433.303977	0.447619
433.680974	0.444733
434.057910	0.443572
434.434786	0.442768
434.811601	0.445800
435.188355	0.428307
435.565050	0.437264
435.941683	0.438818
436.318257	0.422512
436.694770	0.423765
437.071222	0.422256
437.447614	0.426154
437.823946	0.432731
438.200218	0.422158
438.576429	0.431954
438.952580	0.425106
439.328670	0.421628
439.704700	0.428119
440.080670	0.429743
440.456580	0.410284
440.832429	0.418740
441.208218	0.429444
441.583947	0.418473
441.959616	0.418084
442.335224	0.423528
442.710773	0.414600
443.086261	0.412568
443.461689	0.426498
443.837057	0.416513
444.212365	0.406557
444.587612	0.413591
444.962800	0.403646
445.337927	0.405195
445.712995	0.431749
446.088002	0.393070
446.462949	0.403985
446.837837	0.409151
447.212664	0.398445
447.587431	0.389444
447.962139	0.360368
448.336786	0.319456
448.711374	0.330266
449.085901	0.375340
449.460369	0.379854
449.834776	0.383754
450.209124	0.363672
450.583412	0.356772
450.957640	0.350318
451.331808	0.362287
451.705917	0.386738
452.079965	0.391593
452.453954	0.380507
452.827883	0.388543
453.201752	0.384065
453.575562	0.395959
453.949311	0.386120
454.323001	0.393001
454.696632	0.389917
455.070202	0.383845
455.443713	0.377184
455.817164	0.373584
456.190556	0.371011
456.563888	0.369107
456.937160	0.368006
457.310373	0.386351
457.683526	0.386862
458.056619	0.394187
458.429653	0.396546
458.802628	0.401697
459.175542	0.398547
459.548398	0.383889
459.921194	0.379261
460.293930	0.382270
460.666607	0.364946
461.039224	0.356848
461.411782	0.355131
461.784280	0.357400
462.156719	0.363206
462.529099	0.370195
462.901419	0.388174
463.273680	0.394639
463.645882	0.397132
464.018024	0.407320
464.390106	0.403684
464.762130	0.393653
465.134094	0.384719
465.505999	0.365014
465.877845	0.344979
466.249631	0.336678
466.621358	0.345624
466.993026	0.362396
467.364634	0.370868
467.736184	0.383427
468.107674	0.396423
468.479105	0.402448
468.850477	0.412167
469.221790	0.423732
469.593043	0.437307
469.964238	0.447973
470.335373	0.452932
470.706449	0.457944
471.077467	0.464831
471.448425	0.443149
471.819324	0.431685
472.190164	0.436221
472.560945	0.464558
472.931667	0.488830
473.302330	0.498075
473.672934	0.513888
474.043479	0.511852
474.413965	0.520692
474.784393	0.531716
475.154761	0.534427
475.525070	0.540226
475.895321	0.551115
476.265513	0.554471
476.635645	0.558557
477.005719	0.567585
477.375734	0.571561
477.745691	0.575628
478.115588	0.581588
478.485427	0.585796
478.855207	0.585571
479.224928	0.584574
479.594591	0.584638
479.964194	0.595779
480.333739	0.603523
480.703226	0.614258
481.072653	0.620909
481.442022	0.628265
481.811333	0.633973
482.180584	0.643670
482.549777	0.655554
482.918912	0.664532
483.287988	0.673364
483.657005	0.680223
484.025964	0.691710
484.394864	0.698280
484.763706	0.707033
485.132489	0.716412
485.501213	0.724676
485.869879	0.730657
486.238487	0.740329
486.607036	0.746539
486.975527	0.757211
487.343959	0.761073
487.712333	0.768502
488.080648	0.775214
488.448905	0.782710
488.817104	0.790324
489.185244	0.795325
489.553326	0.801499
489.921350	0.803393
490.289315	0.802313
490.657222	0.805646
491.025070	0.814134
491.392861	0.820610
491.760593	0.829943
492.128267	0.838300
492.495883	0.845874
492.863440	0.853059
493.230939	0.860076
493.598380	0.865808
493.965763	0.871984
494.333088	0.875654
494.700354	0.882212
495.067563	0.885439
495.434713	0.891962
495.801805	0.895192
496.168839	0.900067
496.535815	0.904487
496.902733	0.908298
497.269593	0.912687
497.636395	0.914756
498.003139	0.919460
498.369825	0.923704
498.736453	0.926752
499.103023	0.929917
499.469535	0.933618
499.835989	0.937084
500.202385	0.938568
500.568723	0.942006
500.935003	0.944683
501.301226	0.948027
501.667390	0.949494
502.033497	0.951699
502.399546	0.954036
502.765537	0.956614
503.131470	0.959097
503.497345	0.960936
503.863163	0.962931
504.228923	0.964572
504.594625	0.966632
504.960269	0.968351
505.325856	0.970542
505.691385	0.971514
506.056856	0.973132
506.422270	0.973888
506.787625	0.975534
507.152924	0.976430
507.518164	0.977289
507.883347	0.978226
508.248472	0.979420
508.613540	0.980086
508.978550	0.981463
509.343503	0.982154
509.708398	0.983159
510.073236	0.983791
510.438016	0.983591
510.802738	0.984133
511.167403	0.985273
511.532010	0.986105
511.896561	0.986355
512.261053	0.986508
512.625488	0.986996
512.989866	0.987251
513.354186	0.987098
513.718449	0.988548
514.082655	0.988373
514.446803	0.988519
514.810894	0.989497
515.174927	0.990396
515.538904	0.990310
515.902822	0.990043
516.266684	0.990532
516.630488	0.990362
516.994235	0.991255
517.357925	0.991363
517.721558	0.991582
518.085133	0.991188
518.448651	0.991240
518.812112	0.992810
519.175516	0.991679
519.538863	0.991528
519.902152	0.992675
520.265385	0.991739
520.628560	0.991753
520.991678	0.992504
521.354739	0.992919
521.717743	0.992696
522.080690	0.992512
522.443580	0.992632
522.806413	0.992419
523.169189	0.993646
523.531908	0.992269
523.894569	0.993318
524.257174	0.993081
524.619722	0.992929
524.982213	0.993320
525.344647	0.993219
525.707025	0.992537
526.069345	0.993013
526.431608	0.993350
526.793815	0.993339
527.155964	0.993831
527.518057	0.994683
527.880093	0.993699
528.242072	0.993634
528.603995	0.993751
528.965860	0.994355
529.327669	0.994285
529.689421	0.993553
530.051117	0.994674
530.412755	0.994884
530.774337	0.994086
531.135862	0.994547
531.497331	0.994331
531.858743	0.994468
532.220098	0.993471
532.581396	0.994690
532.942638	0.994703
533.303824	0.994873
533.664953	0.993980
534.026025	0.995083
534.387040	0.994138
534.747999	0.993666
535.108902	0.994312
535.469748	0.994705
535.830537	0.994524
536.191270	0.994635
536.551947	0.994256
536.912567	0.994249
537.273131	0.995232
537.633638	0.993627
537.994089	0.994894
538.354483	0.994335
538.714821	0.994020
539.075103	0.994536
539.435328	0.994965
539.795497	0.994523
540.155609	0.994144
540.515665	0.994628
540.875665	0.994486
541.235609	0.995129
541.595496	0.993692
541.955328	0.994705
542.315102	0.994644
542.674821	0.995518
543.034483	0.994775
543.394090	0.994131
543.753640	0.994323
544.113134	0.994421
544.472571	0.995235
544.831953	0.995130
545.191278	0.994623
545.550548	0.994078
545.909761	0.994497
546.268918	0.995683
546.628019	0.994549
546.987064	0.994612
547.346053	0.993851
547.704986	0.994581
548.063863	0.994397
548.422684	0.995226
548.781449	0.995132
549.140158	0.994661
549.498811	0.993690
549.857408	0.993698
550.215949	0.993598
550.574434	0.994222
550.932864	0.995099
551.291237	0.994660
551.649555	0.994439
552.007817	0.994557
552.366022	0.995331
552.724173	0.995054
553.082267	0.993980
553.440305	0.994422
553.798288	0.994016
554.156215	0.994176
554.514086	0.994138
554.871902	0.994515
555.229661	0.994047
555.587365	0.994314
555.945014	0.994791
556.302606	0.994387
556.660143	0.994788
557.017625	0.994895
557.375050	0.994368
557.732421	0.994810
558.089735	0.993906
558.446994	0.993983
558.804197	0.994615
559.161345	0.994084
559.518437	0.994394
559.875474	0.994726
560.232455	0.994834
560.589381	0.994703
560.946251	0.994439
561.303065	0.994527
561.659825	0.994276
562.016528	0.994493
562.373177	0.994281
562.729770	0.994506
563.086307	0.993687
563.442789	0.994572
563.799216	0.993852
564.155587	0.994949
564.511904	0.995082
564.868164	0.993995
565.224370	0.994294
565.580520	0.994526
565.936615	0.994030
566.292654	0.994527
566.648638	0.994401
567.004567	0.994616
567.360441	0.994947
567.716260	0.993492
568.072023	0.993946
568.427732	0.994844
568.783385	0.994108
569.138982	0.994674
569.494525	0.994152
569.850013	0.994881
570.205445	0.993826
570.560823	0.994690
570.916145	0.994316
571.271412	0.994359
571.626625	0.994711
571.981782	0.994966
572.336884	0.994681
572.691931	0.995002
573.046923	0.994591
573.401860	0.994651
573.756743	0.995002
574.111570	0.994723
574.466342	0.995431
574.821059	0.994828
575.175722	0.994610
575.530330	0.994411
575.884882	0.994006
576.239380	0.994578
576.593823	0.994165
576.948211	0.994228
577.302544	0.994758
577.656823	0.995322
578.011047	0.994132
578.365216	0.995101
578.719330	0.994348
579.073389	0.994136
579.427394	0.994626
579.781344	0.995146
580.135239	0.993898
580.489080	0.994452
580.842866	0.994934
581.196597	0.993813
581.550273	0.994369
581.903895	0.994787
582.257463	0.994898
582.610975	0.994195
582.964434	0.994962
583.317837	0.994891
583.671186	0.994372
584.024481	0.994727
584.377721	0.994003
584.730906	0.995041
585.084037	0.994968
585.437113	0.995140
585.790135	0.993982
586.143103	0.994751
586.496016	0.994635
586.848874	0.994816
587.201679	0.994121
587.554428	0.994476
587.907124	0.994658
588.259765	0.994541
588.612352	0.995216
588.964884	0.994904
589.317362	0.994492
589.669786	0.994765
590.022155	0.994118
590.374470	0.994696
590.726731	0.994057
591.078937	0.994445
591.431090	0.994355
591.783188	0.993971
592.135232	0.995285
592.487222	0.994327
592.839157	0.994771
593.191038	0.994360
593.542866	0.994704
593.894639	0.994549
594.246358	0.994228
594.598022	0.994237
594.949633	0.995082
595.301190	0.994035
595.652692	0.994458
596.004141	0.994245
596.355535	0.994012
596.706876	0.994816
597.058162	0.994781
597.409395	0.994315
597.760573	0.994412
598.111698	0.994003
598.462768	0.993701
598.813785	0.993117
599.164748	0.994422
599.515657	0.994197
599.866511	0.994744
600.217312	0.994578
600.568060	0.994040
600.918753	0.995112
601.269392	0.994464
601.619978	0.994317
601.970510	0.994461
602.320988	0.994280
602.671412	0.993692
603.021783	0.994555
603.372100	0.994558
603.722363	0.994614
604.072572	0.994825
604.422728	0.994218
604.772830	0.994129
605.122878	0.994773
605.472872	0.995219
605.822813	0.994306
606.172701	0.994619
606.522534	0.994856
606.872314	0.995412
607.222041	0.994062
607.571714	0.994247
607.921333	0.994141
608.270899	0.993700
608.620411	0.993973
608.969870	0.994886
609.319276	0.994801
609.668627	0.994650
610.017926	0.994162
610.367171	0.995163
610.716362	0.994209
611.065500	0.993727
611.414585	0.994515
611.763616	0.993933
612.112594	0.995097
612.461518	0.993969
612.810389	0.994893
613.159207	0.994129
613.507971	0.993933
613.856682	0.995739
614.205340	0.993039
614.553945	0.994270
614.902496	0.994311
615.250994	0.994415
615.599439	0.994390
615.947830	0.993970
616.296169	0.994049
616.644454	0.993959
616.992686	0.993372
617.340864	0.994014
617.688990	0.993484
618.037063	0.994199
618.385082	0.993964
618.733048	0.992884
619.080961	0.993807
619.428821	0.995183
619.776628	0.993038
620.124382	0.994378
620.472083	0.993871
620.819731	0.995400
621.167326	0.994439
621.514868	0.994807
621.862357	0.994267
622.209793	0.994537
622.557176	0.994164
622.904506	0.993796
623.251783	0.994123
623.599007	0.993815
623.946179	0.993564
624.293297	0.994626
624.640363	0.994408
624.987376	0.993534
625.334336	0.994228
625.681243	0.994116
626.028097	0.993643
626.374899	0.994240
626.721647	0.994445
627.068343	0.994867
627.414987	0.994404
627.761577	0.993804
628.108115	0.993873
628.454600	0.994793
628.801032	0.994985
629.147412	0.994466
629.493739	0.995283
629.840014	0.994344
630.186236	0.993907
630.532405	0.994497
630.878521	0.994442
631.224585	0.994512
631.570597	0.994724
631.916556	0.994459
632.262462	0.992756
632.608316	0.995060
632.954117	0.993722
633.299866	0.994109
633.645562	0.994116
633.991206	0.994556
634.336797	0.993164
634.682336	0.995118
635.027823	0.994537
635.373257	0.994137
635.718639	0.994879
636.063968	0.993915
636.409245	0.994098
636.754470	0.994418
637.099642	0.994933
637.444762	0.994835
637.789829	0.994306
638.134845	0.993960
638.479808	0.994584
638.824719	0.994461
639.169577	0.994808
639.514383	0.994445
639.859137	0.994214
640.203839	0.994761
640.548489	0.994298
640.893086	0.993070
641.237632	0.995538
641.582125	0.994813
641.926566	0.995553
642.270955	0.994713
642.615292	0.994079
642.959576	0.995267
643.303809	0.995341
643.647990	0.994576
643.992118	0.994938
644.336195	0.994275
644.680219	0.995045
645.024192	0.994882
645.368112	0.993761
645.711981	0.993805
646.055797	0.994063
646.399562	0.993630
646.743274	0.995015
647.086935	0.994205
647.430544	0.994417
647.774101	0.993995
648.117606	0.994437
648.461059	0.995106
648.804460	0.994161
649.147810	0.993893
649.491108	0.993690
649.834354	0.994212
650.177548	0.994274
650.520690	0.993545
650.863781	0.993300
651.206820	0.994452
651.549807	0.993928
651.892742	0.994385
652.235626	0.994634
652.578458	0.994802
652.921238	0.995260
653.263967	0.994970
653.606644	0.994464
653.949269	0.995161
654.291843	0.993532
654.634365	0.994872
654.976836	0.994277
655.319255	0.995085
655.661622	0.994553
656.003938	0.993922
656.346203	0.993932
656.688416	0.994985
657.030577	0.994389
657.372687	0.994383
657.714746	0.994298
658.056753	0.995069
658.398708	0.994572
658.740612	0.995001
659.082465	0.994236
659.424266	0.995120
659.766016	0.994138
660.107715	0.995234
660.449362	0.994001
660.790958	0.994264
661.132503	0.993884
661.473996	0.993946
661.815438	0.994576
662.156829	0.994782
662.498168	0.995556
662.839456	0.993674
663.180693	0.994924
663.521879	0.994484
663.863013	0.994955
664.204097	0.994478
664.545129	0.994109
664.886110	0.994762
665.227040	0.994746
665.567918	0.993796
665.908746	0.994246
666.249522	0.993188
666.590248	0.994378
666.930922	0.994307
667.271545	0.994789
667.612118	0.994514
667.952639	0.994152
668.293109	0.994180
668.633528	0.993848
668.973896	0.994811
669.314213	0.993993
669.654480	0.994923
669.994695	0.993970
670.334859	0.993915
670.674973	0.994209
671.015035	0.994564
671.355047	0.994390
671.695008	0.993207
672.034918	0.994452
672.374777	0.994771
672.714585	0.993978
673.054342	0.994247
673.394049	0.994332
673.733705	0.994243
674.073310	0.993742
674.412864	0.994406
674.752368	0.993772
675.091820	0.995560
675.431223	0.993724
675.770574	0.993810
676.109875	0.994317
676.449125	0.993821
676.788324	0.993759
677.127473	0.995038
677.466571	0.994623
677.805619	0.994394
678.144616	0.994476
678.483562	0.994368
678.822458	0.994453
679.161303	0.993777
679.500098	0.993784
679.838842	0.995277
680.177535	0.994459
680.516179	0.994509
680.854771	0.994184
681.193314	0.993428
681.531805	0.994245
681.870247	0.994724
682.208638	0.994693
682.546978	0.993996
682.885268	0.994413
683.223508	0.993351
683.561697	0.994451
683.899836	0.993579
684.237925	0.994321
684.575963	0.994702
684.913951	0.994337
685.251889	0.994557
685.589776	0.993682
685.927614	0.993531
686.265401	0.993392
686.603137	0.993753
686.940824	0.994066
687.278460	0.995399
687.616046	0.993952
687.953582	0.994320
688.291068	0.993967
688.628504	0.993540
688.965889	0.993012
689.303224	0.992817
689.640510	0.994034
689.977745	0.993486
690.314930	0.993936
690.652065	0.994062
690.989150	0.993541
691.326185	0.994204
691.663170	0.994317
692.000105	0.994095
692.336990	0.994396
692.673825	0.994388
693.010610	0.994170
693.347345	0.994333
693.684030	0.994863
694.020665	0.993850
694.357251	0.995055
694.693786	0.994409
695.030272	0.993957
695.366707	0.994156
695.703093	0.994227
696.039429	0.993571
696.375716	0.995219
696.711952	0.993969
697.048139	0.994363
697.384276	0.994317
697.720363	0.994881
698.056400	0.993246
698.392388	0.994465
698.728326	0.994807
699.064214	0.994942
699.400053	0.993682
699.735842	0.994338
700.071581	0.993872
700.407270	0.994598
700.742910	0.995012
701.078501	0.994874
701.414042	0.994454
701.749533	0.993860
702.084974	0.994653
702.420366	0.995306
702.755709	0.994506
703.091002	0.996096
703.426246	0.995246
703.761440	0.994527
704.096584	0.994536
704.431679	0.994539
704.766725	0.995633
705.101721	0.994871
705.436668	0.994955
705.771565	0.994561
706.106413	0.995118
706.441212	0.994788
706.775961	0.995564
707.110661	0.994880
707.445311	0.995337
707.779913	0.996960
708.114465	0.995863
708.448967	0.996193
708.783421	0.995388
709.117825	0.995850
709.452180	0.995418
709.786485	0.995416
710.120742	0.994595
710.454949	0.994157
710.789107	0.994681
711.123216	0.994053
711.457275	0.994909
711.791286	0.994199
712.125247	0.995420
712.459159	0.994630
712.793023	0.994305
713.126837	0.994376
713.460602	0.993972
713.794318	0.994239
714.127985	0.993900
714.461602	0.994282
714.795171	0.993558
715.128691	0.994786
715.462162	0.995791
715.795584	0.994707
716.128957	0.995445
716.462281	0.995844
716.795556	0.994018
717.128782	0.995276
717.461960	0.994557
717.795088	0.995112
718.128167	0.995546
718.461198	0.995281
718.794180	0.995443
719.127113	0.996308
719.459997	0.995305
719.792833	0.995477
720.125619	0.994065
720.458357	0.994926
720.791046	0.995273
721.123686	0.994939
721.456278	0.995291
721.788821	0.995608
722.121315	0.995744
722.453761	0.995982
722.786158	0.994109
723.118506	0.994733
723.450805	0.995570
723.783056	0.996325
724.115259	0.995437
724.447412	0.996490
724.779518	0.995363
725.111574	0.994189
725.443582	0.995992
725.775542	0.996209
726.107453	0.995867
726.439315	0.996514
726.771129	0.996265
727.102895	0.994942
727.434612	0.995138
727.766281	0.995964
728.097901	0.994911
728.429473	0.995208
728.760996	0.993927
729.092471	0.994532
729.423897	0.995897
729.755276	0.995207
730.086606	0.994604
730.417887	0.995456
730.749120	0.995699
731.080305	0.994999
731.411442	0.994221
731.742530	0.993925
732.073570	0.994383
732.404562	0.995222
732.735506	0.994781
733.066401	0.993811
733.397249	0.995093
733.728048	0.995209
734.058798	0.995010
734.389501	0.996052
734.720156	0.995173
735.050762	0.996491
735.381320	0.995318
735.711831	0.994425
736.042293	0.995287
736.372707	0.996230
736.703073	0.994740
737.033391	0.995302
737.363661	0.995905
737.693883	0.995818
738.024056	0.994518
738.354182	0.995367
738.684260	0.995320
739.014290	0.995729
739.344272	0.995357
739.674207	0.995648
740.004093	0.994249
740.333931	0.995847
740.663722	0.995458
740.993464	0.995621
741.323159	0.995422
741.652806	0.995303
741.982405	0.995862
742.311956	0.996022
742.641460	0.995719
742.970915	0.994962
743.300323	0.994991
743.629683	0.995763
743.958996	0.995871
744.288260	0.994503
744.617477	0.995095
744.946647	0.995433
745.275768	0.996061
745.604842	0.994563
745.933869	0.995666
746.262847	0.996362
746.591778	0.994783
746.920662	0.996673
747.249498	0.996386
747.578286	0.996934
747.907027	0.996061
748.235720	0.995371
748.564365	0.995829
748.892963	0.995681
749.221514	0.995699
749.550017	0.995526
749.878473	0.995104
750.206881	0.996749
750.535242	0.996066
750.863555	0.996095
751.191821	0.994998
751.520039	0.995649
751.848210	0.994363
752.176334	0.995614
752.504411	0.996498
752.832440	0.995375
753.160421	0.996110
753.488356	0.995701
753.816243	0.995910
754.144082	0.995904
754.471875	0.996549
754.799620	0.995767
755.127318	0.995704
755.454969	0.996074
755.782572	0.998377
756.110129	0.995300
756.437638	0.997125
756.765100	0.996414
757.092515	0.995391
757.419882	0.997342
757.747203	0.995709
758.074477	0.997762
758.401703	0.995561
758.728882	0.995746
759.056014	0.995899
759.383099	0.995875
759.710138	0.995325
760.037129	0.996051
760.364073	0.996198
760.690970	0.996031
761.017820	0.995318
761.344623	0.996992
761.671379	0.996614
761.998088	0.995402
762.324751	0.995936
762.651366	0.994898
762.977935	0.994259
763.304456	0.994457
763.630931	0.992393
763.957359	0.991552
764.283740	0.992845
764.610074	0.993986
764.936362	0.994780
765.262602	0.995251
765.588796	0.994893
765.914943	0.995503
766.241044	0.995653
766.567097	0.994962
766.893104	0.996759
767.219064	0.995356
767.544978	0.996068
767.870845	0.996183
768.196665	0.996088
768.522438	0.996463
768.848165	0.996593
769.173846	0.997161
769.499479	0.996965
769.825066	0.997050
770.150607	0.998572
770.476101	0.996758
770.801548	0.997333
771.126949	0.997095
771.452303	0.996906
771.777611	0.996898
772.102872	0.996810
772.428087	0.997381
772.753256	0.997339
773.078378	0.996508
773.403453	0.996457
773.728482	0.997660
774.053465	0.996295
774.378401	0.997090
774.703291	0.998559
775.028135	0.998208
775.352932	0.996077
775.677683	0.998364
776.002388	0.997323
776.327046	0.996913
776.651658	0.998964
776.976224	0.997617
777.300743	0.997272
777.625216	0.997503
777.949643	0.998101
778.274024	0.996941
778.598359	0.998530
778.922647	0.997376
779.246889	0.998012
779.571086	0.998368
779.895236	0.997891
780.219339	0.998714
780.543397	0.996226
780.867409	0.997821
781.191374	0.997503
781.515294	0.998547
781.839167	0.998671
782.162995	0.996911
782.486776	0.997972
782.810511	0.997587
783.134201	0.997499
783.457844	0.998607
783.781441	0.997223
784.104993	0.997182
784.428498	0.997486
784.751958	0.999181
785.075372	0.998929
785.398739	0.997601
785.722061	0.997420
786.045337	0.997425
786.368568	0.997267
786.691752	0.998365
787.014891	0.997193
787.337983	0.996415
787.661030	0.996447
787.984031	0.997629
788.306987	0.997529
788.629897	0.995098
788.952760	0.997533
789.275579	0.997455
789.598351	0.997399
789.921078	0.998313
790.243759	0.996256
790.566395	0.997487
790.888984	0.997493
791.211529	0.997862
791.534027	0.997024
791.856480	0.998225
792.178888	0.997311
792.501249	0.997546
792.823566	0.998398
793.145836	0.997359
793.468062	0.997628
793.790241	0.998173
794.112375	0.997759
794.434464	0.997995
794.756507	0.998646
795.078505	0.997257
795.400457	0.998193
795.722364	0.997785
796.044226	0.998217
796.366042	0.997202
796.687812	0.996064
797.009538	0.997132
797.331218	0.999100
797.652852	0.998837
797.974442	0.996866
798.295986	0.996752
798.617484	0.997043
798.938938	0.998300
799.260346	0.996563
799.581709	0.996133
799.903026	0.999721
800.224299	0.997410
800.545526	0.997361
800.866708	0.996986
801.187845	0.998042
801.508936	0.997621
801.829983	0.997907
802.150984	0.998428
802.471940	0.999159
802.792851	0.997895
803.113717	0.999658
803.434538	0.999149
803.755314	0.999031
804.076045	0.998664
804.396731	0.997295
804.717372	0.997389
805.037967	0.998583
805.358518	0.998542
805.679024	0.997967
805.999485	0.998975
806.319901	0.998465
806.640272	0.998478
806.960598	0.998607
807.280879	0.997749
807.601115	0.998465
807.921306	0.998590
808.241453	0.997385
808.561554	0.998250
808.881611	0.998205
809.201623	0.997114
809.521590	0.996511
809.841513	0.997596
810.161390	0.997110
810.481223	0.998098
810.801011	0.998665
811.120755	0.998594
811.440453	0.997905
811.760107	0.997926
812.079716	0.997809
812.399281	0.998785
812.718801	0.998614
813.038276	0.998115
813.357707	0.998386
813.677093	0.997514
813.996434	0.998056
814.315731	0.998738
814.634983	0.998003
814.954191	0.998003
815.273354	0.998037
815.592473	0.997491
815.911547	0.997814
816.230577	0.997345
816.549562	0.998196
816.868502	0.997158
817.187399	0.998525
817.506250	0.997720
817.825058	0.997273
818.143821	0.997319
818.462539	0.997787
818.781213	0.996932
819.099843	0.998242
819.418429	0.995817
819.736970	0.996839
820.055466	0.995125
820.373919	0.995986
820.692327	0.994210
821.010691	0.994169
821.329011	0.991802
821.647286	0.990117
821.965517	0.987250
822.283704	0.984559
822.601847	0.982896
822.919945	0.984284
823.237999	0.984365
823.556010	0.985996
823.873976	0.987490
824.191897	0.988491
824.509775	0.990211
824.827609	0.991128
825.145398	0.992936
825.463144	0.991009
825.780845	0.992204
826.098502	0.992653
826.416116	0.992956
826.733685	0.990812
827.051210	0.988308
827.368692	0.988810
827.686129	0.989598
828.003522	0.992026
828.320872	0.992104
828.638177	0.993965
828.955439	0.994783
829.272656	0.995338
829.589830	0.995144
829.906960	0.995989
830.224046	0.996385
830.541088	0.996498
830.858086	0.996539
831.175041	0.998350
831.491952	0.996141
831.808819	0.996950
832.125642	0.996620
832.442421	0.997453
832.759157	0.997330
833.075849	0.995411
833.392497	0.995703
833.709101	0.991702
834.025662	0.993207
834.342179	0.992563
834.658653	0.994123
834.975083	0.994147
835.291469	0.994812
835.607811	0.996253
835.924110	0.996484
836.240366	0.998046
836.556578	0.997727
836.872746	0.997500
837.188871	0.996814
837.504952	0.998095
837.820990	0.997583
838.136984	0.997657
838.452935	0.998241
838.768842	0.997971
839.084706	0.998934
839.400526	0.998859
839.716303	0.996789
840.032037	0.996640
840.347727	0.995765
840.663373	0.996443
840.978977	0.996344
841.294537	0.997576
841.610054	0.998597
841.925527	0.998513
842.240957	0.998424
842.556344	0.999071
842.871687	0.999496
843.186987	0.999030
843.502244	0.998914
843.817458	0.998284
844.132629	0.998201
844.447756	0.999130
844.762840	0.999484
845.077881	1.000662
845.392879	0.998387
845.707833	0.999464
846.022745	0.999511
846.337613	1.000071
846.652438	0.998921
846.967221	0.998554
847.281960	0.999479
847.596656	1.001221
847.911309	0.999654
848.225919	0.998496
848.540485	0.999502
848.855009	1.000540
849.169490	0.998282
849.483928	1.000570
849.798323	0.997875
850.112675	1.000919
850.426984	0.998889
850.741251	0.999363
851.055474	0.998885
851.369654	0.999111
851.683792	0.998927
851.997887	0.999745
852.311938	0.999628
852.625947	0.999148
852.939914	0.998559
853.253837	1.000385
853.567718	0.999638
853.881555	0.999707
854.195350	0.998911
854.509103	0.999795
854.822812	1.000217
855.136479	0.999461
855.450103	1.000068
855.763685	0.999865
856.077224	0.998890
856.390720	0.999906
856.704173	1.000229
857.017584	1.000257
857.330953	1.000449
857.644278	0.999203
857.957561	0.999275
858.270802	0.999116
858.584000	1.000085
858.897155	0.999370
859.210268	0.999512
859.523339	0.998585
859.836367	0.999266
860.149352	0.998748
860.462295	0.999503
860.775195	0.999213
861.088054	0.999370
861.400869	0.999026
861.713642	0.998190
862.026373	1.000282
862.339062	0.999606
862.651708	0.999276
862.964312	0.999342
863.276873	0.999245
863.589392	0.999348
863.901869	0.999189
864.214303	0.999679
864.526696	1.000172
864.839045	0.999250
865.151353	0.998361
865.463619	0.998588
865.775842	0.999364
866.088023	1.000150
866.400162	0.999945
866.712258	1.000461
867.024313	0.999694
867.336325	1.000262
867.648296	0.999079
867.960224	0.998907
868.272110	1.000196
868.583954	0.999967
868.895755	0.999857
869.207515	0.998780
869.519233	0.999901
869.830909	0.998863
870.142542	0.998246
870.454134	0.998820
870.765684	0.998465
871.077191	0.998799
871.388657	0.999066
871.700081	0.999240
872.011463	0.999901
872.322803	0.999321
872.634101	0.998785
872.945357	0.998636
873.256571	0.998657
873.567744	0.998756
873.878874	0.999297
874.189963	0.999072
874.501010	1.001198
874.812015	0.998715
875.122979	0.998827
875.433900	0.997583
875.744780	0.999152
876.055618	0.997724
876.366415	0.998041
876.677169	0.997508
876.987882	0.998668
877.298554	0.999144
877.609183	0.998296
877.919771	0.998991
878.230317	0.998774
878.540822	0.997900
878.851285	0.997696
879.161707	0.998025
879.472087	0.997838
879.782425	0.996136
880.092722	0.995372
880.402977	0.993497
880.713191	0.990957
881.023363	0.987186
881.333494	0.984567
881.643583	0.986289
881.953631	0.986430
882.263637	0.985690
882.573602	0.986863
882.883526	0.987096
883.193408	0.990006
883.503248	0.990012
883.813048	0.990776
884.122806	0.992138
884.432522	0.993322
884.742197	0.995448
885.051831	0.994695
885.361424	0.995452
885.670975	0.997324
885.980485	0.996298
886.289954	0.996609
886.599382	0.996316
886.908768	0.996423
887.218113	0.995549
887.527417	0.998173
887.836680	0.998235
888.145901	0.998068
888.455082	0.998202
888.764221	0.998411
889.073319	0.997924
889.382376	0.999438
889.691392	0.998382
890.000366	0.999344
890.309300	0.999121
890.618193	0.999047
890.927044	0.998098
891.235855	0.998267
891.544625	0.998760
891.853353	0.998084
892.162041	0.998355
892.470687	0.999027
892.779293	0.996886
893.087858	0.995980
893.396381	0.996941
893.704864	0.996170
894.013306	0.996333
894.321707	0.994941
894.630068	0.992992
894.938387	0.993420
895.246665	0.992573
895.554903	0.992071
895.863100	0.994607
896.171256	0.993693
896.479371	0.995044
896.787446	0.996126
897.095480	0.996889
897.403473	0.997533
897.711425	0.997707
898.019336	0.997539
898.327207	0.998091
898.635038	0.996568
898.942827	0.998831
899.250576	0.998440
899.558284	0.998347
899.865952	0.997316
900.173579	0.997381
900.481165	0.998366
900.788711	0.997537
901.096216	0.998059
901.403681	0.999574
901.711105	0.998696
902.018489	0.998880
902.325832	0.997900
902.633135	0.997848
902.940397	0.999010
903.247619	0.998324
903.554800	0.996953
903.861941	0.994654
904.169041	0.992100
904.476101	0.991453
904.783121	0.990956
905.090100	0.991752
905.397039	0.992860
905.703938	0.994419
906.010796	0.994434
906.317614	0.995672
906.624391	0.996031
906.931129	0.997727
907.237826	0.997093
907.544483	0.998031
907.851099	0.998233
908.157675	0.997921
908.464211	0.999232
908.770707	0.998332
909.077163	0.999278
909.383578	0.999383
909.689954	0.997961
909.996289	0.999022
910.302584	0.999280
910.608839	1.000242
910.915054	0.999240
911.221229	1.001330
911.527363	0.998097
911.833458	0.999320
912.139513	0.999015
912.445527	0.999506
912.751502	0.999243
913.057436	0.999049
913.363331	0.998834
913.669186	0.999032
913.975000	0.998307
914.280775	0.998814
914.586510	0.996654
914.892205	0.995641
915.197859	0.995224
915.503475	0.994818
915.809050	0.993459
916.114585	0.990591
916.420081	0.991829
916.725536	0.991590
917.030952	0.992364
917.336328	0.992131
917.641665	0.991644
917.946961	0.994154
918.252218	0.994342
918.557435	0.994668
918.862612	0.996848
919.167750	0.996719
919.472848	0.997590
919.777906	0.998086
920.082925	0.998542
920.387904	0.998198
920.692843	0.997709
920.997743	0.997607
921.302603	0.997906
921.607423	0.998359
921.912204	0.998176
922.216946	0.999543
922.521647	0.998633
922.826310	0.999388
923.130932	1.000055
923.435516	0.999188
923.740059	0.997983
924.044564	0.997845
924.349028	0.998675
924.653454	0.999807
924.957840	0.999601
925.262186	0.998717
925.566493	0.999450
925.870761	0.998753
926.174989	0.999176
926.479178	1.000205
926.783328	0.999956
927.087438	0.999584
927.391509	0.999463
927.695541	0.999810
927.999533	1.000732
928.303486	0.999953
928.607400	1.000278
928.911275	0.999953
929.215110	1.000542
929.518906	0.998986
929.822663	1.000544
930.126381	1.000868
930.430060	0.999729
930.733699	1.000276
931.037299	1.000696
931.340861	1.000194
931.644383	0.998604
931.947866	1.001018
932.251309	1.000576
932.554714	0.999920
932.858080	0.999207
933.161407	0.999969
933.464694	1.000597
933.767943	1.001276
934.071153	0.998861
934.374323	1.000581
934.677455	0.999761
934.980548	1.000644
935.283602	1.001567
935.586617	1.001095
935.889593	1.001102
936.192530	1.001280
936.495428	0.999128
936.798287	0.999858
937.101108	0.999699
937.403890	0.999316
937.706632	1.000684
938.009336	0.999532
938.312002	0.999082
938.614628	1.000401
938.917216	0.999131
939.219765	0.999062
939.522275	0.999940
939.824747	1.000345
940.127179	0.999833
940.429573	1.001233
940.731929	0.999432
941.034246	0.998630
941.336524	0.999244
941.638763	0.999034
941.940964	0.998806
942.243126	1.000360
942.545250	1.000923
942.847335	0.999130
943.149381	0.999090
943.451389	0.998401
943.753359	0.999290
944.055290	1.000422
944.357182	1.000102
944.659036	1.000393
944.960851	0.999575
945.262628	0.999215
945.564367	0.999349
945.866067	0.999798
946.167729	0.999886
946.469352	1.000755
946.770937	0.998193
947.072484	1.000772
947.373992	1.000359
947.675462	0.999433
947.976893	0.999807
948.278286	1.001199
948.579641	1.001730
948.880958	0.999479
949.182236	0.999804
949.483476	1.000328
949.784678	0.999604
950.085841	0.999935
950.386967	0.999842
950.688054	1.000774
950.989103	0.998747
951.290114	0.998524
951.591087	0.999956
951.892021	0.999231
952.192917	0.999945
952.493776	0.999852
952.794596	0.999839
953.095378	0.999098
953.396122	0.999095
953.696828	1.000268
953.997496	1.000441
954.298126	1.000841
954.598718	0.998788
954.899272	0.999721
955.199788	0.999847
955.500266	1.000761
955.800706	1.000198
956.101108	1.000671
956.401472	1.001446
956.701798	0.999623
957.002087	0.999415
957.302337	1.000039
957.602550	1.001363
957.902724	0.998632
958.202861	1.000451
958.502960	0.999506
958.803022	1.001464
959.103045	1.000527
959.403031	1.001301
959.702979	1.002185
960.002889	1.000488
960.302762	1.000601
960.602596	1.000345
960.902393	0.999845
961.202153	1.002051
961.501875	1.001012
961.801559	1.001165
962.101205	0.999480
962.400814	1.000718
962.700385	1.001450
962.999918	1.000803
963.299414	0.999695
963.598873	1.001715
963.898293	1.001252
964.197677	1.000462
964.497022	1.001164
964.796331	1.001329
965.095601	1.001552
965.394835	1.000056
965.694030	1.000861
965.993189	0.999996
966.292309	1.001248
966.591393	0.999280
966.890439	1.000152
967.189447	1.000322
967.488419	0.999913
967.787353	1.000296
968.086249	1.000706
968.385108	1.001062
968.683930	1.001002
968.982714	1.001498
969.281462	1.000572
969.580172	1.000649
969.878844	1.000907
970.177480	0.999922
970.476078	1.001769
970.774639	1.001071
971.073162	1.000175
971.371649	1.001060
971.670098	1.000175
971.968510	1.002000
972.266885	0.999972
972.565223	1.000188
972.863524	0.999773
973.161788	0.999366
973.460014	0.999808
973.758204	1.001003
974.056356	0.999808
974.354471	1.000332
974.652550	1.000815
974.950591	1.000535
975.248595	0.999401
975.546563	1.001636
975.844493	1.001239
976.142386	0.999785
976.440243	1.000970
976.738062	1.000848
977.035845	1.000560
977.333590	1.001955
977.631299	1.000376
977.928971	1.000484
978.226606	1.000121
978.524204	0.999734
978.821765	1.002255
979.119290	1.002221
979.416777	1.000633
979.714228	0.999701
980.011642	1.000857
980.309020	1.000655
980.606360	1.001142
980.903664	1.000515
981.200931	0.999977
981.498162	0.999835
981.795356	1.000553
982.092513	1.000420
982.389633	1.002075
982.686717	0.999635
982.983764	0.999858
983.280775	0.999656
983.577749	1.001250
983.874686	0.998958
984.171587	0.999492
984.468451	1.000537
984.765279	1.000617
985.062070	1.000457
985.358824	0.999920
985.655543	1.001050
985.952224	1.000798
986.248869	1.000376
986.545478	1.000806
986.842050	1.000164
987.138586	1.001030
987.435086	1.000595
987.731549	1.001325
988.027975	1.000854
988.324366	1.000142
988.620719	1.002458
988.917037	0.999984
989.213318	1.000975
989.509563	1.001270
989.805772	1.001791
990.101944	1.001631
990.398080	0.999783
990.694180	1.002183
990.990244	0.999437
991.286271	1.001367
991.582262	1.001645
991.878217	1.000328
992.174136	1.001102
992.470019	1.002239
992.765865	1.001861
993.061676	1.001432
993.357450	1.000619
993.653188	1.002701
993.948890	1.001131
994.244556	0.999841
994.540186	1.000120
994.835780	1.000256
995.131337	1.001214
995.426859	1.000632
995.722345	1.000379
996.017795	1.000897
996.313208	0.999942
996.608586	0.999913
996.903928	1.001316
997.199234	1.000354
997.494504	1.001911
997.789738	0.999351
998.084936	1.000802
998.380099	1.000707
998.675225	1.001565
998.970316	1.001434
999.265371	1.001536
999.560390	1.000083
999.855373	1.000332
1000.150320	1.000424
1000.445232	1.001185
1000.740108	1.000742
1001.034948	1.000707
1001.329752	1.000285
1001.624521	1.000462
1001.919254	1.000449
1002.213951	1.001355
1002.508613	1.001284
1002.803239	1.000880
1003.097829	1.001468
1003.392384	1.000190
1003.686903	1.000510
1003.981386	1.001256
1004.275834	1.001120
1004.570246	0.998631
1004.864623	1.001917
1005.158964	1.002071
1005.453270	1.000595
1005.747540	0.999367
1006.041775	1.000992
1006.335974	1.000585
1006.630138	1.002375
1006.924266	0.998267
1007.218359	1.000398
1007.512416	1.002034
1007.806438	1.001188
1008.100425	1.001259
1008.394376	1.000885
1008.688292	1.000241
1008.982172	1.001174
1009.276017	1.000959
1009.569827	1.001867
1009.863602	0.999970
1010.157341	1.001563
1010.451045	1.000041
1010.744714	1.002909
1011.038347	1.000425
1011.331945	0.999932
1011.625508	1.000085
1011.919036	1.000975
1012.212528	1.001497
1012.505986	1.001375
1012.799408	1.000784
1013.092795	1.001270
1013.386147	1.000759
1013.679464	1.001670
1013.972745	1.001210
1014.265992	1.001983
1014.559204	1.000979
1014.852380	1.001881
1015.145521	0.999824
1015.438628	1.001978
1015.731699	1.000535
1016.024736	1.001923
1016.317737	1.000854
1016.610703	1.000666
1016.903635	1.001729
1017.196531	1.000472
1017.489393	1.000067
1017.782219	0.999654
1018.075011	1.000687
1018.367768	1.000562
1018.660490	1.000711
1018.953177	1.000711
1019.245829	1.000711
