Dividing Wavelength (nm)	Counts (n)	Blue Motor Position (mm): 42.800000	Red Motor Position (mm): 0.000000	
326.493990	0.999963
326.888308	0.999963
327.282561	0.999963
327.676750	1.000066
328.070874	1.000593
328.464933	1.000828
328.858929	1.000242
329.252859	1.000255
329.646726	0.999704
330.040528	1.000016
330.434265	0.999059
330.827938	0.999128
331.221547	0.999915
331.615091	1.000250
332.008571	1.001052
332.401986	0.998722
332.795338	0.999434
333.188625	1.000069
333.581847	0.998686
333.975006	0.999663
334.368100	1.000371
334.761129	0.999421
335.154095	0.998909
335.546996	0.999772
335.939833	0.998653
336.332606	1.000252
336.725315	0.998634
337.117960	1.000069
337.510540	0.998908
337.903056	0.999877
338.295508	1.000171
338.687896	1.000772
339.080220	0.999754
339.472480	0.998624
339.864676	0.999894
340.256807	0.999762
340.648875	1.000298
341.040879	0.998900
341.432818	1.001432
341.824694	0.999923
342.216506	1.000590
342.608253	1.000134
342.999937	0.999693
343.391557	1.000257
343.783113	1.000699
344.174605	0.999354
344.566033	0.999531
344.957397	0.999518
345.348697	0.999425
345.739934	1.000218
346.131106	0.999605
346.522215	0.998883
346.913260	1.000409
347.304241	0.998711
347.695159	0.999462
348.086012	0.998947
348.476802	0.998489
348.867528	0.999292
349.258191	1.000777
349.648789	0.999440
350.039324	0.998682
350.429796	0.999047
350.820203	0.997561
351.210548	1.000085
351.600828	1.000017
351.991045	0.999800
352.381198	0.999614
352.771288	0.999179
353.161314	0.998599
353.551276	0.999767
353.941175	0.997587
354.331010	0.999421
354.720782	0.999354
355.110490	0.999203
355.500135	1.000196
355.889717	0.998212
356.279235	0.998338
356.668689	0.999166
357.058080	0.999364
357.447408	0.997218
357.836672	0.999304
358.225873	0.998664
358.615010	0.999342
359.004084	0.998147
359.393095	0.999095
359.782043	0.998753
360.170927	0.998886
360.559748	0.999331
360.948505	0.997605
361.337199	0.998364
361.725830	0.999157
362.114398	0.998921
362.502903	0.998004
362.891344	0.997581
363.279722	0.998300
363.668037	0.999026
364.056289	0.998934
364.444478	0.999562
364.832603	0.998646
365.220665	0.999447
365.608665	0.997418
365.996601	0.998358
366.384474	0.997965
366.772284	0.997144
367.160031	0.996570
367.547715	0.996359
367.935336	0.997195
368.322893	0.995233
368.710388	0.993103
369.097820	0.992814
369.485189	0.990284
369.872495	0.989823
370.259738	0.986753
370.646918	0.983677
371.034035	0.981137
371.421090	0.979561
371.808081	0.974568
372.195010	0.971680
372.581875	0.965058
372.968678	0.962946
373.355418	0.957301
373.742096	0.951562
374.128710	0.946944
374.515262	0.942331
374.901751	0.936550
375.288177	0.932335
375.674540	0.925116
376.060841	0.918830
376.447079	0.911363
376.833254	0.905431
377.219367	0.901248
377.605417	0.889253
377.991404	0.887006
378.377329	0.880507
378.763191	0.874193
379.148991	0.865927
379.534727	0.859370
379.920402	0.851748
380.306013	0.848644
380.691563	0.837302
381.077049	0.831811
381.462474	0.830098
381.847835	0.820544
382.233134	0.818152
382.618371	0.821291
383.003545	0.807538
383.388657	0.809081
383.773706	0.805288
384.158693	0.804792
384.543618	0.804790
384.928480	0.799927
385.313280	0.795907
385.698017	0.799267
386.082692	0.794540
386.467305	0.796995
386.851856	0.799270
387.236344	0.799613
387.620770	0.801325
388.005133	0.803373
388.389435	0.804827
388.773674	0.810394
389.157851	0.810419
389.541965	0.815941
389.926018	0.826445
390.310008	0.825685
390.693936	0.831150
391.077802	0.834538
391.461606	0.842059
391.845348	0.844585
392.229027	0.850293
392.612645	0.856774
392.996200	0.858567
393.379694	0.862500
393.763125	0.866957
394.146494	0.875217
394.529801	0.880353
394.913047	0.885106
395.296230	0.894315
395.679351	0.897792
396.062410	0.905987
396.445408	0.912302
396.828343	0.917916
397.211217	0.922763
397.594028	0.931261
397.976778	0.935826
398.359466	0.940413
398.742092	0.944919
399.124656	0.951085
399.507158	0.953536
399.889598	0.958509
400.271977	0.961955
400.654294	0.964918
401.036549	0.969519
401.418742	0.972569
401.800874	0.974069
402.182944	0.976221
402.564952	0.979197
402.946898	0.981224
403.328783	0.984665
403.710606	0.986453
404.092367	0.987456
404.474067	0.989527
404.855705	0.990546
405.237282	0.991168
405.618797	0.992856
406.000250	0.992530
406.381642	0.992977
406.762972	0.995357
407.144240	0.995833
407.525447	0.994432
407.906593	0.995466
408.287677	0.996293
408.668700	0.997026
409.049661	0.997505
409.430560	0.996969
409.811399	0.996712
410.192176	0.997290
410.572891	0.998590
410.953545	0.996655
411.334138	0.997662
411.714669	0.997930
412.095139	0.998628
412.475547	0.998256
412.855894	0.998338
413.236180	0.998343
413.616405	0.998480
413.996568	0.997830
414.376670	0.998042
414.756711	0.998411
415.136691	0.998383
415.516609	0.996924
415.896466	0.998348
416.276262	0.998098
416.655997	0.998257
417.035670	0.998670
417.415283	0.998378
417.794834	0.998792
418.174324	0.999485
418.553753	0.998656
418.933121	0.998814
419.312428	0.999343
419.691674	0.999317
420.070859	0.999108
420.449983	0.999932
420.829045	0.997775
421.208047	0.999292
421.586988	0.998103
421.965867	0.997823
422.344686	0.998942
422.723444	0.998806
423.102141	0.998811
423.480777	0.998459
423.859352	0.998901
424.237866	0.999211
424.616319	0.999070
424.994712	0.998974
425.373044	0.999233
425.751314	0.999329
426.129524	0.999905
426.507673	0.997994
426.885762	0.999410
427.263789	0.998335
427.641756	0.999182
428.019662	0.998680
428.397508	0.999163
428.775292	0.998749
429.153016	0.998197
429.530679	0.999194
429.908282	0.999189
430.285824	0.998202
430.663305	0.998076
431.040726	0.999960
431.418086	0.998817
431.795385	0.999370
432.172624	1.000096
432.549802	0.998420
432.926920	0.999257
433.303977	0.998597
433.680974	0.999603
434.057910	0.999575
434.434786	0.999315
434.811601	0.999323
435.188355	0.998860
435.565050	0.998955
435.941683	0.998951
436.318257	0.997962
436.694770	0.999125
437.071222	0.999464
437.447614	0.998620
437.823946	0.999224
438.200218	0.998814
438.576429	0.998827
438.952580	0.998768
439.328670	0.998365
439.704700	0.998592
440.080670	0.998489
440.456580	0.998665
440.832429	0.999324
441.208218	0.999240
441.583947	0.999035
441.959616	0.998009
442.335224	0.999546
442.710773	0.999656
443.086261	0.999212
443.461689	0.998931
443.837057	0.998984
444.212365	0.999916
444.587612	0.999241
444.962800	0.999235
445.337927	0.999676
445.712995	0.999095
446.088002	0.998619
446.462949	0.998564
446.837837	1.000115
447.212664	0.999455
447.587431	0.999179
447.962139	0.999052
448.336786	0.998268
448.711374	0.999241
449.085901	0.998532
449.460369	0.999594
449.834776	0.999115
450.209124	0.999150
450.583412	0.999470
450.957640	0.999199
451.331808	0.998805
451.705917	0.998516
452.079965	0.999621
452.453954	0.999870
452.827883	1.000037
453.201752	0.999194
453.575562	0.998808
453.949311	0.999242
454.323001	0.998485
454.696632	0.998605
455.070202	0.998830
455.443713	0.998790
455.817164	0.999322
456.190556	0.998554
456.563888	0.999900
456.937160	0.999092
457.310373	0.998218
457.683526	0.999250
458.056619	0.999580
458.429653	0.999271
458.802628	0.998500
459.175542	0.999722
459.548398	0.998921
459.921194	0.999245
460.293930	1.000058
460.666607	0.999344
461.039224	0.999967
461.411782	0.999371
461.784280	0.998767
462.156719	0.999463
462.529099	0.999207
462.901419	0.998261
463.273680	0.998302
463.645882	0.998542
464.018024	0.999161
464.390106	0.999676
464.762130	0.999258
465.134094	0.998900
465.505999	0.999028
465.877845	0.999726
466.249631	0.998731
466.621358	0.998208
466.993026	0.998432
467.364634	0.999779
467.736184	0.999031
468.107674	0.999446
468.479105	0.998121
468.850477	0.998946
469.221790	0.998449
469.593043	0.998659
469.964238	0.999012
470.335373	0.998879
470.706449	0.998720
471.077467	0.999001
471.448425	0.999233
471.819324	0.999532
472.190164	0.998896
472.560945	0.998921
472.931667	0.998224
473.302330	0.998806
473.672934	0.999485
474.043479	0.998852
474.413965	0.999230
474.784393	0.999041
475.154761	0.998394
475.525070	0.998484
475.895321	0.999439
476.265513	0.998777
476.635645	0.999712
477.005719	0.999308
477.375734	0.998548
477.745691	0.998587
478.115588	0.999001
478.485427	0.999170
478.855207	0.999422
479.224928	0.999961
479.594591	0.999148
479.964194	0.999294
480.333739	0.998876
480.703226	0.998205
481.072653	0.998550
481.442022	0.999709
481.811333	0.999092
482.180584	0.999727
482.549777	0.998938
482.918912	0.998806
483.287988	0.999107
483.657005	0.999051
484.025964	0.999460
484.394864	0.999038
484.763706	0.998614
485.132489	0.998955
485.501213	0.999144
485.869879	0.999213
486.238487	0.998282
486.607036	0.999666
486.975527	0.999208
487.343959	0.998401
487.712333	0.999037
488.080648	0.998918
488.448905	0.999247
488.817104	0.998773
489.185244	0.999340
489.553326	0.999135
489.921350	0.999686
490.289315	0.999138
490.657222	0.998294
491.025070	0.999351
491.392861	0.999117
491.760593	0.998632
492.128267	0.998928
492.495883	0.998456
492.863440	0.998801
493.230939	0.999285
493.598380	0.999638
493.965763	0.998789
494.333088	0.998580
494.700354	0.998241
495.067563	0.998639
495.434713	0.999356
495.801805	0.998879
496.168839	0.999054
496.535815	0.998761
496.902733	0.998540
497.269593	0.998463
497.636395	0.998178
498.003139	0.998890
498.369825	0.999405
498.736453	0.998830
499.103023	0.998977
499.469535	0.999078
499.835989	0.998931
500.202385	0.998823
500.568723	0.998613
500.935003	0.999195
501.301226	0.999381
501.667390	0.998490
502.033497	0.999765
502.399546	0.998351
502.765537	0.998581
503.131470	0.999269
503.497345	0.998544
503.863163	0.998828
504.228923	0.998749
504.594625	0.998824
504.960269	0.999104
505.325856	1.000147
505.691385	0.999146
506.056856	0.998796
506.422270	0.998739
506.787625	0.998877
507.152924	0.999131
507.518164	0.999027
507.883347	0.999026
508.248472	0.999019
508.613540	0.998925
508.978550	0.999003
509.343503	0.998918
509.708398	0.999277
510.073236	0.999145
510.438016	0.998871
510.802738	0.998589
511.167403	0.998853
511.532010	0.999153
511.896561	0.999272
512.261053	0.999144
512.625488	0.999151
512.989866	0.999014
513.354186	0.998863
513.718449	0.999177
514.082655	0.998473
514.446803	0.998898
514.810894	0.999365
515.174927	0.999363
515.538904	0.999297
515.902822	0.999011
516.266684	0.999488
516.630488	0.999328
516.994235	0.999063
517.357925	0.998887
517.721558	0.999002
518.085133	0.998725
518.448651	0.998940
518.812112	0.999251
519.175516	0.998434
519.538863	0.998270
519.902152	0.999770
520.265385	0.998925
520.628560	0.998760
520.991678	0.998865
521.354739	0.999524
521.717743	0.999146
522.080690	0.998563
522.443580	0.998517
522.806413	0.998999
523.169189	0.999179
523.531908	0.998036
523.894569	0.998948
524.257174	0.998948
524.619722	0.999326
524.982213	0.998837
525.344647	0.999003
525.707025	0.998896
526.069345	0.998447
526.431608	0.998840
526.793815	0.999552
527.155964	0.999483
527.518057	0.999351
527.880093	0.998790
528.242072	0.998822
528.603995	0.998827
528.965860	0.999541
529.327669	0.999853
529.689421	0.998806
530.051117	0.998963
530.412755	0.999129
530.774337	0.998643
531.135862	0.999658
531.497331	0.998712
531.858743	0.999046
532.220098	0.998439
532.581396	0.999007
532.942638	0.999139
533.303824	0.999258
533.664953	0.998452
534.026025	0.999246
534.387040	0.998812
534.747999	0.999013
535.108902	0.998792
535.469748	0.999432
535.830537	0.999198
536.191270	0.999527
536.551947	0.998850
536.912567	0.998258
537.273131	0.999466
537.633638	0.998909
537.994089	0.999252
538.354483	0.999026
538.714821	0.999502
539.075103	0.999374
539.435328	0.999148
539.795497	0.999114
540.155609	0.998822
540.515665	0.999199
540.875665	0.998809
541.235609	0.999020
541.595496	0.998527
541.955328	0.998869
542.315102	0.999282
542.674821	0.999424
543.034483	0.999369
543.394090	0.998454
543.753640	0.998946
544.113134	0.998276
544.472571	0.999630
544.831953	0.999239
545.191278	0.998690
545.550548	0.998969
545.909761	0.998903
546.268918	0.999344
546.628019	0.999347
546.987064	0.999149
547.346053	0.997786
547.704986	0.998657
548.063863	0.998302
548.422684	0.999157
548.781449	0.998545
549.140158	0.999083
549.498811	0.998187
549.857408	0.998671
550.215949	0.998509
550.574434	0.998783
550.932864	0.999252
551.291237	0.999098
551.649555	0.999173
552.007817	0.999538
552.366022	0.999256
552.724173	0.999383
553.082267	0.999288
553.440305	0.998610
553.798288	0.998144
554.156215	0.998578
554.514086	0.999151
554.871902	0.998738
555.229661	0.998106
555.587365	0.998495
555.945014	0.999455
556.302606	0.998677
556.660143	0.999685
557.017625	0.999541
557.375050	0.998809
557.732421	0.998641
558.089735	0.998065
558.446994	0.998544
558.804197	0.999065
559.161345	0.998322
559.518437	0.998610
559.875474	0.998770
560.232455	0.998961
560.589381	0.999160
560.946251	0.998754
561.303065	0.999533
561.659825	0.998344
562.016528	0.998990
562.373177	0.998923
562.729770	0.998749
563.086307	0.998314
563.442789	0.999724
563.799216	0.997849
564.155587	0.999557
564.511904	0.999530
564.868164	0.998784
565.224370	0.998638
565.580520	0.999019
565.936615	0.999402
566.292654	0.998912
566.648638	0.998938
567.004567	0.998892
567.360441	0.999299
567.716260	0.998960
568.072023	0.998631
568.427732	0.998724
568.783385	0.998642
569.138982	0.998958
569.494525	0.999000
569.850013	0.999022
570.205445	0.999313
570.560823	0.998582
570.916145	0.999054
571.271412	0.998755
571.626625	0.998682
571.981782	0.999024
572.336884	0.999045
572.691931	0.999017
573.046923	0.999949
573.401860	0.998914
573.756743	0.999129
574.111570	0.998656
574.466342	0.999649
574.821059	0.998674
575.175722	0.999792
575.530330	0.998485
575.884882	0.998686
576.239380	0.998927
576.593823	0.998754
576.948211	0.998568
577.302544	0.998611
577.656823	0.998573
578.011047	0.998010
578.365216	0.999342
578.719330	0.998715
579.073389	0.997854
579.427394	0.998817
579.781344	0.999538
580.135239	0.998409
580.489080	0.998846
580.842866	0.999055
581.196597	0.999224
581.550273	0.998657
581.903895	0.999405
582.257463	0.998958
582.610975	0.998502
582.964434	0.999155
583.317837	0.999351
583.671186	0.998856
584.024481	0.998867
584.377721	0.998853
584.730906	0.999585
585.084037	1.000256
585.437113	0.999007
585.790135	0.999011
586.143103	0.999110
586.496016	0.999105
586.848874	0.998529
587.201679	0.998678
587.554428	0.998390
587.907124	0.999443
588.259765	0.999388
588.612352	0.999354
588.964884	0.999419
589.317362	0.999063
589.669786	0.998670
590.022155	0.998387
590.374470	0.998892
590.726731	0.999077
591.078937	0.998818
591.431090	0.999082
591.783188	0.998388
592.135232	0.999473
592.487222	0.998754
592.839157	0.998385
593.191038	0.998544
593.542866	0.998818
593.894639	0.998604
594.246358	0.998920
594.598022	0.999240
594.949633	0.999570
595.301190	0.998699
595.652692	0.998647
596.004141	0.998839
596.355535	0.998350
596.706876	0.998869
597.058162	0.998735
597.409395	0.999369
597.760573	0.998959
598.111698	0.998392
598.462768	0.998539
598.813785	0.997915
599.164748	0.998327
599.515657	0.998101
599.866511	0.999156
600.217312	0.999058
600.568060	0.998897
600.918753	0.999648
601.269392	0.998994
601.619978	0.999002
601.970510	0.998431
602.320988	0.999291
602.671412	0.998062
603.021783	0.998998
603.372100	0.999307
603.722363	0.999490
604.072572	0.998859
604.422728	0.998397
604.772830	0.999099
605.122878	0.998176
605.472872	0.999149
605.822813	0.998891
606.172701	0.998901
606.522534	0.998345
606.872314	0.999474
607.222041	0.998745
607.571714	0.999249
607.921333	0.999061
608.270899	0.998069
608.620411	0.999477
608.969870	0.999304
609.319276	0.998562
609.668627	0.999553
610.017926	0.998662
610.367171	0.998731
610.716362	0.999177
611.065500	0.998109
611.414585	0.997988
611.763616	0.997722
612.112594	0.998462
612.461518	0.998590
612.810389	0.998389
613.159207	0.999441
613.507971	0.998207
613.856682	0.999325
614.205340	0.997825
614.553945	0.999476
614.902496	0.998303
615.250994	0.999249
615.599439	0.999170
615.947830	0.999007
616.296169	0.999080
616.644454	0.999592
616.992686	0.999296
617.340864	0.999382
617.688990	0.998533
618.037063	0.998743
618.385082	0.998303
618.733048	0.997767
619.080961	0.998443
619.428821	0.999267
619.776628	0.998279
620.124382	0.999333
620.472083	0.998892
620.819731	0.999962
621.167326	0.999307
621.514868	0.999719
621.862357	0.998827
622.209793	0.999150
622.557176	0.998021
622.904506	0.998812
623.251783	0.998944
623.599007	0.998897
623.946179	0.998443
624.293297	0.999228
624.640363	0.999173
624.987376	0.998288
625.334336	0.998867
625.681243	0.998713
626.028097	0.999065
626.374899	0.998531
626.721647	0.999481
627.068343	0.999033
627.414987	0.998727
627.761577	0.998021
628.108115	0.998263
628.454600	0.999350
628.801032	0.998410
629.147412	0.998948
629.493739	0.999252
629.840014	0.998613
630.186236	0.998081
630.532405	0.998628
630.878521	0.997503
631.224585	0.998322
631.570597	0.998883
631.916556	0.998967
632.262462	0.997564
632.608316	0.998874
632.954117	0.998302
633.299866	0.998841
633.645562	0.998354
633.991206	0.998563
634.336797	0.998284
634.682336	0.999431
635.027823	0.998757
635.373257	0.999213
635.718639	0.998859
636.063968	0.998458
636.409245	0.997872
636.754470	0.999170
637.099642	0.999088
637.444762	0.999680
637.789829	0.998963
638.134845	0.998070
638.479808	0.998795
638.824719	0.999160
639.169577	0.998962
639.514383	0.998857
639.859137	0.998785
640.203839	0.998327
640.548489	0.998507
640.893086	0.997916
641.237632	0.998760
641.582125	0.998454
641.926566	0.999531
642.270955	0.998123
642.615292	0.998142
642.959576	0.998903
643.303809	0.999393
643.647990	0.998869
643.992118	0.998886
644.336195	0.998373
644.680219	0.998359
645.024192	0.998426
645.368112	0.997231
645.711981	0.997958
646.055797	0.998602
646.399562	0.997960
646.743274	0.999294
647.086935	0.998717
647.430544	0.998531
647.774101	0.997881
648.117606	0.998662
648.461059	0.999236
648.804460	0.997912
649.147810	0.997538
649.491108	0.998427
649.834354	0.998630
650.177548	0.997938
650.520690	0.998909
650.863781	0.998128
651.206820	0.998275
651.549807	0.997889
651.892742	0.998915
652.235626	0.998738
652.578458	0.998920
652.921238	0.999241
653.263967	0.999574
653.606644	0.998579
653.949269	0.999676
654.291843	0.998612
654.634365	0.998945
654.976836	0.997688
655.319255	0.999232
655.661622	0.998876
656.003938	0.998410
656.346203	0.998809
656.688416	0.999485
657.030577	0.998705
657.372687	0.998529
657.714746	0.997830
658.056753	0.998592
658.398708	0.998022
658.740612	0.999562
659.082465	0.998406
659.424266	0.998615
659.766016	0.997743
660.107715	0.999402
660.449362	0.997804
660.790958	0.998492
661.132503	0.998023
661.473996	0.998186
661.815438	0.998712
662.156829	0.998009
662.498168	0.998867
662.839456	0.997444
663.180693	0.998832
663.521879	0.998315
663.863013	0.998776
664.204097	0.997518
664.545129	0.998032
664.886110	0.998354
665.227040	0.998866
665.567918	0.998379
665.908746	0.997285
666.249522	0.998268
666.590248	0.997967
666.930922	0.998185
667.271545	0.998872
667.612118	0.998623
667.952639	0.997893
668.293109	0.998262
668.633528	0.998084
668.973896	0.998603
669.314213	0.998108
669.654480	0.998768
669.994695	0.996757
670.334859	0.998204
670.674973	0.997718
671.015035	0.997771
671.355047	0.998567
671.695008	0.997514
672.034918	0.998318
672.374777	0.998878
672.714585	0.998501
673.054342	0.999138
673.394049	0.998281
673.733705	0.998143
674.073310	0.998776
674.412864	0.998484
674.752368	0.998129
675.091820	0.999316
675.431223	0.998292
675.770574	0.997093
676.109875	0.998426
676.449125	0.997570
676.788324	0.997696
677.127473	0.998815
677.466571	0.998086
677.805619	0.998263
678.144616	0.998518
678.483562	0.998781
678.822458	0.998300
679.161303	0.997503
679.500098	0.998391
679.838842	0.998634
680.177535	0.997345
680.516179	0.998067
680.854771	0.998030
681.193314	0.998242
681.531805	0.997841
681.870247	0.998254
682.208638	0.997776
682.546978	0.997354
682.885268	0.997828
683.223508	0.997409
683.561697	0.998607
683.899836	0.998813
684.237925	0.997590
684.575963	0.997915
684.913951	0.997608
685.251889	0.997586
685.589776	0.998778
685.927614	0.998025
686.265401	0.997770
686.603137	0.997854
686.940824	0.997998
687.278460	0.998848
687.616046	0.998012
687.953582	0.997910
688.291068	0.998245
688.628504	0.998351
688.965889	0.998338
689.303224	0.996132
689.640510	0.997894
689.977745	0.998207
690.314930	0.997810
690.652065	0.997030
690.989150	0.997269
691.326185	0.998040
691.663170	0.997635
692.000105	0.998471
692.336990	0.997759
692.673825	0.997813
693.010610	0.997628
693.347345	0.997871
693.684030	0.998364
694.020665	0.997700
694.357251	0.998038
694.693786	0.998386
695.030272	0.996728
695.366707	0.997294
695.703093	0.997408
696.039429	0.997309
696.375716	0.998033
696.711952	0.998152
697.048139	0.998598
697.384276	0.997970
697.720363	0.998254
698.056400	0.997255
698.392388	0.997661
698.728326	0.997992
699.064214	0.998514
699.400053	0.998427
699.735842	0.999045
700.071581	0.997993
700.407270	0.998037
700.742910	0.998268
701.078501	0.998638
701.414042	0.998503
701.749533	0.996392
702.084974	0.998514
702.420366	0.998079
702.755709	0.997678
703.091002	0.998352
703.426246	0.998029
703.761440	0.996964
704.096584	0.996831
704.431679	0.997539
704.766725	0.997906
705.101721	0.998120
705.436668	0.998224
705.771565	0.997046
706.106413	0.997154
706.441212	0.998433
706.775961	0.998308
707.110661	0.997555
707.445311	0.998719
707.779913	0.998925
708.114465	0.998451
708.448967	0.998665
708.783421	0.998670
709.117825	0.998168
709.452180	0.998370
709.786485	0.999022
710.120742	0.997880
710.454949	0.997403
710.789107	0.998037
711.123216	0.996876
711.457275	0.997043
711.791286	0.998391
712.125247	0.999606
712.459159	0.998309
712.793023	0.998253
713.126837	0.998625
713.460602	0.997727
713.794318	0.996666
714.127985	0.997027
714.461602	0.997870
714.795171	0.997469
715.128691	0.997757
715.462162	0.998106
715.795584	0.997446
716.128957	0.998200
716.462281	0.998226
716.795556	0.996566
717.128782	0.997764
717.461960	0.997876
717.795088	0.998389
718.128167	0.999049
718.461198	0.997694
718.794180	0.998927
719.127113	0.998179
719.459997	0.996953
719.792833	0.997285
720.125619	0.997661
720.458357	0.998129
720.791046	0.997970
721.123686	0.998301
721.456278	0.997963
721.788821	0.997974
722.121315	0.998846
722.453761	0.998274
722.786158	0.997614
723.118506	0.997384
723.450805	0.997835
723.783056	0.999031
724.115259	0.997871
724.447412	0.998259
724.779518	0.998168
725.111574	0.998217
725.443582	0.998175
725.775542	0.998297
726.107453	0.998652
726.439315	0.998415
726.771129	0.999033
727.102895	0.998709
727.434612	0.999014
727.766281	0.998238
728.097901	0.997791
728.429473	0.998407
728.760996	0.997010
729.092471	0.998429
729.423897	0.998806
729.755276	0.997592
730.086606	0.997148
730.417887	0.998944
730.749120	0.999104
731.080305	0.997953
731.411442	0.997748
731.742530	0.997647
732.073570	0.997558
732.404562	0.997608
732.735506	0.997363
733.066401	0.997941
733.397249	0.998045
733.728048	0.997974
734.058798	0.998236
734.389501	0.999146
734.720156	0.997760
735.050762	0.998686
735.381320	0.997225
735.711831	0.998243
736.042293	0.997382
736.372707	0.998267
736.703073	0.996547
737.033391	0.998626
737.363661	0.999291
737.693883	0.998815
738.024056	0.997145
738.354182	0.997729
738.684260	0.998134
739.014290	0.997827
739.344272	0.997959
739.674207	0.998663
740.004093	0.998113
740.333931	0.998777
740.663722	0.997211
740.993464	0.997936
741.323159	0.997461
741.652806	0.997541
741.982405	0.998390
742.311956	0.998799
742.641460	0.997812
742.970915	0.997746
743.300323	0.997985
743.629683	0.997351
743.958996	0.998638
744.288260	0.997526
744.617477	0.996783
744.946647	0.997874
745.275768	0.997985
745.604842	0.998434
745.933869	0.997817
746.262847	0.998273
746.591778	0.996506
746.920662	0.998897
747.249498	0.997774
747.578286	0.998369
747.907027	0.998246
748.235720	0.998449
748.564365	0.998255
748.892963	0.997538
749.221514	0.998360
749.550017	0.997135
749.878473	0.998368
750.206881	0.999353
750.535242	0.997750
750.863555	0.997849
751.191821	0.998002
751.520039	0.998025
751.848210	0.997187
752.176334	0.998641
752.504411	0.998606
752.832440	0.997386
753.160421	0.998754
753.488356	0.997772
753.816243	0.997343
754.144082	0.998494
754.471875	0.998183
754.799620	0.998242
755.127318	0.997671
755.454969	0.999074
755.782572	1.000060
756.110129	0.997559
756.437638	0.998401
756.765100	0.998802
757.092515	0.997527
757.419882	0.998199
757.747203	0.997938
758.074477	0.999260
758.401703	0.997997
758.728882	0.998791
759.056014	0.997601
759.383099	0.998818
759.710138	0.998564
760.037129	0.998228
760.364073	0.998999
760.690970	0.998670
761.017820	0.996804
761.344623	0.998001
761.671379	0.998913
761.998088	0.998803
762.324751	0.998300
762.651366	0.998020
762.977935	0.997465
763.304456	0.997922
763.630931	0.996640
763.957359	0.996321
764.283740	0.996461
764.610074	0.997665
764.936362	0.997803
765.262602	0.998499
765.588796	0.998316
765.914943	0.997437
766.241044	0.998231
766.567097	0.997267
766.893104	0.998332
767.219064	0.997951
767.544978	0.998531
767.870845	0.998502
768.196665	0.998548
768.522438	0.998838
768.848165	0.997855
769.173846	0.999256
769.499479	0.999074
769.825066	0.999426
770.150607	0.998610
770.476101	0.998921
770.801548	0.999548
771.126949	0.998992
771.452303	0.998025
771.777611	0.998644
772.102872	0.998267
772.428087	0.998330
772.753256	0.999107
773.078378	0.998594
773.403453	0.997663
773.728482	1.000438
774.053465	0.997408
774.378401	0.999180
774.703291	0.999085
775.028135	0.999615
775.352932	0.997964
775.677683	0.998950
776.002388	0.998589
776.327046	0.997950
776.651658	1.000369
776.976224	0.998468
777.300743	0.997536
777.625216	0.997892
777.949643	0.998492
778.274024	0.997625
778.598359	0.998707
778.922647	0.999662
779.246889	0.999301
779.571086	0.999647
779.895236	0.998686
780.219339	0.999393
780.543397	0.997152
780.867409	0.999209
781.191374	0.999594
781.515294	0.999197
781.839167	0.999668
782.162995	0.998674
782.486776	0.998461
782.810511	0.998253
783.134201	0.999230
783.457844	0.999360
783.781441	0.998515
784.104993	0.998303
784.428498	0.999214
784.751958	0.999900
785.075372	0.999217
785.398739	0.998009
785.722061	0.997142
786.045337	0.999056
786.368568	0.999383
786.691752	0.998457
787.014891	0.998627
787.337983	0.997644
787.661030	0.998384
787.984031	0.999230
788.306987	0.999015
788.629897	0.997240
788.952760	0.998918
789.275579	0.999901
789.598351	0.998421
789.921078	0.999784
790.243759	0.999224
790.566395	0.998269
790.888984	0.998599
791.211529	0.999520
791.534027	0.999557
791.856480	0.998680
792.178888	0.998147
792.501249	0.997837
792.823566	0.999911
793.145836	0.998245
793.468062	0.998834
793.790241	0.999017
794.112375	0.997235
794.434464	0.999399
794.756507	0.999880
795.078505	0.998744
795.400457	0.999092
795.722364	0.999824
796.044226	0.998467
796.366042	0.998728
796.687812	0.996973
797.009538	0.998574
797.331218	1.000203
797.652852	1.000020
797.974442	0.998246
798.295986	0.999305
798.617484	0.997978
798.938938	0.999110
799.260346	0.997336
799.581709	0.997877
799.903026	0.999415
800.224299	0.998308
800.545526	0.998762
800.866708	0.997488
801.187845	0.999112
801.508936	0.999025
801.829983	0.998283
802.150984	0.999521
802.471940	0.998827
802.792851	0.998511
803.113717	1.000518
803.434538	0.999064
803.755314	1.000550
804.076045	0.999770
804.396731	0.998274
804.717372	0.997205
805.037967	1.000770
805.358518	0.999236
805.679024	0.998577
805.999485	0.998865
806.319901	0.999452
806.640272	0.999943
806.960598	1.000029
807.280879	0.998799
807.601115	1.000706
807.921306	0.999885
808.241453	0.999390
808.561554	0.999048
808.881611	0.999715
809.201623	0.998890
809.521590	0.998592
809.841513	0.998594
810.161390	0.998307
810.481223	0.997875
810.801011	0.999844
811.120755	1.000174
811.440453	0.997948
811.760107	0.999104
812.079716	0.998400
812.399281	0.999045
812.718801	0.999364
813.038276	0.998384
813.357707	0.998836
813.677093	0.999271
813.996434	0.999374
814.315731	1.000063
814.634983	0.999115
814.954191	0.999643
815.273354	0.999057
815.592473	0.998133
815.911547	0.999900
816.230577	0.998302
816.549562	0.999391
816.868502	0.998719
817.187399	1.000128
817.506250	1.000268
817.825058	0.998071
818.143821	0.999062
818.462539	0.998630
818.781213	0.997663
819.099843	0.999797
819.418429	0.998644
819.736970	0.999711
820.055466	0.998824
820.373919	0.998076
820.692327	0.997990
821.010691	0.998327
821.329011	0.997475
821.647286	0.996430
821.965517	0.996334
822.283704	0.995654
822.601847	0.995358
822.919945	0.995218
823.237999	0.995659
823.556010	0.995132
823.873976	0.995817
824.191897	0.995434
824.509775	0.997338
824.827609	0.996670
825.145398	0.997832
825.463144	0.996353
825.780845	0.996105
826.098502	0.996998
826.416116	0.997048
826.733685	0.997972
827.051210	0.997080
827.368692	0.996747
827.686129	0.996786
828.003522	0.997695
828.320872	0.997906
828.638177	0.998062
828.955439	0.998223
829.272656	0.998013
829.589830	0.998238
829.906960	0.998679
830.224046	0.998582
830.541088	0.998555
830.858086	0.998199
831.175041	0.999944
831.491952	0.998550
831.808819	0.998628
832.125642	0.998175
832.442421	0.999557
832.759157	1.000370
833.075849	0.998638
833.392497	0.998540
833.709101	0.997061
834.025662	0.998116
834.342179	0.997965
834.658653	0.998856
834.975083	0.998226
835.291469	0.999325
835.607811	0.998631
835.924110	0.998036
836.240366	1.000953
836.556578	0.999366
836.872746	0.999287
837.188871	0.998443
837.504952	0.998885
837.820990	0.999133
838.136984	0.998153
838.452935	0.998744
838.768842	0.998406
839.084706	0.999405
839.400526	0.999091
839.716303	0.997843
840.032037	0.999361
840.347727	0.998765
840.663373	0.998945
840.978977	0.998062
841.294537	1.000378
841.610054	0.999467
841.925527	1.000240
842.240957	0.998483
842.556344	0.998971
842.871687	0.998568
843.186987	0.999724
843.502244	0.998421
843.817458	0.998304
844.132629	0.998729
844.447756	0.998290
844.762840	0.999371
845.077881	0.999844
845.392879	0.997940
845.707833	0.999052
846.022745	0.999083
846.337613	0.999243
846.652438	0.998665
846.967221	0.999098
847.281960	0.999409
847.596656	1.000230
847.911309	0.999642
848.225919	0.998280
848.540485	1.000333
848.855009	1.000809
849.169490	1.000041
849.483928	0.999743
849.798323	0.997962
850.112675	0.999873
850.426984	0.999274
850.741251	0.999814
851.055474	0.998837
851.369654	0.999985
851.683792	0.998324
851.997887	0.999032
852.311938	1.000759
852.625947	0.998863
852.939914	0.998318
853.253837	1.000121
853.567718	1.000599
853.881555	0.999546
854.195350	0.999640
854.509103	0.998764
854.822812	0.999956
855.136479	0.999322
855.450103	0.999432
855.763685	1.000215
856.077224	0.998868
856.390720	0.999549
856.704173	1.000351
857.017584	1.000049
857.330953	1.000483
857.644278	0.998312
857.957561	1.000008
858.270802	0.999868
858.584000	0.999499
858.897155	0.997964
859.210268	0.999231
859.523339	0.999991
859.836367	0.999585
860.149352	0.998814
860.462295	0.999033
860.775195	0.999084
861.088054	0.997731
861.400869	0.999835
861.713642	0.999410
862.026373	0.999629
862.339062	0.999991
862.651708	0.999115
862.964312	0.999609
863.276873	0.999607
863.589392	0.999206
863.901869	0.999571
864.214303	0.999510
864.526696	0.999389
864.839045	0.999838
865.151353	1.000686
865.463619	0.998411
865.775842	1.001206
866.088023	1.000367
866.400162	0.999685
866.712258	0.999941
867.024313	1.000498
867.336325	1.000743
867.648296	0.999662
867.960224	1.000235
868.272110	1.000844
868.583954	0.999524
868.895755	1.000284
869.207515	0.999074
869.519233	1.000877
869.830909	0.999221
870.142542	0.998894
870.454134	0.999264
870.765684	0.999253
871.077191	0.999573
871.388657	0.999546
871.700081	1.000317
872.011463	1.000929
872.322803	0.999743
872.634101	0.999043
872.945357	0.999152
873.256571	0.998557
873.567744	0.999987
873.878874	0.998793
874.189963	0.999963
874.501010	1.001009
874.812015	0.998984
875.122979	1.000204
875.433900	0.999486
875.744780	1.000394
876.055618	0.998620
876.366415	0.999451
876.677169	0.999443
876.987882	0.999571
877.298554	1.000701
877.609183	0.998972
877.919771	1.000026
878.230317	0.999455
878.540822	0.998416
878.851285	0.999156
879.161707	0.999150
879.472087	1.001286
879.782425	0.998963
880.092722	0.999283
880.402977	0.997862
880.713191	0.998153
881.023363	0.997169
881.333494	0.997556
881.643583	0.997113
881.953631	0.997294
882.263637	0.997292
882.573602	0.997572
882.883526	0.997111
883.193408	0.998437
883.503248	0.998394
883.813048	0.996997
884.122806	0.998689
884.432522	0.998157
884.742197	0.998757
885.051831	0.999016
885.361424	0.998562
885.670975	1.000340
885.980485	0.999768
886.289954	0.998309
886.599382	0.999840
886.908768	1.000107
887.218113	0.998696
887.527417	0.999467
887.836680	0.999239
888.145901	0.999931
888.455082	1.000849
888.764221	0.999954
889.073319	0.999490
889.382376	0.999883
889.691392	0.997894
890.000366	1.001132
890.309300	0.999554
890.618193	0.999656
890.927044	0.999761
891.235855	1.000044
891.544625	0.999485
891.853353	0.999386
892.162041	0.999833
892.470687	0.999687
892.779293	0.999828
893.087858	0.998458
893.396381	0.998892
893.704864	0.998835
894.013306	0.998871
894.321707	0.998487
894.630068	0.998133
894.938387	0.997998
895.246665	0.999028
895.554903	0.998493
895.863100	0.998884
896.171256	0.998698
896.479371	0.999675
896.787446	0.998366
897.095480	0.999746
897.403473	0.999158
897.711425	0.999294
898.019336	0.999741
898.327207	0.999793
898.635038	0.997933
898.942827	1.000865
899.250576	0.998294
899.558284	0.999903
899.865952	0.998035
900.173579	1.000009
900.481165	0.999440
900.788711	0.998538
901.096216	0.999333
901.403681	1.000049
901.711105	0.998839
902.018489	0.998904
902.325832	0.998844
902.633135	0.999837
902.940397	1.000287
903.247619	0.999110
903.554800	0.998951
903.861941	0.999049
904.169041	0.999331
904.476101	0.998728
904.783121	0.998544
905.090100	0.998544
905.397039	0.999415
905.703938	0.998943
906.010796	0.998825
906.317614	0.998929
906.624391	0.999917
906.931129	0.999535
907.237826	0.999687
907.544483	0.999778
907.851099	0.998211
908.157675	0.999929
908.464211	1.000716
908.770707	0.997548
909.077163	1.000196
909.383578	0.999130
909.689954	0.998612
909.996289	0.999565
910.302584	0.999916
910.608839	1.000761
910.915054	0.999381
911.221229	1.000823
911.527363	0.997873
911.833458	0.999925
912.139513	0.999730
912.445527	1.001080
912.751502	1.000093
913.057436	0.999849
913.363331	1.000939
913.669186	0.999428
913.975000	1.000007
914.280775	1.000406
914.586510	0.999173
914.892205	0.998764
915.197859	0.998577
915.503475	0.999757
915.809050	0.999578
916.114585	0.997698
916.420081	0.999331
916.725536	1.000769
917.030952	0.998696
917.336328	0.999673
917.641665	0.998094
917.946961	0.998377
918.252218	0.998976
918.557435	0.998563
918.862612	0.999715
919.167750	0.999444
919.472848	0.999293
919.777906	0.999683
920.082925	1.000287
920.387904	0.999456
920.692843	0.999362
920.997743	0.999588
921.302603	1.000340
921.607423	0.998504
921.912204	0.999804
922.216946	1.000156
922.521647	0.999525
922.826310	0.999548
923.130932	1.000409
923.435516	0.999555
923.740059	0.999719
924.044564	0.998369
924.349028	0.998584
924.653454	0.999839
924.957840	0.998808
925.262186	0.999127
925.566493	0.999477
925.870761	0.998536
926.174989	0.998572
926.479178	1.000518
926.783328	1.000387
927.087438	0.999825
927.391509	0.998845
927.695541	1.000113
927.999533	1.000355
928.303486	0.999985
928.607400	0.999421
928.911275	0.999686
929.215110	1.000240
929.518906	1.000830
929.822663	1.000825
930.126381	1.000397
930.430060	0.999578
930.733699	1.000776
931.037299	1.000368
931.340861	1.000444
931.644383	0.999151
931.947866	1.000388
932.251309	1.000349
932.554714	0.998862
932.858080	1.000197
933.161407	0.998726
933.464694	0.999977
933.767943	1.000590
934.071153	0.999743
934.374323	1.000424
934.677455	0.999588
934.980548	0.999201
935.283602	0.999929
935.586617	0.999183
935.889593	1.000541
936.192530	0.999241
936.495428	1.000186
936.798287	0.998123
937.101108	1.000441
937.403890	0.999963
937.706632	1.001496
938.009336	1.000061
938.312002	1.000451
938.614628	0.999917
938.917216	0.999429
939.219765	0.998944
939.522275	1.000550
939.824747	0.999976
940.127179	0.999785
940.429573	0.999969
940.731929	0.999134
941.034246	0.999171
941.336524	0.999006
941.638763	0.998088
941.940964	0.999120
942.243126	0.999554
942.545250	0.999913
942.847335	0.999315
943.149381	0.999886
943.451389	0.998791
943.753359	1.000172
944.055290	1.001178
944.357182	1.000753
944.659036	1.000068
944.960851	0.999978
945.262628	0.999700
945.564367	0.999968
945.866067	0.999422
946.167729	0.999958
946.469352	1.000736
946.770937	0.999031
947.072484	1.000059
947.373992	1.000071
947.675462	1.000316
947.976893	0.998679
948.278286	1.000564
948.579641	1.001919
948.880958	0.998739
949.182236	1.000158
949.483476	1.001489
949.784678	0.999949
950.085841	0.999063
950.386967	0.999630
950.688054	0.999828
950.989103	0.999479
951.290114	0.999529
951.591087	1.000213
951.892021	0.999374
952.192917	1.000480
952.493776	0.999147
952.794596	0.999438
953.095378	0.999328
953.396122	0.999621
953.696828	0.999136
953.997496	1.000673
954.298126	1.001460
954.598718	0.999710
954.899272	1.000638
955.199788	1.000114
955.500266	1.000326
955.800706	1.000808
956.101108	0.999471
956.401472	1.001180
956.701798	0.999666
957.002087	0.999598
957.302337	0.999608
957.602550	0.999635
957.902724	0.999509
958.202861	0.999770
958.502960	0.999591
958.803022	1.000527
959.103045	0.998691
959.403031	1.000600
959.702979	0.999696
960.002889	0.999896
960.302762	0.998994
960.602596	0.999680
960.902393	0.999143
961.202153	0.999820
961.501875	0.999712
961.801559	1.000004
962.101205	0.999780
962.400814	1.000000
962.700385	1.000465
962.999918	0.999442
963.299414	0.999809
963.598873	1.000527
963.898293	1.000850
964.197677	0.999288
964.497022	1.000716
964.796331	0.999245
965.095601	1.000087
965.394835	1.000268
965.694030	1.000388
965.993189	0.999353
966.292309	1.000114
966.591393	0.998401
966.890439	1.000190
967.189447	0.999805
967.488419	1.000203
967.787353	0.998799
968.086249	0.999962
968.385108	0.999022
968.683930	1.000588
968.982714	0.998985
969.281462	0.998933
969.580172	0.999130
969.878844	1.000789
970.177480	0.999036
970.476078	1.000255
970.774639	1.000221
971.073162	0.998992
971.371649	0.999096
971.670098	0.999155
971.968510	1.000150
972.266885	1.000298
972.565223	0.999324
972.863524	0.999291
973.161788	0.999070
973.460014	1.001355
973.758204	0.999217
974.056356	0.999449
974.354471	0.999204
974.652550	1.000813
974.950591	0.999779
975.248595	0.999667
975.546563	1.000753
975.844493	1.000273
976.142386	0.998687
976.440243	0.999378
976.738062	1.000765
977.035845	0.999502
977.333590	1.000940
977.631299	0.998622
977.928971	0.999390
978.226606	0.998278
978.524204	0.999964
978.821765	1.000187
979.119290	1.000755
979.416777	0.998583
979.714228	0.999641
980.011642	0.999077
980.309020	0.998809
980.606360	0.999007
980.903664	0.999294
981.200931	0.999447
981.498162	0.999750
981.795356	0.999692
982.092513	1.000440
982.389633	1.000379
982.686717	0.999278
982.983764	0.998955
983.280775	0.999857
983.577749	0.999821
983.874686	0.999758
984.171587	0.998789
984.468451	0.998866
984.765279	1.001475
985.062070	1.000324
985.358824	0.999157
985.655543	1.000316
985.952224	1.000753
986.248869	0.998795
986.545478	1.000675
986.842050	0.999948
987.138586	0.999474
987.435086	0.998885
987.731549	1.000372
988.027975	0.999576
988.324366	0.999581
988.620719	1.000927
988.917037	0.999286
989.213318	1.000290
989.509563	0.999305
989.805772	0.998966
990.101944	1.000374
990.398080	1.000722
990.694180	1.000402
990.990244	0.998621
991.286271	1.001089
991.582262	1.000283
991.878217	0.999622
992.174136	1.000589
992.470019	0.999762
992.765865	1.000826
993.061676	0.999647
993.357450	1.000535
993.653188	1.001267
993.948890	1.000342
994.244556	0.999723
994.540186	0.999902
994.835780	0.999386
995.131337	1.000163
995.426859	1.000567
995.722345	0.999016
996.017795	1.000114
996.313208	1.000086
996.608586	1.000821
996.903928	1.000754
997.199234	0.999925
997.494504	1.000963
997.789738	0.998124
998.084936	1.000628
998.380099	1.000084
998.675225	1.000805
998.970316	0.999724
999.265371	0.998825
999.560390	1.000236
999.855373	0.999538
1000.150320	0.999406
1000.445232	1.000208
1000.740108	0.999581
1001.034948	0.999514
1001.329752	1.001395
1001.624521	0.999700
1001.919254	1.000083
1002.213951	0.999631
1002.508613	0.999798
1002.803239	0.999340
1003.097829	0.999965
1003.392384	1.000444
1003.686903	1.000556
1003.981386	1.000157
1004.275834	1.000705
1004.570246	0.999213
1004.864623	1.000321
1005.158964	0.999814
1005.453270	0.998808
1005.747540	1.000235
1006.041775	0.999992
1006.335974	0.999026
1006.630138	1.000080
1006.924266	0.998776
1007.218359	0.999200
1007.512416	1.001058
1007.806438	0.998601
1008.100425	0.999697
1008.394376	0.999559
1008.688292	0.999210
1008.982172	1.000516
1009.276017	1.001375
1009.569827	1.000924
1009.863602	0.998149
1010.157341	0.999676
1010.451045	0.999336
1010.744714	1.001032
1011.038347	1.000318
1011.331945	0.999437
1011.625508	0.999871
1011.919036	0.999777
1012.212528	1.000301
1012.505986	0.999682
1012.799408	1.001492
1013.092795	1.000237
1013.386147	1.000574
1013.679464	1.000596
1013.972745	1.000241
1014.265992	1.001049
1014.559204	0.999421
1014.852380	0.999878
1015.145521	0.999913
1015.438628	1.000685
1015.731699	1.000575
1016.024736	1.000715
1016.317737	1.000049
1016.610703	1.000037
1016.903635	0.999643
1017.196531	1.000353
1017.489393	0.999781
1017.782219	0.999867
1018.075011	1.000061
1018.367768	0.998997
1018.660490	1.000972
1018.953177	1.000972
1019.245829	1.000972
