Dividing Wavelength (nm)	Counts (n)	Blue Motor Position (mm): 24.900000	Red Motor Position (mm): 0.000000	
326.493990	1.000034
326.888308	1.000034
327.282561	1.000034
327.676750	1.001938
328.070874	1.000856
328.464933	1.001048
328.858929	1.001506
329.252859	1.000894
329.646726	1.000512
330.040528	0.999912
330.434265	1.000094
330.827938	1.000056
331.221547	1.001382
331.615091	1.002489
332.008571	1.002588
332.401986	1.000048
332.795338	1.000809
333.188625	1.001786
333.581847	1.000701
333.975006	1.001403
334.368100	1.001170
334.761129	1.000227
335.154095	1.002069
335.546996	1.001444
335.939833	0.998684
336.332606	0.999553
336.725315	0.997601
337.117960	0.998557
337.510540	0.997880
337.903056	0.999398
338.295508	0.998471
338.687896	0.999206
339.080220	0.999427
339.472480	0.997791
339.864676	0.998537
340.256807	0.997109
340.648875	0.998636
341.040879	0.999314
341.432818	0.999639
341.824694	0.999284
342.216506	0.999317
342.608253	0.999012
342.999937	0.998392
343.391557	0.997488
343.783113	1.000029
344.174605	1.000219
344.566033	0.998825
344.957397	0.999343
345.348697	0.998896
345.739934	0.998379
346.131106	0.998568
346.522215	0.998857
346.913260	0.999112
347.304241	0.997942
347.695159	0.998759
348.086012	0.999045
348.476802	0.998648
348.867528	0.998520
349.258191	0.998123
349.648789	0.999236
350.039324	0.998534
350.429796	0.997982
350.820203	0.997485
351.210548	0.998250
351.600828	0.998231
351.991045	0.997836
352.381198	0.998986
352.771288	0.998490
353.161314	0.999622
353.551276	0.997749
353.941175	0.996949
354.331010	0.999121
354.720782	0.997502
355.110490	0.997843
355.500135	0.997851
355.889717	0.997536
356.279235	0.997946
356.668689	0.997757
357.058080	0.998198
357.447408	0.996777
357.836672	0.998549
358.225873	0.998245
358.615010	0.997790
359.004084	0.996268
359.393095	0.998486
359.782043	0.997607
360.170927	0.997807
360.559748	0.998964
360.948505	0.996602
361.337199	0.997273
361.725830	0.998132
362.114398	0.996477
362.502903	0.996891
362.891344	0.995939
363.279722	0.996127
363.668037	0.997499
364.056289	0.997207
364.444478	0.998207
364.832603	0.995657
365.220665	0.997468
365.608665	0.996586
365.996601	0.995910
366.384474	0.996289
366.772284	0.996762
367.160031	0.996230
367.547715	0.995732
367.935336	0.994536
368.322893	0.993276
368.710388	0.992002
369.097820	0.991295
369.485189	0.988845
369.872495	0.987972
370.259738	0.984307
370.646918	0.981850
371.034035	0.980221
371.421090	0.976390
371.808081	0.972581
372.195010	0.970104
372.581875	0.964148
372.968678	0.959176
373.355418	0.955827
373.742096	0.948217
374.128710	0.943758
374.515262	0.940178
374.901751	0.933395
375.288177	0.929438
375.674540	0.922796
376.060841	0.916431
376.447079	0.909264
376.833254	0.902646
377.219367	0.898105
377.605417	0.886420
377.991404	0.883571
378.377329	0.876658
378.763191	0.869701
379.148991	0.861227
379.534727	0.853694
379.920402	0.845772
380.306013	0.841475
380.691563	0.829153
381.077049	0.822630
381.462474	0.818083
381.847835	0.807799
382.233134	0.801648
382.618371	0.803215
383.003545	0.785193
383.388657	0.783346
383.773706	0.774929
384.158693	0.772053
384.543618	0.766373
384.928480	0.757913
385.313280	0.748249
385.698017	0.747483
386.082692	0.735615
386.467305	0.734161
386.851856	0.728093
387.236344	0.723976
387.620770	0.717869
388.005133	0.712131
388.389435	0.706397
388.773674	0.703827
389.157851	0.694723
389.541965	0.692568
389.926018	0.700081
390.310008	0.686392
390.693936	0.683067
391.077802	0.675874
391.461606	0.677156
391.845348	0.666769
392.229027	0.665930
392.612645	0.664637
392.996200	0.650771
393.379694	0.644118
393.763125	0.634424
394.146494	0.639330
394.529801	0.629248
394.913047	0.621971
395.296230	0.627407
395.679351	0.619207
396.062410	0.615321
396.445408	0.618755
396.828343	0.613655
397.211217	0.609055
397.594028	0.620891
397.976778	0.611236
398.359466	0.607351
398.742092	0.602985
399.124656	0.615238
399.507158	0.604077
399.889598	0.600592
400.271977	0.591850
400.654294	0.595735
401.036549	0.594408
401.418742	0.598961
401.800874	0.584047
402.182944	0.581265
402.564952	0.573532
402.946898	0.575869
403.328783	0.576559
403.710606	0.587122
404.092367	0.561436
404.474067	0.567135
404.855705	0.566107
405.237282	0.575184
405.618797	0.561220
406.000250	0.557389
406.381642	0.546614
406.762972	0.552223
407.144240	0.550514
407.525447	0.550731
407.906593	0.543626
408.287677	0.538828
408.668700	0.547212
409.049661	0.541164
409.430560	0.535907
409.811399	0.544448
410.192176	0.526465
410.572891	0.533799
410.953545	0.522197
411.334138	0.535780
411.714669	0.527768
412.095139	0.540030
412.475547	0.523532
412.855894	0.526815
413.236180	0.524542
413.616405	0.530408
413.996568	0.520939
414.376670	0.527353
414.756711	0.531481
415.136691	0.528586
415.516609	0.520102
415.896466	0.516998
416.276262	0.513112
416.655997	0.514552
417.035670	0.496120
417.415283	0.487175
417.794834	0.492060
418.174324	0.498468
418.553753	0.507044
418.933121	0.489364
419.312428	0.483408
419.691674	0.488762
420.070859	0.477434
420.449983	0.484886
420.829045	0.474090
421.208047	0.483083
421.586988	0.476522
421.965867	0.475153
422.344686	0.464056
422.723444	0.476066
423.102141	0.493627
423.480777	0.466608
423.859352	0.486890
424.237866	0.464368
424.616319	0.465263
424.994712	0.455978
425.373044	0.466689
425.751314	0.454506
426.129524	0.471083
426.507673	0.454143
426.885762	0.448023
427.263789	0.453474
427.641756	0.463135
428.019662	0.453253
428.397508	0.452890
428.775292	0.457108
429.153016	0.448579
429.530679	0.455326
429.908282	0.448412
430.285824	0.458659
430.663305	0.437060
431.040726	0.458374
431.418086	0.458216
431.795385	0.449563
432.172624	0.448861
432.549802	0.449186
432.926920	0.448254
433.303977	0.447582
433.680974	0.444707
434.057910	0.443504
434.434786	0.442616
434.811601	0.445494
435.188355	0.427922
435.565050	0.437199
435.941683	0.438487
436.318257	0.422154
436.694770	0.423328
437.071222	0.421955
437.447614	0.425866
437.823946	0.432722
438.200218	0.422124
438.576429	0.431471
438.952580	0.424347
439.328670	0.420991
439.704700	0.427829
440.080670	0.429102
440.456580	0.409916
440.832429	0.418491
441.208218	0.428725
441.583947	0.418680
441.959616	0.417807
442.335224	0.423454
442.710773	0.414183
443.086261	0.412318
443.461689	0.425936
443.837057	0.416500
444.212365	0.405977
444.587612	0.413261
444.962800	0.403456
445.337927	0.404834
445.712995	0.431270
446.088002	0.392995
446.462949	0.403082
446.837837	0.408033
447.212664	0.397097
447.587431	0.388532
447.962139	0.359116
448.336786	0.318106
448.711374	0.328980
449.085901	0.373079
449.460369	0.377724
449.834776	0.381309
450.209124	0.361090
450.583412	0.353966
450.957640	0.347064
451.331808	0.358714
451.705917	0.382928
452.079965	0.387064
452.453954	0.375930
452.827883	0.383606
453.201752	0.378938
453.575562	0.390565
453.949311	0.379898
454.323001	0.386469
454.696632	0.383450
455.070202	0.376487
455.443713	0.369375
455.817164	0.364996
456.190556	0.361737
456.563888	0.359769
456.937160	0.358604
457.310373	0.376249
457.683526	0.376432
458.056619	0.383227
458.429653	0.384701
458.802628	0.389440
459.175542	0.384925
459.548398	0.369685
459.921194	0.364327
460.293930	0.366642
460.666607	0.347147
461.039224	0.338293
461.411782	0.336006
461.784280	0.336657
462.156719	0.342175
462.529099	0.348151
462.901419	0.365932
463.273680	0.372171
463.645882	0.373229
464.018024	0.382548
464.390106	0.377446
464.762130	0.366297
465.134094	0.355159
465.505999	0.332470
465.877845	0.310252
466.249631	0.300175
466.621358	0.309220
466.993026	0.324958
467.364634	0.333082
467.736184	0.345126
468.107674	0.357161
468.479105	0.361586
468.850477	0.370821
469.221790	0.380916
469.593043	0.394223
469.964238	0.403707
470.335373	0.407353
470.706449	0.411205
471.077467	0.416959
471.448425	0.391862
471.819324	0.377940
472.190164	0.381717
472.560945	0.410747
472.931667	0.435366
473.302330	0.443795
473.672934	0.459410
474.043479	0.456222
474.413965	0.463673
474.784393	0.473764
475.154761	0.475744
475.525070	0.480365
475.895321	0.490807
476.265513	0.493144
476.635645	0.495877
477.005719	0.504095
477.375734	0.508168
477.745691	0.510248
478.115588	0.514986
478.485427	0.519360
478.855207	0.517117
479.224928	0.514704
479.594591	0.513971
479.964194	0.524203
480.333739	0.531962
480.703226	0.542485
481.072653	0.549089
481.442022	0.555578
481.811333	0.560612
482.180584	0.570485
482.549777	0.582893
482.918912	0.592350
483.287988	0.600274
483.657005	0.607344
484.025964	0.619842
484.394864	0.626184
484.763706	0.634885
485.132489	0.644954
485.501213	0.653703
485.869879	0.659634
486.238487	0.670523
486.607036	0.676256
486.975527	0.687528
487.343959	0.692379
487.712333	0.700452
488.080648	0.707566
488.448905	0.715857
488.817104	0.723454
489.185244	0.728575
489.553326	0.735590
489.921350	0.737550
490.289315	0.736487
490.657222	0.739949
491.025070	0.749424
491.392861	0.756866
491.760593	0.767610
492.128267	0.777548
492.495883	0.785978
492.863440	0.795392
493.230939	0.803813
493.598380	0.811193
493.965763	0.818143
494.333088	0.823364
494.700354	0.830919
495.067563	0.835325
495.434713	0.842761
495.801805	0.847751
496.168839	0.853076
496.535815	0.858664
496.902733	0.862932
497.269593	0.868998
497.636395	0.872197
498.003139	0.878069
498.369825	0.883877
498.736453	0.887756
499.103023	0.891240
499.469535	0.896285
499.835989	0.901086
500.202385	0.904921
500.568723	0.909077
500.935003	0.911909
501.301226	0.917098
501.667390	0.918752
502.033497	0.921963
502.399546	0.925779
502.765537	0.929376
503.131470	0.932743
503.497345	0.934960
503.863163	0.938842
504.228923	0.940960
504.594625	0.943139
504.960269	0.946884
505.325856	0.949101
505.691385	0.951370
506.056856	0.953607
506.422270	0.955225
506.787625	0.958089
507.152924	0.959468
507.518164	0.961409
507.883347	0.963447
508.248472	0.965239
508.613540	0.966216
508.978550	0.968292
509.343503	0.969760
509.708398	0.970850
510.073236	0.972927
510.438016	0.972974
510.802738	0.974790
511.167403	0.976312
511.532010	0.977429
511.896561	0.977521
512.261053	0.978842
512.625488	0.979492
512.989866	0.980660
513.354186	0.981210
513.718449	0.982233
514.082655	0.982529
514.446803	0.983929
514.810894	0.985281
515.174927	0.984712
515.538904	0.985877
515.902822	0.986362
516.266684	0.986790
516.630488	0.987439
516.994235	0.987448
517.357925	0.988197
517.721558	0.987905
518.085133	0.988088
518.448651	0.988861
518.812112	0.989791
519.175516	0.988881
519.538863	0.988823
519.902152	0.990169
520.265385	0.990012
520.628560	0.989480
520.991678	0.990224
521.354739	0.991153
521.717743	0.991094
522.080690	0.990387
522.443580	0.991102
522.806413	0.990895
523.169189	0.991766
523.531908	0.990264
523.894569	0.991736
524.257174	0.991543
524.619722	0.992094
524.982213	0.991711
525.344647	0.991244
525.707025	0.992370
526.069345	0.991576
526.431608	0.991956
526.793815	0.992653
527.155964	0.993202
527.518057	0.993195
527.880093	0.991967
528.242072	0.992418
528.603995	0.993222
528.965860	0.992864
529.327669	0.993319
529.689421	0.992418
530.051117	0.993653
530.412755	0.993215
530.774337	0.992973
531.135862	0.993840
531.497331	0.993141
531.858743	0.993498
532.220098	0.993171
532.581396	0.993295
532.942638	0.993393
533.303824	0.994330
533.664953	0.993967
534.026025	0.994395
534.387040	0.993678
534.747999	0.993523
535.108902	0.993895
535.469748	0.994112
535.830537	0.994030
536.191270	0.993405
536.551947	0.993421
536.912567	0.993721
537.273131	0.994122
537.633638	0.993587
537.994089	0.993864
538.354483	0.994308
538.714821	0.993534
539.075103	0.993911
539.435328	0.993618
539.795497	0.993497
540.155609	0.994354
540.515665	0.994390
540.875665	0.994172
541.235609	0.995023
541.595496	0.993797
541.955328	0.994052
542.315102	0.993490
542.674821	0.994760
543.034483	0.994437
543.394090	0.993576
543.753640	0.994097
544.113134	0.993653
544.472571	0.994719
544.831953	0.993779
545.191278	0.994252
545.550548	0.994312
545.909761	0.993837
546.268918	0.994950
546.628019	0.994777
546.987064	0.993649
547.346053	0.993930
547.704986	0.993762
548.063863	0.994100
548.422684	0.994135
548.781449	0.994007
549.140158	0.994325
549.498811	0.993736
549.857408	0.994191
550.215949	0.993147
550.574434	0.993869
550.932864	0.993905
551.291237	0.994035
551.649555	0.994440
552.007817	0.993905
552.366022	0.994215
552.724173	0.993963
553.082267	0.993726
553.440305	0.994086
553.798288	0.992791
554.156215	0.993639
554.514086	0.994666
554.871902	0.994054
555.229661	0.993975
555.587365	0.994446
555.945014	0.994427
556.302606	0.993539
556.660143	0.994641
557.017625	0.994179
557.375050	0.993739
557.732421	0.994498
558.089735	0.993513
558.446994	0.993626
558.804197	0.994374
559.161345	0.993598
559.518437	0.994108
559.875474	0.994386
560.232455	0.994520
560.589381	0.994496
560.946251	0.993746
561.303065	0.993788
561.659825	0.993767
562.016528	0.994816
562.373177	0.993960
562.729770	0.993828
563.086307	0.993005
563.442789	0.994317
563.799216	0.993845
564.155587	0.993895
564.511904	0.994732
564.868164	0.992985
565.224370	0.994013
565.580520	0.994381
565.936615	0.993671
566.292654	0.993508
566.648638	0.994747
567.004567	0.993483
567.360441	0.994593
567.716260	0.993603
568.072023	0.993436
568.427732	0.993861
568.783385	0.994053
569.138982	0.994168
569.494525	0.994476
569.850013	0.994821
570.205445	0.994324
570.560823	0.993897
570.916145	0.993526
571.271412	0.994709
571.626625	0.995027
571.981782	0.994472
572.336884	0.995161
572.691931	0.994399
573.046923	0.994722
573.401860	0.994434
573.756743	0.994218
574.111570	0.994250
574.466342	0.994262
574.821059	0.994184
575.175722	0.994588
575.530330	0.994123
575.884882	0.993735
576.239380	0.994449
576.593823	0.993894
576.948211	0.994496
577.302544	0.993995
577.656823	0.994354
578.011047	0.993831
578.365216	0.994655
578.719330	0.994732
579.073389	0.993532
579.427394	0.994553
579.781344	0.995028
580.135239	0.993266
580.489080	0.993726
580.842866	0.994260
581.196597	0.994059
581.550273	0.994209
581.903895	0.993796
582.257463	0.993318
582.610975	0.994107
582.964434	0.994004
583.317837	0.994003
583.671186	0.994127
584.024481	0.994006
584.377721	0.994222
584.730906	0.994135
585.084037	0.995083
585.437113	0.994944
585.790135	0.994061
586.143103	0.994877
586.496016	0.994807
586.848874	0.994370
587.201679	0.994087
587.554428	0.994046
587.907124	0.994786
588.259765	0.994710
588.612352	0.994763
588.964884	0.994023
589.317362	0.994566
589.669786	0.994377
590.022155	0.994079
590.374470	0.994026
590.726731	0.994061
591.078937	0.994965
591.431090	0.994233
591.783188	0.993350
592.135232	0.994871
592.487222	0.994274
592.839157	0.993819
593.191038	0.993764
593.542866	0.994265
593.894639	0.993876
594.246358	0.994573
594.598022	0.994021
594.949633	0.995021
595.301190	0.993573
595.652692	0.993502
596.004141	0.993896
596.355535	0.994027
596.706876	0.994945
597.058162	0.994587
597.409395	0.994558
597.760573	0.994020
598.111698	0.993786
598.462768	0.993746
598.813785	0.993338
599.164748	0.993733
599.515657	0.994632
599.866511	0.994823
600.217312	0.994954
600.568060	0.994267
600.918753	0.993986
601.269392	0.994315
601.619978	0.994689
601.970510	0.993475
602.320988	0.994628
602.671412	0.993516
603.021783	0.994662
603.372100	0.994362
603.722363	0.994941
604.072572	0.993791
604.422728	0.993495
604.772830	0.993637
605.122878	0.994404
605.472872	0.994887
605.822813	0.993733
606.172701	0.993694
606.522534	0.994513
606.872314	0.995490
607.222041	0.994810
607.571714	0.994785
607.921333	0.994404
608.270899	0.993999
608.620411	0.994263
608.969870	0.994738
609.319276	0.994818
609.668627	0.994877
610.017926	0.994524
610.367171	0.994247
610.716362	0.994263
611.065500	0.993704
611.414585	0.994271
611.763616	0.993809
612.112594	0.994664
612.461518	0.993453
612.810389	0.994612
613.159207	0.994292
613.507971	0.993726
613.856682	0.995422
614.205340	0.992883
614.553945	0.993658
614.902496	0.994874
615.250994	0.994000
615.599439	0.994294
615.947830	0.993563
616.296169	0.994038
616.644454	0.994329
616.992686	0.994434
617.340864	0.995161
617.688990	0.993808
618.037063	0.993674
618.385082	0.994193
618.733048	0.993165
619.080961	0.993943
619.428821	0.994004
619.776628	0.993743
620.124382	0.994756
620.472083	0.994873
620.819731	0.995105
621.167326	0.994996
621.514868	0.994622
621.862357	0.994661
622.209793	0.994507
622.557176	0.993500
622.904506	0.993456
623.251783	0.993838
623.599007	0.993950
623.946179	0.994055
624.293297	0.994839
624.640363	0.994579
624.987376	0.993811
625.334336	0.993764
625.681243	0.994517
626.028097	0.994178
626.374899	0.994443
626.721647	0.994735
627.068343	0.994752
627.414987	0.994529
627.761577	0.993103
628.108115	0.994087
628.454600	0.994619
628.801032	0.994732
629.147412	0.994632
629.493739	0.995251
629.840014	0.994329
630.186236	0.994329
630.532405	0.994073
630.878521	0.994004
631.224585	0.994616
631.570597	0.993907
631.916556	0.994411
632.262462	0.993675
632.608316	0.994873
632.954117	0.994183
633.299866	0.993985
633.645562	0.993993
633.991206	0.994843
634.336797	0.995174
634.682336	0.995680
635.027823	0.994401
635.373257	0.994487
635.718639	0.995994
636.063968	0.994726
636.409245	0.994369
636.754470	0.994499
637.099642	0.994397
637.444762	0.995246
637.789829	0.994422
638.134845	0.994131
638.479808	0.994574
638.824719	0.994819
639.169577	0.994375
639.514383	0.995246
639.859137	0.995390
640.203839	0.995261
640.548489	0.995038
640.893086	0.994570
641.237632	0.995141
641.582125	0.994945
641.926566	0.995370
642.270955	0.994707
642.615292	0.994738
642.959576	0.994810
643.303809	0.995899
643.647990	0.994895
643.992118	0.994578
644.336195	0.994078
644.680219	0.995076
645.024192	0.994590
645.368112	0.993933
645.711981	0.994857
646.055797	0.995004
646.399562	0.994081
646.743274	0.995422
647.086935	0.994468
647.430544	0.994260
647.774101	0.994143
648.117606	0.994834
648.461059	0.995015
648.804460	0.994715
649.147810	0.994348
649.491108	0.994243
649.834354	0.994486
650.177548	0.994519
650.520690	0.994876
650.863781	0.994389
651.206820	0.994514
651.549807	0.995014
651.892742	0.994961
652.235626	0.994597
652.578458	0.995162
652.921238	0.995246
653.263967	0.995413
653.606644	0.994225
653.949269	0.994952
654.291843	0.994012
654.634365	0.995044
654.976836	0.993776
655.319255	0.995269
655.661622	0.995243
656.003938	0.994831
656.346203	0.994566
656.688416	0.995177
657.030577	0.994227
657.372687	0.995344
657.714746	0.994434
658.056753	0.994993
658.398708	0.994101
658.740612	0.995586
659.082465	0.994813
659.424266	0.994635
659.766016	0.994575
660.107715	0.995932
660.449362	0.994926
660.790958	0.993966
661.132503	0.995313
661.473996	0.994739
661.815438	0.995777
662.156829	0.994811
662.498168	0.994777
662.839456	0.994328
663.180693	0.995105
663.521879	0.994895
663.863013	0.994756
664.204097	0.993881
664.545129	0.994286
664.886110	0.995006
665.227040	0.994437
665.567918	0.994077
665.908746	0.994223
666.249522	0.993857
666.590248	0.994364
666.930922	0.994943
667.271545	0.995123
667.612118	0.994307
667.952639	0.994166
668.293109	0.994549
668.633528	0.994042
668.973896	0.994903
669.314213	0.994404
669.654480	0.995148
669.994695	0.993612
670.334859	0.994650
670.674973	0.994430
671.015035	0.994746
671.355047	0.994803
671.695008	0.994258
672.034918	0.994066
672.374777	0.994853
672.714585	0.994871
673.054342	0.994777
673.394049	0.994446
673.733705	0.993726
674.073310	0.994967
674.412864	0.994421
674.752368	0.993648
675.091820	0.995353
675.431223	0.994662
675.770574	0.993232
676.109875	0.994839
676.449125	0.994412
676.788324	0.994053
677.127473	0.995734
677.466571	0.995111
677.805619	0.995163
678.144616	0.994076
678.483562	0.995234
678.822458	0.994863
679.161303	0.994108
679.500098	0.994565
679.838842	0.995027
680.177535	0.993742
680.516179	0.993916
680.854771	0.994639
681.193314	0.995107
681.531805	0.994219
681.870247	0.994466
682.208638	0.994101
682.546978	0.994381
682.885268	0.994233
683.223508	0.993984
683.561697	0.994189
683.899836	0.994435
684.237925	0.993588
684.575963	0.994323
684.913951	0.994870
685.251889	0.994596
685.589776	0.994372
685.927614	0.994306
686.265401	0.994690
686.603137	0.993688
686.940824	0.993965
687.278460	0.994720
687.616046	0.994110
687.953582	0.993966
688.291068	0.995050
688.628504	0.993689
688.965889	0.994236
689.303224	0.992947
689.640510	0.994272
689.977745	0.993740
690.314930	0.994907
690.652065	0.993872
690.989150	0.994012
691.326185	0.994893
691.663170	0.994088
692.000105	0.994599
692.336990	0.995090
692.673825	0.994839
693.010610	0.994714
693.347345	0.994640
693.684030	0.994597
694.020665	0.994591
694.357251	0.994679
694.693786	0.994726
695.030272	0.994124
695.366707	0.994648
695.703093	0.994148
696.039429	0.993666
696.375716	0.994709
696.711952	0.994177
697.048139	0.995066
697.384276	0.995335
697.720363	0.994525
698.056400	0.993901
698.392388	0.994049
698.728326	0.994296
699.064214	0.995102
699.400053	0.994619
699.735842	0.995928
700.071581	0.995154
700.407270	0.993924
700.742910	0.995715
701.078501	0.994468
701.414042	0.995845
701.749533	0.993889
702.084974	0.994861
702.420366	0.994133
702.755709	0.994833
703.091002	0.995682
703.426246	0.995136
703.761440	0.994694
704.096584	0.994807
704.431679	0.993936
704.766725	0.995072
705.101721	0.995669
705.436668	0.995018
705.771565	0.995460
706.106413	0.993473
706.441212	0.994723
706.775961	0.995483
707.110661	0.993736
707.445311	0.994659
707.779913	0.995495
708.114465	0.995249
708.448967	0.994548
708.783421	0.995019
709.117825	0.994834
709.452180	0.995240
709.786485	0.995416
710.120742	0.994935
710.454949	0.993842
710.789107	0.994680
711.123216	0.994458
711.457275	0.993610
711.791286	0.994617
712.125247	0.996030
712.459159	0.993558
712.793023	0.994138
713.126837	0.994453
713.460602	0.993572
713.794318	0.993151
714.127985	0.992982
714.461602	0.994578
714.795171	0.993361
715.128691	0.994199
715.462162	0.994690
715.795584	0.994714
716.128957	0.994984
716.462281	0.994329
716.795556	0.994522
717.128782	0.995010
717.461960	0.995695
717.795088	0.994182
718.128167	0.995904
718.461198	0.995413
718.794180	0.995046
719.127113	0.995051
719.459997	0.994592
719.792833	0.995156
720.125619	0.995115
720.458357	0.994465
720.791046	0.995950
721.123686	0.994959
721.456278	0.994819
721.788821	0.994336
722.121315	0.995976
722.453761	0.994900
722.786158	0.994547
723.118506	0.995388
723.450805	0.994521
723.783056	0.995297
724.115259	0.995118
724.447412	0.995258
724.779518	0.995683
725.111574	0.994699
725.443582	0.996065
725.775542	0.994505
726.107453	0.995548
726.439315	0.995617
726.771129	0.995129
727.102895	0.994838
727.434612	0.994708
727.766281	0.994375
728.097901	0.994914
728.429473	0.994941
728.760996	0.993779
729.092471	0.993841
729.423897	0.995109
729.755276	0.994580
730.086606	0.993509
730.417887	0.994697
730.749120	0.995536
731.080305	0.994617
731.411442	0.993718
731.742530	0.993616
732.073570	0.994746
732.404562	0.994940
732.735506	0.994147
733.066401	0.994058
733.397249	0.994323
733.728048	0.994654
734.058798	0.994918
734.389501	0.995545
734.720156	0.994693
735.050762	0.995945
735.381320	0.994726
735.711831	0.995470
736.042293	0.995110
736.372707	0.995015
736.703073	0.994313
737.033391	0.995203
737.363661	0.995228
737.693883	0.995443
738.024056	0.995007
738.354182	0.995851
738.684260	0.995620
739.014290	0.994203
739.344272	0.995494
739.674207	0.995250
740.004093	0.995098
740.333931	0.995071
740.663722	0.995046
740.993464	0.994956
741.323159	0.995175
741.652806	0.995346
741.982405	0.995115
742.311956	0.995165
742.641460	0.996153
742.970915	0.994971
743.300323	0.993864
743.629683	0.994422
743.958996	0.996751
744.288260	0.994569
744.617477	0.994713
744.946647	0.994887
745.275768	0.996046
745.604842	0.994570
745.933869	0.995575
746.262847	0.995910
746.591778	0.994428
746.920662	0.995255
747.249498	0.996536
747.578286	0.997334
747.907027	0.995079
748.235720	0.996080
748.564365	0.995663
748.892963	0.995404
749.221514	0.995638
749.550017	0.995369
749.878473	0.995417
750.206881	0.996276
750.535242	0.995668
750.863555	0.995300
751.191821	0.994961
751.520039	0.996209
751.848210	0.994077
752.176334	0.994967
752.504411	0.994920
752.832440	0.994529
753.160421	0.996192
753.488356	0.996325
753.816243	0.995951
754.144082	0.995478
754.471875	0.995956
754.799620	0.995784
755.127318	0.995965
755.454969	0.995631
755.782572	0.997469
756.110129	0.996037
756.437638	0.996476
756.765100	0.995759
757.092515	0.995432
757.419882	0.996251
757.747203	0.994978
758.074477	0.995763
758.401703	0.995862
758.728882	0.995043
759.056014	0.995347
759.383099	0.995208
759.710138	0.995484
760.037129	0.995333
760.364073	0.996300
760.690970	0.995267
761.017820	0.994384
761.344623	0.995532
761.671379	0.996470
761.998088	0.995246
762.324751	0.995700
762.651366	0.994578
762.977935	0.993314
763.304456	0.993077
763.630931	0.991429
763.957359	0.991047
764.283740	0.991037
764.610074	0.993728
764.936362	0.993914
765.262602	0.993921
765.588796	0.994110
765.914943	0.994644
766.241044	0.994560
766.567097	0.995251
766.893104	0.995282
767.219064	0.995388
767.544978	0.995835
767.870845	0.996462
768.196665	0.995555
768.522438	0.996883
768.848165	0.996632
769.173846	0.996139
769.499479	0.996549
769.825066	0.997782
770.150607	0.996719
770.476101	0.997148
770.801548	0.997636
771.126949	0.996856
771.452303	0.997348
771.777611	0.996547
772.102872	0.996064
772.428087	0.996586
772.753256	0.997207
773.078378	0.997098
773.403453	0.997491
773.728482	0.997614
774.053465	0.997121
774.378401	0.996722
774.703291	0.998007
775.028135	0.997633
775.352932	0.996144
775.677683	0.998325
776.002388	0.997252
776.327046	0.996881
776.651658	0.998396
776.976224	0.997918
777.300743	0.995929
777.625216	0.996234
777.949643	0.997376
778.274024	0.996008
778.598359	0.997152
778.922647	0.998143
779.246889	0.996552
779.571086	0.997354
779.895236	0.997289
780.219339	0.998039
780.543397	0.996284
780.867409	0.996329
781.191374	0.996490
781.515294	0.997931
781.839167	0.997942
782.162995	0.996534
782.486776	0.996083
782.810511	0.996787
783.134201	0.996861
783.457844	0.998172
783.781441	0.997087
784.104993	0.996395
784.428498	0.996837
784.751958	0.998305
785.075372	0.998695
785.398739	0.996926
785.722061	0.996849
786.045337	0.997620
786.368568	0.997892
786.691752	0.996417
787.014891	0.996663
787.337983	0.995393
787.661030	0.996955
787.984031	0.996392
788.306987	0.996902
788.629897	0.995437
788.952760	0.996950
789.275579	0.996534
789.598351	0.996010
789.921078	0.996838
790.243759	0.996323
790.566395	0.997051
790.888984	0.997414
791.211529	0.996659
791.534027	0.997553
791.856480	0.997105
792.178888	0.996787
792.501249	0.997331
792.823566	0.998215
793.145836	0.997622
793.468062	0.998315
793.790241	0.998020
794.112375	0.996869
794.434464	0.997636
794.756507	0.998418
795.078505	0.997298
795.400457	0.997494
795.722364	0.997038
796.044226	0.997173
796.366042	0.995671
796.687812	0.995588
797.009538	0.996676
797.331218	0.997420
797.652852	0.997425
797.974442	0.996579
798.295986	0.996985
798.617484	0.996476
798.938938	0.997503
799.260346	0.996918
799.581709	0.996278
799.903026	0.997391
800.224299	0.996848
800.545526	0.996853
800.866708	0.997262
801.187845	0.997330
801.508936	0.997808
801.829983	0.997933
802.150984	0.998430
802.471940	0.997763
802.792851	0.996917
803.113717	0.998241
803.434538	0.998766
803.755314	0.997954
804.076045	0.997181
804.396731	0.997128
804.717372	0.996988
805.037967	0.997804
805.358518	0.997933
805.679024	0.996893
805.999485	0.997578
806.319901	0.997717
806.640272	0.998884
806.960598	0.997979
807.280879	0.997983
807.601115	0.997749
807.921306	0.998143
808.241453	0.997424
808.561554	0.997511
808.881611	0.997586
809.201623	0.997520
809.521590	0.998273
809.841513	0.998819
810.161390	0.996373
810.481223	0.997526
810.801011	0.998005
811.120755	0.998920
811.440453	0.997040
811.760107	0.998190
812.079716	0.998928
812.399281	0.998315
812.718801	0.997624
813.038276	0.997467
813.357707	0.997589
813.677093	0.997876
813.996434	0.998414
814.315731	0.998165
814.634983	0.998204
814.954191	0.998262
815.273354	0.997032
815.592473	0.998068
815.911547	0.997933
816.230577	0.997234
816.549562	0.998056
816.868502	0.995745
817.187399	0.997666
817.506250	0.998091
817.825058	0.996182
818.143821	0.996898
818.462539	0.997488
818.781213	0.996628
819.099843	0.996184
819.418429	0.995341
819.736970	0.995850
820.055466	0.993776
820.373919	0.994054
820.692327	0.992581
821.010691	0.992147
821.329011	0.990184
821.647286	0.987599
821.965517	0.984420
822.283704	0.981883
822.601847	0.980833
822.919945	0.980692
823.237999	0.982392
823.556010	0.984006
823.873976	0.985699
824.191897	0.988391
824.509775	0.989762
824.827609	0.990150
825.145398	0.991058
825.463144	0.989814
825.780845	0.991248
826.098502	0.990305
826.416116	0.990384
826.733685	0.989206
827.051210	0.986127
827.368692	0.987415
827.686129	0.988273
828.003522	0.990607
828.320872	0.991553
828.638177	0.992669
828.955439	0.994313
829.272656	0.995109
829.589830	0.994182
829.906960	0.996115
830.224046	0.996001
830.541088	0.996196
830.858086	0.996636
831.175041	0.997459
831.491952	0.996351
831.808819	0.996491
832.125642	0.996324
832.442421	0.996312
832.759157	0.996412
833.075849	0.994128
833.392497	0.993577
833.709101	0.990732
834.025662	0.991745
834.342179	0.991587
834.658653	0.993020
834.975083	0.993554
835.291469	0.994455
835.607811	0.995729
835.924110	0.995423
836.240366	0.997118
836.556578	0.997628
836.872746	0.997815
837.188871	0.997473
837.504952	0.997907
837.820990	0.997752
838.136984	0.996669
838.452935	0.997998
838.768842	0.998111
839.084706	0.998162
839.400526	0.997856
839.716303	0.995079
840.032037	0.995453
840.347727	0.994422
840.663373	0.995587
840.978977	0.996367
841.294537	0.997117
841.610054	0.997762
841.925527	0.998616
842.240957	0.998073
842.556344	0.997778
842.871687	0.998467
843.186987	0.998373
843.502244	0.997822
843.817458	0.998459
844.132629	0.998394
844.447756	0.999244
844.762840	0.998894
845.077881	0.999747
845.392879	0.997221
845.707833	0.999628
846.022745	0.998678
846.337613	0.998780
846.652438	0.998759
846.967221	0.998476
847.281960	0.999673
847.596656	0.998983
847.911309	1.000309
848.225919	0.998674
848.540485	0.998720
848.855009	1.000562
849.169490	0.998830
849.483928	0.999293
849.798323	0.998039
850.112675	0.999767
850.426984	0.998841
850.741251	1.000028
851.055474	0.998384
851.369654	1.000164
851.683792	0.998581
851.997887	1.000169
852.311938	0.999765
852.625947	0.998299
852.939914	0.997646
853.253837	1.000117
853.567718	0.998745
853.881555	0.999281
854.195350	0.998834
854.509103	0.999490
854.822812	0.999395
855.136479	0.999536
855.450103	0.998972
855.763685	0.999753
856.077224	1.000018
856.390720	0.999309
856.704173	0.999525
857.017584	1.000278
857.330953	0.998210
857.644278	0.999504
857.957561	0.999002
858.270802	0.998915
858.584000	0.998627
858.897155	0.998260
859.210268	0.999550
859.523339	0.999447
859.836367	1.000202
860.149352	0.998672
860.462295	0.999154
860.775195	0.999422
861.088054	0.998328
861.400869	0.999644
861.713642	0.997940
862.026373	0.998514
862.339062	0.999456
862.651708	0.999342
862.964312	0.999258
863.276873	0.999343
863.589392	0.998448
863.901869	0.999076
864.214303	0.998622
864.526696	0.999525
864.839045	0.999691
865.151353	0.998245
865.463619	0.998854
865.775842	0.999518
866.088023	1.001521
866.400162	0.998950
866.712258	0.999635
867.024313	0.999338
867.336325	1.000177
867.648296	0.999941
867.960224	0.998996
868.272110	0.998703
868.583954	0.998276
868.895755	0.999582
869.207515	0.998361
869.519233	0.999233
869.830909	0.998649
870.142542	0.997681
870.454134	0.998842
870.765684	0.998513
871.077191	0.999471
871.388657	0.998076
871.700081	0.999927
872.011463	0.998954
872.322803	0.997875
872.634101	0.997833
872.945357	0.997454
873.256571	0.997886
873.567744	0.999032
873.878874	0.998539
874.189963	0.998070
874.501010	1.000482
874.812015	0.998586
875.122979	0.998215
875.433900	0.998364
875.744780	0.998885
876.055618	0.997981
876.366415	0.997469
876.677169	0.998109
876.987882	0.999061
877.298554	0.998863
877.609183	0.998676
877.919771	0.997501
878.230317	0.998596
878.540822	0.996532
878.851285	0.996599
879.161707	0.996912
879.472087	0.997430
879.782425	0.994017
880.092722	0.993186
880.402977	0.990838
880.713191	0.988506
881.023363	0.985182
881.333494	0.983468
881.643583	0.984049
881.953631	0.983238
882.263637	0.982373
882.573602	0.983314
882.883526	0.985486
883.193408	0.988519
883.503248	0.988701
883.813048	0.989252
884.122806	0.991642
884.432522	0.991943
884.742197	0.994771
885.051831	0.993366
885.361424	0.995166
885.670975	0.996074
885.980485	0.995989
886.289954	0.995766
886.599382	0.996122
886.908768	0.997699
887.218113	0.996643
887.527417	0.997115
887.836680	0.996990
888.145901	0.998366
888.455082	0.998852
888.764221	0.998045
889.073319	0.997224
889.382376	0.998359
889.691392	0.996909
890.000366	0.998439
890.309300	0.998076
890.618193	0.998145
890.927044	0.997894
891.235855	0.998183
891.544625	0.997204
891.853353	0.997473
892.162041	0.996984
892.470687	0.997872
892.779293	0.996398
893.087858	0.997025
893.396381	0.995938
893.704864	0.995834
894.013306	0.994900
894.321707	0.993389
894.630068	0.992418
894.938387	0.991912
895.246665	0.991261
895.554903	0.992007
895.863100	0.993317
896.171256	0.994104
896.479371	0.992965
896.787446	0.994840
897.095480	0.995606
897.403473	0.996392
897.711425	0.997371
898.019336	0.998298
898.327207	0.997733
898.635038	0.995925
898.942827	0.997949
899.250576	0.997876
899.558284	0.998346
899.865952	0.996939
900.173579	0.997298
900.481165	0.998475
900.788711	0.998165
901.096216	0.998051
901.403681	0.997999
901.711105	0.997633
902.018489	0.998136
902.325832	0.998313
902.633135	0.997881
902.940397	0.998411
903.247619	0.997022
903.554800	0.995300
903.861941	0.994367
904.169041	0.991465
904.476101	0.989760
904.783121	0.988778
905.090100	0.990125
905.397039	0.991894
905.703938	0.993394
906.010796	0.993978
906.317614	0.994122
906.624391	0.995137
906.931129	0.998219
907.237826	0.997359
907.544483	0.997418
907.851099	0.997345
908.157675	0.997046
908.464211	0.998922
908.770707	0.998594
909.077163	0.998930
909.383578	0.999469
909.689954	0.998084
909.996289	0.998234
910.302584	0.999250
910.608839	1.000814
910.915054	0.999255
911.221229	1.000409
911.527363	0.997825
911.833458	0.999384
912.139513	0.998508
912.445527	0.997747
912.751502	0.999097
913.057436	0.997370
913.363331	0.998789
913.669186	0.998190
913.975000	0.998177
914.280775	0.997887
914.586510	0.996146
914.892205	0.995173
915.197859	0.994952
915.503475	0.992854
915.809050	0.991895
916.114585	0.988855
916.420081	0.989255
916.725536	0.990792
917.030952	0.991430
917.336328	0.991195
917.641665	0.991065
917.946961	0.991955
918.252218	0.992934
918.557435	0.994390
918.862612	0.996426
919.167750	0.996476
919.472848	0.996670
919.777906	0.997815
920.082925	0.997900
920.387904	0.997869
920.692843	0.997545
920.997743	0.997449
921.302603	0.997603
921.607423	0.997977
921.912204	0.997842
922.216946	0.999719
922.521647	0.998371
922.826310	0.998431
923.130932	0.998743
923.435516	1.000433
923.740059	0.998856
924.044564	0.997795
924.349028	0.998643
924.653454	0.999556
924.957840	0.998450
925.262186	0.999094
925.566493	0.998818
925.870761	0.998031
926.174989	0.999097
926.479178	0.998586
926.783328	0.998856
927.087438	0.999136
927.391509	0.999866
927.695541	0.999629
927.999533	0.999379
928.303486	0.999454
928.607400	1.001134
928.911275	1.000175
929.215110	1.001485
929.518906	1.000510
929.822663	1.000579
930.126381	1.001741
930.430060	1.000034
930.733699	1.000048
931.037299	1.000955
931.340861	1.000001
931.644383	0.999338
931.947866	0.999915
932.251309	0.999845
932.554714	0.998709
932.858080	1.000371
933.161407	0.999273
933.464694	1.000203
933.767943	0.999642
934.071153	1.000278
934.374323	1.001833
934.677455	0.998854
934.980548	1.000286
935.283602	1.000596
935.586617	0.998805
935.889593	1.000339
936.192530	1.000556
936.495428	0.999051
936.798287	0.998545
937.101108	0.999597
937.403890	0.999949
937.706632	1.001073
938.009336	0.999962
938.312002	0.998038
938.614628	0.999990
938.917216	0.998568
939.219765	0.998374
939.522275	0.999055
939.824747	0.999301
940.127179	0.999170
940.429573	1.000657
940.731929	0.999249
941.034246	0.998219
941.336524	0.997688
941.638763	0.998165
941.940964	0.999065
942.243126	0.998542
942.545250	0.999157
942.847335	0.999367
943.149381	1.000086
943.451389	0.998875
943.753359	0.999523
944.055290	0.999961
944.357182	1.000486
944.659036	0.999357
944.960851	1.000251
945.262628	0.999724
945.564367	0.999967
945.866067	0.999992
946.167729	1.000558
946.469352	0.999835
946.770937	0.997717
947.072484	1.000275
947.373992	0.999622
947.675462	0.999175
947.976893	0.999484
948.278286	1.001684
948.579641	1.000548
948.880958	1.000304
949.182236	0.999401
949.483476	0.999875
949.784678	0.999731
950.085841	0.998827
950.386967	1.000180
950.688054	0.999209
950.989103	0.997553
951.290114	0.998701
951.591087	0.999693
951.892021	0.999008
952.192917	0.998770
952.493776	0.999966
952.794596	0.999158
953.095378	0.999640
953.396122	1.000671
953.696828	0.999560
953.997496	0.999724
954.298126	1.001092
954.598718	0.999671
954.899272	1.001146
955.199788	0.999237
955.500266	0.999958
955.800706	1.000114
956.101108	0.999166
956.401472	1.002039
956.701798	1.000515
957.002087	0.999949
957.302337	0.999453
957.602550	1.000168
957.902724	1.000067
958.202861	0.999738
958.502960	0.999185
958.803022	1.000086
959.103045	1.000284
959.403031	1.000581
959.702979	1.001145
960.002889	0.999763
960.302762	1.000172
960.602596	1.001297
960.902393	1.000267
961.202153	1.001032
961.501875	1.001560
961.801559	1.000658
962.101205	0.999483
962.400814	1.000590
962.700385	1.000364
962.999918	0.999952
963.299414	0.998731
963.598873	1.002652
963.898293	0.999796
964.197677	0.999670
964.497022	1.000500
964.796331	1.000230
965.095601	1.001702
965.394835	1.000063
965.694030	1.001315
965.993189	0.999419
966.292309	1.000752
966.591393	0.999670
966.890439	1.000996
967.189447	0.999292
967.488419	1.000382
967.787353	0.999835
968.086249	1.001293
968.385108	1.000852
968.683930	1.001844
968.982714	1.000726
969.281462	0.999798
969.580172	1.000218
969.878844	1.001142
970.177480	1.000732
970.476078	1.001431
970.774639	1.001405
971.073162	1.000254
971.371649	0.999321
971.670098	0.999624
971.968510	0.999946
972.266885	1.000841
972.565223	0.999816
972.863524	1.000072
973.161788	0.999378
973.460014	1.001243
973.758204	0.999463
974.056356	1.000402
974.354471	1.000195
974.652550	1.000694
974.950591	1.000244
975.248595	1.000143
975.546563	1.001469
975.844493	1.001394
976.142386	1.000309
976.440243	1.001405
976.738062	1.000344
977.035845	0.998945
977.333590	1.001408
977.631299	0.999945
977.928971	1.000590
978.226606	0.999681
978.524204	0.999146
978.821765	1.001608
979.119290	1.000988
979.416777	0.998588
979.714228	1.000239
980.011642	1.000646
980.309020	1.000081
980.606360	0.999426
980.903664	1.000617
981.200931	0.999264
981.498162	1.000859
981.795356	0.999686
982.092513	0.999019
982.389633	1.000568
982.686717	0.998395
982.983764	1.000446
983.280775	0.999760
983.577749	1.001479
983.874686	0.999832
984.171587	0.999645
984.468451	0.999628
984.765279	1.001708
985.062070	1.000475
985.358824	1.000174
985.655543	1.000727
985.952224	1.000653
986.248869	1.001178
986.545478	1.000980
986.842050	0.999271
987.138586	1.000160
987.435086	1.000196
987.731549	1.001836
988.027975	1.001205
988.324366	0.999633
988.620719	1.001397
988.917037	1.000661
989.213318	1.001175
989.509563	1.002048
989.805772	1.001513
990.101944	1.000412
990.398080	1.001023
990.694180	1.001496
990.990244	1.001642
991.286271	0.999822
991.582262	1.000952
991.878217	1.000681
992.174136	1.000262
992.470019	1.000551
992.765865	1.000597
993.061676	1.001257
993.357450	1.000820
993.653188	1.001694
993.948890	1.000760
994.244556	1.000712
994.540186	1.000439
994.835780	1.000155
995.131337	1.001467
995.426859	1.000876
995.722345	1.000839
996.017795	0.999697
996.313208	0.999905
996.608586	1.000307
996.903928	1.000250
997.199234	1.000223
997.494504	1.000735
997.789738	0.998857
998.084936	1.002165
998.380099	0.999340
998.675225	1.000933
998.970316	1.001224
999.265371	1.000380
999.560390	1.001182
999.855373	1.000410
1000.150320	0.999226
1000.445232	1.002180
1000.740108	1.000185
1001.034948	0.999977
1001.329752	1.000811
1001.624521	1.000699
1001.919254	0.999722
1002.213951	1.000737
1002.508613	1.000310
1002.803239	1.000222
1003.097829	1.001861
1003.392384	1.000246
1003.686903	0.999743
1003.981386	0.999719
1004.275834	1.001353
1004.570246	0.999296
1004.864623	1.000748
1005.158964	1.001047
1005.453270	1.000147
1005.747540	1.000332
1006.041775	1.000956
1006.335974	1.000821
1006.630138	1.000666
1006.924266	0.998569
1007.218359	0.999515
1007.512416	1.001227
1007.806438	1.001056
1008.100425	1.001243
1008.394376	1.002175
1008.688292	1.000374
1008.982172	1.000268
1009.276017	1.001997
1009.569827	1.001433
1009.863602	0.999531
1010.157341	1.000816
1010.451045	1.000710
1010.744714	1.001995
1011.038347	1.000520
1011.331945	0.999651
1011.625508	1.001581
1011.919036	1.000167
1012.212528	1.001035
1012.505986	1.000662
1012.799408	1.000132
1013.092795	1.001052
1013.386147	1.000379
1013.679464	1.000764
1013.972745	1.000708
1014.265992	1.000406
1014.559204	0.999914
1014.852380	1.001245
1015.145521	1.000973
1015.438628	1.000611
1015.731699	1.000486
1016.024736	1.001030
1016.317737	1.000043
1016.610703	1.000579
1016.903635	1.001508
1017.196531	0.999633
1017.489393	0.999957
1017.782219	1.000018
1018.075011	1.000391
1018.367768	0.999936
1018.660490	1.000542
1018.953177	1.000542
1019.245829	1.000542
