Dividing Wavelength (nm)	Counts (n)	Blue Motor Position (mm): 4.700000	Red Motor Position (mm): 0.000000	
326.493990	1.005796
326.888308	1.005796
327.282561	1.005796
327.676750	1.006906
328.070874	1.007866
328.464933	1.007006
328.858929	1.007199
329.252859	1.006780
329.646726	1.006171
330.040528	1.005883
330.434265	1.006006
330.827938	1.004373
331.221547	1.006719
331.615091	1.007195
332.008571	1.006874
332.401986	1.005412
332.795338	1.005569
333.188625	1.006504
333.581847	1.005713
333.975006	1.006532
334.368100	1.006410
334.761129	1.005705
335.154095	1.005713
335.546996	1.003414
335.939833	0.999763
336.332606	0.999166
336.725315	0.997605
337.117960	0.999758
337.510540	0.998827
337.903056	1.000031
338.295508	0.999934
338.687896	0.998663
339.080220	0.998872
339.472480	0.998901
339.864676	0.999137
340.256807	0.997902
340.648875	1.000194
341.040879	0.999230
341.432818	0.999062
341.824694	0.998227
342.216506	0.999562
342.608253	1.000012
342.999937	0.998835
343.391557	0.999429
343.783113	1.000170
344.174605	0.998303
344.566033	0.998667
344.957397	0.999565
345.348697	0.998766
345.739934	0.999110
346.131106	0.998821
346.522215	0.998680
346.913260	0.999512
347.304241	0.997869
347.695159	0.999803
348.086012	0.998478
348.476802	0.998854
348.867528	0.998824
349.258191	1.000083
349.648789	0.998607
350.039324	0.998202
350.429796	0.999161
350.820203	0.996754
351.210548	0.998484
351.600828	0.998986
351.991045	0.998183
352.381198	0.998593
352.771288	0.997020
353.161314	0.998397
353.551276	0.998063
353.941175	0.997099
354.331010	0.999615
354.720782	0.998549
355.110490	0.998359
355.500135	0.998560
355.889717	0.997505
356.279235	0.997742
356.668689	0.998039
357.058080	0.998476
357.447408	0.997114
357.836672	0.998715
358.225873	0.997945
358.615010	0.998505
359.004084	0.995758
359.393095	0.998289
359.782043	0.996041
360.170927	0.998564
360.559748	0.997505
360.948505	0.996774
361.337199	0.996881
361.725830	0.997994
362.114398	0.997271
362.502903	0.996612
362.891344	0.996354
363.279722	0.996382
363.668037	0.997745
364.056289	0.998135
364.444478	0.999169
364.832603	0.997643
365.220665	0.997309
365.608665	0.996877
365.996601	0.996774
366.384474	0.994687
366.772284	0.995971
367.160031	0.994379
367.547715	0.995251
367.935336	0.993689
368.322893	0.993469
368.710388	0.992569
369.097820	0.990544
369.485189	0.987367
369.872495	0.987300
370.259738	0.984500
370.646918	0.982270
371.034035	0.979578
371.421090	0.977275
371.808081	0.971393
372.195010	0.968865
372.581875	0.963762
372.968678	0.958484
373.355418	0.955700
373.742096	0.948489
374.128710	0.944103
374.515262	0.939360
374.901751	0.933069
375.288177	0.928717
375.674540	0.921200
376.060841	0.915568
376.447079	0.908891
376.833254	0.903104
377.219367	0.897508
377.605417	0.885737
377.991404	0.882317
378.377329	0.877239
378.763191	0.870481
379.148991	0.860923
379.534727	0.853551
379.920402	0.846041
380.306013	0.842524
380.691563	0.829003
381.077049	0.822846
381.462474	0.818069
381.847835	0.807343
382.233134	0.802049
382.618371	0.802899
383.003545	0.784471
383.388657	0.783036
383.773706	0.775804
384.158693	0.771400
384.543618	0.766682
384.928480	0.756999
385.313280	0.748246
385.698017	0.746735
386.082692	0.735816
386.467305	0.734003
386.851856	0.728312
387.236344	0.723181
387.620770	0.718033
388.005133	0.711866
388.389435	0.706240
388.773674	0.704110
389.157851	0.694989
389.541965	0.693153
389.926018	0.699406
390.310008	0.686539
390.693936	0.682876
391.077802	0.674961
391.461606	0.677122
391.845348	0.667125
392.229027	0.665703
392.612645	0.663857
392.996200	0.650573
393.379694	0.643737
393.763125	0.633753
394.146494	0.638629
394.529801	0.629798
394.913047	0.621251
395.296230	0.627029
395.679351	0.618467
396.062410	0.615623
396.445408	0.618120
396.828343	0.613896
397.211217	0.608151
397.594028	0.621089
397.976778	0.610796
398.359466	0.608233
398.742092	0.603127
399.124656	0.614855
399.507158	0.602663
399.889598	0.600926
400.271977	0.591382
400.654294	0.595579
401.036549	0.594040
401.418742	0.599083
401.800874	0.584493
402.182944	0.581532
402.564952	0.572725
402.946898	0.575500
403.328783	0.575370
403.710606	0.586704
404.092367	0.561682
404.474067	0.567085
404.855705	0.565550
405.237282	0.574816
405.618797	0.561090
406.000250	0.556793
406.381642	0.546675
406.762972	0.551735
407.144240	0.550659
407.525447	0.549876
407.906593	0.543381
408.287677	0.538479
408.668700	0.547125
409.049661	0.540747
409.430560	0.535926
409.811399	0.544132
410.192176	0.525940
410.572891	0.533842
410.953545	0.521325
411.334138	0.535827
411.714669	0.527185
412.095139	0.539626
412.475547	0.523174
412.855894	0.525060
413.236180	0.524776
413.616405	0.530300
413.996568	0.521028
414.376670	0.527145
414.756711	0.531958
415.136691	0.528298
415.516609	0.519553
415.896466	0.516241
416.276262	0.512080
416.655997	0.513550
417.035670	0.494922
417.415283	0.486932
417.794834	0.491855
418.174324	0.497819
418.553753	0.506428
418.933121	0.488748
419.312428	0.482499
419.691674	0.488525
420.070859	0.476748
420.449983	0.484274
420.829045	0.473705
421.208047	0.483105
421.586988	0.475755
421.965867	0.474763
422.344686	0.462701
422.723444	0.475820
423.102141	0.493275
423.480777	0.465560
423.859352	0.486865
424.237866	0.463556
424.616319	0.464497
424.994712	0.455246
425.373044	0.465419
425.751314	0.453940
426.129524	0.471044
426.507673	0.453817
426.885762	0.446947
427.263789	0.452713
427.641756	0.462859
428.019662	0.452874
428.397508	0.452253
428.775292	0.456161
429.153016	0.447815
429.530679	0.454632
429.908282	0.448118
430.285824	0.458229
430.663305	0.436319
431.040726	0.457791
431.418086	0.456940
431.795385	0.449074
432.172624	0.448393
432.549802	0.448144
432.926920	0.447380
433.303977	0.447097
433.680974	0.443956
434.057910	0.442705
434.434786	0.441415
434.811601	0.444727
435.188355	0.427043
435.565050	0.436886
435.941683	0.437076
436.318257	0.421240
436.694770	0.422209
437.071222	0.420754
437.447614	0.425004
437.823946	0.431815
438.200218	0.420866
438.576429	0.430265
438.952580	0.423709
439.328670	0.419799
439.704700	0.426653
440.080670	0.428003
440.456580	0.409660
440.832429	0.417096
441.208218	0.428046
441.583947	0.417382
441.959616	0.415939
442.335224	0.422515
442.710773	0.412560
443.086261	0.411000
443.461689	0.424993
443.837057	0.414560
444.212365	0.404438
444.587612	0.411485
444.962800	0.401837
445.337927	0.403250
445.712995	0.429254
446.088002	0.391251
446.462949	0.401411
446.837837	0.406521
447.212664	0.395198
447.587431	0.386574
447.962139	0.357031
448.336786	0.315827
448.711374	0.326313
449.085901	0.370849
449.460369	0.375163
449.834776	0.378276
450.209124	0.357707
450.583412	0.350952
450.957640	0.343672
451.331808	0.354825
451.705917	0.378203
452.079965	0.383133
452.453954	0.371245
452.827883	0.377983
453.201752	0.372590
453.575562	0.383828
453.949311	0.372755
454.323001	0.378788
454.696632	0.374476
455.070202	0.367521
455.443713	0.358776
455.817164	0.353381
456.190556	0.349474
456.563888	0.346144
456.937160	0.343720
457.310373	0.361357
457.683526	0.360157
458.056619	0.365919
458.429653	0.366236
458.802628	0.369871
459.175542	0.364305
459.548398	0.346479
459.921194	0.339276
460.293930	0.339459
460.666607	0.316867
461.039224	0.304770
461.411782	0.300307
461.784280	0.299331
462.156719	0.303808
462.529099	0.308469
462.901419	0.324449
463.273680	0.328760
463.645882	0.328094
464.018024	0.334322
464.390106	0.326865
464.762130	0.311413
465.134094	0.294298
465.505999	0.263344
465.877845	0.233554
466.249631	0.220416
466.621358	0.228200
466.993026	0.242091
467.364634	0.248562
467.736184	0.257077
468.107674	0.265974
468.479105	0.264567
468.850477	0.271974
469.221790	0.278617
469.593043	0.289271
469.964238	0.293541
470.335373	0.293093
470.706449	0.290983
471.077467	0.291856
471.448425	0.253778
471.819324	0.229236
472.190164	0.228835
472.560945	0.257963
472.931667	0.280012
473.302330	0.284279
473.672934	0.296312
474.043479	0.284037
474.413965	0.286300
474.784393	0.289501
475.154761	0.284579
475.525070	0.281539
475.895321	0.287360
476.265513	0.281632
476.635645	0.276741
477.005719	0.276755
477.375734	0.273516
477.745691	0.266838
478.115588	0.262973
478.485427	0.256465
478.855207	0.243438
479.224928	0.225595
479.594591	0.213746
479.964194	0.217274
480.333739	0.218440
480.703226	0.219785
481.072653	0.218428
481.442022	0.214037
481.811333	0.210658
482.180584	0.214138
482.549777	0.219592
482.918912	0.222898
483.287988	0.222512
483.657005	0.221962
484.025964	0.228424
484.394864	0.225969
484.763706	0.226527
485.132489	0.231516
485.501213	0.232255
485.869879	0.230560
486.238487	0.233883
486.607036	0.231903
486.975527	0.236248
487.343959	0.232114
487.712333	0.231204
488.080648	0.232791
488.448905	0.232087
488.817104	0.233273
489.185244	0.227589
489.553326	0.224738
489.921350	0.214243
490.289315	0.196743
490.657222	0.191802
491.025070	0.193008
491.392861	0.195138
491.760593	0.200778
492.128267	0.206576
492.495883	0.212074
492.863440	0.218169
493.230939	0.224817
493.598380	0.226188
493.965763	0.228201
494.333088	0.230498
494.700354	0.232030
495.067563	0.230930
495.434713	0.234290
495.801805	0.232500
496.168839	0.233563
496.535815	0.235109
496.902733	0.235160
497.269593	0.236628
497.636395	0.234208
498.003139	0.234448
498.369825	0.237655
498.736453	0.234091
499.103023	0.235635
499.469535	0.235128
499.835989	0.235156
500.202385	0.236008
500.568723	0.239567
500.935003	0.234512
501.301226	0.238839
501.667390	0.232839
502.033497	0.231156
502.399546	0.233833
502.765537	0.236088
503.131470	0.234591
503.497345	0.230947
503.863163	0.239451
504.228923	0.232362
504.594625	0.231233
504.960269	0.236341
505.325856	0.232058
505.691385	0.236345
506.056856	0.232910
506.422270	0.232381
506.787625	0.234863
507.152924	0.232241
507.518164	0.232774
507.883347	0.234374
508.248472	0.236264
508.613540	0.230842
508.978550	0.233567
509.343503	0.234073
509.708398	0.231527
510.073236	0.229450
510.438016	0.229003
510.802738	0.230155
511.167403	0.228958
511.532010	0.231506
511.896561	0.226533
512.261053	0.225013
512.625488	0.227401
512.989866	0.227699
513.354186	0.228039
513.718449	0.229942
514.082655	0.226283
514.446803	0.228540
514.810894	0.225967
515.174927	0.228858
515.538904	0.228421
515.902822	0.225255
516.266684	0.227616
516.630488	0.228808
516.994235	0.227762
517.357925	0.226429
517.721558	0.224882
518.085133	0.223867
518.448651	0.224296
518.812112	0.226507
519.175516	0.225897
519.538863	0.223259
519.902152	0.225612
520.265385	0.222086
520.628560	0.223671
520.991678	0.224403
521.354739	0.223280
521.717743	0.224417
522.080690	0.224680
522.443580	0.222059
522.806413	0.222821
523.169189	0.222551
523.531908	0.221442
523.894569	0.224734
524.257174	0.224612
524.619722	0.222339
524.982213	0.223527
525.344647	0.222407
525.707025	0.223257
526.069345	0.221488
526.431608	0.223194
526.793815	0.221162
527.155964	0.225517
527.518057	0.224340
527.880093	0.225175
528.242072	0.223719
528.603995	0.225879
528.965860	0.227424
529.327669	0.226538
529.689421	0.227172
530.051117	0.228139
530.412755	0.225622
530.774337	0.228105
531.135862	0.228571
531.497331	0.227780
531.858743	0.230711
532.220098	0.227466
532.581396	0.230025
532.942638	0.230400
533.303824	0.231622
533.664953	0.230811
534.026025	0.232935
534.387040	0.231018
534.747999	0.230573
535.108902	0.229440
535.469748	0.234847
535.830537	0.232615
536.191270	0.232904
536.551947	0.232502
536.912567	0.232627
537.273131	0.234151
537.633638	0.234537
537.994089	0.234876
538.354483	0.236002
538.714821	0.232665
539.075103	0.232692
539.435328	0.233219
539.795497	0.237192
540.155609	0.233689
540.515665	0.231742
540.875665	0.237548
541.235609	0.236076
541.595496	0.236253
541.955328	0.232771
542.315102	0.235437
542.674821	0.236277
543.034483	0.236189
543.394090	0.236252
543.753640	0.237908
544.113134	0.232917
544.472571	0.236554
544.831953	0.233111
545.191278	0.237348
545.550548	0.236514
545.909761	0.233446
546.268918	0.234560
546.628019	0.232689
546.987064	0.235434
547.346053	0.237007
547.704986	0.234856
548.063863	0.234811
548.422684	0.235341
548.781449	0.237199
549.140158	0.234976
549.498811	0.237737
549.857408	0.240834
550.215949	0.235503
550.574434	0.238626
550.932864	0.236729
551.291237	0.235141
551.649555	0.236984
552.007817	0.236392
552.366022	0.237242
552.724173	0.237521
553.082267	0.237742
553.440305	0.234420
553.798288	0.239001
554.156215	0.235821
554.514086	0.236348
554.871902	0.239680
555.229661	0.238771
555.587365	0.239202
555.945014	0.241886
556.302606	0.238840
556.660143	0.241510
557.017625	0.237641
557.375050	0.240103
557.732421	0.236931
558.089735	0.239161
558.446994	0.239021
558.804197	0.238292
559.161345	0.237986
559.518437	0.241554
559.875474	0.239699
560.232455	0.238953
560.589381	0.240248
560.946251	0.240381
561.303065	0.237771
561.659825	0.239164
562.016528	0.240885
562.373177	0.243766
562.729770	0.240899
563.086307	0.242542
563.442789	0.240819
563.799216	0.243559
564.155587	0.242398
564.511904	0.243842
564.868164	0.243306
565.224370	0.243127
565.580520	0.245068
565.936615	0.244674
566.292654	0.248059
566.648638	0.244913
567.004567	0.245986
567.360441	0.246336
567.716260	0.248418
568.072023	0.245925
568.427732	0.247090
568.783385	0.249120
569.138982	0.247498
569.494525	0.246949
569.850013	0.250146
570.205445	0.248343
570.560823	0.251003
570.916145	0.253054
571.271412	0.251180
571.626625	0.253036
571.981782	0.253318
572.336884	0.254033
572.691931	0.253890
573.046923	0.255301
573.401860	0.256576
573.756743	0.257992
574.111570	0.256748
574.466342	0.257488
574.821059	0.256563
575.175722	0.259410
575.530330	0.259286
575.884882	0.259504
576.239380	0.261419
576.593823	0.262102
576.948211	0.261501
577.302544	0.264862
577.656823	0.264190
578.011047	0.264022
578.365216	0.265266
578.719330	0.267351
579.073389	0.266653
579.427394	0.267932
579.781344	0.268933
580.135239	0.270462
580.489080	0.269943
580.842866	0.272912
581.196597	0.273126
581.550273	0.271615
581.903895	0.272249
582.257463	0.270443
582.610975	0.274142
582.964434	0.273401
583.317837	0.275936
583.671186	0.276211
584.024481	0.276666
584.377721	0.278573
584.730906	0.279756
585.084037	0.278959
585.437113	0.280918
585.790135	0.279892
586.143103	0.282918
586.496016	0.284003
586.848874	0.281639
587.201679	0.282003
587.554428	0.285707
587.907124	0.284282
588.259765	0.284984
588.612352	0.285751
588.964884	0.289458
589.317362	0.288954
589.669786	0.288905
590.022155	0.287232
590.374470	0.286858
590.726731	0.288612
591.078937	0.293719
591.431090	0.289931
591.783188	0.294369
592.135232	0.294678
592.487222	0.294838
592.839157	0.293108
593.191038	0.294949
593.542866	0.297025
593.894639	0.300027
594.246358	0.298740
594.598022	0.297936
594.949633	0.301879
595.301190	0.302305
595.652692	0.301493
596.004141	0.297491
596.355535	0.305951
596.706876	0.306306
597.058162	0.308958
597.409395	0.306158
597.760573	0.303633
598.111698	0.307090
598.462768	0.307426
598.813785	0.308657
599.164748	0.310124
599.515657	0.310520
599.866511	0.313729
600.217312	0.309266
600.568060	0.314517
600.918753	0.310635
601.269392	0.311820
601.619978	0.314860
601.970510	0.312264
602.320988	0.312618
602.671412	0.310434
603.021783	0.312858
603.372100	0.313623
603.722363	0.313490
604.072572	0.314766
604.422728	0.314622
604.772830	0.316639
605.122878	0.316271
605.472872	0.316857
605.822813	0.315211
606.172701	0.317673
606.522534	0.315184
606.872314	0.315479
607.222041	0.316152
607.571714	0.314011
607.921333	0.315559
608.270899	0.315226
608.620411	0.312147
608.969870	0.316211
609.319276	0.316024
609.668627	0.316619
610.017926	0.314884
610.367171	0.313227
610.716362	0.313834
611.065500	0.314329
611.414585	0.313030
611.763616	0.313157
612.112594	0.314003
612.461518	0.313122
612.810389	0.310976
613.159207	0.313210
613.507971	0.314891
613.856682	0.311031
614.205340	0.312237
614.553945	0.309430
614.902496	0.313090
615.250994	0.310724
615.599439	0.312000
615.947830	0.311200
616.296169	0.311979
616.644454	0.311717
616.992686	0.311835
617.340864	0.309792
617.688990	0.312933
618.037063	0.310022
618.385082	0.311558
618.733048	0.308653
619.080961	0.310796
619.428821	0.310036
619.776628	0.309612
620.124382	0.312017
620.472083	0.312564
620.819731	0.311957
621.167326	0.315580
621.514868	0.315375
621.862357	0.319512
622.209793	0.318581
622.557176	0.321537
622.904506	0.322252
623.251783	0.325099
623.599007	0.326969
623.946179	0.326769
624.293297	0.329021
624.640363	0.332088
624.987376	0.332883
625.334336	0.335525
625.681243	0.337860
626.028097	0.338570
626.374899	0.339345
626.721647	0.340228
627.068343	0.343031
627.414987	0.344007
627.761577	0.345957
628.108115	0.344131
628.454600	0.349752
628.801032	0.347033
629.147412	0.349047
629.493739	0.349864
629.840014	0.352723
630.186236	0.349690
630.532405	0.355549
630.878521	0.352858
631.224585	0.355365
631.570597	0.358713
631.916556	0.357484
632.262462	0.357219
632.608316	0.359321
632.954117	0.360637
633.299866	0.361432
633.645562	0.361359
633.991206	0.366161
634.336797	0.368414
634.682336	0.371362
635.027823	0.372839
635.373257	0.373718
635.718639	0.377288
636.063968	0.376409
636.409245	0.382316
636.754470	0.382227
637.099642	0.384793
637.444762	0.388258
637.789829	0.387376
638.134845	0.391038
638.479808	0.392051
638.824719	0.391908
639.169577	0.396188
639.514383	0.394469
639.859137	0.399095
640.203839	0.398793
640.548489	0.399353
640.893086	0.400326
641.237632	0.402486
641.582125	0.400613
641.926566	0.402777
642.270955	0.402377
642.615292	0.402313
642.959576	0.402247
643.303809	0.402514
643.647990	0.402344
643.992118	0.402671
644.336195	0.405695
644.680219	0.404180
645.024192	0.404782
645.368112	0.398918
645.711981	0.398131
646.055797	0.392867
646.399562	0.395162
646.743274	0.388105
647.086935	0.384940
647.430544	0.385325
647.774101	0.383730
648.117606	0.383661
648.461059	0.384393
648.804460	0.386869
649.147810	0.391792
649.491108	0.393144
649.834354	0.395129
650.177548	0.400372
650.520690	0.405028
650.863781	0.406797
651.206820	0.406120
651.549807	0.411162
651.892742	0.414847
652.235626	0.414414
652.578458	0.415378
652.921238	0.421564
653.263967	0.419067
653.606644	0.422842
653.949269	0.423259
654.291843	0.426936
654.634365	0.423543
654.976836	0.426529
655.319255	0.427455
655.661622	0.428629
656.003938	0.428985
656.346203	0.431151
656.688416	0.429515
657.030577	0.432871
657.372687	0.435133
657.714746	0.435362
658.056753	0.432752
658.398708	0.436261
658.740612	0.437731
659.082465	0.434006
659.424266	0.434574
659.766016	0.433843
660.107715	0.437334
660.449362	0.435681
660.790958	0.435760
661.132503	0.437037
661.473996	0.433915
661.815438	0.435502
662.156829	0.435564
662.498168	0.435946
662.839456	0.437436
663.180693	0.435114
663.521879	0.434790
663.863013	0.435687
664.204097	0.434488
664.545129	0.431586
664.886110	0.431623
665.227040	0.429264
665.567918	0.432094
665.908746	0.430118
666.249522	0.429695
666.590248	0.430023
666.930922	0.428323
667.271545	0.427709
667.612118	0.427067
667.952639	0.429247
668.293109	0.427920
668.633528	0.430764
668.973896	0.430515
669.314213	0.431037
669.654480	0.432467
669.994695	0.432182
670.334859	0.434023
670.674973	0.434236
671.015035	0.433735
671.355047	0.433830
671.695008	0.435493
672.034918	0.436344
672.374777	0.436414
672.714585	0.437076
673.054342	0.437414
673.394049	0.437318
673.733705	0.435280
674.073310	0.436331
674.412864	0.439713
674.752368	0.439222
675.091820	0.440282
675.431223	0.444518
675.770574	0.444504
676.109875	0.447611
676.449125	0.446930
676.788324	0.449684
677.127473	0.455139
677.466571	0.455132
677.805619	0.456808
678.144616	0.457677
678.483562	0.459750
678.822458	0.461989
679.161303	0.462341
679.500098	0.463257
679.838842	0.464757
680.177535	0.464129
680.516179	0.462957
680.854771	0.461747
681.193314	0.455102
681.531805	0.446924
681.870247	0.434804
682.208638	0.427457
682.546978	0.426298
682.885268	0.427730
683.223508	0.434573
683.561697	0.438789
683.899836	0.441165
684.237925	0.443761
684.575963	0.447239
684.913951	0.450007
685.251889	0.445528
685.589776	0.448358
685.927614	0.450142
686.265401	0.444787
686.603137	0.446139
686.940824	0.439863
687.278460	0.438264
687.616046	0.437620
687.953582	0.432628
688.291068	0.433658
688.628504	0.429082
688.965889	0.431583
689.303224	0.435497
689.640510	0.439696
689.977745	0.445625
690.314930	0.453264
690.652065	0.458011
690.989150	0.464792
691.326185	0.471956
691.663170	0.477054
692.000105	0.483865
692.336990	0.491047
692.673825	0.492997
693.010610	0.500058
693.347345	0.506273
693.684030	0.507649
694.020665	0.511823
694.357251	0.520716
694.693786	0.520561
695.030272	0.524295
695.366707	0.527773
695.703093	0.531882
696.039429	0.528783
696.375716	0.531784
696.711952	0.533710
697.048139	0.535975
697.384276	0.538107
697.720363	0.536631
698.056400	0.534360
698.392388	0.540945
698.728326	0.543628
699.064214	0.546011
699.400053	0.546348
699.735842	0.551157
700.071581	0.553009
700.407270	0.556560
700.742910	0.559234
701.078501	0.565511
701.414042	0.567117
701.749533	0.568248
702.084974	0.578668
702.420366	0.571196
702.755709	0.578125
703.091002	0.586116
703.426246	0.579910
703.761440	0.584823
704.096584	0.590067
704.431679	0.587114
704.766725	0.589961
705.101721	0.591042
705.436668	0.586887
705.771565	0.594110
706.106413	0.590033
706.441212	0.585952
706.775961	0.585337
707.110661	0.587171
707.445311	0.583944
707.779913	0.581248
708.114465	0.580266
708.448967	0.576323
708.783421	0.568585
709.117825	0.562781
709.452180	0.562467
709.786485	0.557249
710.120742	0.546676
710.454949	0.548047
710.789107	0.540087
711.123216	0.531331
711.457275	0.532501
711.791286	0.524475
712.125247	0.522753
712.459159	0.533764
712.793023	0.525732
713.126837	0.530729
713.460602	0.530588
713.794318	0.539203
714.127985	0.538510
714.461602	0.549581
714.795171	0.552249
715.128691	0.559759
715.462162	0.568099
715.795584	0.573556
716.128957	0.576825
716.462281	0.582446
716.795556	0.585923
717.128782	0.591736
717.461960	0.601015
717.795088	0.599300
718.128167	0.606147
718.461198	0.614470
718.794180	0.615061
719.127113	0.617296
719.459997	0.620580
719.792833	0.627515
720.125619	0.628511
720.458357	0.634863
720.791046	0.634779
721.123686	0.638861
721.456278	0.644563
721.788821	0.642100
722.121315	0.646609
722.453761	0.650860
722.786158	0.648446
723.118506	0.644662
723.450805	0.652531
723.783056	0.649184
724.115259	0.646492
724.447412	0.646295
724.779518	0.646359
725.111574	0.645585
725.443582	0.641754
725.775542	0.643714
726.107453	0.635822
726.439315	0.635901
726.771129	0.634204
727.102895	0.627455
727.434612	0.620731
727.766281	0.618252
728.097901	0.617121
728.429473	0.616975
728.760996	0.615012
729.092471	0.615702
729.423897	0.619560
729.755276	0.618712
730.086606	0.618712
730.417887	0.613325
730.749120	0.603781
731.080305	0.593935
731.411442	0.590695
731.742530	0.593996
732.073570	0.593886
732.404562	0.587279
732.735506	0.588355
733.066401	0.593135
733.397249	0.602002
733.728048	0.613040
734.058798	0.626098
734.389501	0.637917
734.720156	0.647778
735.050762	0.655469
735.381320	0.655637
735.711831	0.664189
736.042293	0.669042
736.372707	0.666692
736.703073	0.670363
737.033391	0.672250
737.363661	0.669786
737.693883	0.665450
738.024056	0.663582
738.354182	0.663960
738.684260	0.653271
739.014290	0.649730
739.344272	0.650895
739.674207	0.643336
740.004093	0.642730
740.333931	0.643567
740.663722	0.643696
740.993464	0.643707
741.323159	0.647848
741.652806	0.652777
741.982405	0.657588
742.311956	0.663277
742.641460	0.664967
742.970915	0.668009
743.300323	0.675038
743.629683	0.681807
743.958996	0.684004
744.288260	0.687971
744.617477	0.694766
744.946647	0.695949
745.275768	0.701966
745.604842	0.701627
745.933869	0.711045
746.262847	0.713704
746.591778	0.706068
746.920662	0.712161
747.249498	0.719065
747.578286	0.709993
747.907027	0.705986
748.235720	0.706055
748.564365	0.701710
748.892963	0.701179
749.221514	0.704216
749.550017	0.708236
749.878473	0.709722
750.206881	0.716080
750.535242	0.716961
750.863555	0.715283
751.191821	0.717220
751.520039	0.720182
751.848210	0.724192
752.176334	0.717725
752.504411	0.716730
752.832440	0.725260
753.160421	0.729531
753.488356	0.727663
753.816243	0.724074
754.144082	0.732795
754.471875	0.737092
754.799620	0.732795
755.127318	0.733856
755.454969	0.734369
755.782572	0.733558
756.110129	0.737843
756.437638	0.741810
756.765100	0.737749
757.092515	0.736033
757.419882	0.734190
757.747203	0.740066
758.074477	0.739315
758.401703	0.735031
758.728882	0.731015
759.056014	0.729741
759.383099	0.728684
759.710138	0.729737
760.037129	0.725960
760.364073	0.719742
760.690970	0.722744
761.017820	0.727527
761.344623	0.723398
761.671379	0.714675
761.998088	0.702196
762.324751	0.679247
762.651366	0.636769
762.977935	0.569234
763.304456	0.517801
763.630931	0.507812
763.957359	0.547454
764.283740	0.591178
764.610074	0.619122
764.936362	0.651811
765.262602	0.679255
765.588796	0.699620
765.914943	0.717471
766.241044	0.735713
766.567097	0.742305
766.893104	0.752923
767.219064	0.758654
767.544978	0.765844
767.870845	0.779213
768.196665	0.782731
768.522438	0.780839
768.848165	0.782272
769.173846	0.791473
769.499479	0.796322
769.825066	0.799759
770.150607	0.804419
770.476101	0.799792
770.801548	0.802092
771.126949	0.814074
771.452303	0.817408
771.777611	0.815833
772.102872	0.814393
772.428087	0.819812
772.753256	0.823817
773.078378	0.826094
773.403453	0.834138
773.728482	0.838691
774.053465	0.831653
774.378401	0.834735
774.703291	0.844450
775.028135	0.844086
775.352932	0.844568
775.677683	0.849424
776.002388	0.850328
776.327046	0.848656
776.651658	0.853239
776.976224	0.855250
777.300743	0.854601
777.625216	0.857477
777.949643	0.859841
778.274024	0.858983
778.598359	0.860945
778.922647	0.859721
779.246889	0.861320
779.571086	0.863708
779.895236	0.866762
780.219339	0.864505
780.543397	0.859537
780.867409	0.858838
781.191374	0.861418
781.515294	0.862865
781.839167	0.862305
782.162995	0.863905
782.486776	0.862338
782.810511	0.862863
783.134201	0.868354
783.457844	0.864243
783.781441	0.867204
784.104993	0.872868
784.428498	0.874062
784.751958	0.870722
785.075372	0.871863
785.398739	0.875563
785.722061	0.870084
786.045337	0.867561
786.368568	0.871548
786.691752	0.873618
787.014891	0.859685
787.337983	0.850424
787.661030	0.842748
787.984031	0.824868
788.306987	0.813434
788.629897	0.814092
788.952760	0.818438
789.275579	0.823723
789.598351	0.838894
789.921078	0.853071
790.243759	0.854028
790.566395	0.858507
790.888984	0.867247
791.211529	0.871175
791.534027	0.873950
791.856480	0.876984
792.178888	0.881339
792.501249	0.883941
792.823566	0.885796
793.145836	0.885747
793.468062	0.887049
793.790241	0.888911
794.112375	0.885616
794.434464	0.882880
794.756507	0.880141
795.078505	0.880242
795.400457	0.874871
795.722364	0.863222
796.044226	0.856784
796.366042	0.854607
796.687812	0.857835
797.009538	0.852919
797.331218	0.858538
797.652852	0.861977
797.974442	0.865964
798.295986	0.867781
798.617484	0.867983
798.938938	0.873755
799.260346	0.878335
799.581709	0.879025
799.903026	0.882122
800.224299	0.882390
800.545526	0.885903
800.866708	0.889745
801.187845	0.895573
801.508936	0.894279
801.829983	0.892335
802.150984	0.896995
802.471940	0.900946
802.792851	0.899455
803.113717	0.901345
803.434538	0.898679
803.755314	0.901605
804.076045	0.903020
804.396731	0.903019
804.717372	0.901666
805.037967	0.905503
805.358518	0.902490
805.679024	0.898610
805.999485	0.899662
806.319901	0.898301
806.640272	0.901686
806.960598	0.899151
807.280879	0.896389
807.601115	0.894821
807.921306	0.898814
808.241453	0.899977
808.561554	0.897882
808.881611	0.897833
809.201623	0.898211
809.521590	0.899543
809.841513	0.900695
810.161390	0.897871
810.481223	0.899788
810.801011	0.904416
811.120755	0.906504
811.440453	0.904398
811.760107	0.904924
812.079716	0.904150
812.399281	0.906987
812.718801	0.908879
813.038276	0.908762
813.357707	0.910024
813.677093	0.907958
813.996434	0.910014
814.315731	0.911086
814.634983	0.912734
814.954191	0.911950
815.273354	0.906787
815.592473	0.904031
815.911547	0.905085
816.230577	0.901646
816.549562	0.898077
816.868502	0.898488
817.187399	0.896473
817.506250	0.890310
817.825058	0.891808
818.143821	0.889204
818.462539	0.883741
818.781213	0.875162
819.099843	0.865244
819.418429	0.847533
819.736970	0.830153
820.055466	0.810638
820.373919	0.783271
820.692327	0.750916
821.010691	0.715764
821.329011	0.633871
821.647286	0.517910
821.965517	0.402630
822.283704	0.359542
822.601847	0.359937
822.919945	0.395928
823.237999	0.430855
823.556010	0.478944
823.873976	0.535864
824.191897	0.586914
824.509775	0.631233
824.827609	0.676452
825.145398	0.698950
825.463144	0.701021
825.780845	0.682883
826.098502	0.665883
826.416116	0.619369
826.733685	0.574813
827.051210	0.565468
827.368692	0.580925
827.686129	0.619043
828.003522	0.674215
828.320872	0.722216
828.638177	0.765825
828.955439	0.799562
829.272656	0.821646
829.589830	0.839494
829.906960	0.855788
830.224046	0.869180
830.541088	0.879568
830.858086	0.883420
831.175041	0.890416
831.491952	0.889498
831.808819	0.885045
832.125642	0.877668
832.442421	0.864230
832.759157	0.840853
833.075849	0.793083
833.392497	0.728611
833.709101	0.686940
834.025662	0.697593
834.342179	0.729448
834.658653	0.769539
834.975083	0.805495
835.291469	0.833149
835.607811	0.855833
835.924110	0.872922
836.240366	0.890209
836.556578	0.903058
836.872746	0.911166
837.188871	0.918839
837.504952	0.923617
837.820990	0.925421
838.136984	0.929764
838.452935	0.932760
838.768842	0.935223
839.084706	0.928153
839.400526	0.902456
839.716303	0.860139
840.032037	0.838432
840.347727	0.841699
840.663373	0.859310
840.978977	0.883090
841.294537	0.905162
841.610054	0.920921
841.925527	0.929159
842.240957	0.935929
842.556344	0.945088
842.871687	0.949045
843.186987	0.953208
843.502244	0.954939
843.817458	0.956365
844.132629	0.960856
844.447756	0.963295
844.762840	0.964770
845.077881	0.964837
845.392879	0.963855
845.707833	0.966254
846.022745	0.968298
846.337613	0.968268
846.652438	0.968818
846.967221	0.969892
847.281960	0.970433
847.596656	0.970930
847.911309	0.971057
848.225919	0.972052
848.540485	0.973324
848.855009	0.973922
849.169490	0.972739
849.483928	0.974636
849.798323	0.972136
850.112675	0.974547
850.426984	0.974760
850.741251	0.973640
851.055474	0.975358
851.369654	0.973343
851.683792	0.971848
851.997887	0.973961
852.311938	0.974599
852.625947	0.973019
852.939914	0.971700
853.253837	0.974191
853.567718	0.975305
853.881555	0.974158
854.195350	0.973568
854.509103	0.974118
854.822812	0.973822
855.136479	0.975282
855.450103	0.972774
855.763685	0.972770
856.077224	0.973594
856.390720	0.974830
856.704173	0.974806
857.017584	0.972492
857.330953	0.972500
857.644278	0.971294
857.957561	0.973838
858.270802	0.973508
858.584000	0.973918
858.897155	0.970889
859.210268	0.971662
859.523339	0.973560
859.836367	0.974891
860.149352	0.974470
860.462295	0.974577
860.775195	0.974034
861.088054	0.972106
861.400869	0.975291
861.713642	0.974731
862.026373	0.976302
862.339062	0.975056
862.651708	0.972570
862.964312	0.972939
863.276873	0.974115
863.589392	0.972233
863.901869	0.970083
864.214303	0.968754
864.526696	0.968574
864.839045	0.966809
865.151353	0.966226
865.463619	0.965367
865.775842	0.966022
866.088023	0.967367
866.400162	0.966051
866.712258	0.968112
867.024313	0.967455
867.336325	0.969197
867.648296	0.968615
867.960224	0.964837
868.272110	0.967023
868.583954	0.967809
868.895755	0.968903
869.207515	0.966239
869.519233	0.964493
869.830909	0.964712
870.142542	0.965739
870.454134	0.965072
870.765684	0.963944
871.077191	0.962870
871.388657	0.962916
871.700081	0.962943
872.011463	0.962829
872.322803	0.962721
872.634101	0.960372
872.945357	0.957879
873.256571	0.955685
873.567744	0.957490
873.878874	0.957294
874.189963	0.956550
874.501010	0.957128
874.812015	0.953207
875.122979	0.953309
875.433900	0.956214
875.744780	0.958515
876.055618	0.954460
876.366415	0.952803
876.677169	0.953442
876.987882	0.954009
877.298554	0.955175
877.609183	0.950720
877.919771	0.948555
878.230317	0.946441
878.540822	0.943501
878.851285	0.937829
879.161707	0.929551
879.472087	0.916943
879.782425	0.899541
880.092722	0.863961
880.402977	0.810027
880.713191	0.747201
881.023363	0.686451
881.333494	0.651609
881.643583	0.624232
881.953631	0.624428
882.263637	0.652336
882.573602	0.692558
882.883526	0.719008
883.193408	0.744266
883.503248	0.767581
883.813048	0.795305
884.122806	0.825782
884.432522	0.850787
884.742197	0.871496
885.051831	0.881333
885.361424	0.893126
885.670975	0.905532
885.980485	0.914746
886.289954	0.921472
886.599382	0.925325
886.908768	0.931550
887.218113	0.935625
887.527417	0.942407
887.836680	0.944818
888.145901	0.947337
888.455082	0.950861
888.764221	0.954694
889.073319	0.956415
889.382376	0.956659
889.691392	0.954868
890.000366	0.957121
890.309300	0.957659
890.618193	0.956748
890.927044	0.954718
891.235855	0.955141
891.544625	0.954932
891.853353	0.954668
892.162041	0.953195
892.470687	0.945544
892.779293	0.940366
893.087858	0.936340
893.396381	0.928240
893.704864	0.913893
894.013306	0.890496
894.321707	0.863335
894.630068	0.847506
894.938387	0.841693
895.246665	0.843073
895.554903	0.856721
895.863100	0.871596
896.171256	0.888485
896.479371	0.907447
896.787446	0.921062
897.095480	0.927368
897.403473	0.929555
897.711425	0.935749
898.019336	0.943201
898.327207	0.947355
898.635038	0.945952
898.942827	0.948686
899.250576	0.951409
899.558284	0.956180
899.865952	0.957440
900.173579	0.958331
900.481165	0.960006
900.788711	0.962187
901.096216	0.964228
901.403681	0.965861
901.711105	0.966330
902.018489	0.967623
902.325832	0.966113
902.633135	0.964350
902.940397	0.958428
903.247619	0.945231
903.554800	0.919682
903.861941	0.878761
904.169041	0.840694
904.476101	0.823285
904.783121	0.825300
905.090100	0.840354
905.397039	0.863407
905.703938	0.885761
906.010796	0.907030
906.317614	0.924742
906.624391	0.937330
906.931129	0.947994
907.237826	0.955765
907.544483	0.961433
907.851099	0.966034
908.157675	0.970051
908.464211	0.974229
908.770707	0.975860
909.077163	0.979106
909.383578	0.979159
909.689954	0.979133
909.996289	0.979609
910.302584	0.982493
910.608839	0.983994
910.915054	0.983237
911.221229	0.982786
911.527363	0.980763
911.833458	0.980477
912.139513	0.982505
912.445527	0.981448
912.751502	0.978821
913.057436	0.976210
913.363331	0.974704
913.669186	0.971210
913.975000	0.965117
914.280775	0.958126
914.586510	0.952292
914.892205	0.938102
915.197859	0.914620
915.503475	0.887175
915.809050	0.866243
916.114585	0.859818
916.420081	0.857036
916.725536	0.854639
917.030952	0.862837
917.336328	0.875911
917.641665	0.891103
917.946961	0.907505
918.252218	0.919608
918.557435	0.927993
918.862612	0.938384
919.167750	0.943955
919.472848	0.949921
919.777906	0.957154
920.082925	0.961489
920.387904	0.965328
920.692843	0.966406
920.997743	0.967605
921.302603	0.971670
921.607423	0.971818
921.912204	0.975360
922.216946	0.977813
922.521647	0.977116
922.826310	0.977855
923.130932	0.980416
923.435516	0.982615
923.740059	0.984235
924.044564	0.983325
924.349028	0.983654
924.653454	0.987192
924.957840	0.988727
925.262186	0.987447
925.566493	0.988826
925.870761	0.989244
926.174989	0.989855
926.479178	0.992384
926.783328	0.992680
927.087438	0.992307
927.391509	0.992037
927.695541	0.993257
927.999533	0.995394
928.303486	0.994312
928.607400	0.994851
928.911275	0.995089
929.215110	0.994983
929.518906	0.996904
929.822663	0.993924
930.126381	0.996467
930.430060	0.994962
930.733699	0.995468
931.037299	0.995584
931.340861	0.995660
931.644383	0.993783
931.947866	0.993978
932.251309	0.994912
932.554714	0.995023
932.858080	0.996484
933.161407	0.994173
933.464694	0.995700
933.767943	0.995351
934.071153	0.996406
934.374323	0.997036
934.677455	0.996299
934.980548	0.996240
935.283602	0.996842
935.586617	0.996237
935.889593	0.997833
936.192530	0.996199
936.495428	0.995994
936.798287	0.994696
937.101108	0.995844
937.403890	0.993007
937.706632	0.995002
938.009336	0.992074
938.312002	0.989196
938.614628	0.989460
938.917216	0.987281
939.219765	0.986503
939.522275	0.987270
939.824747	0.986960
940.127179	0.987470
940.429573	0.990175
940.731929	0.989707
941.034246	0.989161
941.336524	0.988963
941.638763	0.989726
941.940964	0.989800
942.243126	0.991537
942.545250	0.991950
942.847335	0.992433
943.149381	0.993189
943.451389	0.992871
943.753359	0.993330
944.055290	0.995719
944.357182	0.993939
944.659036	0.995477
944.960851	0.994428
945.262628	0.994287
945.564367	0.995195
945.866067	0.994407
946.167729	0.995742
946.469352	0.995145
946.770937	0.992813
947.072484	0.995468
947.373992	0.995422
947.675462	0.994339
947.976893	0.995477
948.278286	0.996354
948.579641	0.996511
948.880958	0.995547
949.182236	0.996142
949.483476	0.997505
949.784678	0.996697
950.085841	0.994160
950.386967	0.995475
950.688054	0.996354
950.989103	0.994381
951.290114	0.994049
951.591087	0.994627
951.892021	0.992765
952.192917	0.994506
952.493776	0.993220
952.794596	0.993234
953.095378	0.992416
953.396122	0.992560
953.696828	0.992396
953.997496	0.994188
954.298126	0.994794
954.598718	0.993635
954.899272	0.995809
955.199788	0.995283
955.500266	0.997071
955.800706	0.996593
956.101108	0.997229
956.401472	0.999651
956.701798	0.998250
957.002087	0.998207
957.302337	0.998619
957.602550	0.998810
957.902724	0.999900
958.202861	0.999945
958.502960	0.999279
958.803022	1.000625
959.103045	1.000772
959.403031	1.001394
959.702979	1.001262
960.002889	1.001060
960.302762	1.000530
960.602596	1.000298
960.902393	1.001626
961.202153	1.001486
961.501875	1.002916
961.801559	1.001666
962.101205	1.001051
962.400814	1.002385
962.700385	1.002416
962.999918	1.002042
963.299414	1.000888
963.598873	1.001800
963.898293	1.003197
964.197677	1.001434
964.497022	1.001949
964.796331	1.002655
965.095601	1.002988
965.394835	1.001141
965.694030	1.003838
965.993189	1.001868
966.292309	1.003210
966.591393	1.000980
966.890439	1.002066
967.189447	1.003094
967.488419	1.002426
967.787353	1.002902
968.086249	1.002747
968.385108	1.001293
968.683930	1.003395
968.982714	1.002847
969.281462	1.002062
969.580172	1.002613
969.878844	1.003499
970.177480	1.002266
970.476078	1.002682
970.774639	1.003178
971.073162	1.001996
971.371649	1.000801
971.670098	1.001980
971.968510	1.001496
972.266885	1.001061
972.565223	1.001478
972.863524	1.000284
973.161788	1.000696
973.460014	1.003230
973.758204	1.001649
974.056356	1.002216
974.354471	1.001974
974.652550	1.003113
974.950591	1.001621
975.248595	1.001299
975.546563	1.002938
975.844493	1.002108
976.142386	1.000475
976.440243	1.002701
976.738062	1.002975
977.035845	1.001442
977.333590	1.002735
977.631299	1.001201
977.928971	1.003596
978.226606	1.002685
978.524204	1.001123
978.821765	1.002409
979.119290	1.002570
979.416777	1.001508
979.714228	1.003048
980.011642	1.002847
980.309020	1.001874
980.606360	1.001519
980.903664	1.001940
981.200931	1.001719
981.498162	1.000940
981.795356	1.001216
982.092513	0.999288
982.389633	0.999990
982.686717	0.996432
982.983764	0.996154
983.280775	0.995079
983.577749	0.996902
983.874686	0.995110
984.171587	0.996972
984.468451	0.998255
984.765279	1.000449
985.062070	1.000611
985.358824	0.999278
985.655543	1.001739
985.952224	1.001564
986.248869	1.001817
986.545478	1.003149
986.842050	1.001715
987.138586	1.001430
987.435086	1.002233
987.731549	1.002772
988.027975	1.002717
988.324366	1.002734
988.620719	1.003825
988.917037	1.003413
989.213318	1.002978
989.509563	1.004408
989.805772	1.005091
990.101944	1.003693
990.398080	1.002284
990.694180	1.003643
990.990244	1.003029
991.286271	1.002916
991.582262	1.003897
991.878217	1.003757
992.174136	1.004274
992.470019	1.002337
992.765865	1.004719
993.061676	1.003738
993.357450	1.004075
993.653188	1.004279
993.948890	1.004723
994.244556	1.002498
994.540186	1.002616
994.835780	1.002401
995.131337	1.003784
995.426859	1.002250
995.722345	1.003081
996.017795	1.002078
996.313208	1.002185
996.608586	1.001308
996.903928	1.001396
997.199234	1.002242
997.494504	1.002821
997.789738	1.000344
998.084936	1.002656
998.380099	1.001478
998.675225	1.003171
998.970316	1.003073
999.265371	1.003139
999.560390	1.003160
999.855373	1.001753
1000.150320	1.003824
1000.445232	1.003950
1000.740108	1.003279
1001.034948	1.002890
1001.329752	1.005286
1001.624521	1.003657
1001.919254	1.003793
1002.213951	1.003582
1002.508613	1.003251
1002.803239	1.003327
1003.097829	1.004650
1003.392384	1.003794
1003.686903	1.004610
1003.981386	1.003676
1004.275834	1.004997
1004.570246	1.002663
1004.864623	1.004707
1005.158964	1.005461
1005.453270	1.004371
1005.747540	1.004002
1006.041775	1.004124
1006.335974	1.004526
1006.630138	1.004160
1006.924266	1.003446
1007.218359	1.003266
1007.512416	1.005615
1007.806438	1.003843
1008.100425	1.005209
1008.394376	1.004635
1008.688292	1.004142
1008.982172	1.004356
1009.276017	1.004291
1009.569827	1.004428
1009.863602	1.002884
1010.157341	1.005324
1010.451045	1.004901
1010.744714	1.005669
1011.038347	1.003391
1011.331945	1.003747
1011.625508	1.004789
1011.919036	1.003675
1012.212528	1.005272
1012.505986	1.003344
1012.799408	1.004185
1013.092795	1.004662
1013.386147	1.003612
1013.679464	1.006430
1013.972745	1.004043
1014.265992	1.003434
1014.559204	1.003751
1014.852380	1.005096
1015.145521	1.004923
1015.438628	1.004437
1015.731699	1.003433
1016.024736	1.005663
1016.317737	1.005299
1016.610703	1.004558
1016.903635	1.005359
1017.196531	1.003840
1017.489393	1.004060
1017.782219	1.003016
1018.075011	1.004997
1018.367768	1.003815
1018.660490	1.004901
1018.953177	1.004901
1019.245829	1.004901
