Dividing Wavelength (nm)	Counts (n)	Blue Motor Position (mm): 16.600000	Red Motor Position (mm): 0.000000	
326.493990	1.000791
326.888308	1.000791
327.282561	1.000791
327.676750	1.003033
328.070874	1.002884
328.464933	1.003053
328.858929	1.003148
329.252859	1.002757
329.646726	1.003345
330.040528	1.001824
330.434265	1.002486
330.827938	1.001555
331.221547	1.001747
331.615091	1.002126
332.008571	1.003165
332.401986	1.002119
332.795338	1.001883
333.188625	1.002707
333.581847	1.002395
333.975006	1.003111
334.368100	1.001897
334.761129	1.001007
335.154095	1.002212
335.546996	1.001684
335.939833	0.996915
336.332606	0.998886
336.725315	0.997393
337.117960	1.000441
337.510540	0.997679
337.903056	0.999201
338.295508	1.000056
338.687896	0.998775
339.080220	0.999304
339.472480	0.998928
339.864676	0.999362
340.256807	0.998188
340.648875	0.999635
341.040879	0.999460
341.432818	0.999673
341.824694	0.999158
342.216506	0.999386
342.608253	0.998809
342.999937	0.998419
343.391557	0.998205
343.783113	1.001518
344.174605	0.999874
344.566033	0.998460
344.957397	0.999535
345.348697	0.997815
345.739934	0.999048
346.131106	0.997972
346.522215	0.997693
346.913260	0.998126
347.304241	0.997730
347.695159	0.998873
348.086012	0.998156
348.476802	0.998379
348.867528	0.997357
349.258191	0.999255
349.648789	0.998896
350.039324	0.999076
350.429796	0.997032
350.820203	0.998276
351.210548	0.999073
351.600828	0.998532
351.991045	0.997857
352.381198	0.999549
352.771288	0.998097
353.161314	0.998918
353.551276	0.997547
353.941175	0.996915
354.331010	0.997876
354.720782	0.999241
355.110490	0.997571
355.500135	0.998152
355.889717	0.996554
356.279235	0.997688
356.668689	0.997734
357.058080	0.997059
357.447408	0.995984
357.836672	0.997965
358.225873	0.998461
358.615010	0.997229
359.004084	0.996381
359.393095	0.998056
359.782043	0.997458
360.170927	0.997492
360.559748	0.997276
360.948505	0.997907
361.337199	0.996471
361.725830	0.996998
362.114398	0.996766
362.502903	0.995359
362.891344	0.996411
363.279722	0.996924
363.668037	0.997054
364.056289	0.996311
364.444478	0.997730
364.832603	0.996162
365.220665	0.997116
365.608665	0.997033
365.996601	0.995967
366.384474	0.995824
366.772284	0.996089
367.160031	0.995145
367.547715	0.994371
367.935336	0.994584
368.322893	0.992723
368.710388	0.991937
369.097820	0.990473
369.485189	0.987933
369.872495	0.987300
370.259738	0.984205
370.646918	0.981913
371.034035	0.978695
371.421090	0.976372
371.808081	0.971400
372.195010	0.968599
372.581875	0.963458
372.968678	0.959447
373.355418	0.956254
373.742096	0.948047
374.128710	0.944312
374.515262	0.938833
374.901751	0.934700
375.288177	0.929446
375.674540	0.922181
376.060841	0.915472
376.447079	0.908865
376.833254	0.901492
377.219367	0.897462
377.605417	0.885123
377.991404	0.883382
378.377329	0.876810
378.763191	0.870770
379.148991	0.861025
379.534727	0.853594
379.920402	0.844876
380.306013	0.841666
380.691563	0.828148
381.077049	0.821582
381.462474	0.818783
381.847835	0.806791
382.233134	0.802046
382.618371	0.801941
383.003545	0.785747
383.388657	0.783470
383.773706	0.775414
384.158693	0.771877
384.543618	0.766506
384.928480	0.757520
385.313280	0.747429
385.698017	0.746676
386.082692	0.735207
386.467305	0.732914
386.851856	0.728434
387.236344	0.723043
387.620770	0.717929
388.005133	0.712422
388.389435	0.705650
388.773674	0.703642
389.157851	0.694835
389.541965	0.693391
389.926018	0.699287
390.310008	0.686060
390.693936	0.682448
391.077802	0.675690
391.461606	0.676276
391.845348	0.665854
392.229027	0.665070
392.612645	0.663976
392.996200	0.651095
393.379694	0.643768
393.763125	0.634240
394.146494	0.638486
394.529801	0.629277
394.913047	0.621301
395.296230	0.626926
395.679351	0.618310
396.062410	0.615979
396.445408	0.618023
396.828343	0.613951
397.211217	0.608256
397.594028	0.620492
397.976778	0.610859
398.359466	0.607032
398.742092	0.602453
399.124656	0.615048
399.507158	0.602896
399.889598	0.600210
400.271977	0.590860
400.654294	0.595554
401.036549	0.594335
401.418742	0.598791
401.800874	0.584806
402.182944	0.581547
402.564952	0.573159
402.946898	0.574608
403.328783	0.575487
403.710606	0.586617
404.092367	0.561776
404.474067	0.567147
404.855705	0.566003
405.237282	0.574105
405.618797	0.560534
406.000250	0.556183
406.381642	0.546651
406.762972	0.551881
407.144240	0.550176
407.525447	0.549736
407.906593	0.542751
408.287677	0.539095
408.668700	0.546455
409.049661	0.540608
409.430560	0.535977
409.811399	0.544626
410.192176	0.525603
410.572891	0.533331
410.953545	0.521026
411.334138	0.535316
411.714669	0.527365
412.095139	0.539310
412.475547	0.523189
412.855894	0.525843
413.236180	0.524987
413.616405	0.529911
413.996568	0.519583
414.376670	0.526654
414.756711	0.531821
415.136691	0.528168
415.516609	0.519300
415.896466	0.516337
416.276262	0.512398
416.655997	0.514233
417.035670	0.495131
417.415283	0.487036
417.794834	0.491442
418.174324	0.497321
418.553753	0.506230
418.933121	0.488414
419.312428	0.482450
419.691674	0.487964
420.070859	0.475892
420.449983	0.484403
420.829045	0.473477
421.208047	0.482071
421.586988	0.475642
421.965867	0.474502
422.344686	0.463450
422.723444	0.476231
423.102141	0.492808
423.480777	0.465059
423.859352	0.486571
424.237866	0.463157
424.616319	0.464514
424.994712	0.455321
425.373044	0.465648
425.751314	0.453991
426.129524	0.470473
426.507673	0.453658
426.885762	0.447729
427.263789	0.452842
427.641756	0.462636
428.019662	0.452823
428.397508	0.451945
428.775292	0.456556
429.153016	0.448189
429.530679	0.454346
429.908282	0.447752
430.285824	0.457930
430.663305	0.435778
431.040726	0.457414
431.418086	0.457316
431.795385	0.449204
432.172624	0.448402
432.549802	0.448613
432.926920	0.447417
433.303977	0.446895
433.680974	0.444005
434.057910	0.442430
434.434786	0.441509
434.811601	0.444550
435.188355	0.426566
435.565050	0.436544
435.941683	0.437097
436.318257	0.421423
436.694770	0.422502
437.071222	0.420728
437.447614	0.425125
437.823946	0.431283
438.200218	0.420738
438.576429	0.429973
438.952580	0.423432
439.328670	0.419859
439.704700	0.426262
440.080670	0.427324
440.456580	0.409411
440.832429	0.417066
441.208218	0.428139
441.583947	0.417415
441.959616	0.416599
442.335224	0.422034
442.710773	0.412960
443.086261	0.410229
443.461689	0.424745
443.837057	0.414544
444.212365	0.404610
444.587612	0.411917
444.962800	0.401739
445.337927	0.402857
445.712995	0.429098
446.088002	0.391177
446.462949	0.401493
446.837837	0.406962
447.212664	0.395063
447.587431	0.386506
447.962139	0.357074
448.336786	0.315942
448.711374	0.326408
449.085901	0.370989
449.460369	0.374989
449.834776	0.378568
450.209124	0.357775
450.583412	0.350383
450.957640	0.343553
451.331808	0.355086
451.705917	0.378524
452.079965	0.383011
452.453954	0.371777
452.827883	0.377934
453.201752	0.372855
453.575562	0.383610
453.949311	0.372784
454.323001	0.378909
454.696632	0.374332
455.070202	0.367487
455.443713	0.359220
455.817164	0.353839
456.190556	0.349422
456.563888	0.345957
456.937160	0.343860
457.310373	0.361334
457.683526	0.360285
458.056619	0.365793
458.429653	0.366277
458.802628	0.369674
459.175542	0.364261
459.548398	0.346623
459.921194	0.339448
460.293930	0.338937
460.666607	0.316989
461.039224	0.304984
461.411782	0.300379
461.784280	0.300076
462.156719	0.303868
462.529099	0.308463
462.901419	0.324658
463.273680	0.328870
463.645882	0.328484
464.018024	0.334134
464.390106	0.326972
464.762130	0.311206
465.134094	0.294651
465.505999	0.263644
465.877845	0.233845
466.249631	0.220780
466.621358	0.228299
466.993026	0.242420
467.364634	0.248274
467.736184	0.257278
468.107674	0.266133
468.479105	0.265191
468.850477	0.271688
469.221790	0.278835
469.593043	0.289311
469.964238	0.294001
470.335373	0.293324
470.706449	0.291430
471.077467	0.291952
471.448425	0.253915
471.819324	0.229343
472.190164	0.229043
472.560945	0.257964
472.931667	0.280357
473.302330	0.284749
473.672934	0.296203
474.043479	0.284485
474.413965	0.286338
474.784393	0.289518
475.154761	0.284828
475.525070	0.282171
475.895321	0.287353
476.265513	0.281896
476.635645	0.277116
477.005719	0.277047
477.375734	0.273886
477.745691	0.266401
478.115588	0.263470
478.485427	0.256904
478.855207	0.243505
479.224928	0.226090
479.594591	0.214070
479.964194	0.217693
480.333739	0.218863
480.703226	0.220198
481.072653	0.218555
481.442022	0.214254
481.811333	0.210818
482.180584	0.214521
482.549777	0.219872
482.918912	0.223150
483.287988	0.222937
483.657005	0.222194
484.025964	0.229137
484.394864	0.226118
484.763706	0.226851
485.132489	0.231967
485.501213	0.232737
485.869879	0.230881
486.238487	0.234118
486.607036	0.232444
486.975527	0.236961
487.343959	0.232498
487.712333	0.231848
488.080648	0.232975
488.448905	0.232221
488.817104	0.233663
489.185244	0.228014
489.553326	0.224673
489.921350	0.214652
490.289315	0.197389
490.657222	0.192371
491.025070	0.193632
491.392861	0.195628
491.760593	0.201432
492.128267	0.207123
492.495883	0.212345
492.863440	0.218896
493.230939	0.225064
493.598380	0.226922
493.965763	0.228827
494.333088	0.231029
494.700354	0.232150
495.067563	0.231511
495.434713	0.235029
495.801805	0.232736
496.168839	0.234174
496.535815	0.235793
496.902733	0.235726
497.269593	0.237073
497.636395	0.234983
498.003139	0.235232
498.369825	0.238461
498.736453	0.234793
499.103023	0.236240
499.469535	0.235482
499.835989	0.236194
500.202385	0.236604
500.568723	0.240121
500.935003	0.235067
501.301226	0.239670
501.667390	0.233771
502.033497	0.232104
502.399546	0.235082
502.765537	0.236852
503.131470	0.235367
503.497345	0.231849
503.863163	0.240323
504.228923	0.233379
504.594625	0.232006
504.960269	0.237487
505.325856	0.232846
505.691385	0.237062
506.056856	0.233879
506.422270	0.233140
506.787625	0.235885
507.152924	0.233387
507.518164	0.233899
507.883347	0.235359
508.248472	0.237163
508.613540	0.232274
508.978550	0.234717
509.343503	0.235145
509.708398	0.233011
510.073236	0.230642
510.438016	0.230338
510.802738	0.231303
511.167403	0.230685
511.532010	0.232794
511.896561	0.228127
512.261053	0.226623
512.625488	0.229172
512.989866	0.229241
513.354186	0.229598
513.718449	0.231433
514.082655	0.227995
514.446803	0.230323
514.810894	0.227979
515.174927	0.230848
515.538904	0.230297
515.902822	0.227253
516.266684	0.229959
516.630488	0.230985
516.994235	0.229749
517.357925	0.228791
517.721558	0.226892
518.085133	0.226754
518.448651	0.226763
518.812112	0.229367
519.175516	0.229040
519.538863	0.226675
519.902152	0.228654
520.265385	0.225278
520.628560	0.227412
520.991678	0.227800
521.354739	0.226849
521.717743	0.228235
522.080690	0.228958
522.443580	0.226399
522.806413	0.227417
523.169189	0.227349
523.531908	0.226277
523.894569	0.230030
524.257174	0.230326
524.619722	0.228157
524.982213	0.229713
525.344647	0.228832
525.707025	0.230121
526.069345	0.228448
526.431608	0.230766
526.793815	0.228655
527.155964	0.233361
527.518057	0.232497
527.880093	0.234110
528.242072	0.232790
528.603995	0.235081
528.965860	0.237403
529.327669	0.236606
529.689421	0.238003
530.051117	0.239358
530.412755	0.237580
530.774337	0.240333
531.135862	0.241543
531.497331	0.241031
531.858743	0.244717
532.220098	0.241988
532.581396	0.245246
532.942638	0.246273
533.303824	0.247842
533.664953	0.248571
534.026025	0.250967
534.387040	0.249754
534.747999	0.250042
535.108902	0.249814
535.469748	0.255960
535.830537	0.254432
536.191270	0.255629
536.551947	0.256019
536.912567	0.257094
537.273131	0.259476
537.633638	0.260712
537.994089	0.262558
538.354483	0.264682
538.714821	0.262261
539.075103	0.263316
539.435328	0.265155
539.795497	0.269931
540.155609	0.268124
540.515665	0.267338
540.875665	0.274144
541.235609	0.274400
541.595496	0.275426
541.955328	0.273897
542.315102	0.277535
542.674821	0.280210
543.034483	0.281409
543.394090	0.282860
543.753640	0.286232
544.113134	0.283166
544.472571	0.287924
544.831953	0.286521
545.191278	0.292251
545.550548	0.293098
545.909761	0.291914
546.268918	0.295096
546.628019	0.295111
546.987064	0.299654
547.346053	0.302617
547.704986	0.303517
548.063863	0.305132
548.422684	0.307367
548.781449	0.311179
549.140158	0.310970
549.498811	0.315523
549.857408	0.320380
550.215949	0.318653
550.574434	0.323592
550.932864	0.324794
551.291237	0.324827
551.649555	0.329609
552.007817	0.330982
552.366022	0.334215
552.724173	0.337566
553.082267	0.339618
553.440305	0.340773
553.798288	0.346441
554.156215	0.346708
554.514086	0.349777
554.871902	0.355767
555.229661	0.357559
555.587365	0.361551
555.945014	0.365990
556.302606	0.367486
556.660143	0.371467
557.017625	0.372510
557.375050	0.377205
557.732421	0.377570
558.089735	0.382581
558.446994	0.385417
558.804197	0.388287
559.161345	0.391329
559.518437	0.396310
559.875474	0.399432
560.232455	0.401887
560.589381	0.405754
560.946251	0.411025
561.303065	0.410686
561.659825	0.415861
562.016528	0.420256
562.373177	0.424739
562.729770	0.427549
563.086307	0.431484
563.442789	0.434095
563.799216	0.440926
564.155587	0.442983
564.511904	0.447629
564.868164	0.451135
565.224370	0.453984
565.580520	0.460879
565.936615	0.462058
566.292654	0.469898
566.648638	0.470295
567.004567	0.475055
567.360441	0.479085
567.716260	0.484549
568.072023	0.485928
568.427732	0.491724
568.783385	0.494847
569.138982	0.499254
569.494525	0.502259
569.850013	0.508315
570.205445	0.511401
570.560823	0.515847
570.916145	0.521818
571.271412	0.525044
571.626625	0.530026
571.981782	0.533376
572.336884	0.538848
572.691931	0.541030
573.046923	0.546994
573.401860	0.550905
573.756743	0.556473
574.111570	0.559762
574.466342	0.563685
574.821059	0.567410
575.175722	0.572480
575.530330	0.577221
575.884882	0.579943
576.239380	0.585938
576.593823	0.589657
576.948211	0.593728
577.302544	0.597989
577.656823	0.603513
578.011047	0.606415
578.365216	0.612010
578.719330	0.615823
579.073389	0.619954
579.427394	0.623522
579.781344	0.628194
580.135239	0.632781
580.489080	0.636487
580.842866	0.642565
581.196597	0.645853
581.550273	0.648063
581.903895	0.653951
582.257463	0.655311
582.610975	0.661743
582.964434	0.664182
583.317837	0.670680
583.671186	0.672567
584.024481	0.677498
584.377721	0.681353
584.730906	0.686181
585.084037	0.690219
585.437113	0.693697
585.790135	0.697313
586.143103	0.701804
586.496016	0.705094
586.848874	0.708262
587.201679	0.710848
587.554428	0.716294
587.907124	0.720105
588.259765	0.722992
588.612352	0.727336
588.964884	0.730660
589.317362	0.734961
589.669786	0.738338
590.022155	0.740165
590.374470	0.744380
590.726731	0.746517
591.078937	0.753749
591.431090	0.756419
591.783188	0.759780
592.135232	0.764771
592.487222	0.765846
592.839157	0.768730
593.191038	0.773264
593.542866	0.777448
593.894639	0.781551
594.246358	0.783671
594.598022	0.786900
594.949633	0.790846
595.301190	0.794245
595.652692	0.796492
596.004141	0.799291
596.355535	0.803409
596.706876	0.807306
597.058162	0.811200
597.409395	0.812765
597.760573	0.814844
598.111698	0.818394
598.462768	0.821701
598.813785	0.823494
599.164748	0.827305
599.515657	0.829350
599.866511	0.834315
600.217312	0.834844
600.568060	0.838791
600.918753	0.840993
601.269392	0.843734
601.619978	0.847761
601.970510	0.849669
602.320988	0.851512
602.671412	0.854603
603.021783	0.857060
603.372100	0.859779
603.722363	0.862418
604.072572	0.864576
604.422728	0.866258
604.772830	0.869034
605.122878	0.871876
605.472872	0.873693
605.822813	0.875505
606.172701	0.878894
606.522534	0.880453
606.872314	0.882182
607.222041	0.884131
607.571714	0.885779
607.921333	0.887688
608.270899	0.890150
608.620411	0.890868
608.969870	0.894687
609.319276	0.895564
609.668627	0.897751
610.017926	0.898265
610.367171	0.901040
610.716362	0.902535
611.065500	0.903699
611.414585	0.906277
611.763616	0.906223
612.112594	0.909018
612.461518	0.909873
612.810389	0.911716
613.159207	0.913685
613.507971	0.914483
613.856682	0.917659
614.205340	0.916126
614.553945	0.918932
614.902496	0.920578
615.250994	0.922119
615.599439	0.923653
615.947830	0.924112
616.296169	0.926306
616.644454	0.927196
616.992686	0.927941
617.340864	0.930064
617.688990	0.930119
618.037063	0.931927
618.385082	0.932692
618.733048	0.933479
619.080961	0.935364
619.428821	0.936516
619.776628	0.937676
620.124382	0.938816
620.472083	0.940458
620.819731	0.942201
621.167326	0.942846
621.514868	0.944479
621.862357	0.945447
622.209793	0.947151
622.557176	0.946782
622.904506	0.948707
623.251783	0.950665
623.599007	0.952634
623.946179	0.951695
624.293297	0.954355
624.640363	0.956466
624.987376	0.955601
625.334336	0.957104
625.681243	0.959036
626.028097	0.959566
626.374899	0.960460
626.721647	0.961288
627.068343	0.961911
627.414987	0.962922
627.761577	0.963134
628.108115	0.963854
628.454600	0.966267
628.801032	0.966410
629.147412	0.965921
629.493739	0.968040
629.840014	0.967191
630.186236	0.967319
630.532405	0.967986
630.878521	0.968939
631.224585	0.969545
631.570597	0.969845
631.916556	0.969823
632.262462	0.969707
632.608316	0.971722
632.954117	0.971277
633.299866	0.972646
633.645562	0.973822
633.991206	0.974248
634.336797	0.974345
634.682336	0.975497
635.027823	0.976293
635.373257	0.975939
635.718639	0.977927
636.063968	0.977301
636.409245	0.977794
636.754470	0.977704
637.099642	0.979334
637.444762	0.979307
637.789829	0.979514
638.134845	0.980117
638.479808	0.980163
638.824719	0.981390
639.169577	0.981590
639.514383	0.982132
639.859137	0.982156
640.203839	0.981880
640.548489	0.982601
640.893086	0.982845
641.237632	0.983828
641.582125	0.983162
641.926566	0.984999
642.270955	0.983777
642.615292	0.983664
642.959576	0.984499
643.303809	0.985661
643.647990	0.984868
643.992118	0.985166
644.336195	0.984326
644.680219	0.985734
645.024192	0.985874
645.368112	0.985286
645.711981	0.986302
646.055797	0.985727
646.399562	0.985344
646.743274	0.986941
647.086935	0.985667
647.430544	0.985830
647.774101	0.986460
648.117606	0.987310
648.461059	0.987869
648.804460	0.986338
649.147810	0.986618
649.491108	0.986895
649.834354	0.987209
650.177548	0.987816
650.520690	0.987570
650.863781	0.987210
651.206820	0.987540
651.549807	0.988508
651.892742	0.989219
652.235626	0.988645
652.578458	0.988560
652.921238	0.989756
653.263967	0.989189
653.606644	0.989452
653.949269	0.989751
654.291843	0.988911
654.634365	0.989979
654.976836	0.989508
655.319255	0.989939
655.661622	0.990382
656.003938	0.989646
656.346203	0.988321
656.688416	0.990707
657.030577	0.990467
657.372687	0.989118
657.714746	0.990632
658.056753	0.990089
658.398708	0.990179
658.740612	0.991330
659.082465	0.989939
659.424266	0.990588
659.766016	0.990269
660.107715	0.991132
660.449362	0.990182
660.790958	0.991268
661.132503	0.991921
661.473996	0.990384
661.815438	0.990582
662.156829	0.991498
662.498168	0.991769
662.839456	0.990119
663.180693	0.991549
663.521879	0.990603
663.863013	0.991829
664.204097	0.991136
664.545129	0.991290
664.886110	0.991375
665.227040	0.991083
665.567918	0.991262
665.908746	0.991237
666.249522	0.990469
666.590248	0.991645
666.930922	0.990965
667.271545	0.991285
667.612118	0.991164
667.952639	0.991929
668.293109	0.991496
668.633528	0.990655
668.973896	0.991168
669.314213	0.991283
669.654480	0.991540
669.994695	0.991422
670.334859	0.991845
670.674973	0.991886
671.015035	0.991354
671.355047	0.992129
671.695008	0.991634
672.034918	0.991026
672.374777	0.991952
672.714585	0.992302
673.054342	0.991716
673.394049	0.990739
673.733705	0.992063
674.073310	0.991271
674.412864	0.991646
674.752368	0.991260
675.091820	0.992697
675.431223	0.992788
675.770574	0.991337
676.109875	0.991681
676.449125	0.991941
676.788324	0.991692
677.127473	0.992762
677.466571	0.992636
677.805619	0.992622
678.144616	0.992829
678.483562	0.992763
678.822458	0.992932
679.161303	0.991961
679.500098	0.992375
679.838842	0.992894
680.177535	0.992937
680.516179	0.991698
680.854771	0.992304
681.193314	0.991691
681.531805	0.992283
681.870247	0.991814
682.208638	0.992114
682.546978	0.990406
682.885268	0.991486
683.223508	0.991205
683.561697	0.992247
683.899836	0.991774
684.237925	0.992084
684.575963	0.991664
684.913951	0.992100
685.251889	0.991755
685.589776	0.991288
685.927614	0.992365
686.265401	0.991463
686.603137	0.991989
686.940824	0.991966
687.278460	0.992721
687.616046	0.991828
687.953582	0.991710
688.291068	0.992322
688.628504	0.992395
688.965889	0.991404
689.303224	0.989979
689.640510	0.991979
689.977745	0.991974
690.314930	0.991567
690.652065	0.991523
690.989150	0.991170
691.326185	0.992209
691.663170	0.991870
692.000105	0.992510
692.336990	0.992913
692.673825	0.991750
693.010610	0.991965
693.347345	0.993160
693.684030	0.992540
694.020665	0.992179
694.357251	0.993080
694.693786	0.993398
695.030272	0.992086
695.366707	0.992628
695.703093	0.992079
696.039429	0.992765
696.375716	0.993490
696.711952	0.993270
697.048139	0.993784
697.384276	0.993309
697.720363	0.992681
698.056400	0.992102
698.392388	0.992822
698.728326	0.992977
699.064214	0.994024
699.400053	0.992282
699.735842	0.993810
700.071581	0.993194
700.407270	0.993078
700.742910	0.993780
701.078501	0.993628
701.414042	0.993899
701.749533	0.992434
702.084974	0.993891
702.420366	0.992843
702.755709	0.993694
703.091002	0.994055
703.426246	0.994430
703.761440	0.992631
704.096584	0.993241
704.431679	0.993483
704.766725	0.993025
705.101721	0.994402
705.436668	0.993779
705.771565	0.993181
706.106413	0.993282
706.441212	0.992996
706.775961	0.993565
707.110661	0.992076
707.445311	0.993618
707.779913	0.994564
708.114465	0.994049
708.448967	0.994518
708.783421	0.994572
709.117825	0.992857
709.452180	0.993435
709.786485	0.993408
710.120742	0.992057
710.454949	0.992226
710.789107	0.993769
711.123216	0.991608
711.457275	0.991811
711.791286	0.993397
712.125247	0.994038
712.459159	0.992201
712.793023	0.991912
713.126837	0.993299
713.460602	0.991412
713.794318	0.991859
714.127985	0.992155
714.461602	0.992323
714.795171	0.991811
715.128691	0.991761
715.462162	0.992910
715.795584	0.992569
716.128957	0.993352
716.462281	0.993771
716.795556	0.992263
717.128782	0.994027
717.461960	0.993260
717.795088	0.993476
718.128167	0.993139
718.461198	0.992699
718.794180	0.993146
719.127113	0.993165
719.459997	0.992919
719.792833	0.992905
720.125619	0.993047
720.458357	0.993007
720.791046	0.993646
721.123686	0.993775
721.456278	0.993362
721.788821	0.993916
722.121315	0.994348
722.453761	0.993412
722.786158	0.993788
723.118506	0.993552
723.450805	0.993524
723.783056	0.994037
724.115259	0.993355
724.447412	0.994666
724.779518	0.994624
725.111574	0.993196
725.443582	0.993916
725.775542	0.994151
726.107453	0.994293
726.439315	0.994317
726.771129	0.993395
727.102895	0.994376
727.434612	0.993876
727.766281	0.993766
728.097901	0.992887
728.429473	0.994535
728.760996	0.992292
729.092471	0.992906
729.423897	0.993449
729.755276	0.993647
730.086606	0.992398
730.417887	0.993718
730.749120	0.993582
731.080305	0.993841
731.411442	0.991823
731.742530	0.991939
732.073570	0.991752
732.404562	0.992382
732.735506	0.992317
733.066401	0.992905
733.397249	0.993102
733.728048	0.992769
734.058798	0.993290
734.389501	0.993172
734.720156	0.993718
735.050762	0.994409
735.381320	0.992697
735.711831	0.993568
736.042293	0.993201
736.372707	0.994484
736.703073	0.993105
737.033391	0.993765
737.363661	0.994236
737.693883	0.993967
738.024056	0.993172
738.354182	0.993945
738.684260	0.992675
739.014290	0.993034
739.344272	0.993579
739.674207	0.993628
740.004093	0.993336
740.333931	0.992929
740.663722	0.992672
740.993464	0.993751
741.323159	0.993417
741.652806	0.993539
741.982405	0.992832
742.311956	0.994580
742.641460	0.994719
742.970915	0.994061
743.300323	0.992572
743.629683	0.993413
743.958996	0.995023
744.288260	0.993539
744.617477	0.993747
744.946647	0.993549
745.275768	0.994073
745.604842	0.993637
745.933869	0.993764
746.262847	0.994653
746.591778	0.993893
746.920662	0.994156
747.249498	0.994584
747.578286	0.995710
747.907027	0.994690
748.235720	0.994976
748.564365	0.994215
748.892963	0.993667
749.221514	0.993853
749.550017	0.993821
749.878473	0.993653
750.206881	0.994772
750.535242	0.993845
750.863555	0.993482
751.191821	0.993593
751.520039	0.994904
751.848210	0.992207
752.176334	0.994256
752.504411	0.993006
752.832440	0.993008
753.160421	0.994924
753.488356	0.994187
753.816243	0.994078
754.144082	0.993660
754.471875	0.994146
754.799620	0.994799
755.127318	0.993945
755.454969	0.995213
755.782572	0.995585
756.110129	0.993800
756.437638	0.995833
756.765100	0.994872
757.092515	0.994258
757.419882	0.994543
757.747203	0.994295
758.074477	0.995218
758.401703	0.994035
758.728882	0.993812
759.056014	0.994336
759.383099	0.994515
759.710138	0.993650
760.037129	0.993952
760.364073	0.994435
760.690970	0.993873
761.017820	0.992993
761.344623	0.994067
761.671379	0.993935
761.998088	0.993814
762.324751	0.993412
762.651366	0.993469
762.977935	0.991953
763.304456	0.990569
763.630931	0.988924
763.957359	0.987493
764.283740	0.989480
764.610074	0.990886
764.936362	0.991479
765.262602	0.992681
765.588796	0.993547
765.914943	0.993101
766.241044	0.993412
766.567097	0.994164
766.893104	0.995225
767.219064	0.993458
767.544978	0.995427
767.870845	0.994738
768.196665	0.994766
768.522438	0.995372
768.848165	0.994906
769.173846	0.995375
769.499479	0.997019
769.825066	0.996125
770.150607	0.995645
770.476101	0.995817
770.801548	0.996314
771.126949	0.995985
771.452303	0.995796
771.777611	0.997048
772.102872	0.995886
772.428087	0.995465
772.753256	0.995950
773.078378	0.996015
773.403453	0.994922
773.728482	0.997647
774.053465	0.995516
774.378401	0.996648
774.703291	0.997065
775.028135	0.997326
775.352932	0.995170
775.677683	0.997463
776.002388	0.996700
776.327046	0.996765
776.651658	0.998004
776.976224	0.997141
777.300743	0.996428
777.625216	0.996227
777.949643	0.996382
778.274024	0.996633
778.598359	0.997182
778.922647	0.996581
779.246889	0.997652
779.571086	0.997234
779.895236	0.996775
780.219339	0.996500
780.543397	0.996051
780.867409	0.996872
781.191374	0.996538
781.515294	0.997092
781.839167	0.996590
782.162995	0.996545
782.486776	0.995855
782.810511	0.996995
783.134201	0.995729
783.457844	0.996485
783.781441	0.996482
784.104993	0.995602
784.428498	0.997258
784.751958	0.997766
785.075372	0.996343
785.398739	0.996724
785.722061	0.996504
786.045337	0.997306
786.368568	0.996735
786.691752	0.997090
787.014891	0.996877
787.337983	0.995335
787.661030	0.996111
787.984031	0.997295
788.306987	0.995405
788.629897	0.993274
788.952760	0.996328
789.275579	0.995996
789.598351	0.995062
789.921078	0.997150
790.243759	0.996224
790.566395	0.996045
790.888984	0.996549
791.211529	0.996281
791.534027	0.996116
791.856480	0.996860
792.178888	0.996569
792.501249	0.995941
792.823566	0.997542
793.145836	0.996949
793.468062	0.997280
793.790241	0.998077
794.112375	0.996578
794.434464	0.996397
794.756507	0.997067
795.078505	0.998091
795.400457	0.997117
795.722364	0.996830
796.044226	0.996248
796.366042	0.995283
796.687812	0.994626
797.009538	0.996136
797.331218	0.996201
797.652852	0.997394
797.974442	0.996764
798.295986	0.997161
798.617484	0.995411
798.938938	0.996645
799.260346	0.996861
799.581709	0.995220
799.903026	0.996146
800.224299	0.996127
800.545526	0.995735
800.866708	0.995671
801.187845	0.997113
801.508936	0.998321
801.829983	0.996980
802.150984	0.998038
802.471940	0.997056
802.792851	0.996964
803.113717	0.999320
803.434538	0.997770
803.755314	0.998301
804.076045	0.996551
804.396731	0.996845
804.717372	0.996114
805.037967	0.998273
805.358518	0.997701
805.679024	0.997399
805.999485	0.997757
806.319901	0.996046
806.640272	0.998083
806.960598	0.996541
807.280879	0.997096
807.601115	0.996930
807.921306	0.997816
808.241453	0.997685
808.561554	0.997439
808.881611	0.998462
809.201623	0.997234
809.521590	0.996492
809.841513	0.997810
810.161390	0.996144
810.481223	0.997269
810.801011	0.997740
811.120755	0.999236
811.440453	0.996511
811.760107	0.997296
812.079716	0.996903
812.399281	0.997676
812.718801	0.997516
813.038276	0.997036
813.357707	0.997341
813.677093	0.997974
813.996434	0.997457
814.315731	0.998465
814.634983	0.997450
814.954191	0.997791
815.273354	0.997394
815.592473	0.997042
815.911547	0.997546
816.230577	0.998290
816.549562	0.997046
816.868502	0.995871
817.187399	0.997578
817.506250	0.996901
817.825058	0.994941
818.143821	0.996403
818.462539	0.995892
818.781213	0.994693
819.099843	0.995584
819.418429	0.995059
819.736970	0.994489
820.055466	0.992778
820.373919	0.992528
820.692327	0.991886
821.010691	0.991021
821.329011	0.986776
821.647286	0.983024
821.965517	0.979627
822.283704	0.974921
822.601847	0.972590
822.919945	0.974274
823.237999	0.976232
823.556010	0.977673
823.873976	0.979451
824.191897	0.982713
824.509775	0.984200
824.827609	0.986044
825.145398	0.988276
825.463144	0.986742
825.780845	0.987671
826.098502	0.987228
826.416116	0.987051
826.733685	0.984558
827.051210	0.981463
827.368692	0.981732
827.686129	0.983388
828.003522	0.987232
828.320872	0.987778
828.638177	0.990624
828.955439	0.991613
829.272656	0.992954
829.589830	0.992739
829.906960	0.995243
830.224046	0.994094
830.541088	0.995580
830.858086	0.996158
831.175041	0.996781
831.491952	0.995437
831.808819	0.996108
832.125642	0.995011
832.442421	0.996010
832.759157	0.994592
833.075849	0.991454
833.392497	0.990223
833.709101	0.987813
834.025662	0.987256
834.342179	0.988165
834.658653	0.991234
834.975083	0.992252
835.291469	0.993104
835.607811	0.993427
835.924110	0.994260
836.240366	0.996882
836.556578	0.995959
836.872746	0.997240
837.188871	0.996757
837.504952	0.997327
837.820990	0.998065
838.136984	0.997140
838.452935	0.996855
838.768842	0.997737
839.084706	0.997108
839.400526	0.997488
839.716303	0.994196
840.032037	0.994099
840.347727	0.993265
840.663373	0.994066
840.978977	0.994547
841.294537	0.996036
841.610054	0.996496
841.925527	0.997274
842.240957	0.997704
842.556344	0.997910
842.871687	0.997729
843.186987	0.998367
843.502244	0.999002
843.817458	0.997951
844.132629	0.999106
844.447756	0.998818
844.762840	0.999191
845.077881	1.001087
845.392879	0.998910
845.707833	0.999437
846.022745	0.998537
846.337613	1.000199
846.652438	0.999492
846.967221	0.999475
847.281960	1.000278
847.596656	1.000805
847.911309	1.000224
848.225919	0.998034
848.540485	0.999584
848.855009	1.000639
849.169490	0.999829
849.483928	0.999495
849.798323	0.997718
850.112675	0.999730
850.426984	1.000100
850.741251	0.999735
851.055474	0.999654
851.369654	0.999893
851.683792	1.000098
851.997887	0.998569
852.311938	0.999522
852.625947	0.997996
852.939914	0.998685
853.253837	0.999580
853.567718	1.000848
853.881555	1.000174
854.195350	0.999700
854.509103	0.999688
854.822812	0.999631
855.136479	0.999668
855.450103	1.000797
855.763685	0.999761
856.077224	0.999890
856.390720	0.999234
856.704173	1.000553
857.017584	1.000920
857.330953	0.999705
857.644278	0.999730
857.957561	1.000684
858.270802	0.999608
858.584000	0.999573
858.897155	0.998622
859.210268	0.999796
859.523339	0.998859
859.836367	0.999398
860.149352	0.998684
860.462295	0.998526
860.775195	0.999612
861.088054	0.998598
861.400869	0.999282
861.713642	0.998790
862.026373	0.999599
862.339062	0.999350
862.651708	1.000484
862.964312	0.999077
863.276873	0.999467
863.589392	0.998524
863.901869	0.998766
864.214303	0.999572
864.526696	0.999839
864.839045	0.999803
865.151353	0.999775
865.463619	0.997868
865.775842	0.998807
866.088023	0.999754
866.400162	0.999739
866.712258	1.000338
867.024313	0.999210
867.336325	0.999304
867.648296	0.999410
867.960224	0.999463
868.272110	1.000209
868.583954	1.000046
868.895755	1.000591
869.207515	0.998569
869.519233	0.999492
869.830909	0.997707
870.142542	0.998780
870.454134	0.999236
870.765684	0.997951
871.077191	0.999682
871.388657	0.998037
871.700081	0.999007
872.011463	0.999444
872.322803	0.997858
872.634101	0.997722
872.945357	0.998090
873.256571	0.997949
873.567744	0.998537
873.878874	0.996594
874.189963	0.998333
874.501010	1.000120
874.812015	0.998465
875.122979	0.997575
875.433900	0.997683
875.744780	0.998318
876.055618	0.997581
876.366415	0.997214
876.677169	0.997643
876.987882	0.996610
877.298554	0.998874
877.609183	0.997359
877.919771	0.997518
878.230317	0.997878
878.540822	0.996877
878.851285	0.995759
879.161707	0.995743
879.472087	0.996886
879.782425	0.993127
880.092722	0.992118
880.402977	0.987548
880.713191	0.984789
881.023363	0.979662
881.333494	0.976771
881.643583	0.976772
881.953631	0.976762
882.263637	0.976090
882.573602	0.977142
882.883526	0.980135
883.193408	0.982572
883.503248	0.984380
883.813048	0.985898
884.122806	0.987479
884.432522	0.988698
884.742197	0.991361
885.051831	0.991384
885.361424	0.992004
885.670975	0.994530
885.980485	0.993837
886.289954	0.994854
886.599382	0.995111
886.908768	0.996519
887.218113	0.995313
887.527417	0.995470
887.836680	0.996578
888.145901	0.997493
888.455082	0.997782
888.764221	0.998163
889.073319	0.996933
889.382376	0.997353
889.691392	0.996599
890.000366	0.997865
890.309300	0.998341
890.618193	0.997695
890.927044	0.997780
891.235855	0.997492
891.544625	0.997698
891.853353	0.997107
892.162041	0.996935
892.470687	0.996874
892.779293	0.997000
893.087858	0.995485
893.396381	0.995022
893.704864	0.993151
894.013306	0.993132
894.321707	0.990645
894.630068	0.989702
894.938387	0.988308
895.246665	0.988016
895.554903	0.988835
895.863100	0.992031
896.171256	0.991745
896.479371	0.992535
896.787446	0.993243
897.095480	0.994796
897.403473	0.995042
897.711425	0.995356
898.019336	0.996649
898.327207	0.996225
898.635038	0.995401
898.942827	0.995945
899.250576	0.996627
899.558284	0.996961
899.865952	0.996883
900.173579	0.997459
900.481165	0.998298
900.788711	0.997109
901.096216	0.998053
901.403681	0.998274
901.711105	0.998152
902.018489	0.997693
902.325832	0.998056
902.633135	0.997588
902.940397	0.997400
903.247619	0.996668
903.554800	0.993715
903.861941	0.991686
904.169041	0.987822
904.476101	0.986660
904.783121	0.985493
905.090100	0.986414
905.397039	0.989178
905.703938	0.989941
906.010796	0.992635
906.317614	0.994671
906.624391	0.995675
906.931129	0.995991
907.237826	0.996974
907.544483	0.996598
907.851099	0.997421
908.157675	0.997573
908.464211	0.999226
908.770707	0.997671
909.077163	0.998072
909.383578	0.999231
909.689954	0.998059
909.996289	0.997776
910.302584	0.999110
910.608839	0.999986
910.915054	0.999271
911.221229	1.001438
911.527363	0.999138
911.833458	1.000226
912.139513	0.998677
912.445527	0.999037
912.751502	0.998468
913.057436	0.997784
913.363331	0.998629
913.669186	0.998984
913.975000	0.998120
914.280775	0.998098
914.586510	0.995649
914.892205	0.992988
915.197859	0.991736
915.503475	0.990880
915.809050	0.988814
916.114585	0.985594
916.420081	0.985738
916.725536	0.985637
917.030952	0.986857
917.336328	0.988752
917.641665	0.990398
917.946961	0.989841
918.252218	0.990954
918.557435	0.993448
918.862612	0.994587
919.167750	0.995755
919.472848	0.995996
919.777906	0.996295
920.082925	0.997517
920.387904	0.997646
920.692843	0.997578
920.997743	0.997438
921.302603	0.997407
921.607423	0.997750
921.912204	0.998029
922.216946	0.999199
922.521647	0.998838
922.826310	0.998139
923.130932	0.999118
923.435516	1.000090
923.740059	0.998885
924.044564	0.998195
924.349028	0.999961
924.653454	0.999039
924.957840	0.999451
925.262186	0.999755
925.566493	0.998998
925.870761	0.999414
926.174989	0.998796
926.479178	1.000675
926.783328	1.000062
927.087438	1.000771
927.391509	0.998983
927.695541	1.000268
927.999533	1.000701
928.303486	1.000779
928.607400	1.001163
928.911275	1.000844
929.215110	1.001268
929.518906	1.000032
929.822663	1.000795
930.126381	1.001106
930.430060	1.001156
930.733699	1.001005
931.037299	1.000635
931.340861	1.000270
931.644383	1.000144
931.947866	1.000775
932.251309	1.000768
932.554714	1.001109
932.858080	1.001381
933.161407	0.999698
933.464694	1.000785
933.767943	1.000112
934.071153	0.999650
934.374323	1.001864
934.677455	0.999695
934.980548	1.000703
935.283602	1.001487
935.586617	0.999470
935.889593	1.000099
936.192530	1.001699
936.495428	1.000955
936.798287	0.999664
937.101108	1.000284
937.403890	0.999871
937.706632	1.001245
938.009336	0.999503
938.312002	1.000034
938.614628	0.999335
938.917216	0.998863
939.219765	0.998716
939.522275	1.000443
939.824747	0.999256
940.127179	0.999201
940.429573	1.000159
940.731929	0.999387
941.034246	0.999875
941.336524	0.998308
941.638763	0.999958
941.940964	0.999287
942.243126	0.999917
942.545250	1.000028
942.847335	1.000450
943.149381	1.000034
943.451389	1.000196
943.753359	1.000587
944.055290	1.001165
944.357182	1.001241
944.659036	1.000467
944.960851	1.000793
945.262628	1.000568
945.564367	1.001306
945.866067	1.000757
946.167729	0.999948
946.469352	1.000030
946.770937	0.999022
947.072484	1.001449
947.373992	1.001191
947.675462	0.999653
947.976893	1.000037
948.278286	1.001731
948.579641	1.001007
948.880958	1.000413
949.182236	1.001531
949.483476	1.000971
949.784678	0.999760
950.085841	0.999042
950.386967	0.999781
950.688054	1.001690
950.989103	1.000075
951.290114	1.000158
951.591087	1.000770
951.892021	0.999885
952.192917	1.000488
952.493776	1.000886
952.794596	0.999824
953.095378	1.000154
953.396122	1.000262
953.696828	1.000207
953.997496	1.000258
954.298126	1.000357
954.598718	0.999465
954.899272	1.001253
955.199788	1.000685
955.500266	1.000953
955.800706	1.000256
956.101108	0.999490
956.401472	1.002127
956.701798	0.999635
957.002087	1.001741
957.302337	1.000740
957.602550	1.001037
957.902724	1.001241
958.202861	1.000445
958.502960	1.000687
958.803022	1.001729
959.103045	1.000431
959.403031	1.002420
959.702979	1.001388
960.002889	1.001547
960.302762	1.000306
960.602596	1.000646
960.902393	1.001374
961.202153	1.000922
961.501875	1.002262
961.801559	1.001613
962.101205	1.000989
962.400814	1.002763
962.700385	1.001982
962.999918	1.002081
963.299414	1.000589
963.598873	1.002112
963.898293	1.001323
964.197677	1.000672
964.497022	1.002157
964.796331	1.001780
965.095601	1.002901
965.394835	1.001357
965.694030	1.003180
965.993189	1.001244
966.292309	1.002027
966.591393	1.000392
966.890439	1.003558
967.189447	1.001509
967.488419	1.001884
967.787353	1.001218
968.086249	1.001639
968.385108	1.000963
968.683930	1.002164
968.982714	1.001702
969.281462	1.001863
969.580172	1.000771
969.878844	1.001269
970.177480	1.002040
970.476078	1.002911
970.774639	1.002310
971.073162	1.001079
971.371649	1.001063
971.670098	1.001456
971.968510	1.001434
972.266885	1.000573
972.565223	1.002215
972.863524	1.001427
973.161788	1.001025
973.460014	1.002604
973.758204	1.000534
974.056356	1.000944
974.354471	1.002365
974.652550	1.002019
974.950591	1.000570
975.248595	1.000458
975.546563	1.002735
975.844493	1.001675
976.142386	1.001330
976.440243	1.001778
976.738062	1.002236
977.035845	1.001482
977.333590	1.002092
977.631299	1.002296
977.928971	1.001384
978.226606	1.000917
978.524204	1.000329
978.821765	1.001867
979.119290	1.002445
979.416777	1.003213
979.714228	1.001060
980.011642	1.002342
980.309020	1.001483
980.606360	1.002029
980.903664	1.001733
981.200931	1.001116
981.498162	1.000903
981.795356	1.001710
982.092513	1.001028
982.389633	1.002118
982.686717	1.000002
982.983764	1.000696
983.280775	1.000810
983.577749	1.002586
983.874686	1.000238
984.171587	1.000138
984.468451	1.001307
984.765279	1.001476
985.062070	1.001727
985.358824	1.001328
985.655543	1.001834
985.952224	1.000392
986.248869	1.002925
986.545478	1.002863
986.842050	1.000438
987.138586	1.000688
987.435086	1.001287
987.731549	1.003273
988.027975	1.002511
988.324366	1.002343
988.620719	1.002449
988.917037	1.002016
989.213318	1.001564
989.509563	1.001549
989.805772	1.001869
990.101944	1.002992
990.398080	1.001981
990.694180	1.001624
990.990244	1.001318
991.286271	1.001574
991.582262	1.002709
991.878217	1.001843
992.174136	1.001960
992.470019	1.002166
992.765865	1.003399
993.061676	1.002507
993.357450	1.002511
993.653188	1.003008
993.948890	1.001125
994.244556	1.002275
994.540186	1.001346
994.835780	1.001497
995.131337	1.002569
995.426859	1.002053
995.722345	1.001821
996.017795	1.000847
996.313208	1.000959
996.608586	1.001363
996.903928	1.001966
997.199234	1.001590
997.494504	1.002681
997.789738	1.001124
998.084936	1.002585
998.380099	1.001292
998.675225	1.003273
998.970316	1.002025
999.265371	1.002195
999.560390	1.002332
999.855373	1.001443
1000.150320	1.002631
1000.445232	1.003377
1000.740108	1.001804
1001.034948	1.001379
1001.329752	1.002446
1001.624521	1.001600
1001.919254	1.001749
1002.213951	1.001697
1002.508613	1.001946
1002.803239	1.002166
1003.097829	1.002280
1003.392384	1.001744
1003.686903	1.001961
1003.981386	1.002337
1004.275834	1.003807
1004.570246	1.000568
1004.864623	1.002302
1005.158964	1.002669
1005.453270	1.001803
1005.747540	1.001221
1006.041775	1.001707
1006.335974	1.002671
1006.630138	1.001187
1006.924266	1.001278
1007.218359	0.999529
1007.512416	1.002362
1007.806438	1.002149
1008.100425	1.001533
1008.394376	1.002762
1008.688292	1.002616
1008.982172	1.001349
1009.276017	1.002218
1009.569827	1.002279
1009.863602	1.000608
1010.157341	1.002797
1010.451045	1.002112
1010.744714	1.003225
1011.038347	1.001847
1011.331945	1.001772
1011.625508	1.001813
1011.919036	1.002269
1012.212528	1.002267
1012.505986	1.001639
1012.799408	1.003349
1013.092795	1.002704
1013.386147	1.002830
1013.679464	1.003264
1013.972745	1.001766
1014.265992	1.001099
1014.559204	1.001916
1014.852380	1.002844
1015.145521	1.002183
1015.438628	1.002375
1015.731699	1.001968
1016.024736	1.002887
1016.317737	1.001532
1016.610703	1.002068
1016.903635	1.001890
1017.196531	1.001289
1017.489393	1.002396
1017.782219	1.001354
1018.075011	1.002004
1018.367768	1.001203
1018.660490	1.002587
1018.953177	1.002587
1019.245829	1.002587
