Dividing Wavelength (nm)	Counts (n)	Blue Motor Position (mm): 28.700000	Red Motor Position (mm): 0.000000	
326.493990	1.001488
326.888308	1.001488
327.282561	1.001488
327.676750	1.003134
328.070874	1.002077
328.464933	1.003737
328.858929	1.001764
329.252859	1.001775
329.646726	1.001409
330.040528	1.000396
330.434265	1.001714
330.827938	1.001204
331.221547	1.000309
331.615091	1.002058
332.008571	1.002225
332.401986	1.000433
332.795338	1.001201
333.188625	1.002085
333.581847	1.001840
333.975006	1.002160
334.368100	1.002009
334.761129	1.000130
335.154095	0.999705
335.546996	1.001036
335.939833	0.998844
336.332606	0.999763
336.725315	0.999670
337.117960	1.001233
337.510540	0.999434
337.903056	1.000046
338.295508	0.999992
338.687896	1.000141
339.080220	0.999534
339.472480	0.999547
339.864676	1.000380
340.256807	0.999385
340.648875	1.000493
341.040879	0.999274
341.432818	0.999929
341.824694	0.999542
342.216506	1.001070
342.608253	0.999595
342.999937	0.999541
343.391557	1.000229
343.783113	1.000603
344.174605	0.999389
344.566033	0.999189
344.957397	1.001707
345.348697	0.999453
345.739934	0.999740
346.131106	1.000034
346.522215	0.998742
346.913260	0.999871
347.304241	0.999212
347.695159	1.000803
348.086012	0.999145
348.476802	0.999011
348.867528	0.999111
349.258191	1.000094
349.648789	0.999502
350.039324	0.999981
350.429796	0.998725
350.820203	0.998622
351.210548	0.999925
351.600828	1.000461
351.991045	0.999598
352.381198	0.999979
352.771288	0.999605
353.161314	0.999622
353.551276	0.998493
353.941175	0.997365
354.331010	0.999452
354.720782	0.999872
355.110490	0.999581
355.500135	1.000084
355.889717	0.998481
356.279235	0.998276
356.668689	1.001199
357.058080	0.999310
357.447408	0.998204
357.836672	0.998737
358.225873	0.999461
358.615010	0.998488
359.004084	0.998871
359.393095	0.999555
359.782043	0.998465
360.170927	0.998906
360.559748	0.998941
360.948505	0.998132
361.337199	0.998015
361.725830	0.998912
362.114398	0.997942
362.502903	0.997226
362.891344	0.997344
363.279722	0.997741
363.668037	0.997871
364.056289	0.998400
364.444478	0.999281
364.832603	0.997832
365.220665	0.998282
365.608665	0.997466
365.996601	0.998020
366.384474	0.997422
366.772284	0.998142
367.160031	0.996696
367.547715	0.997631
367.935336	0.994623
368.322893	0.995105
368.710388	0.994118
369.097820	0.992395
369.485189	0.988575
369.872495	0.988258
370.259738	0.986381
370.646918	0.983333
371.034035	0.980731
371.421090	0.977374
371.808081	0.973183
372.195010	0.970361
372.581875	0.965083
372.968678	0.960445
373.355418	0.956903
373.742096	0.950455
374.128710	0.944308
374.515262	0.941514
374.901751	0.933751
375.288177	0.929709
375.674540	0.922620
376.060841	0.917839
376.447079	0.910642
376.833254	0.904013
377.219367	0.898561
377.605417	0.887109
377.991404	0.883360
378.377329	0.877826
378.763191	0.871483
379.148991	0.863024
379.534727	0.854908
379.920402	0.846926
380.306013	0.842137
380.691563	0.830346
381.077049	0.823480
381.462474	0.819570
381.847835	0.807837
382.233134	0.803452
382.618371	0.803535
383.003545	0.786006
383.388657	0.784653
383.773706	0.775933
384.158693	0.773199
384.543618	0.767662
384.928480	0.758901
385.313280	0.748032
385.698017	0.748189
386.082692	0.736642
386.467305	0.735264
386.851856	0.729228
387.236344	0.724603
387.620770	0.718135
388.005133	0.712903
388.389435	0.706317
388.773674	0.705186
389.157851	0.696319
389.541965	0.694056
389.926018	0.701072
390.310008	0.687352
390.693936	0.684313
391.077802	0.676556
391.461606	0.678289
391.845348	0.667155
392.229027	0.666267
392.612645	0.664401
392.996200	0.651841
393.379694	0.645575
393.763125	0.635736
394.146494	0.640204
394.529801	0.630810
394.913047	0.622520
395.296230	0.628658
395.679351	0.620180
396.062410	0.617391
396.445408	0.619219
396.828343	0.614900
397.211217	0.609433
397.594028	0.622110
397.976778	0.612384
398.359466	0.608830
398.742092	0.603889
399.124656	0.615883
399.507158	0.603608
399.889598	0.601508
400.271977	0.592752
400.654294	0.596746
401.036549	0.596029
401.418742	0.600187
401.800874	0.585378
402.182944	0.583191
402.564952	0.574107
402.946898	0.575848
403.328783	0.576795
403.710606	0.587766
404.092367	0.562715
404.474067	0.568185
404.855705	0.567069
405.237282	0.575761
405.618797	0.562046
406.000250	0.557629
406.381642	0.547568
406.762972	0.553251
407.144240	0.551823
407.525447	0.551142
407.906593	0.544781
408.287677	0.539623
408.668700	0.548008
409.049661	0.542443
409.430560	0.536901
409.811399	0.545982
410.192176	0.528350
410.572891	0.534998
410.953545	0.522356
411.334138	0.536729
411.714669	0.528846
412.095139	0.541227
412.475547	0.525216
412.855894	0.526722
413.236180	0.526620
413.616405	0.531479
413.996568	0.521848
414.376670	0.527733
414.756711	0.532770
415.136691	0.530294
415.516609	0.520447
415.896466	0.517386
416.276262	0.513718
416.655997	0.515309
417.035670	0.497173
417.415283	0.488910
417.794834	0.493963
418.174324	0.498786
418.553753	0.507928
418.933121	0.490224
419.312428	0.484632
419.691674	0.490495
420.070859	0.478208
420.449983	0.486014
420.829045	0.475512
421.208047	0.484817
421.586988	0.477852
421.965867	0.476869
422.344686	0.465204
422.723444	0.478104
423.102141	0.494910
423.480777	0.467900
423.859352	0.488392
424.237866	0.466222
424.616319	0.466901
424.994712	0.457841
425.373044	0.468362
425.751314	0.456186
426.129524	0.473050
426.507673	0.456316
426.885762	0.449715
427.263789	0.455350
427.641756	0.465323
428.019662	0.455693
428.397508	0.455234
428.775292	0.459680
429.153016	0.451883
429.530679	0.458370
429.908282	0.451723
430.285824	0.462373
430.663305	0.441084
431.040726	0.463089
431.418086	0.463349
431.795385	0.456248
432.172624	0.455893
432.549802	0.457083
432.926920	0.456761
433.303977	0.456983
433.680974	0.455367
434.057910	0.455241
434.434786	0.455814
434.811601	0.460301
435.188355	0.444182
435.565050	0.454815
435.941683	0.457423
436.318257	0.443977
436.694770	0.446915
437.071222	0.447328
437.447614	0.453474
437.823946	0.462432
438.200218	0.453969
438.576429	0.465704
438.952580	0.462240
439.328670	0.461095
439.704700	0.470638
440.080670	0.474885
440.456580	0.461075
440.832429	0.471504
441.208218	0.485114
441.583947	0.478765
441.959616	0.481746
442.335224	0.491300
442.710773	0.486709
443.086261	0.489296
443.461689	0.505531
443.837057	0.501373
444.212365	0.497501
444.587612	0.508736
444.962800	0.505298
445.337927	0.512247
445.712995	0.539472
446.088002	0.513168
446.462949	0.527607
446.837837	0.538218
447.212664	0.533198
447.587431	0.535054
447.962139	0.519594
448.336786	0.494515
448.711374	0.508469
449.085901	0.549546
449.460369	0.559691
449.834776	0.569191
450.209124	0.562520
450.583412	0.566985
450.957640	0.567469
451.331808	0.584017
451.705917	0.607621
452.079965	0.618088
452.453954	0.619265
452.827883	0.630957
453.201752	0.635280
453.575562	0.649738
453.949311	0.653064
454.323001	0.663432
454.696632	0.668677
455.070202	0.673168
455.443713	0.677244
455.817164	0.682735
456.190556	0.689096
456.563888	0.696140
456.937160	0.702715
457.310373	0.718835
457.683526	0.726763
458.056619	0.738920
458.429653	0.746790
458.802628	0.755828
459.175542	0.760465
459.548398	0.762034
459.921194	0.766252
460.293930	0.773305
460.666607	0.771969
461.039224	0.774575
461.411782	0.780007
461.784280	0.788768
462.156719	0.798212
462.529099	0.808346
462.901419	0.821338
463.273680	0.830199
463.645882	0.836752
464.018024	0.846579
464.390106	0.850170
464.762130	0.852134
465.134094	0.853670
465.505999	0.849265
465.877845	0.846558
466.249631	0.850245
466.621358	0.860908
466.993026	0.872592
467.364634	0.880875
467.736184	0.888369
468.107674	0.895495
468.479105	0.900511
468.850477	0.906289
469.221790	0.913717
469.593043	0.919358
469.964238	0.925248
470.335373	0.928830
470.706449	0.932492
471.077467	0.935210
471.448425	0.935422
471.819324	0.935985
472.190164	0.938456
472.560945	0.945495
472.931667	0.950650
473.302330	0.953887
473.672934	0.957888
474.043479	0.959539
474.413965	0.961725
474.784393	0.964580
475.154761	0.965860
475.525070	0.968215
475.895321	0.970334
476.265513	0.972032
476.635645	0.973233
477.005719	0.975444
477.375734	0.975824
477.745691	0.977092
478.115588	0.978117
478.485427	0.979840
478.855207	0.980407
479.224928	0.980907
479.594591	0.981479
479.964194	0.982345
480.333739	0.983584
480.703226	0.984333
481.072653	0.985159
481.442022	0.986555
481.811333	0.986249
482.180584	0.987251
482.549777	0.987794
482.918912	0.988192
483.287988	0.988883
483.657005	0.988934
484.025964	0.989937
484.394864	0.990199
484.763706	0.990336
485.132489	0.990776
485.501213	0.990487
485.869879	0.990984
486.238487	0.990948
486.607036	0.992468
486.975527	0.991243
487.343959	0.992055
487.712333	0.992007
488.080648	0.991503
488.448905	0.992546
488.817104	0.992438
489.185244	0.992757
489.553326	0.993014
489.921350	0.992985
490.289315	0.992364
490.657222	0.992236
491.025070	0.993016
491.392861	0.993052
491.760593	0.992897
492.128267	0.992813
492.495883	0.992913
492.863440	0.993646
493.230939	0.993560
493.598380	0.993920
493.965763	0.993515
494.333088	0.992539
494.700354	0.993379
495.067563	0.993510
495.434713	0.993978
495.801805	0.993866
496.168839	0.994897
496.535815	0.994206
496.902733	0.993664
497.269593	0.993836
497.636395	0.993834
498.003139	0.993856
498.369825	0.995386
498.736453	0.993886
499.103023	0.994279
499.469535	0.993913
499.835989	0.994581
500.202385	0.994175
500.568723	0.994393
500.935003	0.994986
501.301226	0.995117
501.667390	0.994068
502.033497	0.994716
502.399546	0.994345
502.765537	0.994412
503.131470	0.994773
503.497345	0.994775
503.863163	0.994690
504.228923	0.994274
504.594625	0.994332
504.960269	0.994610
505.325856	0.995176
505.691385	0.995386
506.056856	0.995014
506.422270	0.994114
506.787625	0.994564
507.152924	0.995659
507.518164	0.994975
507.883347	0.994854
508.248472	0.994618
508.613540	0.994640
508.978550	0.994967
509.343503	0.994359
509.708398	0.995268
510.073236	0.994849
510.438016	0.994473
510.802738	0.995041
511.167403	0.994475
511.532010	0.995838
511.896561	0.994687
512.261053	0.994988
512.625488	0.995070
512.989866	0.995033
513.354186	0.994901
513.718449	0.995543
514.082655	0.994483
514.446803	0.995074
514.810894	0.995637
515.174927	0.995693
515.538904	0.995304
515.902822	0.995168
516.266684	0.994846
516.630488	0.995334
516.994235	0.995207
517.357925	0.995428
517.721558	0.995528
518.085133	0.994327
518.448651	0.994887
518.812112	0.995150
519.175516	0.995048
519.538863	0.994289
519.902152	0.995376
520.265385	0.995182
520.628560	0.994895
520.991678	0.994812
521.354739	0.996344
521.717743	0.995332
522.080690	0.994705
522.443580	0.994890
522.806413	0.994529
523.169189	0.995430
523.531908	0.994591
523.894569	0.994944
524.257174	0.994553
524.619722	0.995262
524.982213	0.994869
525.344647	0.994978
525.707025	0.994240
526.069345	0.994506
526.431608	0.995207
526.793815	0.995536
527.155964	0.995252
527.518057	0.995070
527.880093	0.994916
528.242072	0.994547
528.603995	0.994863
528.965860	0.994990
529.327669	0.995401
529.689421	0.994910
530.051117	0.995038
530.412755	0.996019
530.774337	0.994434
531.135862	0.996159
531.497331	0.995015
531.858743	0.995453
532.220098	0.994817
532.581396	0.994957
532.942638	0.995811
533.303824	0.995235
533.664953	0.995022
534.026025	0.995870
534.387040	0.995156
534.747999	0.995258
535.108902	0.995238
535.469748	0.995226
535.830537	0.995060
536.191270	0.995748
536.551947	0.994468
536.912567	0.995255
537.273131	0.995480
537.633638	0.994743
537.994089	0.995223
538.354483	0.995260
538.714821	0.995104
539.075103	0.995583
539.435328	0.995447
539.795497	0.995577
540.155609	0.995269
540.515665	0.995335
540.875665	0.995000
541.235609	0.994963
541.595496	0.994776
541.955328	0.995105
542.315102	0.994848
542.674821	0.995513
543.034483	0.995618
543.394090	0.994615
543.753640	0.995163
544.113134	0.994663
544.472571	0.995783
544.831953	0.995548
545.191278	0.994983
545.550548	0.994833
545.909761	0.994323
546.268918	0.995284
546.628019	0.995745
546.987064	0.994878
547.346053	0.994797
547.704986	0.994725
548.063863	0.994818
548.422684	0.994795
548.781449	0.995473
549.140158	0.995626
549.498811	0.994431
549.857408	0.994706
550.215949	0.994604
550.574434	0.993840
550.932864	0.995480
551.291237	0.994728
551.649555	0.995319
552.007817	0.995074
552.366022	0.995359
552.724173	0.995083
553.082267	0.995374
553.440305	0.994163
553.798288	0.994616
554.156215	0.994818
554.514086	0.995165
554.871902	0.995041
555.229661	0.994619
555.587365	0.995308
555.945014	0.995575
556.302606	0.994170
556.660143	0.995436
557.017625	0.995146
557.375050	0.994698
557.732421	0.995209
558.089735	0.994419
558.446994	0.994784
558.804197	0.994906
559.161345	0.994258
559.518437	0.995046
559.875474	0.994915
560.232455	0.994672
560.589381	0.995270
560.946251	0.995385
561.303065	0.995666
561.659825	0.995058
562.016528	0.995682
562.373177	0.995293
562.729770	0.995064
563.086307	0.993971
563.442789	0.995384
563.799216	0.994631
564.155587	0.994794
564.511904	0.995116
564.868164	0.993903
565.224370	0.994846
565.580520	0.995428
565.936615	0.995562
566.292654	0.994776
566.648638	0.995951
567.004567	0.994248
567.360441	0.995569
567.716260	0.994612
568.072023	0.993791
568.427732	0.995202
568.783385	0.994825
569.138982	0.994745
569.494525	0.994732
569.850013	0.995129
570.205445	0.995383
570.560823	0.995394
570.916145	0.994583
571.271412	0.994740
571.626625	0.995013
571.981782	0.995117
572.336884	0.995598
572.691931	0.995176
573.046923	0.995598
573.401860	0.994245
573.756743	0.995478
574.111570	0.995449
574.466342	0.995712
574.821059	0.995613
575.175722	0.995342
575.530330	0.994618
575.884882	0.994822
576.239380	0.995020
576.593823	0.995306
576.948211	0.995081
577.302544	0.994604
577.656823	0.994865
578.011047	0.994011
578.365216	0.995451
578.719330	0.995056
579.073389	0.994897
579.427394	0.994828
579.781344	0.995143
580.135239	0.994016
580.489080	0.995196
580.842866	0.994964
581.196597	0.994088
581.550273	0.994398
581.903895	0.995369
582.257463	0.994674
582.610975	0.995213
582.964434	0.995182
583.317837	0.994926
583.671186	0.995520
584.024481	0.995055
584.377721	0.994481
584.730906	0.995004
585.084037	0.995522
585.437113	0.995666
585.790135	0.994935
586.143103	0.994687
586.496016	0.995617
586.848874	0.995022
587.201679	0.994696
587.554428	0.994910
587.907124	0.995487
588.259765	0.995245
588.612352	0.995803
588.964884	0.995395
589.317362	0.995564
589.669786	0.994773
590.022155	0.995355
590.374470	0.995346
590.726731	0.994412
591.078937	0.995193
591.431090	0.995290
591.783188	0.994666
592.135232	0.995718
592.487222	0.995177
592.839157	0.994603
593.191038	0.994971
593.542866	0.994883
593.894639	0.994076
594.246358	0.995605
594.598022	0.994808
594.949633	0.995150
595.301190	0.994362
595.652692	0.994151
596.004141	0.995034
596.355535	0.994727
596.706876	0.995410
597.058162	0.995043
597.409395	0.995131
597.760573	0.995488
598.111698	0.994649
598.462768	0.994340
598.813785	0.994278
599.164748	0.994606
599.515657	0.995180
599.866511	0.995489
600.217312	0.995557
600.568060	0.994422
600.918753	0.995427
601.269392	0.995120
601.619978	0.995662
601.970510	0.994723
602.320988	0.994599
602.671412	0.994651
603.021783	0.994880
603.372100	0.996062
603.722363	0.995168
604.072572	0.994656
604.422728	0.994821
604.772830	0.994818
605.122878	0.995684
605.472872	0.995315
605.822813	0.994731
606.172701	0.995241
606.522534	0.995134
606.872314	0.995419
607.222041	0.995197
607.571714	0.995220
607.921333	0.995381
608.270899	0.994587
608.620411	0.995426
608.969870	0.995399
609.319276	0.994979
609.668627	0.995796
610.017926	0.994587
610.367171	0.994982
610.716362	0.995662
611.065500	0.994997
611.414585	0.995783
611.763616	0.993752
612.112594	0.995426
612.461518	0.994123
612.810389	0.995049
613.159207	0.995828
613.507971	0.994733
613.856682	0.995655
614.205340	0.994335
614.553945	0.995623
614.902496	0.994433
615.250994	0.995090
615.599439	0.995100
615.947830	0.994762
616.296169	0.994790
616.644454	0.995552
616.992686	0.994547
617.340864	0.995813
617.688990	0.994691
618.037063	0.995096
618.385082	0.995136
618.733048	0.994721
619.080961	0.995471
619.428821	0.995861
619.776628	0.994496
620.124382	0.995864
620.472083	0.995884
620.819731	0.995712
621.167326	0.995466
621.514868	0.995082
621.862357	0.995397
622.209793	0.994653
622.557176	0.994890
622.904506	0.995122
623.251783	0.995679
623.599007	0.995482
623.946179	0.994801
624.293297	0.995434
624.640363	0.995537
624.987376	0.994416
625.334336	0.995115
625.681243	0.995438
626.028097	0.995468
626.374899	0.995811
626.721647	0.996571
627.068343	0.995468
627.414987	0.995396
627.761577	0.994974
628.108115	0.995303
628.454600	0.995936
628.801032	0.996141
629.147412	0.995808
629.493739	0.996548
629.840014	0.995829
630.186236	0.994277
630.532405	0.995682
630.878521	0.995057
631.224585	0.995396
631.570597	0.995191
631.916556	0.996172
632.262462	0.994167
632.608316	0.996319
632.954117	0.995078
633.299866	0.995351
633.645562	0.995278
633.991206	0.995840
634.336797	0.995245
634.682336	0.996140
635.027823	0.995381
635.373257	0.995571
635.718639	0.996136
636.063968	0.995328
636.409245	0.994807
636.754470	0.995497
637.099642	0.995757
637.444762	0.995792
637.789829	0.995549
638.134845	0.996290
638.479808	0.995170
638.824719	0.996352
639.169577	0.995461
639.514383	0.995739
639.859137	0.996216
640.203839	0.995641
640.548489	0.995622
640.893086	0.994977
641.237632	0.996329
641.582125	0.995407
641.926566	0.996890
642.270955	0.995595
642.615292	0.995328
642.959576	0.995394
643.303809	0.996214
643.647990	0.995297
643.992118	0.996338
644.336195	0.995402
644.680219	0.995546
645.024192	0.996029
645.368112	0.994923
645.711981	0.995338
646.055797	0.996227
646.399562	0.994806
646.743274	0.996063
647.086935	0.995789
647.430544	0.995969
647.774101	0.996028
648.117606	0.996400
648.461059	0.996066
648.804460	0.995843
649.147810	0.995713
649.491108	0.995125
649.834354	0.995547
650.177548	0.995617
650.520690	0.995967
650.863781	0.995749
651.206820	0.994748
651.549807	0.996080
651.892742	0.996720
652.235626	0.996324
652.578458	0.995975
652.921238	0.995597
653.263967	0.996521
653.606644	0.994813
653.949269	0.996154
654.291843	0.995120
654.634365	0.996861
654.976836	0.995074
655.319255	0.996140
655.661622	0.996439
656.003938	0.995687
656.346203	0.995169
656.688416	0.996646
657.030577	0.995345
657.372687	0.996429
657.714746	0.995301
658.056753	0.995418
658.398708	0.995630
658.740612	0.996757
659.082465	0.996465
659.424266	0.996393
659.766016	0.995300
660.107715	0.997203
660.449362	0.996600
660.790958	0.996268
661.132503	0.996475
661.473996	0.995142
661.815438	0.995925
662.156829	0.996239
662.498168	0.997010
662.839456	0.995615
663.180693	0.996449
663.521879	0.995876
663.863013	0.996406
664.204097	0.995131
664.545129	0.996136
664.886110	0.995946
665.227040	0.996434
665.567918	0.995496
665.908746	0.995600
666.249522	0.995418
666.590248	0.996181
666.930922	0.995609
667.271545	0.995603
667.612118	0.995302
667.952639	0.996226
668.293109	0.995599
668.633528	0.995920
668.973896	0.996372
669.314213	0.995967
669.654480	0.996839
669.994695	0.995859
670.334859	0.995733
670.674973	0.996815
671.015035	0.996382
671.355047	0.995442
671.695008	0.995336
672.034918	0.995529
672.374777	0.996648
672.714585	0.996048
673.054342	0.997035
673.394049	0.995871
673.733705	0.995087
674.073310	0.996241
674.412864	0.995504
674.752368	0.995449
675.091820	0.996995
675.431223	0.995798
675.770574	0.995499
676.109875	0.995998
676.449125	0.995338
676.788324	0.995645
677.127473	0.997041
677.466571	0.996892
677.805619	0.996221
678.144616	0.995849
678.483562	0.996206
678.822458	0.997118
679.161303	0.995706
679.500098	0.995983
679.838842	0.996911
680.177535	0.995962
680.516179	0.995393
680.854771	0.995472
681.193314	0.996397
681.531805	0.996020
681.870247	0.997546
682.208638	0.996421
682.546978	0.995943
682.885268	0.995967
683.223508	0.996002
683.561697	0.995323
683.899836	0.996052
684.237925	0.995788
684.575963	0.996303
684.913951	0.996526
685.251889	0.996058
685.589776	0.996041
685.927614	0.995794
686.265401	0.996262
686.603137	0.995946
686.940824	0.996236
687.278460	0.997227
687.616046	0.996350
687.953582	0.995859
688.291068	0.996408
688.628504	0.995841
688.965889	0.995366
689.303224	0.994725
689.640510	0.996097
689.977745	0.995543
690.314930	0.995949
690.652065	0.995753
690.989150	0.995587
691.326185	0.996375
691.663170	0.995903
692.000105	0.995715
692.336990	0.995876
692.673825	0.996105
693.010610	0.995676
693.347345	0.996599
693.684030	0.995985
694.020665	0.995783
694.357251	0.995823
694.693786	0.996535
695.030272	0.994499
695.366707	0.995827
695.703093	0.997134
696.039429	0.995508
696.375716	0.997429
696.711952	0.996146
697.048139	0.996679
697.384276	0.996346
697.720363	0.996535
698.056400	0.995817
698.392388	0.995465
698.728326	0.996569
699.064214	0.997181
699.400053	0.995793
699.735842	0.996966
700.071581	0.995990
700.407270	0.996043
700.742910	0.996720
701.078501	0.996270
701.414042	0.996396
701.749533	0.995667
702.084974	0.996428
702.420366	0.996353
702.755709	0.996161
703.091002	0.997189
703.426246	0.997316
703.761440	0.996896
704.096584	0.995374
704.431679	0.996292
704.766725	0.997173
705.101721	0.996822
705.436668	0.996989
705.771565	0.996851
706.106413	0.995853
706.441212	0.996308
706.775961	0.996869
707.110661	0.995892
707.445311	0.997132
707.779913	0.997641
708.114465	0.996941
708.448967	0.996810
708.783421	0.997712
709.117825	0.997086
709.452180	0.996871
709.786485	0.997147
710.120742	0.997051
710.454949	0.995701
710.789107	0.996468
711.123216	0.995849
711.457275	0.995907
711.791286	0.996440
712.125247	0.997755
712.459159	0.996213
712.793023	0.995731
713.126837	0.997235
713.460602	0.996068
713.794318	0.996554
714.127985	0.996574
714.461602	0.996163
714.795171	0.995640
715.128691	0.995607
715.462162	0.996601
715.795584	0.995403
716.128957	0.996947
716.462281	0.996461
716.795556	0.995673
717.128782	0.996215
717.461960	0.996359
717.795088	0.995952
718.128167	0.997800
718.461198	0.996794
718.794180	0.997585
719.127113	0.996918
719.459997	0.996272
719.792833	0.995648
720.125619	0.996127
720.458357	0.996829
720.791046	0.997186
721.123686	0.996370
721.456278	0.996829
721.788821	0.996914
722.121315	0.997601
722.453761	0.997283
722.786158	0.996115
723.118506	0.997415
723.450805	0.996345
723.783056	0.997527
724.115259	0.996552
724.447412	0.997186
724.779518	0.997349
725.111574	0.996817
725.443582	0.997231
725.775542	0.997260
726.107453	0.997206
726.439315	0.997260
726.771129	0.997171
727.102895	0.997360
727.434612	0.996967
727.766281	0.997226
728.097901	0.997080
728.429473	0.997103
728.760996	0.995499
729.092471	0.996629
729.423897	0.996440
729.755276	0.995954
730.086606	0.996245
730.417887	0.996755
730.749120	0.996999
731.080305	0.996165
731.411442	0.996430
731.742530	0.996326
732.073570	0.996910
732.404562	0.996430
732.735506	0.996431
733.066401	0.996140
733.397249	0.996576
733.728048	0.996701
734.058798	0.996936
734.389501	0.997906
734.720156	0.996137
735.050762	0.998723
735.381320	0.996401
735.711831	0.996547
736.042293	0.997429
736.372707	0.997100
736.703073	0.996062
737.033391	0.996631
737.363661	0.997423
737.693883	0.997728
738.024056	0.995909
738.354182	0.997823
738.684260	0.997077
739.014290	0.997513
739.344272	0.996405
739.674207	0.997330
740.004093	0.997006
740.333931	0.996923
740.663722	0.996749
740.993464	0.996507
741.323159	0.997029
741.652806	0.996878
741.982405	0.996659
742.311956	0.996910
742.641460	0.998181
742.970915	0.997088
743.300323	0.995866
743.629683	0.996835
743.958996	0.998053
744.288260	0.996836
744.617477	0.996959
744.946647	0.996260
745.275768	0.997056
745.604842	0.997400
745.933869	0.997183
746.262847	0.998209
746.591778	0.996186
746.920662	0.997244
747.249498	0.998618
747.578286	0.999086
747.907027	0.997158
748.235720	0.997312
748.564365	0.997462
748.892963	0.996637
749.221514	0.997949
749.550017	0.996965
749.878473	0.997037
750.206881	0.998403
750.535242	0.997304
750.863555	0.996808
751.191821	0.997264
751.520039	0.996888
751.848210	0.995045
752.176334	0.997516
752.504411	0.996995
752.832440	0.995739
753.160421	0.996864
753.488356	0.997116
753.816243	0.996751
754.144082	0.997610
754.471875	0.997990
754.799620	0.998602
755.127318	0.997148
755.454969	0.996212
755.782572	0.997792
756.110129	0.997181
756.437638	0.998992
756.765100	0.998354
757.092515	0.995599
757.419882	0.997985
757.747203	0.996860
758.074477	0.998463
758.401703	0.997095
758.728882	0.997602
759.056014	0.997286
759.383099	0.997327
759.710138	0.997179
760.037129	0.996828
760.364073	0.997623
760.690970	0.997048
761.017820	0.995731
761.344623	0.997816
761.671379	0.998065
761.998088	0.997100
762.324751	0.996447
762.651366	0.997486
762.977935	0.996368
763.304456	0.996461
763.630931	0.994525
763.957359	0.993359
764.283740	0.994195
764.610074	0.995134
764.936362	0.996319
765.262602	0.996789
765.588796	0.997300
765.914943	0.996159
766.241044	0.996700
766.567097	0.997683
766.893104	0.997328
767.219064	0.996271
767.544978	0.997295
767.870845	0.997011
768.196665	0.996801
768.522438	0.998693
768.848165	0.998215
769.173846	0.998113
769.499479	0.998360
769.825066	0.999183
770.150607	0.998625
770.476101	0.998386
770.801548	0.998666
771.126949	0.998445
771.452303	0.997752
771.777611	0.999627
772.102872	0.998172
772.428087	0.998292
772.753256	0.998397
773.078378	0.997991
773.403453	0.997543
773.728482	0.998549
774.053465	0.998089
774.378401	0.998316
774.703291	0.998885
775.028135	0.999534
775.352932	0.997457
775.677683	0.999289
776.002388	0.998795
776.327046	0.997855
776.651658	0.999030
776.976224	0.999468
777.300743	0.998648
777.625216	0.998539
777.949643	0.998577
778.274024	0.998118
778.598359	0.998317
778.922647	0.999254
779.246889	0.998823
779.571086	0.997879
779.895236	0.998589
780.219339	0.999007
780.543397	0.997112
780.867409	0.999809
781.191374	0.998180
781.515294	0.998683
781.839167	0.999640
782.162995	0.999083
782.486776	0.998368
782.810511	0.998793
783.134201	0.998811
783.457844	0.999228
783.781441	0.998218
784.104993	0.997455
784.428498	0.998941
784.751958	0.999725
785.075372	0.999055
785.398739	0.997981
785.722061	0.998738
786.045337	0.999064
786.368568	0.997879
786.691752	0.998117
787.014891	0.998477
787.337983	0.997030
787.661030	0.998911
787.984031	0.999727
788.306987	0.998860
788.629897	0.996595
788.952760	0.997836
789.275579	0.998454
789.598351	0.997613
789.921078	0.999084
790.243759	0.999466
790.566395	0.997192
790.888984	0.998739
791.211529	0.998299
791.534027	0.998997
791.856480	0.999478
792.178888	0.999098
792.501249	0.998026
792.823566	1.000137
793.145836	0.997963
793.468062	0.999021
793.790241	0.999648
794.112375	0.997030
794.434464	0.998686
794.756507	0.998789
795.078505	0.999113
795.400457	0.998860
795.722364	0.999213
796.044226	0.998886
796.366042	0.998131
796.687812	0.997482
797.009538	0.998914
797.331218	0.999461
797.652852	0.999198
797.974442	0.998152
798.295986	0.997998
798.617484	0.998046
798.938938	0.999870
799.260346	0.998291
799.581709	0.997849
799.903026	0.999400
800.224299	0.997526
800.545526	0.998970
800.866708	0.997438
801.187845	0.998483
801.508936	0.998951
801.829983	0.997818
802.150984	0.998716
802.471940	0.999070
802.792851	0.998917
803.113717	0.999381
803.434538	0.998669
803.755314	0.999432
804.076045	0.998745
804.396731	0.998988
804.717372	0.997608
805.037967	1.000095
805.358518	0.999128
805.679024	0.998018
805.999485	0.999465
806.319901	0.999447
806.640272	0.999264
806.960598	0.999429
807.280879	0.998800
807.601115	0.999659
807.921306	1.000348
808.241453	0.998418
808.561554	0.998754
808.881611	0.998522
809.201623	0.997931
809.521590	0.998637
809.841513	0.999539
810.161390	0.997764
810.481223	0.999096
810.801011	0.999382
811.120755	1.000641
811.440453	0.998612
811.760107	0.998741
812.079716	0.998302
812.399281	0.998879
812.718801	0.998497
813.038276	0.998334
813.357707	0.999131
813.677093	0.999672
813.996434	0.999780
814.315731	1.000351
814.634983	0.998553
814.954191	0.999556
815.273354	0.998827
815.592473	0.998640
815.911547	0.998856
816.230577	0.997880
816.549562	0.999209
816.868502	0.997216
817.187399	0.999101
817.506250	0.998412
817.825058	0.997339
818.143821	0.998721
818.462539	0.998705
818.781213	0.997634
819.099843	0.998833
819.418429	0.998957
819.736970	0.997566
820.055466	0.996327
820.373919	0.996771
820.692327	0.996342
821.010691	0.994978
821.329011	0.993455
821.647286	0.992371
821.965517	0.990759
822.283704	0.988259
822.601847	0.986862
822.919945	0.986742
823.237999	0.988302
823.556010	0.988846
823.873976	0.990568
824.191897	0.990856
824.509775	0.993295
824.827609	0.992971
825.145398	0.994918
825.463144	0.992890
825.780845	0.994076
826.098502	0.993899
826.416116	0.994039
826.733685	0.992373
827.051210	0.990941
827.368692	0.991213
827.686129	0.992669
828.003522	0.993667
828.320872	0.994060
828.638177	0.994854
828.955439	0.996493
829.272656	0.995841
829.589830	0.995700
829.906960	0.996934
830.224046	0.997511
830.541088	0.998258
830.858086	0.997974
831.175041	0.998978
831.491952	0.998092
831.808819	0.998965
832.125642	0.998156
832.442421	0.998846
832.759157	0.998788
833.075849	0.996621
833.392497	0.996114
833.709101	0.994470
834.025662	0.994470
834.342179	0.994115
834.658653	0.996690
834.975083	0.997517
835.291469	0.995555
835.607811	0.997432
835.924110	0.997056
836.240366	0.998415
836.556578	0.998555
836.872746	0.999229
837.188871	0.998824
837.504952	0.998121
837.820990	0.998901
838.136984	0.999232
838.452935	0.998769
838.768842	0.998270
839.084706	0.999846
839.400526	0.999856
839.716303	0.998028
840.032037	0.997811
840.347727	0.997635
840.663373	0.997272
840.978977	0.997909
841.294537	1.000137
841.610054	0.999792
841.925527	1.000329
842.240957	0.999590
842.556344	0.999519
842.871687	0.998738
843.186987	1.000122
843.502244	0.999749
843.817458	0.998705
844.132629	0.998868
844.447756	0.999924
844.762840	0.999695
845.077881	1.000044
845.392879	0.998749
845.707833	0.998798
846.022745	0.999326
846.337613	0.999623
846.652438	1.000494
846.967221	1.000089
847.281960	1.000380
847.596656	1.000455
847.911309	1.000989
848.225919	0.999058
848.540485	0.999925
848.855009	1.000742
849.169490	0.999332
849.483928	0.999591
849.798323	1.000116
850.112675	1.000624
850.426984	1.000502
850.741251	0.999666
851.055474	0.999751
851.369654	0.999214
851.683792	0.998456
851.997887	1.000045
852.311938	1.000118
852.625947	0.999851
852.939914	0.998129
853.253837	1.000895
853.567718	1.000736
853.881555	1.000277
854.195350	1.000433
854.509103	0.999830
854.822812	1.000768
855.136479	1.000954
855.450103	1.000400
855.763685	0.999891
856.077224	1.000701
856.390720	1.000377
856.704173	1.000989
857.017584	1.000832
857.330953	0.999767
857.644278	0.999699
857.957561	1.000917
858.270802	0.999737
858.584000	0.999690
858.897155	1.000678
859.210268	1.000527
859.523339	1.000545
859.836367	0.999835
860.149352	0.999962
860.462295	0.999809
860.775195	1.000018
861.088054	0.998923
861.400869	1.000586
861.713642	0.999767
862.026373	0.999854
862.339062	1.000890
862.651708	1.000758
862.964312	1.000174
863.276873	0.999171
863.589392	0.999730
863.901869	1.000080
864.214303	1.000193
864.526696	1.000631
864.839045	1.000009
865.151353	1.000255
865.463619	0.998938
865.775842	1.000172
866.088023	1.000495
866.400162	1.000598
866.712258	1.000835
867.024313	0.999894
867.336325	1.000107
867.648296	1.000293
867.960224	1.000462
868.272110	0.999857
868.583954	0.999712
868.895755	1.001501
869.207515	0.999428
869.519233	1.000231
869.830909	0.999517
870.142542	0.999138
870.454134	0.998924
870.765684	1.000366
871.077191	1.000531
871.388657	1.001591
871.700081	0.999764
872.011463	0.999897
872.322803	0.999086
872.634101	0.999288
872.945357	0.999171
873.256571	0.998745
873.567744	0.998887
873.878874	0.999484
874.189963	0.999117
874.501010	1.000459
874.812015	1.000346
875.122979	1.000384
875.433900	0.999043
875.744780	0.999579
876.055618	0.999169
876.366415	0.999775
876.677169	1.000075
876.987882	0.999004
877.298554	1.000480
877.609183	0.999418
877.919771	1.000384
878.230317	0.999468
878.540822	0.997810
878.851285	0.999754
879.161707	0.997889
879.472087	0.999783
879.782425	0.997145
880.092722	0.996299
880.402977	0.994304
880.713191	0.992827
881.023363	0.989976
881.333494	0.988636
881.643583	0.989168
881.953631	0.989531
882.263637	0.988258
882.573602	0.989019
882.883526	0.989753
883.193408	0.991500
883.503248	0.992323
883.813048	0.993023
884.122806	0.993827
884.432522	0.995299
884.742197	0.996214
885.051831	0.995671
885.361424	0.997239
885.670975	0.998480
885.980485	0.996462
886.289954	0.996941
886.599382	0.996750
886.908768	0.998330
887.218113	0.997244
887.527417	0.998034
887.836680	0.998097
888.145901	0.998690
888.455082	0.999783
888.764221	0.999970
889.073319	0.999237
889.382376	0.999357
889.691392	0.998180
890.000366	0.999185
890.309300	0.998099
890.618193	0.999520
890.927044	0.998401
891.235855	0.998610
891.544625	0.999111
891.853353	0.999420
892.162041	0.999188
892.470687	0.999678
892.779293	0.997396
893.087858	0.997977
893.396381	0.997730
893.704864	0.997690
894.013306	0.996530
894.321707	0.996784
894.630068	0.994980
894.938387	0.993896
895.246665	0.994588
895.554903	0.995221
895.863100	0.996255
896.171256	0.996116
896.479371	0.996786
896.787446	0.996365
897.095480	0.996967
897.403473	0.998174
897.711425	0.997644
898.019336	0.998190
898.327207	0.998733
898.635038	0.997067
898.942827	0.998433
899.250576	0.998091
899.558284	0.998868
899.865952	0.999530
900.173579	0.998938
900.481165	0.997613
900.788711	0.999472
901.096216	0.998705
901.403681	0.999930
901.711105	0.999122
902.018489	0.999428
902.325832	1.000621
902.633135	0.999270
902.940397	0.999295
903.247619	0.998403
903.554800	0.997707
903.861941	0.995365
904.169041	0.995442
904.476101	0.993097
904.783121	0.993808
905.090100	0.993480
905.397039	0.994713
905.703938	0.995824
906.010796	0.996209
906.317614	0.996900
906.624391	0.997010
906.931129	0.998297
907.237826	0.998879
907.544483	0.998386
907.851099	0.998148
908.157675	0.998563
908.464211	0.999136
908.770707	0.997867
909.077163	0.998728
909.383578	0.999559
909.689954	0.998206
909.996289	0.999179
910.302584	1.000528
910.608839	1.001403
910.915054	1.000938
911.221229	1.000008
911.527363	0.998445
911.833458	1.000466
912.139513	0.999790
912.445527	0.999248
912.751502	0.999218
913.057436	0.999254
913.363331	1.000090
913.669186	0.999344
913.975000	0.998753
914.280775	0.998869
914.586510	0.998481
914.892205	0.996596
915.197859	0.995968
915.503475	0.997031
915.809050	0.994425
916.114585	0.992946
916.420081	0.993178
916.725536	0.993135
917.030952	0.994029
917.336328	0.993788
917.641665	0.994382
917.946961	0.994957
918.252218	0.994988
918.557435	0.997171
918.862612	0.998534
919.167750	0.998899
919.472848	0.998161
919.777906	0.998174
920.082925	0.998850
920.387904	0.999576
920.692843	0.997155
920.997743	0.998309
921.302603	0.998772
921.607423	0.998880
921.912204	0.999730
922.216946	0.999344
922.521647	0.998884
922.826310	0.999337
923.130932	1.000128
923.435516	0.999670
923.740059	0.999678
924.044564	0.999229
924.349028	0.999196
924.653454	0.999350
924.957840	0.999604
925.262186	1.000087
925.566493	0.999578
925.870761	0.999814
926.174989	0.999776
926.479178	1.000081
926.783328	1.000596
927.087438	0.999940
927.391509	0.998818
927.695541	1.000332
927.999533	1.000892
928.303486	1.000209
928.607400	1.000263
928.911275	1.001646
929.215110	1.002070
929.518906	1.000319
929.822663	1.001647
930.126381	1.002027
930.430060	0.999940
930.733699	1.000090
931.037299	1.000894
931.340861	1.000528
931.644383	0.999381
931.947866	0.999547
932.251309	1.000496
932.554714	0.999855
932.858080	1.001545
933.161407	1.000058
933.464694	1.001615
933.767943	1.000638
934.071153	1.000513
934.374323	1.000698
934.677455	0.999564
934.980548	1.000059
935.283602	0.999852
935.586617	0.999880
935.889593	1.001496
936.192530	1.001790
936.495428	0.999629
936.798287	0.999606
937.101108	1.000227
937.403890	0.999220
937.706632	1.001785
938.009336	0.999666
938.312002	0.999996
938.614628	0.999853
938.917216	1.000053
939.219765	0.999089
939.522275	0.999427
939.824747	1.000514
940.127179	0.999780
940.429573	1.000829
940.731929	0.999228
941.034246	1.000662
941.336524	0.998714
941.638763	1.000640
941.940964	1.000558
942.243126	0.999246
942.545250	1.000252
942.847335	1.000238
943.149381	1.000441
943.451389	1.000105
943.753359	1.000672
944.055290	1.001505
944.357182	0.999510
944.659036	1.000777
944.960851	1.000556
945.262628	1.001550
945.564367	1.000418
945.866067	1.000846
946.167729	1.000357
946.469352	1.001063
946.770937	0.998770
947.072484	1.000991
947.373992	1.001681
947.675462	1.000014
947.976893	0.999613
948.278286	1.001562
948.579641	1.000894
948.880958	1.001025
949.182236	0.999611
949.483476	1.001141
949.784678	1.000677
950.085841	1.000692
950.386967	0.999619
950.688054	1.001167
950.989103	0.998938
951.290114	1.000073
951.591087	1.000118
951.892021	0.999688
952.192917	0.999870
952.493776	1.000697
952.794596	1.000825
953.095378	1.000677
953.396122	1.000865
953.696828	1.001115
953.997496	1.000557
954.298126	1.001078
954.598718	0.999695
954.899272	1.000768
955.199788	1.000465
955.500266	1.001316
955.800706	1.000035
956.101108	1.000143
956.401472	1.001546
956.701798	1.000712
957.002087	1.001024
957.302337	1.000218
957.602550	0.999777
957.902724	0.999931
958.202861	1.000365
958.502960	0.999999
958.803022	1.000752
959.103045	1.000526
959.403031	1.001960
959.702979	1.000731
960.002889	0.999484
960.302762	1.000391
960.602596	1.001242
960.902393	1.002206
961.202153	1.001574
961.501875	0.999898
961.801559	1.000859
962.101205	1.000475
962.400814	1.001917
962.700385	1.001549
962.999918	1.000198
963.299414	1.000711
963.598873	1.001777
963.898293	1.000494
964.197677	1.000004
964.497022	1.000096
964.796331	0.999793
965.095601	1.001702
965.394835	1.001533
965.694030	1.002130
965.993189	1.001475
966.292309	1.001034
966.591393	0.999337
966.890439	1.001663
967.189447	1.000376
967.488419	1.000213
967.787353	0.999782
968.086249	1.000562
968.385108	0.999898
968.683930	1.002110
968.982714	1.001776
969.281462	0.999255
969.580172	1.001091
969.878844	1.001980
970.177480	1.001117
970.476078	1.001718
970.774639	1.000890
971.073162	1.001400
971.371649	1.001665
971.670098	0.999819
971.968510	1.001532
972.266885	1.000060
972.565223	1.000808
972.863524	0.999331
973.161788	0.999986
973.460014	1.002007
973.758204	0.999947
974.056356	1.000081
974.354471	1.000429
974.652550	1.001478
974.950591	1.000781
975.248595	0.999392
975.546563	1.001137
975.844493	1.001722
976.142386	0.999756
976.440243	1.000673
976.738062	1.001230
977.035845	0.999998
977.333590	1.000981
977.631299	0.999732
977.928971	1.002060
978.226606	1.001288
978.524204	0.999653
978.821765	1.001041
979.119290	1.001359
979.416777	1.000653
979.714228	1.002299
980.011642	1.000948
980.309020	0.999870
980.606360	1.000670
980.903664	1.001886
981.200931	1.001027
981.498162	1.000166
981.795356	1.001827
982.092513	1.001018
982.389633	1.002287
982.686717	1.000193
982.983764	1.000167
983.280775	1.000287
983.577749	1.001218
983.874686	0.999603
984.171587	0.999492
984.468451	1.000045
984.765279	1.000895
985.062070	1.000259
985.358824	1.000058
985.655543	1.000399
985.952224	1.000747
986.248869	1.000073
986.545478	1.002006
986.842050	1.001675
987.138586	1.000008
987.435086	1.000265
987.731549	1.002766
988.027975	1.002775
988.324366	1.000450
988.620719	1.001598
988.917037	1.000994
989.213318	1.001234
989.509563	1.000736
989.805772	1.001874
990.101944	1.002122
990.398080	1.002025
990.694180	1.002762
990.990244	1.001874
991.286271	1.000691
991.582262	1.001337
991.878217	1.000156
992.174136	1.001686
992.470019	1.000889
992.765865	1.002368
993.061676	1.001466
993.357450	1.001538
993.653188	1.002178
993.948890	1.000761
994.244556	0.999886
994.540186	1.000828
994.835780	1.001020
995.131337	1.001389
995.426859	1.000177
995.722345	1.001120
996.017795	1.001372
996.313208	1.001416
996.608586	1.000466
996.903928	1.001428
997.199234	1.001576
997.494504	1.002257
997.789738	1.000113
998.084936	0.999960
998.380099	1.000111
998.675225	1.001483
998.970316	1.001775
999.265371	1.000627
999.560390	1.001361
999.855373	1.000805
1000.150320	1.001819
1000.445232	1.001369
1000.740108	1.000799
1001.034948	1.000830
1001.329752	1.003480
1001.624521	1.000652
1001.919254	1.000380
1002.213951	1.001200
1002.508613	1.000427
1002.803239	1.000767
1003.097829	1.001977
1003.392384	1.000751
1003.686903	1.000978
1003.981386	1.002879
1004.275834	1.001847
1004.570246	0.999203
1004.864623	1.001437
1005.158964	1.001695
1005.453270	1.000500
1005.747540	1.000697
1006.041775	1.000994
1006.335974	1.001579
1006.630138	1.000793
1006.924266	1.000354
1007.218359	0.998840
1007.512416	1.002133
1007.806438	1.000692
1008.100425	1.001428
1008.394376	1.002369
1008.688292	0.999929
1008.982172	1.000583
1009.276017	1.001737
1009.569827	1.002075
1009.863602	0.999351
1010.157341	1.001991
1010.451045	1.001350
1010.744714	1.002969
1011.038347	1.001724
1011.331945	1.000083
1011.625508	1.001180
1011.919036	1.001004
1012.212528	1.000462
1012.505986	1.000916
1012.799408	1.000499
1013.092795	1.001622
1013.386147	1.001227
1013.679464	1.001419
1013.972745	1.001566
1014.265992	1.000756
1014.559204	1.001103
1014.852380	1.001115
1015.145521	1.001261
1015.438628	1.001158
1015.731699	1.000558
1016.024736	1.000857
1016.317737	1.001898
1016.610703	1.001535
1016.903635	1.001732
1017.196531	1.001552
1017.489393	0.999470
1017.782219	1.000619
1018.075011	1.001484
1018.367768	1.000948
1018.660490	1.001099
1018.953177	1.001099
1019.245829	1.001099
