Dividing Wavelength (nm)	Counts (n)	Blue Motor Position (mm): 0.500000	Red Motor Position (mm): 0.000000	
326.493990	1.006540
326.888308	1.006540
327.282561	1.006540
327.676750	1.007393
328.070874	1.007811
328.464933	1.008038
328.858929	1.008121
329.252859	1.006857
329.646726	1.006226
330.040528	1.007889
330.434265	1.007265
330.827938	1.007256
331.221547	1.007713
331.615091	1.007684
332.008571	1.008845
332.401986	1.006486
332.795338	1.006793
333.188625	1.006685
333.581847	1.006168
333.975006	1.006185
334.368100	1.007711
334.761129	1.006442
335.154095	1.006788
335.546996	1.005400
335.939833	0.999531
336.332606	1.000071
336.725315	0.998894
337.117960	1.000851
337.510540	0.998973
337.903056	1.000765
338.295508	1.000231
338.687896	1.000910
339.080220	1.000368
339.472480	0.999524
339.864676	1.000238
340.256807	0.999509
340.648875	1.000678
341.040879	1.000727
341.432818	0.999991
341.824694	0.999464
342.216506	1.000853
342.608253	1.000478
342.999937	0.999065
343.391557	1.000197
343.783113	1.000503
344.174605	0.999775
344.566033	0.999154
344.957397	1.000403
345.348697	1.000285
345.739934	0.999841
346.131106	0.998974
346.522215	0.999444
346.913260	0.998875
347.304241	0.998103
347.695159	1.000629
348.086012	0.999590
348.476802	0.999692
348.867528	0.998010
349.258191	1.000235
349.648789	0.998991
350.039324	0.999836
350.429796	0.999405
350.820203	0.997487
351.210548	0.999771
351.600828	1.001034
351.991045	0.998242
352.381198	1.000603
352.771288	0.999103
353.161314	0.999568
353.551276	0.998632
353.941175	0.997740
354.331010	0.999262
354.720782	0.999388
355.110490	0.999287
355.500135	0.999402
355.889717	0.997752
356.279235	0.998255
356.668689	0.999843
357.058080	0.999071
357.447408	0.997954
357.836672	0.999706
358.225873	0.998695
358.615010	0.998727
359.004084	0.998717
359.393095	0.999518
359.782043	0.999612
360.170927	1.000463
360.559748	0.999156
360.948505	0.998748
361.337199	0.998396
361.725830	0.998541
362.114398	0.998250
362.502903	0.997740
362.891344	0.997657
363.279722	0.997379
363.668037	0.999329
364.056289	0.997756
364.444478	0.998518
364.832603	0.997983
365.220665	0.997728
365.608665	0.998276
365.996601	0.997676
366.384474	0.996522
366.772284	0.997444
367.160031	0.996391
367.547715	0.997179
367.935336	0.996754
368.322893	0.995279
368.710388	0.993821
369.097820	0.991760
369.485189	0.989244
369.872495	0.987212
370.259738	0.985339
370.646918	0.983356
371.034035	0.980724
371.421090	0.977520
371.808081	0.971865
372.195010	0.970611
372.581875	0.964508
372.968678	0.960309
373.355418	0.957095
373.742096	0.949228
374.128710	0.945499
374.515262	0.940080
374.901751	0.934155
375.288177	0.930090
375.674540	0.922430
376.060841	0.916451
376.447079	0.909296
376.833254	0.902219
377.219367	0.898837
377.605417	0.887165
377.991404	0.883271
378.377329	0.876783
378.763191	0.870935
379.148991	0.862476
379.534727	0.854420
379.920402	0.846092
380.306013	0.843032
380.691563	0.830755
381.077049	0.822979
381.462474	0.819383
381.847835	0.808038
382.233134	0.802938
382.618371	0.803226
383.003545	0.786233
383.388657	0.784280
383.773706	0.776248
384.158693	0.772743
384.543618	0.767307
384.928480	0.757824
385.313280	0.748205
385.698017	0.748070
386.082692	0.736754
386.467305	0.734480
386.851856	0.729335
387.236344	0.724530
387.620770	0.718280
388.005133	0.712619
388.389435	0.707308
388.773674	0.704682
389.157851	0.696010
389.541965	0.693560
389.926018	0.700794
390.310008	0.686622
390.693936	0.684311
391.077802	0.676325
391.461606	0.678260
391.845348	0.666857
392.229027	0.665542
392.612645	0.664337
392.996200	0.651453
393.379694	0.644579
393.763125	0.634511
394.146494	0.639201
394.529801	0.630051
394.913047	0.622316
395.296230	0.627450
395.679351	0.619061
396.062410	0.615880
396.445408	0.618794
396.828343	0.613923
397.211217	0.609616
397.594028	0.621549
397.976778	0.611677
398.359466	0.608960
398.742092	0.603212
399.124656	0.615810
399.507158	0.603854
399.889598	0.600606
400.271977	0.591126
400.654294	0.595923
401.036549	0.595068
401.418742	0.599056
401.800874	0.584765
402.182944	0.581913
402.564952	0.573311
402.946898	0.574850
403.328783	0.576712
403.710606	0.587444
404.092367	0.562718
404.474067	0.567225
404.855705	0.566408
405.237282	0.575272
405.618797	0.561574
406.000250	0.556848
406.381642	0.547502
406.762972	0.552189
407.144240	0.550650
407.525447	0.550948
407.906593	0.543692
408.287677	0.538624
408.668700	0.547893
409.049661	0.541735
409.430560	0.536172
409.811399	0.545306
410.192176	0.526880
410.572891	0.533920
410.953545	0.521901
411.334138	0.535269
411.714669	0.528483
412.095139	0.539838
412.475547	0.524032
412.855894	0.526369
413.236180	0.524938
413.616405	0.530801
413.996568	0.520785
414.376670	0.527851
414.756711	0.532194
415.136691	0.528941
415.516609	0.520554
415.896466	0.516586
416.276262	0.512155
416.655997	0.514172
417.035670	0.495936
417.415283	0.487052
417.794834	0.492764
418.174324	0.497580
418.553753	0.507410
418.933121	0.488525
419.312428	0.482881
419.691674	0.488808
420.070859	0.477488
420.449983	0.484746
420.829045	0.474495
421.208047	0.483186
421.586988	0.476432
421.965867	0.475160
422.344686	0.463861
422.723444	0.476393
423.102141	0.493059
423.480777	0.465944
423.859352	0.487385
424.237866	0.464135
424.616319	0.465299
424.994712	0.456128
425.373044	0.466307
425.751314	0.454181
426.129524	0.470952
426.507673	0.454306
426.885762	0.447568
427.263789	0.453293
427.641756	0.463057
428.019662	0.453058
428.397508	0.452552
428.775292	0.456939
429.153016	0.448360
429.530679	0.455158
429.908282	0.448078
430.285824	0.458483
430.663305	0.436793
431.040726	0.458425
431.418086	0.457461
431.795385	0.449382
432.172624	0.447730
432.549802	0.448948
432.926920	0.447573
433.303977	0.446899
433.680974	0.444664
434.057910	0.443453
434.434786	0.442423
434.811601	0.445207
435.188355	0.427584
435.565050	0.437377
435.941683	0.437686
436.318257	0.421896
436.694770	0.423363
437.071222	0.421286
437.447614	0.425111
437.823946	0.431713
438.200218	0.420769
438.576429	0.431114
438.952580	0.423961
439.328670	0.420009
439.704700	0.426915
440.080670	0.428272
440.456580	0.409670
440.832429	0.417527
441.208218	0.428164
441.583947	0.417295
441.959616	0.416817
442.335224	0.422270
442.710773	0.412960
443.086261	0.411433
443.461689	0.425433
443.837057	0.415126
444.212365	0.404714
444.587612	0.411809
444.962800	0.401449
445.337927	0.403263
445.712995	0.429354
446.088002	0.391169
446.462949	0.401950
446.837837	0.406614
447.212664	0.395205
447.587431	0.386906
447.962139	0.357439
448.336786	0.316120
448.711374	0.326596
449.085901	0.371303
449.460369	0.375308
449.834776	0.379161
450.209124	0.358204
450.583412	0.351089
450.957640	0.343506
451.331808	0.355187
451.705917	0.378973
452.079965	0.383464
452.453954	0.371924
452.827883	0.378156
453.201752	0.373002
453.575562	0.384054
453.949311	0.372838
454.323001	0.378888
454.696632	0.375088
455.070202	0.367823
455.443713	0.359481
455.817164	0.354060
456.190556	0.349779
456.563888	0.346642
456.937160	0.344157
457.310373	0.361461
457.683526	0.360110
458.056619	0.366427
458.429653	0.366509
458.802628	0.370001
459.175542	0.364630
459.548398	0.346701
459.921194	0.339394
460.293930	0.339556
460.666607	0.316599
461.039224	0.305583
461.411782	0.300822
461.784280	0.300056
462.156719	0.304120
462.529099	0.308394
462.901419	0.324478
463.273680	0.329109
463.645882	0.328440
464.018024	0.334302
464.390106	0.326851
464.762130	0.311959
465.134094	0.294835
465.505999	0.263431
465.877845	0.234031
466.249631	0.220892
466.621358	0.228223
466.993026	0.242130
467.364634	0.248469
467.736184	0.257380
468.107674	0.266088
468.479105	0.265360
468.850477	0.271971
469.221790	0.278782
469.593043	0.288932
469.964238	0.293934
470.335373	0.293563
470.706449	0.291386
471.077467	0.291911
471.448425	0.254365
471.819324	0.229596
472.190164	0.229096
472.560945	0.258061
472.931667	0.280272
473.302330	0.284768
473.672934	0.296449
474.043479	0.284482
474.413965	0.286314
474.784393	0.289653
475.154761	0.285015
475.525070	0.281697
475.895321	0.287802
476.265513	0.281851
476.635645	0.277496
477.005719	0.276842
477.375734	0.273585
477.745691	0.266748
478.115588	0.263283
478.485427	0.256567
478.855207	0.243816
479.224928	0.225992
479.594591	0.214061
479.964194	0.217388
480.333739	0.218665
480.703226	0.219842
481.072653	0.218370
481.442022	0.214018
481.811333	0.210869
482.180584	0.214222
482.549777	0.219708
482.918912	0.223089
483.287988	0.222496
483.657005	0.222295
484.025964	0.228967
484.394864	0.226126
484.763706	0.226808
485.132489	0.231601
485.501213	0.232657
485.869879	0.231115
486.238487	0.233947
486.607036	0.231962
486.975527	0.236570
487.343959	0.232425
487.712333	0.231475
488.080648	0.232966
488.448905	0.232136
488.817104	0.233367
489.185244	0.227744
489.553326	0.224413
489.921350	0.214387
490.289315	0.196683
490.657222	0.191928
491.025070	0.193409
491.392861	0.195204
491.760593	0.200840
492.128267	0.206665
492.495883	0.212099
492.863440	0.218628
493.230939	0.224867
493.598380	0.226453
493.965763	0.228355
494.333088	0.230636
494.700354	0.232029
495.067563	0.231203
495.434713	0.234650
495.801805	0.232094
496.168839	0.234073
496.535815	0.235204
496.902733	0.235249
497.269593	0.236711
497.636395	0.234491
498.003139	0.234395
498.369825	0.237806
498.736453	0.234137
499.103023	0.235875
499.469535	0.235455
499.835989	0.235389
500.202385	0.236177
500.568723	0.239363
500.935003	0.235169
501.301226	0.238884
501.667390	0.233406
502.033497	0.231419
502.399546	0.234340
502.765537	0.236269
503.131470	0.234439
503.497345	0.230883
503.863163	0.239614
504.228923	0.232630
504.594625	0.231195
504.960269	0.236676
505.325856	0.232150
505.691385	0.236283
506.056856	0.232954
506.422270	0.232375
506.787625	0.234996
507.152924	0.232413
507.518164	0.232702
507.883347	0.234316
508.248472	0.236142
508.613540	0.231078
508.978550	0.233879
509.343503	0.234316
509.708398	0.231972
510.073236	0.229465
510.438016	0.229058
510.802738	0.230183
511.167403	0.229166
511.532010	0.231528
511.896561	0.226882
512.261053	0.225364
512.625488	0.227405
512.989866	0.227772
513.354186	0.228212
513.718449	0.230154
514.082655	0.226314
514.446803	0.228808
514.810894	0.226169
515.174927	0.229193
515.538904	0.228508
515.902822	0.225345
516.266684	0.227661
516.630488	0.228939
516.994235	0.227801
517.357925	0.226591
517.721558	0.224830
518.085133	0.224191
518.448651	0.224289
518.812112	0.226666
519.175516	0.226353
519.538863	0.223760
519.902152	0.225703
520.265385	0.222356
520.628560	0.224299
520.991678	0.224667
521.354739	0.223571
521.717743	0.224775
522.080690	0.224786
522.443580	0.222390
522.806413	0.223150
523.169189	0.222755
523.531908	0.221507
523.894569	0.225082
524.257174	0.224895
524.619722	0.222467
524.982213	0.223740
525.344647	0.222539
525.707025	0.223740
526.069345	0.221610
526.431608	0.223458
526.793815	0.221418
527.155964	0.225595
527.518057	0.224663
527.880093	0.225547
528.242072	0.224020
528.603995	0.226019
528.965860	0.227572
529.327669	0.226585
529.689421	0.227445
530.051117	0.228241
530.412755	0.225912
530.774337	0.228087
531.135862	0.228688
531.497331	0.228310
531.858743	0.230876
532.220098	0.227754
532.581396	0.230116
532.942638	0.230683
533.303824	0.231827
533.664953	0.231197
534.026025	0.233162
534.387040	0.231120
534.747999	0.231025
535.108902	0.229702
535.469748	0.234929
535.830537	0.232760
536.191270	0.233292
536.551947	0.232776
536.912567	0.232846
537.273131	0.234372
537.633638	0.234950
537.994089	0.235029
538.354483	0.236147
538.714821	0.233344
539.075103	0.232835
539.435328	0.233458
539.795497	0.237414
540.155609	0.233849
540.515665	0.232071
540.875665	0.237582
541.235609	0.236478
541.595496	0.236280
541.955328	0.232882
542.315102	0.235643
542.674821	0.236625
543.034483	0.236857
543.394090	0.236550
543.753640	0.238074
544.113134	0.233090
544.472571	0.236715
544.831953	0.233322
545.191278	0.237653
545.550548	0.236939
545.909761	0.233919
546.268918	0.234747
546.628019	0.232897
546.987064	0.235533
547.346053	0.237389
547.704986	0.235066
548.063863	0.235584
548.422684	0.235714
548.781449	0.237230
549.140158	0.235280
549.498811	0.237934
549.857408	0.240962
550.215949	0.235547
550.574434	0.239055
550.932864	0.236612
551.291237	0.235374
551.649555	0.236815
552.007817	0.236866
552.366022	0.237566
552.724173	0.237712
553.082267	0.237890
553.440305	0.234945
553.798288	0.239075
554.156215	0.235944
554.514086	0.236373
554.871902	0.239560
555.229661	0.238938
555.587365	0.239741
555.945014	0.241970
556.302606	0.239037
556.660143	0.241410
557.017625	0.238104
557.375050	0.240339
557.732421	0.237346
558.089735	0.239163
558.446994	0.239108
558.804197	0.238461
559.161345	0.238214
559.518437	0.241767
559.875474	0.239761
560.232455	0.239201
560.589381	0.240310
560.946251	0.240449
561.303065	0.237866
561.659825	0.239299
562.016528	0.240773
562.373177	0.243843
562.729770	0.240813
563.086307	0.243022
563.442789	0.240941
563.799216	0.243572
564.155587	0.242691
564.511904	0.243776
564.868164	0.243459
565.224370	0.243372
565.580520	0.245126
565.936615	0.245389
566.292654	0.248104
566.648638	0.245357
567.004567	0.245932
567.360441	0.246431
567.716260	0.248471
568.072023	0.246345
568.427732	0.247190
568.783385	0.249502
569.138982	0.247677
569.494525	0.247498
569.850013	0.250218
570.205445	0.248688
570.560823	0.251290
570.916145	0.253297
571.271412	0.251440
571.626625	0.252936
571.981782	0.253461
572.336884	0.254415
572.691931	0.253701
573.046923	0.255521
573.401860	0.256791
573.756743	0.258357
574.111570	0.257060
574.466342	0.257748
574.821059	0.256636
575.175722	0.259985
575.530330	0.259482
575.884882	0.259503
576.239380	0.261670
576.593823	0.262316
576.948211	0.261780
577.302544	0.265068
577.656823	0.264535
578.011047	0.264511
578.365216	0.265421
578.719330	0.267671
579.073389	0.266903
579.427394	0.268216
579.781344	0.269083
580.135239	0.270545
580.489080	0.270292
580.842866	0.273346
581.196597	0.272956
581.550273	0.271605
581.903895	0.272730
582.257463	0.270705
582.610975	0.274192
582.964434	0.273883
583.317837	0.276108
583.671186	0.276609
584.024481	0.276843
584.377721	0.278986
584.730906	0.279905
585.084037	0.279127
585.437113	0.280915
585.790135	0.280184
586.143103	0.283640
586.496016	0.284309
586.848874	0.282037
587.201679	0.282949
587.554428	0.286027
587.907124	0.284513
588.259765	0.285288
588.612352	0.285739
588.964884	0.290020
589.317362	0.289379
589.669786	0.289112
590.022155	0.287568
590.374470	0.287029
590.726731	0.288827
591.078937	0.293851
591.431090	0.290668
591.783188	0.294400
592.135232	0.295044
592.487222	0.294834
592.839157	0.293094
593.191038	0.295202
593.542866	0.297370
593.894639	0.300778
594.246358	0.299000
594.598022	0.298144
594.949633	0.301806
595.301190	0.302741
595.652692	0.301643
596.004141	0.297436
596.355535	0.305763
596.706876	0.306722
597.058162	0.309050
597.409395	0.306172
597.760573	0.304177
598.111698	0.307066
598.462768	0.307779
598.813785	0.308872
599.164748	0.310041
599.515657	0.310382
599.866511	0.314070
600.217312	0.309461
600.568060	0.314686
600.918753	0.310950
601.269392	0.311671
601.619978	0.315052
601.970510	0.312717
602.320988	0.313164
602.671412	0.310612
603.021783	0.313366
603.372100	0.314298
603.722363	0.314195
604.072572	0.315082
604.422728	0.314906
604.772830	0.316761
605.122878	0.316813
605.472872	0.317236
605.822813	0.315322
606.172701	0.317946
606.522534	0.315497
606.872314	0.315493
607.222041	0.316319
607.571714	0.314455
607.921333	0.316238
608.270899	0.315812
608.620411	0.312786
608.969870	0.316352
609.319276	0.316612
609.668627	0.316698
610.017926	0.315036
610.367171	0.313543
610.716362	0.314371
611.065500	0.314246
611.414585	0.313246
611.763616	0.313534
612.112594	0.314233
612.461518	0.313219
612.810389	0.311116
613.159207	0.313204
613.507971	0.315122
613.856682	0.311405
614.205340	0.312335
614.553945	0.309526
614.902496	0.313536
615.250994	0.311365
615.599439	0.312136
615.947830	0.311390
616.296169	0.312362
616.644454	0.312003
616.992686	0.312154
617.340864	0.309998
617.688990	0.313260
618.037063	0.310045
618.385082	0.311983
618.733048	0.308948
619.080961	0.310897
619.428821	0.310568
619.776628	0.310048
620.124382	0.312435
620.472083	0.312780
620.819731	0.311902
621.167326	0.315919
621.514868	0.315478
621.862357	0.319871
622.209793	0.319220
622.557176	0.321757
622.904506	0.322807
623.251783	0.325202
623.599007	0.327754
623.946179	0.326871
624.293297	0.329122
624.640363	0.332887
624.987376	0.333355
625.334336	0.335610
625.681243	0.338846
626.028097	0.338528
626.374899	0.339792
626.721647	0.340386
627.068343	0.343202
627.414987	0.344110
627.761577	0.346346
628.108115	0.344475
628.454600	0.350070
628.801032	0.347645
629.147412	0.349355
629.493739	0.349922
629.840014	0.353252
630.186236	0.350090
630.532405	0.356178
630.878521	0.353651
631.224585	0.355605
631.570597	0.359006
631.916556	0.357367
632.262462	0.357479
632.608316	0.359989
632.954117	0.360732
633.299866	0.361265
633.645562	0.361729
633.991206	0.366197
634.336797	0.369291
634.682336	0.371827
635.027823	0.373162
635.373257	0.373570
635.718639	0.377890
636.063968	0.376919
636.409245	0.381965
636.754470	0.382913
637.099642	0.385320
637.444762	0.388944
637.789829	0.388173
638.134845	0.391211
638.479808	0.392448
638.824719	0.392076
639.169577	0.396699
639.514383	0.395023
639.859137	0.399566
640.203839	0.399073
640.548489	0.399913
640.893086	0.400734
641.237632	0.403086
641.582125	0.401195
641.926566	0.403237
642.270955	0.403420
642.615292	0.403079
642.959576	0.402621
643.303809	0.402716
643.647990	0.402470
643.992118	0.403240
644.336195	0.405871
644.680219	0.404681
645.024192	0.405363
645.368112	0.399209
645.711981	0.398033
646.055797	0.393355
646.399562	0.396001
646.743274	0.388380
647.086935	0.385332
647.430544	0.385336
647.774101	0.383934
648.117606	0.384264
648.461059	0.384691
648.804460	0.386809
649.147810	0.391646
649.491108	0.394126
649.834354	0.395227
650.177548	0.400255
650.520690	0.406142
650.863781	0.407040
651.206820	0.406556
651.549807	0.411104
651.892742	0.415012
652.235626	0.415233
652.578458	0.415424
652.921238	0.422248
653.263967	0.419505
653.606644	0.423136
653.949269	0.423446
654.291843	0.426987
654.634365	0.424278
654.976836	0.427097
655.319255	0.427355
655.661622	0.429144
656.003938	0.428668
656.346203	0.431669
656.688416	0.429982
657.030577	0.432746
657.372687	0.435327
657.714746	0.436341
658.056753	0.432882
658.398708	0.436804
658.740612	0.438206
659.082465	0.434047
659.424266	0.434701
659.766016	0.434293
660.107715	0.437724
660.449362	0.435514
660.790958	0.436326
661.132503	0.437174
661.473996	0.434736
661.815438	0.436094
662.156829	0.435925
662.498168	0.436777
662.839456	0.438225
663.180693	0.435705
663.521879	0.435935
663.863013	0.436371
664.204097	0.434625
664.545129	0.431770
664.886110	0.432679
665.227040	0.429546
665.567918	0.432253
665.908746	0.429760
666.249522	0.429928
666.590248	0.430922
666.930922	0.429211
667.271545	0.428124
667.612118	0.427694
667.952639	0.429579
668.293109	0.428308
668.633528	0.431038
668.973896	0.431000
669.314213	0.431383
669.654480	0.432636
669.994695	0.433473
670.334859	0.433945
670.674973	0.434147
671.015035	0.434517
671.355047	0.434124
671.695008	0.435320
672.034918	0.437372
672.374777	0.437170
672.714585	0.437794
673.054342	0.438205
673.394049	0.438513
673.733705	0.435407
674.073310	0.436690
674.412864	0.439683
674.752368	0.439973
675.091820	0.440142
675.431223	0.444442
675.770574	0.444265
676.109875	0.447647
676.449125	0.447672
676.788324	0.450124
677.127473	0.455053
677.466571	0.455367
677.805619	0.456882
678.144616	0.457825
678.483562	0.459868
678.822458	0.462186
679.161303	0.463309
679.500098	0.463740
679.838842	0.465402
680.177535	0.464633
680.516179	0.463503
680.854771	0.462529
681.193314	0.455392
681.531805	0.446789
681.870247	0.435597
682.208638	0.428415
682.546978	0.426676
682.885268	0.428936
683.223508	0.435001
683.561697	0.438368
683.899836	0.442206
684.237925	0.444399
684.575963	0.447574
684.913951	0.450901
685.251889	0.446360
685.589776	0.448107
685.927614	0.450474
686.265401	0.445169
686.603137	0.446063
686.940824	0.440618
687.278460	0.438895
687.616046	0.437859
687.953582	0.433004
688.291068	0.433897
688.628504	0.429651
688.965889	0.432163
689.303224	0.436500
689.640510	0.440195
689.977745	0.445702
690.314930	0.453470
690.652065	0.458250
690.989150	0.465568
691.326185	0.472450
691.663170	0.476965
692.000105	0.484001
692.336990	0.491223
692.673825	0.493555
693.010610	0.500799
693.347345	0.506790
693.684030	0.507780
694.020665	0.512225
694.357251	0.521295
694.693786	0.521298
695.030272	0.524308
695.366707	0.528516
695.703093	0.532661
696.039429	0.529814
696.375716	0.531948
696.711952	0.534324
697.048139	0.536740
697.384276	0.538504
697.720363	0.537048
698.056400	0.535616
698.392388	0.541871
698.728326	0.543698
699.064214	0.547440
699.400053	0.547551
699.735842	0.551523
700.071581	0.554316
700.407270	0.556947
700.742910	0.560268
701.078501	0.566012
701.414042	0.566916
701.749533	0.569390
702.084974	0.578941
702.420366	0.572211
702.755709	0.578811
703.091002	0.586679
703.426246	0.580573
703.761440	0.585763
704.096584	0.590401
704.431679	0.587230
704.766725	0.590257
705.101721	0.591183
705.436668	0.587791
705.771565	0.594844
706.106413	0.590909
706.441212	0.586162
706.775961	0.585581
707.110661	0.588570
707.445311	0.584798
707.779913	0.582187
708.114465	0.580737
708.448967	0.577936
708.783421	0.569478
709.117825	0.563243
709.452180	0.562962
709.786485	0.557909
710.120742	0.546848
710.454949	0.548742
710.789107	0.540668
711.123216	0.531384
711.457275	0.532771
711.791286	0.524750
712.125247	0.523419
712.459159	0.534378
712.793023	0.525544
713.126837	0.530442
713.460602	0.530638
713.794318	0.539753
714.127985	0.539178
714.461602	0.548979
714.795171	0.552831
715.128691	0.560820
715.462162	0.568310
715.795584	0.574226
716.128957	0.576855
716.462281	0.583156
716.795556	0.586542
717.128782	0.592743
717.461960	0.601933
717.795088	0.600080
718.128167	0.606081
718.461198	0.614750
718.794180	0.616078
719.127113	0.618471
719.459997	0.621730
719.792833	0.628332
720.125619	0.629913
720.458357	0.634976
720.791046	0.634953
721.123686	0.639438
721.456278	0.645704
721.788821	0.642183
722.121315	0.647127
722.453761	0.651716
722.786158	0.648605
723.118506	0.645546
723.450805	0.653723
723.783056	0.649794
724.115259	0.647094
724.447412	0.646494
724.779518	0.646700
725.111574	0.645979
725.443582	0.642390
725.775542	0.644687
726.107453	0.636133
726.439315	0.635953
726.771129	0.634459
727.102895	0.628035
727.434612	0.621227
727.766281	0.618842
728.097901	0.617757
728.429473	0.617475
728.760996	0.616203
729.092471	0.616101
729.423897	0.620099
729.755276	0.619235
730.086606	0.618942
730.417887	0.613868
730.749120	0.604615
731.080305	0.594545
731.411442	0.590796
731.742530	0.595148
732.073570	0.594432
732.404562	0.587150
732.735506	0.588413
733.066401	0.593811
733.397249	0.602636
733.728048	0.614615
734.058798	0.627495
734.389501	0.638536
734.720156	0.648405
735.050762	0.656028
735.381320	0.656622
735.711831	0.665345
736.042293	0.670334
736.372707	0.667331
736.703073	0.670846
737.033391	0.673443
737.363661	0.670307
737.693883	0.665605
738.024056	0.663580
738.354182	0.664845
738.684260	0.653947
739.014290	0.651423
739.344272	0.650676
739.674207	0.644304
740.004093	0.643638
740.333931	0.643805
740.663722	0.644092
740.993464	0.645070
741.323159	0.648509
741.652806	0.653070
741.982405	0.657582
742.311956	0.664088
742.641460	0.665202
742.970915	0.669172
743.300323	0.676393
743.629683	0.682379
743.958996	0.684869
744.288260	0.689301
744.617477	0.694849
744.946647	0.697301
745.275768	0.702937
745.604842	0.701874
745.933869	0.712238
746.262847	0.713343
746.591778	0.705744
746.920662	0.713292
747.249498	0.718986
747.578286	0.710459
747.907027	0.706674
748.235720	0.706523
748.564365	0.701717
748.892963	0.700688
749.221514	0.705796
749.550017	0.709270
749.878473	0.710534
750.206881	0.715991
750.535242	0.717286
750.863555	0.716346
751.191821	0.718823
751.520039	0.721157
751.848210	0.725008
752.176334	0.719082
752.504411	0.718046
752.832440	0.725124
753.160421	0.729735
753.488356	0.728242
753.816243	0.725126
754.144082	0.733445
754.471875	0.737054
754.799620	0.733177
755.127318	0.734393
755.454969	0.734859
755.782572	0.733778
756.110129	0.738458
756.437638	0.742418
756.765100	0.738156
757.092515	0.736058
757.419882	0.733903
757.747203	0.740375
758.074477	0.740952
758.401703	0.736869
758.728882	0.732085
759.056014	0.730215
759.383099	0.729595
759.710138	0.730120
760.037129	0.726642
760.364073	0.720303
760.690970	0.723428
761.017820	0.727775
761.344623	0.724035
761.671379	0.715706
761.998088	0.703471
762.324751	0.680783
762.651366	0.637142
762.977935	0.569781
763.304456	0.517772
763.630931	0.507990
763.957359	0.546889
764.283740	0.591585
764.610074	0.619970
764.936362	0.651591
765.262602	0.679092
765.588796	0.700459
765.914943	0.718323
766.241044	0.736102
766.567097	0.742154
766.893104	0.752863
767.219064	0.759586
767.544978	0.766452
767.870845	0.779998
768.196665	0.783262
768.522438	0.781743
768.848165	0.783682
769.173846	0.792369
769.499479	0.796497
769.825066	0.801202
770.150607	0.804817
770.476101	0.800718
770.801548	0.801810
771.126949	0.813657
771.452303	0.817742
771.777611	0.816028
772.102872	0.815513
772.428087	0.820338
772.753256	0.824021
773.078378	0.825384
773.403453	0.835723
773.728482	0.838836
774.053465	0.831862
774.378401	0.835537
774.703291	0.845592
775.028135	0.844687
775.352932	0.845383
775.677683	0.850372
776.002388	0.849940
776.327046	0.849555
776.651658	0.853492
776.976224	0.856646
777.300743	0.856161
777.625216	0.858257
777.949643	0.861718
778.274024	0.858813
778.598359	0.861774
778.922647	0.859893
779.246889	0.861331
779.571086	0.864801
779.895236	0.868108
780.219339	0.864817
780.543397	0.861079
780.867409	0.859692
781.191374	0.861519
781.515294	0.863507
781.839167	0.863570
782.162995	0.865460
782.486776	0.862465
782.810511	0.862859
783.134201	0.868395
783.457844	0.865821
783.781441	0.868023
784.104993	0.873471
784.428498	0.874610
784.751958	0.870592
785.075372	0.872220
785.398739	0.874940
785.722061	0.871591
786.045337	0.867461
786.368568	0.871441
786.691752	0.874746
787.014891	0.861286
787.337983	0.851272
787.661030	0.844620
787.984031	0.825583
788.306987	0.814126
788.629897	0.813583
788.952760	0.820506
789.275579	0.824261
789.598351	0.840216
789.921078	0.853978
790.243759	0.855716
790.566395	0.859122
790.888984	0.867217
791.211529	0.871281
791.534027	0.874806
791.856480	0.878580
792.178888	0.881887
792.501249	0.884672
792.823566	0.887833
793.145836	0.886918
793.468062	0.889154
793.790241	0.889629
794.112375	0.887356
794.434464	0.883506
794.756507	0.881574
795.078505	0.879797
795.400457	0.875092
795.722364	0.864693
796.044226	0.856644
796.366042	0.855092
796.687812	0.858006
797.009538	0.853808
797.331218	0.858792
797.652852	0.862754
797.974442	0.865968
798.295986	0.868003
798.617484	0.869714
798.938938	0.873955
799.260346	0.879594
799.581709	0.880594
799.903026	0.883159
800.224299	0.883843
800.545526	0.887395
800.866708	0.890508
801.187845	0.895399
801.508936	0.894913
801.829983	0.893052
802.150984	0.896298
802.471940	0.901821
802.792851	0.900569
803.113717	0.902369
803.434538	0.898619
803.755314	0.902578
804.076045	0.903510
804.396731	0.903781
804.717372	0.902752
805.037967	0.905671
805.358518	0.903612
805.679024	0.899716
805.999485	0.901209
806.319901	0.900056
806.640272	0.902295
806.960598	0.900202
807.280879	0.897170
807.601115	0.896032
807.921306	0.899625
808.241453	0.899968
808.561554	0.897447
808.881611	0.898050
809.201623	0.898909
809.521590	0.899960
809.841513	0.902006
810.161390	0.899622
810.481223	0.901641
810.801011	0.905514
811.120755	0.907375
811.440453	0.904696
811.760107	0.905549
812.079716	0.904615
812.399281	0.908268
812.718801	0.910559
813.038276	0.910455
813.357707	0.910299
813.677093	0.909158
813.996434	0.910350
814.315731	0.913176
814.634983	0.913877
814.954191	0.913160
815.273354	0.907648
815.592473	0.905903
815.911547	0.905982
816.230577	0.902182
816.549562	0.900022
816.868502	0.898405
817.187399	0.896593
817.506250	0.892270
817.825058	0.892943
818.143821	0.889723
818.462539	0.884659
818.781213	0.876152
819.099843	0.864402
819.418429	0.848145
819.736970	0.831557
820.055466	0.811298
820.373919	0.784796
820.692327	0.751327
821.010691	0.716262
821.329011	0.634676
821.647286	0.518043
821.965517	0.402466
822.283704	0.359648
822.601847	0.360457
822.919945	0.396377
823.237999	0.430782
823.556010	0.478860
823.873976	0.535442
824.191897	0.587245
824.509775	0.630896
824.827609	0.676708
825.145398	0.700440
825.463144	0.702222
825.780845	0.684775
826.098502	0.666570
826.416116	0.620174
826.733685	0.575049
827.051210	0.565623
827.368692	0.580277
827.686129	0.619427
828.003522	0.674631
828.320872	0.722321
828.638177	0.767433
828.955439	0.801048
829.272656	0.822951
829.589830	0.840277
829.906960	0.856699
830.224046	0.868865
830.541088	0.880350
830.858086	0.884856
831.175041	0.891039
831.491952	0.889685
831.808819	0.886238
832.125642	0.877419
832.442421	0.864829
832.759157	0.841909
833.075849	0.794376
833.392497	0.728723
833.709101	0.688241
834.025662	0.696991
834.342179	0.729533
834.658653	0.770703
834.975083	0.806739
835.291469	0.834125
835.607811	0.856813
835.924110	0.874357
836.240366	0.891123
836.556578	0.904214
836.872746	0.913046
837.188871	0.918110
837.504952	0.924421
837.820990	0.927956
838.136984	0.932243
838.452935	0.934937
838.768842	0.935431
839.084706	0.929045
839.400526	0.903296
839.716303	0.860360
840.032037	0.838906
840.347727	0.842256
840.663373	0.859970
840.978977	0.882127
841.294537	0.905891
841.610054	0.921968
841.925527	0.929503
842.240957	0.937123
842.556344	0.944046
842.871687	0.950605
843.186987	0.953317
843.502244	0.954459
843.817458	0.955441
844.132629	0.960801
844.447756	0.964193
844.762840	0.965625
845.077881	0.966395
845.392879	0.963998
845.707833	0.966920
846.022745	0.968978
846.337613	0.970335
846.652438	0.970508
846.967221	0.970933
847.281960	0.971527
847.596656	0.972438
847.911309	0.972218
848.225919	0.971807
848.540485	0.973845
848.855009	0.974536
849.169490	0.974289
849.483928	0.973527
849.798323	0.972127
850.112675	0.977145
850.426984	0.975179
850.741251	0.973351
851.055474	0.975705
851.369654	0.973290
851.683792	0.973279
851.997887	0.975546
852.311938	0.974326
852.625947	0.974351
852.939914	0.973139
853.253837	0.975348
853.567718	0.975996
853.881555	0.976058
854.195350	0.975034
854.509103	0.974325
854.822812	0.976470
855.136479	0.975712
855.450103	0.974934
855.763685	0.974750
856.077224	0.974884
856.390720	0.976235
856.704173	0.975365
857.017584	0.974123
857.330953	0.973356
857.644278	0.971557
857.957561	0.972787
858.270802	0.974178
858.584000	0.972781
858.897155	0.972788
859.210268	0.970629
859.523339	0.973916
859.836367	0.976363
860.149352	0.974792
860.462295	0.975633
860.775195	0.975604
861.088054	0.973994
861.400869	0.974853
861.713642	0.975464
862.026373	0.976466
862.339062	0.976563
862.651708	0.974109
862.964312	0.973592
863.276873	0.973842
863.589392	0.973156
863.901869	0.970470
864.214303	0.969912
864.526696	0.968941
864.839045	0.967309
865.151353	0.968023
865.463619	0.967210
865.775842	0.966973
866.088023	0.967768
866.400162	0.966823
866.712258	0.969152
867.024313	0.968033
867.336325	0.970154
867.648296	0.968369
867.960224	0.966589
868.272110	0.967354
868.583954	0.969755
868.895755	0.970269
869.207515	0.966137
869.519233	0.964912
869.830909	0.964752
870.142542	0.966832
870.454134	0.966399
870.765684	0.964094
871.077191	0.964561
871.388657	0.962375
871.700081	0.962824
872.011463	0.963658
872.322803	0.963481
872.634101	0.961213
872.945357	0.957786
873.256571	0.956974
873.567744	0.957365
873.878874	0.959609
874.189963	0.958002
874.501010	0.957896
874.812015	0.955677
875.122979	0.955841
875.433900	0.957302
875.744780	0.958792
876.055618	0.953838
876.366415	0.953891
876.677169	0.953728
876.987882	0.956761
877.298554	0.956214
877.609183	0.951346
877.919771	0.948979
878.230317	0.946526
878.540822	0.943349
878.851285	0.938064
879.161707	0.930134
879.472087	0.918336
879.782425	0.900224
880.092722	0.864694
880.402977	0.811551
880.713191	0.747615
881.023363	0.685797
881.333494	0.651641
881.643583	0.624452
881.953631	0.624417
882.263637	0.653160
882.573602	0.693351
882.883526	0.718946
883.193408	0.744715
883.503248	0.767892
883.813048	0.795720
884.122806	0.826698
884.432522	0.850978
884.742197	0.871574
885.051831	0.882266
885.361424	0.893552
885.670975	0.907159
885.980485	0.915868
886.289954	0.921887
886.599382	0.926084
886.908768	0.930469
887.218113	0.936715
887.527417	0.943067
887.836680	0.945872
888.145901	0.947407
888.455082	0.950395
888.764221	0.955265
889.073319	0.956162
889.382376	0.958616
889.691392	0.956737
890.000366	0.957998
890.309300	0.958633
890.618193	0.958210
890.927044	0.955560
891.235855	0.956071
891.544625	0.956148
891.853353	0.956406
892.162041	0.953109
892.470687	0.947187
892.779293	0.942603
893.087858	0.937761
893.396381	0.929157
893.704864	0.915270
894.013306	0.891038
894.321707	0.863894
894.630068	0.848223
894.938387	0.841825
895.246665	0.844570
895.554903	0.856410
895.863100	0.871274
896.171256	0.888699
896.479371	0.908396
896.787446	0.920490
897.095480	0.928571
897.403473	0.930672
897.711425	0.935732
898.019336	0.943523
898.327207	0.949183
898.635038	0.948117
898.942827	0.949750
899.250576	0.951613
899.558284	0.956493
899.865952	0.957307
900.173579	0.958424
900.481165	0.959864
900.788711	0.963056
901.096216	0.964863
901.403681	0.967508
901.711105	0.966164
902.018489	0.968340
902.325832	0.965958
902.633135	0.964826
902.940397	0.960536
903.247619	0.945334
903.554800	0.920637
903.861941	0.880366
904.169041	0.841418
904.476101	0.823346
904.783121	0.823897
905.090100	0.841132
905.397039	0.863056
905.703938	0.886503
906.010796	0.907381
906.317614	0.924152
906.624391	0.938761
906.931129	0.948007
907.237826	0.956083
907.544483	0.963271
907.851099	0.967941
908.157675	0.971503
908.464211	0.974924
908.770707	0.975860
909.077163	0.979968
909.383578	0.979464
909.689954	0.980939
909.996289	0.980845
910.302584	0.983185
910.608839	0.985531
910.915054	0.983664
911.221229	0.983840
911.527363	0.982018
911.833458	0.982809
912.139513	0.981634
912.445527	0.982768
912.751502	0.979807
913.057436	0.977513
913.363331	0.976360
913.669186	0.970987
913.975000	0.965616
914.280775	0.958987
914.586510	0.952129
914.892205	0.938296
915.197859	0.915054
915.503475	0.887592
915.809050	0.867042
916.114585	0.860986
916.420081	0.858131
916.725536	0.855491
917.030952	0.862245
917.336328	0.876560
917.641665	0.892061
917.946961	0.908564
918.252218	0.920221
918.557435	0.929964
918.862612	0.937951
919.167750	0.944703
919.472848	0.951011
919.777906	0.956234
920.082925	0.962317
920.387904	0.965662
920.692843	0.966471
920.997743	0.968284
921.302603	0.972155
921.607423	0.972685
921.912204	0.977419
922.216946	0.978525
922.521647	0.977848
922.826310	0.979068
923.130932	0.982729
923.435516	0.984478
923.740059	0.984269
924.044564	0.984957
924.349028	0.985778
924.653454	0.988064
924.957840	0.988560
925.262186	0.989478
925.566493	0.990046
925.870761	0.990529
926.174989	0.991695
926.479178	0.992337
926.783328	0.992672
927.087438	0.993435
927.391509	0.993498
927.695541	0.995290
927.999533	0.995704
928.303486	0.995113
928.607400	0.996698
928.911275	0.995569
929.215110	0.996872
929.518906	0.996772
929.822663	0.996981
930.126381	0.998035
930.430060	0.996228
930.733699	0.995799
931.037299	0.995365
931.340861	0.996570
931.644383	0.994338
931.947866	0.995809
932.251309	0.996456
932.554714	0.995775
932.858080	0.996189
933.161407	0.995398
933.464694	0.996353
933.767943	0.997243
934.071153	0.996860
934.374323	0.997874
934.677455	0.997538
934.980548	0.996563
935.283602	0.997942
935.586617	0.996699
935.889593	0.998541
936.192530	0.998056
936.495428	0.996336
936.798287	0.996352
937.101108	0.996284
937.403890	0.994469
937.706632	0.994746
938.009336	0.990986
938.312002	0.990238
938.614628	0.989351
938.917216	0.988317
939.219765	0.986812
939.522275	0.987966
939.824747	0.988312
940.127179	0.988343
940.429573	0.990748
940.731929	0.989494
941.034246	0.988952
941.336524	0.989291
941.638763	0.991392
941.940964	0.991791
942.243126	0.993093
942.545250	0.993630
942.847335	0.992028
943.149381	0.993858
943.451389	0.993375
943.753359	0.996002
944.055290	0.996212
944.357182	0.995783
944.659036	0.996535
944.960851	0.996863
945.262628	0.996236
945.564367	0.994613
945.866067	0.995683
946.167729	0.996526
946.469352	0.996328
946.770937	0.993308
947.072484	0.996405
947.373992	0.995378
947.675462	0.995731
947.976893	0.995449
948.278286	0.998271
948.579641	0.997736
948.880958	0.996912
949.182236	0.996298
949.483476	0.997178
949.784678	0.996724
950.085841	0.996097
950.386967	0.997751
950.688054	0.996744
950.989103	0.995128
951.290114	0.995109
951.591087	0.995664
951.892021	0.994311
952.192917	0.995907
952.493776	0.994265
952.794596	0.994876
953.095378	0.993212
953.396122	0.993845
953.696828	0.993472
953.997496	0.994699
954.298126	0.996325
954.598718	0.996159
954.899272	0.996820
955.199788	0.997251
955.500266	0.998057
955.800706	0.997964
956.101108	0.998587
956.401472	1.000190
956.701798	0.998952
957.002087	0.998723
957.302337	0.999793
957.602550	1.000762
957.902724	1.000725
958.202861	1.001093
958.502960	1.000268
958.803022	1.000940
959.103045	1.002213
959.403031	1.001955
959.702979	1.002820
960.002889	1.001512
960.302762	1.001681
960.602596	1.002200
960.902393	1.002570
961.202153	1.002372
961.501875	1.002548
961.801559	1.002349
962.101205	1.003307
962.400814	1.004278
962.700385	1.002738
962.999918	1.003637
963.299414	1.001500
963.598873	1.003201
963.898293	1.003917
964.197677	1.002689
964.497022	1.003184
964.796331	1.001837
965.095601	1.004495
965.394835	1.001914
965.694030	1.004252
965.993189	1.002905
966.292309	1.003344
966.591393	1.002126
966.890439	1.003347
967.189447	1.002101
967.488419	1.003581
967.787353	1.003374
968.086249	1.004073
968.385108	1.002316
968.683930	1.003603
968.982714	1.002757
969.281462	1.003490
969.580172	1.002283
969.878844	1.003339
970.177480	1.002585
970.476078	1.004227
970.774639	1.003538
971.073162	1.003151
971.371649	1.002339
971.670098	1.002953
971.968510	1.003409
972.266885	1.002265
972.565223	1.003113
972.863524	1.001230
973.161788	1.002372
973.460014	1.003305
973.758204	1.002540
974.056356	1.002798
974.354471	1.002815
974.652550	1.003502
974.950591	1.002773
975.248595	1.001436
975.546563	1.003535
975.844493	1.003525
976.142386	1.002822
976.440243	1.002267
976.738062	1.003176
977.035845	1.002517
977.333590	1.004077
977.631299	1.002621
977.928971	1.002778
978.226606	1.003339
978.524204	1.002429
978.821765	1.003302
979.119290	1.005266
979.416777	1.003108
979.714228	1.002786
980.011642	1.004079
980.309020	1.002997
980.606360	1.004178
980.903664	1.002642
981.200931	1.003449
981.498162	1.002482
981.795356	1.001159
982.092513	1.000352
982.389633	1.000816
982.686717	0.997540
982.983764	0.996584
983.280775	0.996259
983.577749	0.996253
983.874686	0.996982
984.171587	0.997317
984.468451	1.000462
984.765279	1.001404
985.062070	1.001060
985.358824	1.001124
985.655543	1.001439
985.952224	1.001773
986.248869	1.001572
986.545478	1.004589
986.842050	1.002863
987.138586	1.003480
987.435086	1.003148
987.731549	1.004661
988.027975	1.003720
988.324366	1.003785
988.620719	1.004441
988.917037	1.005274
989.213318	1.003615
989.509563	1.004089
989.805772	1.005694
990.101944	1.006150
990.398080	1.005081
990.694180	1.006071
990.990244	1.003806
991.286271	1.004265
991.582262	1.005305
991.878217	1.003661
992.174136	1.004434
992.470019	1.004108
992.765865	1.006458
993.061676	1.004818
993.357450	1.005931
993.653188	1.005317
993.948890	1.004151
994.244556	1.003259
994.540186	1.003305
994.835780	1.003098
995.131337	1.004254
995.426859	1.002803
995.722345	1.002947
996.017795	1.003020
996.313208	1.002604
996.608586	1.002561
996.903928	1.003335
997.199234	1.003104
997.494504	1.003187
997.789738	1.002103
998.084936	1.003668
998.380099	1.002704
998.675225	1.004215
998.970316	1.004080
999.265371	1.004094
999.560390	1.005037
999.855373	1.004889
1000.150320	1.004602
1000.445232	1.004503
1000.740108	1.003801
1001.034948	1.003747
1001.329752	1.004809
1001.624521	1.005081
1001.919254	1.003687
1002.213951	1.004008
1002.508613	1.004622
1002.803239	1.004433
1003.097829	1.005035
1003.392384	1.004420
1003.686903	1.005746
1003.981386	1.004543
1004.275834	1.005529
1004.570246	1.004298
1004.864623	1.006189
1005.158964	1.004870
1005.453270	1.005175
1005.747540	1.005766
1006.041775	1.005584
1006.335974	1.004690
1006.630138	1.005668
1006.924266	1.003500
1007.218359	1.004140
1007.512416	1.004764
1007.806438	1.004779
1008.100425	1.005991
1008.394376	1.005529
1008.688292	1.004323
1008.982172	1.004142
1009.276017	1.004916
1009.569827	1.006217
1009.863602	1.004621
1010.157341	1.005677
1010.451045	1.004077
1010.744714	1.006812
1011.038347	1.005256
1011.331945	1.005102
1011.625508	1.005243
1011.919036	1.004342
1012.212528	1.005465
1012.505986	1.004764
1012.799408	1.006272
1013.092795	1.005377
1013.386147	1.004429
1013.679464	1.005880
1013.972745	1.005386
1014.265992	1.005052
1014.559204	1.004280
1014.852380	1.005560
1015.145521	1.004148
1015.438628	1.005701
1015.731699	1.004747
1016.024736	1.006718
1016.317737	1.005104
1016.610703	1.005236
1016.903635	1.005968
1017.196531	1.004565
1017.489393	1.005292
1017.782219	1.005193
1018.075011	1.004019
1018.367768	1.005649
1018.660490	1.006149
1018.953177	1.006149
1019.245829	1.006149
