Dividing Wavelength (nm)	Counts (n)	Blue Motor Position (mm): 46.000000	Red Motor Position (mm): 0.000000	
326.493990	0.999963
326.888308	0.999963
327.282561	0.999963
327.676750	1.000626
328.070874	1.001368
328.464933	1.002128
328.858929	1.000428
329.252859	1.000700
329.646726	1.000047
330.040528	1.000684
330.434265	1.000636
330.827938	1.000670
331.221547	1.000462
331.615091	1.001222
332.008571	1.001844
332.401986	1.000876
332.795338	1.000915
333.188625	1.000921
333.581847	1.000055
333.975006	1.001515
334.368100	1.000977
334.761129	1.000006
335.154095	1.001265
335.546996	1.000233
335.939833	0.999133
336.332606	1.001135
336.725315	1.000247
337.117960	1.002541
337.510540	0.999402
337.903056	1.000035
338.295508	1.001728
338.687896	1.001319
339.080220	1.000021
339.472480	1.000217
339.864676	1.000089
340.256807	0.999889
340.648875	1.001045
341.040879	1.000599
341.432818	1.001681
341.824694	1.000757
342.216506	1.000668
342.608253	1.000899
342.999937	1.000715
343.391557	1.000905
343.783113	1.000978
344.174605	1.000082
344.566033	0.998429
344.957397	1.000594
345.348697	1.000687
345.739934	1.001699
346.131106	1.000212
346.522215	0.999393
346.913260	1.000295
347.304241	0.999145
347.695159	1.001616
348.086012	0.999137
348.476802	1.000146
348.867528	0.999598
349.258191	1.000775
349.648789	1.000530
350.039324	1.000652
350.429796	0.999396
350.820203	0.998675
351.210548	1.000359
351.600828	0.999550
351.991045	0.999913
352.381198	1.001281
352.771288	0.999459
353.161314	0.999690
353.551276	1.000378
353.941175	0.999243
354.331010	1.000478
354.720782	1.000275
355.110490	1.000373
355.500135	1.000304
355.889717	1.000347
356.279235	0.999395
356.668689	1.000050
357.058080	0.999803
357.447408	0.998719
357.836672	0.999806
358.225873	0.999246
358.615010	1.000985
359.004084	0.998253
359.393095	1.000817
359.782043	0.999340
360.170927	1.000411
360.559748	1.001431
360.948505	1.000618
361.337199	0.999815
361.725830	1.000506
362.114398	1.000631
362.502903	0.999866
362.891344	0.998546
363.279722	1.000143
363.668037	1.000194
364.056289	0.998941
364.444478	1.000389
364.832603	0.998439
365.220665	0.999786
365.608665	0.999542
365.996601	1.000105
366.384474	0.998496
366.772284	1.000496
367.160031	0.999094
367.547715	0.998621
367.935336	0.997981
368.322893	0.996580
368.710388	0.995034
369.097820	0.993232
369.485189	0.992707
369.872495	0.991416
370.259738	0.988092
370.646918	0.985971
371.034035	0.983401
371.421090	0.981248
371.808081	0.976566
372.195010	0.974160
372.581875	0.968876
372.968678	0.965014
373.355418	0.962871
373.742096	0.956817
374.128710	0.954459
374.515262	0.950161
374.901751	0.947523
375.288177	0.944817
375.674540	0.940851
376.060841	0.938023
376.447079	0.935208
376.833254	0.932074
377.219367	0.930964
377.605417	0.924996
377.991404	0.925035
378.377329	0.924897
378.763191	0.922847
379.148991	0.919858
379.534727	0.918102
379.920402	0.916290
380.306013	0.917441
380.691563	0.915199
381.077049	0.915194
381.462474	0.917256
381.847835	0.915670
382.233134	0.917224
382.618371	0.921632
383.003545	0.919123
383.388657	0.923006
383.773706	0.924346
384.158693	0.926744
384.543618	0.932051
384.928480	0.932201
385.313280	0.933695
385.698017	0.937183
386.082692	0.939730
386.467305	0.943246
386.851856	0.947118
387.236344	0.950420
387.620770	0.953958
388.005133	0.956523
388.389435	0.959525
388.773674	0.962636
389.157851	0.965232
389.541965	0.968311
389.926018	0.972607
390.310008	0.974189
390.693936	0.976751
391.077802	0.979149
391.461606	0.980434
391.845348	0.982964
392.229027	0.984028
392.612645	0.986018
392.996200	0.988523
393.379694	0.989151
393.763125	0.990810
394.146494	0.991234
394.529801	0.992377
394.913047	0.993045
395.296230	0.993892
395.679351	0.995315
396.062410	0.996351
396.445408	0.997035
396.828343	0.998058
397.211217	0.997021
397.594028	0.997411
397.976778	0.998435
398.359466	0.999460
398.742092	0.999076
399.124656	0.998319
399.507158	0.997890
399.889598	1.000023
400.271977	0.999141
400.654294	0.998344
401.036549	0.999939
401.418742	0.998918
401.800874	0.999625
402.182944	0.998314
402.564952	0.998834
402.946898	0.999103
403.328783	0.999747
403.710606	0.998444
404.092367	0.999799
404.474067	1.000890
404.855705	0.999629
405.237282	0.999032
405.618797	0.999898
406.000250	0.999655
406.381642	0.999348
406.762972	0.999018
407.144240	1.000313
407.525447	0.998185
407.906593	0.999053
408.287677	0.998798
408.668700	0.998433
409.049661	1.000340
409.430560	0.999603
409.811399	0.999366
410.192176	0.999195
410.572891	0.999984
410.953545	0.999020
411.334138	0.999901
411.714669	0.999070
412.095139	0.999566
412.475547	0.999299
412.855894	0.999839
413.236180	0.999293
413.616405	0.999610
413.996568	0.999345
414.376670	0.999558
414.756711	0.999073
415.136691	0.999269
415.516609	0.998955
415.896466	1.000098
416.276262	0.999310
416.655997	0.998930
417.035670	0.999421
417.415283	1.000341
417.794834	0.999619
418.174324	1.000906
418.553753	0.998667
418.933121	0.999136
419.312428	1.000090
419.691674	0.999323
420.070859	0.999954
420.449983	1.000762
420.829045	0.999121
421.208047	0.999818
421.586988	0.999651
421.965867	0.998922
422.344686	0.999246
422.723444	0.999296
423.102141	0.999232
423.480777	0.998357
423.859352	1.000028
424.237866	0.999088
424.616319	1.000361
424.994712	1.000015
425.373044	0.999702
425.751314	1.000289
426.129524	1.000583
426.507673	0.998662
426.885762	0.999734
427.263789	0.999191
427.641756	0.998954
428.019662	1.000077
428.397508	0.999653
428.775292	0.999071
429.153016	0.998774
429.530679	0.999503
429.908282	1.000220
430.285824	0.998999
430.663305	0.998832
431.040726	1.000939
431.418086	0.999504
431.795385	1.000248
432.172624	1.000131
432.549802	0.999754
432.926920	0.999719
433.303977	0.999492
433.680974	0.999513
434.057910	1.000064
434.434786	0.999016
434.811601	0.999125
435.188355	0.999580
435.565050	0.999945
435.941683	0.998730
436.318257	0.999051
436.694770	0.999914
437.071222	1.000402
437.447614	0.999547
437.823946	0.999340
438.200218	0.999212
438.576429	0.999771
438.952580	1.000216
439.328670	0.998355
439.704700	0.998970
440.080670	0.999890
440.456580	1.000048
440.832429	0.999725
441.208218	0.999785
441.583947	0.999972
441.959616	0.998527
442.335224	1.000389
442.710773	1.000669
443.086261	0.999577
443.461689	0.999009
443.837057	0.999309
444.212365	1.000090
444.587612	1.000707
444.962800	0.999851
445.337927	1.000230
445.712995	0.999913
446.088002	0.999026
446.462949	0.999358
446.837837	1.000896
447.212664	0.998830
447.587431	0.999208
447.962139	0.999294
448.336786	0.999266
448.711374	0.999390
449.085901	1.000361
449.460369	1.000122
449.834776	1.000009
450.209124	1.000234
450.583412	0.999523
450.957640	0.998919
451.331808	1.000164
451.705917	0.999298
452.079965	1.000057
452.453954	1.000150
452.827883	0.999835
453.201752	1.000119
453.575562	0.999152
453.949311	0.999973
454.323001	0.999974
454.696632	0.999175
455.070202	0.998977
455.443713	0.999754
455.817164	0.999964
456.190556	0.999405
456.563888	1.000502
456.937160	0.999463
457.310373	0.999672
457.683526	0.999492
458.056619	1.000025
458.429653	0.999771
458.802628	0.999228
459.175542	0.999884
459.548398	1.000192
459.921194	0.999910
460.293930	1.000384
460.666607	0.999923
461.039224	0.999820
461.411782	1.000282
461.784280	0.999731
462.156719	1.000878
462.529099	0.999284
462.901419	0.999002
463.273680	0.999508
463.645882	0.999373
464.018024	1.000538
464.390106	0.999567
464.762130	0.999894
465.134094	1.000056
465.505999	1.000062
465.877845	0.999961
466.249631	0.999859
466.621358	0.999326
466.993026	1.000177
467.364634	0.999734
467.736184	0.999621
468.107674	1.000372
468.479105	0.999547
468.850477	0.999422
469.221790	1.000230
469.593043	0.999526
469.964238	0.999542
470.335373	0.999860
470.706449	0.999793
471.077467	0.999564
471.448425	1.000184
471.819324	0.999485
472.190164	0.999814
472.560945	0.999132
472.931667	0.999516
473.302330	0.999853
473.672934	1.000025
474.043479	0.999522
474.413965	1.000153
474.784393	0.999731
475.154761	0.999476
475.525070	0.999755
475.895321	0.999755
476.265513	0.999642
476.635645	1.000144
477.005719	0.999719
477.375734	1.000196
477.745691	0.999680
478.115588	0.999224
478.485427	0.999407
478.855207	0.999715
479.224928	0.999274
479.594591	0.999223
479.964194	0.999428
480.333739	0.999783
480.703226	0.999193
481.072653	0.999407
481.442022	0.999659
481.811333	0.999563
482.180584	0.999604
482.549777	0.999556
482.918912	0.999475
483.287988	0.999391
483.657005	0.999635
484.025964	0.999398
484.394864	0.999210
484.763706	0.999663
485.132489	1.000047
485.501213	0.999134
485.869879	1.000207
486.238487	0.998979
486.607036	0.999916
486.975527	0.999498
487.343959	0.999096
487.712333	0.999401
488.080648	0.998945
488.448905	0.999560
488.817104	0.999166
489.185244	0.999570
489.553326	1.000014
489.921350	0.999837
490.289315	0.999442
490.657222	0.999580
491.025070	0.999697
491.392861	0.999542
491.760593	0.999812
492.128267	0.999257
492.495883	0.999214
492.863440	0.999337
493.230939	0.999593
493.598380	0.999852
493.965763	0.999550
494.333088	0.999042
494.700354	0.999404
495.067563	0.999185
495.434713	0.999290
495.801805	0.999048
496.168839	0.999724
496.535815	0.999562
496.902733	0.999032
497.269593	0.999100
497.636395	0.998195
498.003139	0.998497
498.369825	0.999912
498.736453	0.999000
499.103023	0.999642
499.469535	0.999347
499.835989	1.000007
500.202385	0.998942
500.568723	0.999423
500.935003	0.999692
501.301226	0.999597
501.667390	0.999229
502.033497	0.999725
502.399546	0.998823
502.765537	0.999071
503.131470	0.999155
503.497345	1.000199
503.863163	0.999531
504.228923	0.998881
504.594625	0.999708
504.960269	0.999254
505.325856	1.000367
505.691385	0.999803
506.056856	0.999699
506.422270	0.999711
506.787625	0.999756
507.152924	1.000240
507.518164	0.999377
507.883347	0.999338
508.248472	0.999411
508.613540	0.998919
508.978550	0.999742
509.343503	0.999580
509.708398	0.999931
510.073236	0.999658
510.438016	0.998599
510.802738	0.999185
511.167403	0.999594
511.532010	0.999891
511.896561	0.999470
512.261053	0.999450
512.625488	0.999146
512.989866	0.999194
513.354186	0.999127
513.718449	0.999304
514.082655	0.999058
514.446803	0.999678
514.810894	0.999421
515.174927	0.999477
515.538904	0.999704
515.902822	0.999706
516.266684	0.999936
516.630488	0.999427
516.994235	0.999152
517.357925	0.999294
517.721558	0.999355
518.085133	0.999200
518.448651	0.998811
518.812112	0.999501
519.175516	0.999535
519.538863	0.999589
519.902152	0.999712
520.265385	0.999733
520.628560	0.999314
520.991678	0.999762
521.354739	1.000304
521.717743	0.999623
522.080690	0.998994
522.443580	0.999574
522.806413	0.998975
523.169189	0.999619
523.531908	0.998747
523.894569	0.999476
524.257174	0.999097
524.619722	0.999541
524.982213	0.999538
525.344647	0.999598
525.707025	0.998817
526.069345	0.999208
526.431608	0.999507
526.793815	0.999564
527.155964	0.999566
527.518057	0.999863
527.880093	0.998961
528.242072	0.999409
528.603995	0.999135
528.965860	0.999522
529.327669	0.999685
529.689421	0.999577
530.051117	0.999810
530.412755	0.999739
530.774337	0.998608
531.135862	0.999747
531.497331	0.999225
531.858743	0.999932
532.220098	0.999297
532.581396	0.999748
532.942638	0.999924
533.303824	0.999744
533.664953	0.999375
534.026025	1.000243
534.387040	0.999441
534.747999	0.999244
535.108902	0.999127
535.469748	1.000353
535.830537	0.999595
536.191270	0.998807
536.551947	0.999145
536.912567	0.999153
537.273131	0.999716
537.633638	0.999444
537.994089	0.999560
538.354483	0.999158
538.714821	0.999816
539.075103	0.999949
539.435328	0.999942
539.795497	0.999942
540.155609	1.000186
540.515665	0.999539
540.875665	0.998864
541.235609	0.999583
541.595496	0.999343
541.955328	0.999143
542.315102	0.999325
542.674821	1.000157
543.034483	0.999436
543.394090	0.999153
543.753640	0.999249
544.113134	0.999688
544.472571	1.000082
544.831953	1.000381
545.191278	0.999892
545.550548	0.999481
545.909761	0.999220
546.268918	1.000230
546.628019	0.999419
546.987064	0.999489
547.346053	0.998942
547.704986	0.999373
548.063863	0.999128
548.422684	1.000051
548.781449	0.999108
549.140158	1.000065
549.498811	0.999200
549.857408	0.998734
550.215949	0.998948
550.574434	0.999268
550.932864	0.999428
551.291237	0.999481
551.649555	1.000061
552.007817	0.999668
552.366022	0.999823
552.724173	0.999671
553.082267	0.999105
553.440305	0.999424
553.798288	0.999520
554.156215	0.999671
554.514086	1.000094
554.871902	0.999784
555.229661	0.999048
555.587365	0.999890
555.945014	0.999689
556.302606	0.998965
556.660143	0.999951
557.017625	1.000067
557.375050	0.999198
557.732421	0.999169
558.089735	0.999219
558.446994	0.999019
558.804197	0.999714
559.161345	0.999415
559.518437	0.998858
559.875474	0.999912
560.232455	0.999947
560.589381	0.999772
560.946251	0.999587
561.303065	0.999277
561.659825	0.999448
562.016528	0.999357
562.373177	0.999868
562.729770	0.998953
563.086307	0.998980
563.442789	0.999859
563.799216	0.999121
564.155587	0.999624
564.511904	1.000350
564.868164	0.998731
565.224370	0.999217
565.580520	0.999694
565.936615	0.999594
566.292654	0.999515
566.648638	1.000051
567.004567	0.999573
567.360441	1.000143
567.716260	0.999517
568.072023	0.998942
568.427732	0.999571
568.783385	0.999803
569.138982	0.999562
569.494525	0.999601
569.850013	1.000544
570.205445	0.999142
570.560823	0.999779
570.916145	0.999481
571.271412	0.999821
571.626625	1.000023
571.981782	0.999786
572.336884	0.999974
572.691931	0.999699
573.046923	1.000015
573.401860	0.999519
573.756743	0.999674
574.111570	0.999536
574.466342	1.000658
574.821059	0.999782
575.175722	0.999723
575.530330	0.999576
575.884882	0.999554
576.239380	1.000103
576.593823	0.999563
576.948211	1.000004
577.302544	0.999486
577.656823	0.999730
578.011047	0.999092
578.365216	1.000636
578.719330	0.999992
579.073389	0.998913
579.427394	0.999181
579.781344	0.999882
580.135239	0.998730
580.489080	0.999655
580.842866	1.000116
581.196597	1.000290
581.550273	0.999547
581.903895	0.999323
582.257463	0.999422
582.610975	0.999888
582.964434	0.999638
583.317837	0.999226
583.671186	1.000157
584.024481	0.999847
584.377721	0.999388
584.730906	1.000316
585.084037	1.000711
585.437113	1.000228
585.790135	0.999901
586.143103	0.999407
586.496016	0.999765
586.848874	1.000360
587.201679	0.999321
587.554428	0.999616
587.907124	0.999958
588.259765	1.000118
588.612352	1.000055
588.964884	0.999955
589.317362	0.999930
589.669786	0.999765
590.022155	0.999631
590.374470	0.999464
590.726731	0.999124
591.078937	0.999561
591.431090	0.999608
591.783188	0.999626
592.135232	1.000294
592.487222	1.000173
592.839157	0.999183
593.191038	0.999337
593.542866	0.999835
593.894639	0.998885
594.246358	0.999349
594.598022	1.000387
594.949633	0.999564
595.301190	0.999875
595.652692	0.999119
596.004141	0.999407
596.355535	0.999675
596.706876	0.999887
597.058162	1.000242
597.409395	0.999667
597.760573	0.999446
598.111698	0.999955
598.462768	0.999020
598.813785	0.998962
599.164748	0.999778
599.515657	0.999498
599.866511	1.000525
600.217312	1.000889
600.568060	0.999670
600.918753	1.001045
601.269392	0.999765
601.619978	0.999771
601.970510	0.999296
602.320988	1.000092
602.671412	0.999872
603.021783	1.000081
603.372100	1.000833
603.722363	0.999720
604.072572	0.999506
604.422728	0.999902
604.772830	0.999514
605.122878	0.999850
605.472872	1.000434
605.822813	0.999243
606.172701	1.000089
606.522534	1.000614
606.872314	1.000541
607.222041	0.999660
607.571714	0.999680
607.921333	0.999632
608.270899	0.999579
608.620411	0.999632
608.969870	1.000328
609.319276	0.999962
609.668627	1.001291
610.017926	0.999581
610.367171	1.000169
610.716362	0.999918
611.065500	1.000021
611.414585	1.000204
611.763616	0.999457
612.112594	0.999451
612.461518	0.999049
612.810389	1.000058
613.159207	0.999589
613.507971	0.998745
613.856682	1.000714
614.205340	0.998846
614.553945	1.000208
614.902496	1.000291
615.250994	0.999964
615.599439	1.000078
615.947830	0.999922
616.296169	1.000254
616.644454	1.000189
616.992686	0.999804
617.340864	1.000128
617.688990	1.000099
618.037063	1.000505
618.385082	0.999390
618.733048	0.999980
619.080961	0.999286
619.428821	1.001397
619.776628	0.999241
620.124382	1.000639
620.472083	1.000252
620.819731	1.001208
621.167326	1.000310
621.514868	1.000687
621.862357	0.999810
622.209793	1.000360
622.557176	0.998911
622.904506	0.999051
623.251783	1.000519
623.599007	1.000338
623.946179	0.999421
624.293297	1.000076
624.640363	1.000045
624.987376	0.999256
625.334336	1.000067
625.681243	0.999733
626.028097	1.000071
626.374899	0.999374
626.721647	1.000788
627.068343	0.999703
627.414987	0.999892
627.761577	0.999166
628.108115	0.999611
628.454600	1.000147
628.801032	1.000018
629.147412	0.999991
629.493739	1.000562
629.840014	0.999603
630.186236	0.999391
630.532405	0.999859
630.878521	0.999018
631.224585	1.000647
631.570597	0.999341
631.916556	0.999990
632.262462	0.999243
632.608316	1.000110
632.954117	0.999920
633.299866	0.999388
633.645562	1.000240
633.991206	0.999872
634.336797	0.999739
634.682336	1.000237
635.027823	1.000075
635.373257	0.999661
635.718639	1.000174
636.063968	0.999069
636.409245	0.999009
636.754470	1.000097
637.099642	1.000740
637.444762	1.000144
637.789829	0.999225
638.134845	0.999950
638.479808	1.000056
638.824719	1.000130
639.169577	0.999371
639.514383	1.001113
639.859137	0.999627
640.203839	0.999101
640.548489	0.999646
640.893086	0.999671
641.237632	0.999611
641.582125	0.999537
641.926566	1.000319
642.270955	1.000388
642.615292	0.999202
642.959576	0.999930
643.303809	0.999371
643.647990	0.999521
643.992118	1.000433
644.336195	0.999178
644.680219	0.999722
645.024192	0.999080
645.368112	0.998501
645.711981	0.999917
646.055797	0.999379
646.399562	0.999379
646.743274	0.999944
647.086935	0.999449
647.430544	0.999528
647.774101	0.998869
648.117606	1.000365
648.461059	1.000307
648.804460	0.999845
649.147810	0.998640
649.491108	1.000149
649.834354	0.999533
650.177548	1.000497
650.520690	1.000322
650.863781	0.998811
651.206820	0.999413
651.549807	0.998970
651.892742	1.000519
652.235626	0.999356
652.578458	0.999382
652.921238	1.000271
653.263967	1.000683
653.606644	0.999532
653.949269	1.000724
654.291843	0.998912
654.634365	1.000212
654.976836	0.999302
655.319255	1.001435
655.661622	0.999481
656.003938	0.999786
656.346203	0.999261
656.688416	1.000163
657.030577	0.999585
657.372687	0.999744
657.714746	0.998966
658.056753	0.999225
658.398708	0.999760
658.740612	1.000747
659.082465	0.999405
659.424266	1.000078
659.766016	0.999217
660.107715	0.999881
660.449362	0.999316
660.790958	0.999166
661.132503	0.999747
661.473996	0.999732
661.815438	0.999966
662.156829	0.999914
662.498168	1.000953
662.839456	0.999234
663.180693	0.999281
663.521879	0.999624
663.863013	0.999729
664.204097	0.998541
664.545129	0.999205
664.886110	0.998825
665.227040	0.999426
665.567918	0.999346
665.908746	0.999537
666.249522	0.999464
666.590248	0.999316
666.930922	0.999022
667.271545	0.999845
667.612118	0.999687
667.952639	0.999976
668.293109	0.999036
668.633528	0.999069
668.973896	0.999873
669.314213	0.999549
669.654480	0.999715
669.994695	0.998943
670.334859	0.999253
670.674973	0.998373
671.015035	0.999013
671.355047	0.999038
671.695008	0.998518
672.034918	0.999463
672.374777	0.999788
672.714585	0.999587
673.054342	0.999877
673.394049	0.999262
673.733705	0.999054
674.073310	0.999695
674.412864	0.998851
674.752368	0.998647
675.091820	1.000458
675.431223	1.000043
675.770574	0.998097
676.109875	0.999973
676.449125	0.999096
676.788324	0.998499
677.127473	1.000733
677.466571	1.000066
677.805619	0.998851
678.144616	0.999293
678.483562	0.999181
678.822458	0.999424
679.161303	0.998959
679.500098	1.000328
679.838842	0.999729
680.177535	0.998954
680.516179	0.998424
680.854771	0.999640
681.193314	0.998988
681.531805	0.999575
681.870247	0.999900
682.208638	0.999487
682.546978	0.998399
682.885268	0.998873
683.223508	0.998938
683.561697	0.998434
683.899836	0.999283
684.237925	0.999121
684.575963	0.999018
684.913951	0.999293
685.251889	0.999646
685.589776	0.999376
685.927614	0.998725
686.265401	0.998938
686.603137	0.998344
686.940824	0.999492
687.278460	0.999275
687.616046	0.999182
687.953582	0.999596
688.291068	1.000343
688.628504	0.999350
688.965889	0.998646
689.303224	0.998441
689.640510	0.998878
689.977745	0.999094
690.314930	0.998761
690.652065	0.998607
690.989150	0.998488
691.326185	0.999236
691.663170	0.998909
692.000105	0.998872
692.336990	0.998928
692.673825	0.998899
693.010610	0.999270
693.347345	0.998970
693.684030	0.998984
694.020665	0.999078
694.357251	0.998635
694.693786	0.999208
695.030272	0.997461
695.366707	0.998287
695.703093	0.998552
696.039429	0.998587
696.375716	0.999270
696.711952	0.998141
697.048139	0.999442
697.384276	0.999056
697.720363	0.998619
698.056400	0.998179
698.392388	0.998834
698.728326	0.998110
699.064214	0.999803
699.400053	0.998265
699.735842	0.999493
700.071581	0.999153
700.407270	0.998774
700.742910	0.998981
701.078501	0.999183
701.414042	0.999560
701.749533	0.997764
702.084974	0.998838
702.420366	0.999338
702.755709	0.998920
703.091002	0.999301
703.426246	0.999265
703.761440	0.999359
704.096584	0.998688
704.431679	0.997953
704.766725	0.998693
705.101721	0.999704
705.436668	0.998582
705.771565	0.999058
706.106413	0.997398
706.441212	0.999040
706.775961	0.999238
707.110661	0.998338
707.445311	0.998893
707.779913	1.000149
708.114465	0.999471
708.448967	1.000571
708.783421	0.999285
709.117825	0.999118
709.452180	0.999142
709.786485	0.998570
710.120742	0.998772
710.454949	0.998453
710.789107	0.999054
711.123216	0.997930
711.457275	0.998257
711.791286	0.998842
712.125247	1.001018
712.459159	0.999368
712.793023	0.998817
713.126837	0.999255
713.460602	0.998244
713.794318	0.997647
714.127985	0.997948
714.461602	0.998961
714.795171	0.998858
715.128691	0.998266
715.462162	0.998415
715.795584	0.998319
716.128957	0.998904
716.462281	0.999101
716.795556	0.998754
717.128782	0.999581
717.461960	0.998322
717.795088	0.997687
718.128167	0.999414
718.461198	0.998527
718.794180	0.999332
719.127113	0.998799
719.459997	0.998066
719.792833	0.998374
720.125619	0.998887
720.458357	0.998504
720.791046	0.999742
721.123686	0.999053
721.456278	0.998649
721.788821	0.998733
722.121315	0.998729
722.453761	0.998792
722.786158	0.998838
723.118506	0.998219
723.450805	0.998257
723.783056	0.998505
724.115259	0.997345
724.447412	0.998925
724.779518	0.999188
725.111574	0.997860
725.443582	0.999042
725.775542	0.998821
726.107453	0.999069
726.439315	0.999474
726.771129	0.998824
727.102895	0.999458
727.434612	0.998313
727.766281	0.998928
728.097901	0.998176
728.429473	1.000183
728.760996	0.997940
729.092471	0.998711
729.423897	0.999132
729.755276	0.998518
730.086606	0.998072
730.417887	0.998678
730.749120	0.998432
731.080305	0.998190
731.411442	0.998257
731.742530	0.998212
732.073570	0.998496
732.404562	0.998644
732.735506	0.998247
733.066401	0.998961
733.397249	0.998991
733.728048	0.997780
734.058798	0.999452
734.389501	0.999298
734.720156	0.998629
735.050762	0.998982
735.381320	0.998631
735.711831	0.997747
736.042293	0.998237
736.372707	0.998717
736.703073	0.997765
737.033391	0.998801
737.363661	0.999114
737.693883	0.997700
738.024056	0.998428
738.354182	0.998384
738.684260	0.998133
739.014290	0.999073
739.344272	0.997858
739.674207	0.998975
740.004093	0.998790
740.333931	0.998879
740.663722	0.998803
740.993464	0.998948
741.323159	0.998958
741.652806	0.998201
741.982405	0.998800
742.311956	0.999480
742.641460	0.998670
742.970915	0.998074
743.300323	0.998032
743.629683	0.998090
743.958996	0.999268
744.288260	0.998127
744.617477	0.998704
744.946647	0.999286
745.275768	0.999800
745.604842	0.998447
745.933869	0.998100
746.262847	0.999021
746.591778	0.997823
746.920662	0.998895
747.249498	0.999300
747.578286	1.000209
747.907027	0.999438
748.235720	0.999397
748.564365	0.999923
748.892963	0.997922
749.221514	0.998992
749.550017	0.998697
749.878473	0.998782
750.206881	1.000122
750.535242	0.998372
750.863555	0.998106
751.191821	0.998664
751.520039	0.998484
751.848210	0.996822
752.176334	0.997994
752.504411	0.998334
752.832440	0.997609
753.160421	0.999155
753.488356	0.998792
753.816243	0.998767
754.144082	0.998460
754.471875	0.998206
754.799620	0.998884
755.127318	0.999135
755.454969	0.998870
755.782572	0.999915
756.110129	0.998674
756.437638	0.999887
756.765100	0.998662
757.092515	0.999037
757.419882	0.999488
757.747203	0.998911
758.074477	0.999852
758.401703	0.999855
758.728882	0.997921
759.056014	0.998352
759.383099	0.998978
759.710138	0.998600
760.037129	0.999393
760.364073	0.999091
760.690970	0.998923
761.017820	0.998668
761.344623	0.999802
761.671379	0.999371
761.998088	0.999386
762.324751	0.998453
762.651366	0.998113
762.977935	0.998281
763.304456	0.998815
763.630931	0.996805
763.957359	0.997291
764.283740	0.997403
764.610074	0.997949
764.936362	0.998070
765.262602	0.999470
765.588796	0.998945
765.914943	0.999219
766.241044	0.997983
766.567097	0.998206
766.893104	0.999226
767.219064	0.998007
767.544978	0.998532
767.870845	0.998931
768.196665	0.998736
768.522438	0.999162
768.848165	0.999163
769.173846	1.000459
769.499479	0.999590
769.825066	0.999404
770.150607	1.000088
770.476101	0.998641
770.801548	0.998768
771.126949	1.000639
771.452303	0.998922
771.777611	0.999128
772.102872	0.997978
772.428087	0.999477
772.753256	1.000266
773.078378	1.000411
773.403453	0.998099
773.728482	0.999902
774.053465	0.998455
774.378401	0.999596
774.703291	1.000605
775.028135	1.000500
775.352932	0.997881
775.677683	0.999825
776.002388	0.999320
776.327046	1.000272
776.651658	1.000559
776.976224	0.999349
777.300743	0.999782
777.625216	0.999161
777.949643	0.999913
778.274024	0.998308
778.598359	0.998943
778.922647	0.998922
779.246889	0.999945
779.571086	0.999482
779.895236	0.999288
780.219339	1.000162
780.543397	0.999182
780.867409	1.000292
781.191374	0.998927
781.515294	1.000551
781.839167	1.000268
782.162995	0.999248
782.486776	0.999189
782.810511	0.998119
783.134201	0.999801
783.457844	0.999349
783.781441	1.000317
784.104993	0.999105
784.428498	0.999940
784.751958	1.001548
785.075372	1.000173
785.398739	0.999241
785.722061	0.997677
786.045337	0.998583
786.368568	0.999276
786.691752	0.998984
787.014891	0.999102
787.337983	0.998146
787.661030	0.999542
787.984031	0.999470
788.306987	0.999085
788.629897	0.997985
788.952760	0.999071
789.275579	1.000139
789.598351	0.999205
789.921078	1.000071
790.243759	0.999499
790.566395	0.999226
790.888984	0.999551
791.211529	0.999594
791.534027	0.999034
791.856480	0.999067
792.178888	0.999400
792.501249	0.998576
792.823566	1.000149
793.145836	0.999848
793.468062	1.000127
793.790241	1.000330
794.112375	0.998625
794.434464	0.999568
794.756507	1.000941
795.078505	0.999279
795.400457	0.999928
795.722364	0.999509
796.044226	1.000344
796.366042	0.998692
796.687812	0.997789
797.009538	0.999071
797.331218	0.999834
797.652852	1.000492
797.974442	0.998748
798.295986	0.999075
798.617484	0.998876
798.938938	0.999489
799.260346	0.999393
799.581709	0.998507
799.903026	0.999622
800.224299	0.999183
800.545526	0.998827
800.866708	0.999289
801.187845	1.000059
801.508936	0.999605
801.829983	0.999506
802.150984	1.000036
802.471940	0.999847
802.792851	0.999371
803.113717	1.000218
803.434538	0.998579
803.755314	1.000670
804.076045	0.999402
804.396731	0.999687
804.717372	0.998299
805.037967	0.999331
805.358518	0.999671
805.679024	0.999349
805.999485	1.000067
806.319901	1.000952
806.640272	1.000885
806.960598	1.000269
807.280879	0.999812
807.601115	1.000331
807.921306	0.999807
808.241453	0.999484
808.561554	0.999874
808.881611	0.999863
809.201623	0.998875
809.521590	0.999747
809.841513	0.999864
810.161390	0.998633
810.481223	0.999809
810.801011	0.999789
811.120755	1.000488
811.440453	0.999121
811.760107	1.000757
812.079716	0.998586
812.399281	0.999343
812.718801	0.999480
813.038276	0.999338
813.357707	0.999146
813.677093	0.999476
813.996434	1.000023
814.315731	1.000851
814.634983	0.999223
814.954191	0.999660
815.273354	0.999497
815.592473	0.999311
815.911547	1.000373
816.230577	0.999624
816.549562	1.000098
816.868502	0.998986
817.187399	1.000821
817.506250	1.000141
817.825058	0.998831
818.143821	0.999574
818.462539	0.998983
818.781213	0.999376
819.099843	0.999468
819.418429	0.999383
819.736970	1.000238
820.055466	0.998411
820.373919	0.998346
820.692327	0.997615
821.010691	0.998546
821.329011	0.996117
821.647286	0.996504
821.965517	0.996574
822.283704	0.996458
822.601847	0.995779
822.919945	0.995364
823.237999	0.995146
823.556010	0.995909
823.873976	0.996529
824.191897	0.996630
824.509775	0.997520
824.827609	0.997949
825.145398	0.998750
825.463144	0.996924
825.780845	0.996599
826.098502	0.997763
826.416116	0.997516
826.733685	0.996962
827.051210	0.997048
827.368692	0.996598
827.686129	0.997471
828.003522	0.998766
828.320872	0.997695
828.638177	0.997930
828.955439	0.999676
829.272656	0.998837
829.589830	0.998789
829.906960	0.999007
830.224046	0.999428
830.541088	0.998965
830.858086	0.999304
831.175041	0.999396
831.491952	0.998418
831.808819	0.998521
832.125642	0.999374
832.442421	0.998957
832.759157	1.000509
833.075849	0.999248
833.392497	0.998521
833.709101	0.997314
834.025662	0.998782
834.342179	0.999560
834.658653	0.999321
834.975083	0.999230
835.291469	0.999501
835.607811	0.998405
835.924110	0.999815
836.240366	1.001160
836.556578	1.000015
836.872746	0.999529
837.188871	0.998675
837.504952	0.998650
837.820990	0.999442
838.136984	0.999168
838.452935	1.000329
838.768842	1.000311
839.084706	0.999508
839.400526	0.999622
839.716303	0.998670
840.032037	1.000051
840.347727	1.000621
840.663373	1.000296
840.978977	0.999017
841.294537	1.000144
841.610054	1.000146
841.925527	0.999854
842.240957	0.998924
842.556344	0.999589
842.871687	0.999789
843.186987	1.000531
843.502244	1.000331
843.817458	0.999116
844.132629	0.999066
844.447756	0.999620
844.762840	0.999699
845.077881	1.000204
845.392879	0.999231
845.707833	0.999954
846.022745	1.000109
846.337613	1.000761
846.652438	0.999460
846.967221	0.998605
847.281960	1.000993
847.596656	1.000507
847.911309	0.999919
848.225919	0.998842
848.540485	1.000383
848.855009	1.001355
849.169490	1.001129
849.483928	0.999782
849.798323	0.999112
850.112675	1.000488
850.426984	1.001088
850.741251	1.001320
851.055474	0.999726
851.369654	0.999422
851.683792	0.999538
851.997887	1.000393
852.311938	1.000400
852.625947	0.999641
852.939914	0.999055
853.253837	1.000968
853.567718	1.000013
853.881555	0.999740
854.195350	1.000005
854.509103	1.001234
854.822812	1.000272
855.136479	1.000849
855.450103	0.999573
855.763685	0.999847
856.077224	0.999520
856.390720	0.999678
856.704173	1.001261
857.017584	1.000426
857.330953	1.000762
857.644278	0.999923
857.957561	0.999425
858.270802	1.000062
858.584000	0.999923
858.897155	1.000115
859.210268	1.000339
859.523339	1.000072
859.836367	0.999624
860.149352	0.999554
860.462295	1.000251
860.775195	1.000476
861.088054	0.998523
861.400869	0.999729
861.713642	0.998588
862.026373	1.001130
862.339062	0.999792
862.651708	1.000639
862.964312	0.999994
863.276873	0.999386
863.589392	0.998612
863.901869	1.000156
864.214303	1.000096
864.526696	0.999702
864.839045	1.000107
865.151353	0.999497
865.463619	0.999918
865.775842	0.999290
866.088023	1.001467
866.400162	0.999909
866.712258	1.000521
867.024313	1.000184
867.336325	1.001392
867.648296	1.001007
867.960224	1.000966
868.272110	1.000449
868.583954	1.000850
868.895755	1.000727
869.207515	0.999199
869.519233	1.000126
869.830909	0.999289
870.142542	0.999107
870.454134	0.999307
870.765684	0.999076
871.077191	0.999787
871.388657	0.999498
871.700081	1.001135
872.011463	1.000309
872.322803	0.999563
872.634101	0.999304
872.945357	0.999802
873.256571	0.999515
873.567744	1.000908
873.878874	0.999523
874.189963	0.999909
874.501010	1.001505
874.812015	1.000357
875.122979	0.999514
875.433900	0.999122
875.744780	1.000774
876.055618	0.999470
876.366415	0.998837
876.677169	0.999744
876.987882	0.999786
877.298554	1.001342
877.609183	1.000393
877.919771	1.000787
878.230317	1.000537
878.540822	0.999009
878.851285	0.999639
879.161707	0.999718
879.472087	1.001194
879.782425	0.999080
880.092722	0.999616
880.402977	0.998518
880.713191	0.998698
881.023363	0.998045
881.333494	0.997606
881.643583	0.999409
881.953631	0.998269
882.263637	0.997604
882.573602	0.997677
882.883526	0.996818
883.193408	0.998640
883.503248	0.997949
883.813048	0.998014
884.122806	0.998885
884.432522	0.998809
884.742197	0.999485
885.051831	0.999779
885.361424	0.999300
885.670975	0.999295
885.980485	1.000234
886.289954	0.998964
886.599382	0.998673
886.908768	0.999071
887.218113	0.998388
887.527417	0.999242
887.836680	0.999469
888.145901	1.000290
888.455082	1.000686
888.764221	1.000812
889.073319	0.998997
889.382376	1.000509
889.691392	0.999929
890.000366	1.000312
890.309300	1.000278
890.618193	1.000692
890.927044	1.000057
891.235855	0.999594
891.544625	1.000742
891.853353	0.999974
892.162041	0.999993
892.470687	1.001373
892.779293	0.998829
893.087858	0.998856
893.396381	0.999694
893.704864	0.999601
894.013306	0.999590
894.321707	1.000351
894.630068	0.999329
894.938387	0.998503
895.246665	0.999435
895.554903	0.997538
895.863100	1.000345
896.171256	0.998702
896.479371	0.998704
896.787446	0.999911
897.095480	0.999542
897.403473	0.999966
897.711425	0.999868
898.019336	1.000879
898.327207	1.000060
898.635038	0.998610
898.942827	0.999998
899.250576	1.000180
899.558284	1.000052
899.865952	0.999907
900.173579	0.999538
900.481165	1.000210
900.788711	0.999725
901.096216	0.999628
901.403681	1.000732
901.711105	0.999844
902.018489	0.999068
902.325832	1.000420
902.633135	1.000152
902.940397	1.000217
903.247619	0.999730
903.554800	0.999692
903.861941	0.999629
904.169041	0.999555
904.476101	0.999251
904.783121	0.999238
905.090100	0.999704
905.397039	0.999192
905.703938	0.999723
906.010796	0.997642
906.317614	0.998445
906.624391	0.999603
906.931129	0.999794
907.237826	1.000240
907.544483	1.000209
907.851099	1.000694
908.157675	0.999792
908.464211	1.000529
908.770707	1.000163
909.077163	1.000712
909.383578	0.999475
909.689954	0.999597
909.996289	1.000024
910.302584	1.000326
910.608839	1.002340
910.915054	1.000229
911.221229	1.001959
911.527363	0.999773
911.833458	1.000068
912.139513	1.000667
912.445527	1.001555
912.751502	1.000621
913.057436	0.999547
913.363331	1.000126
913.669186	1.000472
913.975000	1.000573
914.280775	0.999893
914.586510	0.999936
914.892205	0.999469
915.197859	0.999374
915.503475	0.999589
915.809050	0.999393
916.114585	0.998440
916.420081	0.998670
916.725536	0.999612
917.030952	0.999010
917.336328	0.998616
917.641665	0.998036
917.946961	0.999023
918.252218	0.997686
918.557435	0.999614
918.862612	0.999574
919.167750	0.999865
919.472848	0.999987
919.777906	1.000584
920.082925	1.000993
920.387904	0.999946
920.692843	1.000051
920.997743	0.999098
921.302603	1.001569
921.607423	0.999392
921.912204	0.999930
922.216946	1.001362
922.521647	0.999859
922.826310	0.998814
923.130932	1.000827
923.435516	1.000225
923.740059	1.000552
924.044564	0.999294
924.349028	0.999032
924.653454	1.000681
924.957840	0.999903
925.262186	0.999520
925.566493	0.999642
925.870761	0.999694
926.174989	0.998924
926.479178	1.000681
926.783328	0.999577
927.087438	0.999706
927.391509	1.000498
927.695541	1.000661
927.999533	1.000363
928.303486	1.000822
928.607400	1.000451
928.911275	1.001135
929.215110	1.001335
929.518906	1.001132
929.822663	1.002468
930.126381	1.002491
930.430060	1.000905
930.733699	1.001542
931.037299	1.000617
931.340861	1.001596
931.644383	0.999385
931.947866	1.000909
932.251309	1.000718
932.554714	0.999831
932.858080	0.999966
933.161407	0.999285
933.464694	1.000296
933.767943	1.000756
934.071153	1.000424
934.374323	1.000722
934.677455	0.999794
934.980548	0.999010
935.283602	1.001175
935.586617	1.000157
935.889593	0.999983
936.192530	1.001067
936.495428	1.000188
936.798287	0.999467
937.101108	1.000922
937.403890	0.999301
937.706632	1.001557
938.009336	1.001242
938.312002	0.999268
938.614628	1.000974
938.917216	1.000424
939.219765	1.000237
939.522275	1.001180
939.824747	1.000612
940.127179	0.999580
940.429573	1.001383
940.731929	1.000100
941.034246	0.999746
941.336524	0.998932
941.638763	1.000105
941.940964	1.000125
942.243126	1.000012
942.545250	1.000354
942.847335	1.001363
943.149381	1.000448
943.451389	0.999885
943.753359	1.000838
944.055290	1.001328
944.357182	0.999518
944.659036	1.000350
944.960851	1.001037
945.262628	1.000682
945.564367	1.000177
945.866067	1.000114
946.167729	1.001007
946.469352	1.000546
946.770937	0.998854
947.072484	1.001056
947.373992	1.000907
947.675462	1.001222
947.976893	1.000374
948.278286	1.001104
948.579641	1.000717
948.880958	0.999610
949.182236	1.001414
949.483476	1.001309
949.784678	1.000891
950.085841	1.001010
950.386967	0.999549
950.688054	1.000481
950.989103	0.998327
951.290114	0.998546
951.591087	1.001005
951.892021	0.999827
952.192917	0.999765
952.493776	1.000098
952.794596	1.000599
953.095378	0.999837
953.396122	0.999537
953.696828	1.000469
953.997496	1.000700
954.298126	1.001300
954.598718	1.000703
954.899272	1.000038
955.199788	0.999854
955.500266	1.001263
955.800706	0.999871
956.101108	1.000064
956.401472	1.002304
956.701798	0.999972
957.002087	0.999401
957.302337	1.000143
957.602550	1.000332
957.902724	1.000709
958.202861	0.999838
958.502960	1.000507
958.803022	1.001422
959.103045	0.999631
959.403031	1.001260
959.702979	1.001308
960.002889	0.999983
960.302762	0.999539
960.602596	1.000175
960.902393	0.999780
961.202153	1.000501
961.501875	1.000029
961.801559	1.000986
962.101205	0.999411
962.400814	1.000013
962.700385	1.000383
962.999918	1.000510
963.299414	0.999589
963.598873	1.001034
963.898293	0.999464
964.197677	1.000009
964.497022	0.999924
964.796331	1.000045
965.095601	1.000836
965.394835	0.999508
965.694030	1.001246
965.993189	0.999385
966.292309	1.000744
966.591393	0.998913
966.890439	1.000396
967.189447	1.000237
967.488419	0.999969
967.787353	1.000876
968.086249	1.001082
968.385108	1.001489
968.683930	1.001309
968.982714	1.000737
969.281462	1.000542
969.580172	0.999828
969.878844	1.001367
970.177480	1.000368
970.476078	1.002035
970.774639	0.999850
971.073162	1.001116
971.371649	0.999925
971.670098	1.000147
971.968510	1.000945
972.266885	0.999547
972.565223	1.000369
972.863524	0.999317
973.161788	1.000083
973.460014	1.001444
973.758204	1.000555
974.056356	1.000165
974.354471	0.999655
974.652550	1.000976
974.950591	0.999609
975.248595	0.999845
975.546563	1.001682
975.844493	1.001132
976.142386	0.998921
976.440243	1.000641
976.738062	1.001029
977.035845	0.999592
977.333590	1.001235
977.631299	0.999398
977.928971	0.998839
978.226606	0.999910
978.524204	0.998972
978.821765	1.001001
979.119290	1.001683
979.416777	1.000438
979.714228	0.999768
980.011642	1.000073
980.309020	0.999086
980.606360	0.999462
980.903664	1.000009
981.200931	1.000315
981.498162	1.000626
981.795356	1.000603
982.092513	0.999916
982.389633	1.001519
982.686717	0.999223
982.983764	1.000012
983.280775	1.001077
983.577749	1.001461
983.874686	0.999732
984.171587	1.001070
984.468451	0.999897
984.765279	0.999531
985.062070	1.000850
985.358824	1.000657
985.655543	1.000059
985.952224	0.999809
986.248869	1.000760
986.545478	1.001615
986.842050	0.999427
987.138586	0.999813
987.435086	0.999200
987.731549	1.001143
988.027975	1.000703
988.324366	1.000248
988.620719	1.001197
988.917037	0.999559
989.213318	1.001337
989.509563	1.000389
989.805772	1.000999
990.101944	1.001620
990.398080	1.000992
990.694180	0.999963
990.990244	1.000688
991.286271	1.000000
991.582262	1.001387
991.878217	0.999397
992.174136	1.001012
992.470019	0.999643
992.765865	1.000780
993.061676	1.000336
993.357450	1.001061
993.653188	1.001013
993.948890	0.999959
994.244556	0.999572
994.540186	1.000330
994.835780	0.999919
995.131337	1.002340
995.426859	1.000114
995.722345	1.001416
996.017795	0.999886
996.313208	1.000964
996.608586	1.000834
996.903928	1.000902
997.199234	1.000472
997.494504	1.001244
997.789738	0.998865
998.084936	1.001038
998.380099	0.999519
998.675225	1.000376
998.970316	1.001152
999.265371	1.000783
999.560390	1.000720
999.855373	0.999746
1000.150320	0.999889
1000.445232	1.000731
1000.740108	1.000902
1001.034948	1.000837
1001.329752	1.001915
1001.624521	1.000410
1001.919254	0.999935
1002.213951	1.001143
1002.508613	0.999479
1002.803239	1.000717
1003.097829	1.000844
1003.392384	0.999884
1003.686903	1.000954
1003.981386	1.001504
1004.275834	1.001616
1004.570246	0.999468
1004.864623	1.000382
1005.158964	0.999989
1005.453270	1.000432
1005.747540	0.999925
1006.041775	1.001046
1006.335974	1.001180
1006.630138	1.000957
1006.924266	0.999070
1007.218359	0.999351
1007.512416	1.001777
1007.806438	0.999716
1008.100425	1.001243
1008.394376	1.000221
1008.688292	0.998673
1008.982172	0.999511
1009.276017	1.001848
1009.569827	1.000787
1009.863602	0.999185
1010.157341	1.001041
1010.451045	1.000332
1010.744714	1.002125
1011.038347	1.000738
1011.331945	0.999914
1011.625508	1.000834
1011.919036	0.999320
1012.212528	1.000389
1012.505986	1.000117
1012.799408	1.000073
1013.092795	1.000907
1013.386147	1.001164
1013.679464	1.000706
1013.972745	0.999974
1014.265992	0.999805
1014.559204	0.999235
1014.852380	1.000174
1015.145521	1.001107
1015.438628	1.000380
1015.731699	0.998868
1016.024736	1.001421
1016.317737	1.000246
1016.610703	1.000607
1016.903635	1.000333
1017.196531	0.998991
1017.489393	0.999913
1017.782219	0.999265
1018.075011	1.000287
1018.367768	1.000781
1018.660490	1.000122
1018.953177	1.000122
1019.245829	1.000122
