Dividing Wavelength (nm)	Counts (n)	Blue Motor Position (mm): 37.200000	Red Motor Position (mm): 0.000000	
326.493990	0.997687
326.888308	0.997687
327.282561	0.997687
327.676750	0.998971
328.070874	1.000508
328.464933	1.001884
328.858929	1.000479
329.252859	1.000360
329.646726	0.999957
330.040528	0.999288
330.434265	0.999389
330.827938	0.998690
331.221547	1.000634
331.615091	0.999602
332.008571	1.001359
332.401986	0.999471
332.795338	0.999822
333.188625	1.000096
333.581847	1.000060
333.975006	1.000262
334.368100	1.000598
334.761129	0.999298
335.154095	1.000266
335.546996	0.999246
335.939833	0.998671
336.332606	0.998944
336.725315	0.998573
337.117960	1.000166
337.510540	0.999127
337.903056	0.999502
338.295508	0.999721
338.687896	0.999966
339.080220	0.999100
339.472480	0.998855
339.864676	1.000129
340.256807	0.998308
340.648875	1.000363
341.040879	0.999295
341.432818	1.000711
341.824694	0.999333
342.216506	0.999694
342.608253	0.998701
342.999937	0.999840
343.391557	0.999784
343.783113	1.000051
344.174605	0.999882
344.566033	0.998618
344.957397	1.000580
345.348697	0.999446
345.739934	0.999638
346.131106	0.999894
346.522215	0.998734
346.913260	0.999065
347.304241	0.999257
347.695159	0.999838
348.086012	0.999156
348.476802	0.999059
348.867528	0.998708
349.258191	1.000007
349.648789	1.000517
350.039324	0.999345
350.429796	0.999383
350.820203	0.998200
351.210548	1.000628
351.600828	0.998763
351.991045	0.998554
352.381198	0.999042
352.771288	0.998319
353.161314	1.000106
353.551276	0.998474
353.941175	0.996643
354.331010	0.999499
354.720782	0.999117
355.110490	0.998412
355.500135	0.999307
355.889717	0.998464
356.279235	0.998586
356.668689	0.999667
357.058080	0.998394
357.447408	0.997274
357.836672	0.999213
358.225873	0.997447
358.615010	0.997138
359.004084	0.997255
359.393095	0.998356
359.782043	0.998859
360.170927	0.998554
360.559748	0.998217
360.948505	0.997349
361.337199	0.998317
361.725830	0.998345
362.114398	0.997788
362.502903	0.997113
362.891344	0.997115
363.279722	0.997189
363.668037	0.997555
364.056289	0.997975
364.444478	1.000116
364.832603	0.997699
365.220665	0.998387
365.608665	0.996836
365.996601	0.996945
366.384474	0.996316
366.772284	0.996982
367.160031	0.996197
367.547715	0.995616
367.935336	0.995977
368.322893	0.994805
368.710388	0.993687
369.097820	0.991076
369.485189	0.989048
369.872495	0.987244
370.259738	0.985741
370.646918	0.982937
371.034035	0.978953
371.421090	0.977735
371.808081	0.972974
372.195010	0.970624
372.581875	0.965130
372.968678	0.960778
373.355418	0.956428
373.742096	0.949074
374.128710	0.945162
374.515262	0.940988
374.901751	0.934174
375.288177	0.929256
375.674540	0.924085
376.060841	0.916041
376.447079	0.909492
376.833254	0.903127
377.219367	0.898710
377.605417	0.886879
377.991404	0.882962
378.377329	0.877876
378.763191	0.871707
379.148991	0.862150
379.534727	0.855080
379.920402	0.846866
380.306013	0.842625
380.691563	0.831335
381.077049	0.824227
381.462474	0.820306
381.847835	0.808993
382.233134	0.803442
382.618371	0.804374
383.003545	0.787443
383.388657	0.784458
383.773706	0.777284
384.158693	0.773495
384.543618	0.767490
384.928480	0.758669
385.313280	0.749421
385.698017	0.748287
386.082692	0.737717
386.467305	0.736946
386.851856	0.730825
387.236344	0.724234
387.620770	0.719416
388.005133	0.714456
388.389435	0.707924
388.773674	0.706528
389.157851	0.697841
389.541965	0.696447
389.926018	0.701912
390.310008	0.689160
390.693936	0.686466
391.077802	0.678392
391.461606	0.679414
391.845348	0.669395
392.229027	0.668461
392.612645	0.666452
392.996200	0.653879
393.379694	0.647142
393.763125	0.637803
394.146494	0.642552
394.529801	0.632706
394.913047	0.624804
395.296230	0.630750
395.679351	0.623118
396.062410	0.620347
396.445408	0.624392
396.828343	0.620082
397.211217	0.616827
397.594028	0.629726
397.976778	0.622044
398.359466	0.619303
398.742092	0.618065
399.124656	0.631214
399.507158	0.621892
399.889598	0.623105
400.271977	0.616924
400.654294	0.624328
401.036549	0.626864
401.418742	0.634174
401.800874	0.624745
402.182944	0.627248
402.564952	0.624107
402.946898	0.630801
403.328783	0.637379
403.710606	0.651688
404.092367	0.635642
404.474067	0.646600
404.855705	0.651679
405.237282	0.664572
405.618797	0.660276
406.000250	0.662662
406.381642	0.662447
406.762972	0.674240
407.144240	0.680480
407.525447	0.687625
407.906593	0.690678
408.287677	0.695087
408.668700	0.709399
409.049661	0.713643
409.430560	0.718726
409.811399	0.732960
410.192176	0.730914
410.572891	0.743194
410.953545	0.745772
411.334138	0.761558
411.714669	0.766179
412.095139	0.780837
412.475547	0.783076
412.855894	0.792421
413.236180	0.800812
413.616405	0.811953
413.996568	0.816382
414.376670	0.826309
414.756711	0.836577
415.136691	0.843619
415.516609	0.848734
415.896466	0.854155
416.276262	0.861167
416.655997	0.870061
417.035670	0.871992
417.415283	0.877288
417.794834	0.885454
418.174324	0.893512
418.553753	0.902223
418.933121	0.904671
419.312428	0.912180
419.691674	0.919502
420.070859	0.922541
420.449983	0.928756
420.829045	0.932027
421.208047	0.939026
421.586988	0.943225
421.965867	0.946867
422.344686	0.950563
422.723444	0.955641
423.102141	0.960936
423.480777	0.961466
423.859352	0.966496
424.237866	0.968582
424.616319	0.971497
424.994712	0.974088
425.373044	0.976464
425.751314	0.978881
426.129524	0.981922
426.507673	0.981755
426.885762	0.984303
427.263789	0.985598
427.641756	0.987549
428.019662	0.988108
428.397508	0.989920
428.775292	0.991006
429.153016	0.992221
429.530679	0.992967
429.908282	0.993482
430.285824	0.993747
430.663305	0.994698
431.040726	0.995660
431.418086	0.995651
431.795385	0.995845
432.172624	0.997234
432.549802	0.996068
432.926920	0.996791
433.303977	0.996173
433.680974	0.996844
434.057910	0.997830
434.434786	0.997204
434.811601	0.997559
435.188355	0.997628
435.565050	0.998684
435.941683	0.997825
436.318257	0.997210
436.694770	0.998423
437.071222	0.998569
437.447614	0.997920
437.823946	0.998676
438.200218	0.997880
438.576429	0.998117
438.952580	0.997869
439.328670	0.998012
439.704700	0.997740
440.080670	0.998506
440.456580	0.998605
440.832429	0.998398
441.208218	0.998853
441.583947	0.998361
441.959616	0.997654
442.335224	0.999208
442.710773	0.998624
443.086261	0.999245
443.461689	0.998272
443.837057	0.999400
444.212365	0.999374
444.587612	0.999775
444.962800	0.999559
445.337927	0.998772
445.712995	0.998859
446.088002	0.998487
446.462949	0.998387
446.837837	1.000283
447.212664	0.998703
447.587431	0.998133
447.962139	0.999087
448.336786	0.997726
448.711374	0.998263
449.085901	0.998555
449.460369	0.999368
449.834776	0.998581
450.209124	0.998923
450.583412	0.998947
450.957640	0.999141
451.331808	1.000037
451.705917	0.999000
452.079965	0.998521
452.453954	0.999097
452.827883	0.999035
453.201752	0.998903
453.575562	0.998726
453.949311	0.999254
454.323001	0.998932
454.696632	0.998696
455.070202	0.998936
455.443713	0.998660
455.817164	0.998802
456.190556	0.998789
456.563888	0.999769
456.937160	0.998718
457.310373	0.998755
457.683526	0.999762
458.056619	0.999218
458.429653	0.998775
458.802628	0.998845
459.175542	0.999642
459.548398	0.999034
459.921194	0.998727
460.293930	0.999264
460.666607	0.999187
461.039224	0.998210
461.411782	0.999255
461.784280	0.999534
462.156719	0.999266
462.529099	0.999204
462.901419	0.999620
463.273680	0.998653
463.645882	0.997756
464.018024	0.999577
464.390106	0.999274
464.762130	0.999296
465.134094	0.998425
465.505999	0.998691
465.877845	0.998024
466.249631	0.998451
466.621358	0.997347
466.993026	0.997939
467.364634	0.998288
467.736184	0.998341
468.107674	0.998747
468.479105	0.998214
468.850477	0.998477
469.221790	0.998098
469.593043	0.998733
469.964238	0.999117
470.335373	0.998195
470.706449	0.998291
471.077467	0.998719
471.448425	0.998924
471.819324	0.998539
472.190164	0.998182
472.560945	0.998285
472.931667	0.998373
473.302330	0.998554
473.672934	0.998811
474.043479	0.997897
474.413965	0.998565
474.784393	0.997889
475.154761	0.998223
475.525070	0.998429
475.895321	0.998697
476.265513	0.998739
476.635645	0.998750
477.005719	0.998274
477.375734	0.998283
477.745691	0.997236
478.115588	0.998061
478.485427	0.998924
478.855207	0.997939
479.224928	0.997601
479.594591	0.998244
479.964194	0.998274
480.333739	0.997381
480.703226	0.997989
481.072653	0.997855
481.442022	0.998545
481.811333	0.998461
482.180584	0.997925
482.549777	0.997953
482.918912	0.997628
483.287988	0.998192
483.657005	0.997899
484.025964	0.998132
484.394864	0.998216
484.763706	0.997649
485.132489	0.998481
485.501213	0.998661
485.869879	0.998778
486.238487	0.998048
486.607036	0.998777
486.975527	0.997934
487.343959	0.998157
487.712333	0.998116
488.080648	0.997456
488.448905	0.998651
488.817104	0.998105
489.185244	0.998266
489.553326	0.998467
489.921350	0.997897
490.289315	0.998025
490.657222	0.997823
491.025070	0.998413
491.392861	0.998484
491.760593	0.998483
492.128267	0.998319
492.495883	0.997530
492.863440	0.998478
493.230939	0.997952
493.598380	0.998732
493.965763	0.998357
494.333088	0.997691
494.700354	0.997572
495.067563	0.998656
495.434713	0.998787
495.801805	0.998031
496.168839	0.998617
496.535815	0.998967
496.902733	0.998390
497.269593	0.998005
497.636395	0.997457
498.003139	0.997592
498.369825	0.998957
498.736453	0.997975
499.103023	0.998618
499.469535	0.998581
499.835989	0.997910
500.202385	0.998021
500.568723	0.998352
500.935003	0.998484
501.301226	0.998541
501.667390	0.998128
502.033497	0.997949
502.399546	0.998192
502.765537	0.998360
503.131470	0.998665
503.497345	0.998923
503.863163	0.998289
504.228923	0.998238
504.594625	0.998131
504.960269	0.998252
505.325856	0.999266
505.691385	0.998623
506.056856	0.998202
506.422270	0.998099
506.787625	0.998549
507.152924	0.998585
507.518164	0.997479
507.883347	0.998047
508.248472	0.998271
508.613540	0.998330
508.978550	0.998533
509.343503	0.998276
509.708398	0.999357
510.073236	0.998572
510.438016	0.997970
510.802738	0.997921
511.167403	0.997832
511.532010	0.998778
511.896561	0.998430
512.261053	0.998349
512.625488	0.998530
512.989866	0.998251
513.354186	0.997400
513.718449	0.998217
514.082655	0.997863
514.446803	0.998598
514.810894	0.998999
515.174927	0.999011
515.538904	0.999112
515.902822	0.998214
516.266684	0.998368
516.630488	0.998552
516.994235	0.998606
517.357925	0.998237
517.721558	0.998215
518.085133	0.998031
518.448651	0.998324
518.812112	0.999089
519.175516	0.997907
519.538863	0.998218
519.902152	0.998800
520.265385	0.998831
520.628560	0.997949
520.991678	0.998144
521.354739	0.999245
521.717743	0.998633
522.080690	0.998457
522.443580	0.998582
522.806413	0.997984
523.169189	0.999205
523.531908	0.998306
523.894569	0.998583
524.257174	0.998440
524.619722	0.998496
524.982213	0.997828
525.344647	0.998424
525.707025	0.997731
526.069345	0.997414
526.431608	0.998515
526.793815	0.998711
527.155964	0.998804
527.518057	0.998787
527.880093	0.998295
528.242072	0.998434
528.603995	0.998952
528.965860	0.998889
529.327669	0.998611
529.689421	0.998142
530.051117	0.998603
530.412755	0.999281
530.774337	0.998867
531.135862	0.998902
531.497331	0.998180
531.858743	0.999153
532.220098	0.997384
532.581396	0.998868
532.942638	0.998757
533.303824	0.999369
533.664953	0.998274
534.026025	0.998734
534.387040	0.998509
534.747999	0.998343
535.108902	0.998519
535.469748	0.998916
535.830537	0.998266
536.191270	0.998872
536.551947	0.998468
536.912567	0.998229
537.273131	0.998273
537.633638	0.998643
537.994089	0.998658
538.354483	0.998182
538.714821	0.998382
539.075103	0.999000
539.435328	0.999114
539.795497	0.998793
540.155609	0.998660
540.515665	0.999787
540.875665	0.998176
541.235609	0.999138
541.595496	0.998958
541.955328	0.998155
542.315102	0.999071
542.674821	0.998570
543.034483	0.999249
543.394090	0.998188
543.753640	0.999221
544.113134	0.998517
544.472571	0.999829
544.831953	0.998867
545.191278	0.998326
545.550548	0.998706
545.909761	0.998190
546.268918	0.999300
546.628019	0.999205
546.987064	0.998594
547.346053	0.998061
547.704986	0.998246
548.063863	0.998361
548.422684	0.999680
548.781449	0.998878
549.140158	0.998607
549.498811	0.998393
549.857408	0.999010
550.215949	0.997616
550.574434	0.997981
550.932864	0.998993
551.291237	0.998773
551.649555	0.999111
552.007817	0.998716
552.366022	0.999227
552.724173	0.999107
553.082267	0.998420
553.440305	0.998381
553.798288	0.998357
554.156215	0.998652
554.514086	0.999091
554.871902	0.998570
555.229661	0.998583
555.587365	0.999418
555.945014	0.999401
556.302606	0.998390
556.660143	0.998569
557.017625	0.999239
557.375050	0.998158
557.732421	0.998470
558.089735	0.998666
558.446994	0.998371
558.804197	0.998933
559.161345	0.998393
559.518437	0.999087
559.875474	0.998925
560.232455	0.998867
560.589381	0.999125
560.946251	0.998928
561.303065	0.998920
561.659825	0.998864
562.016528	0.998655
562.373177	0.998820
562.729770	0.998548
563.086307	0.998027
563.442789	0.998924
563.799216	0.997936
564.155587	0.998646
564.511904	0.999593
564.868164	0.997692
565.224370	0.998232
565.580520	0.998764
565.936615	0.998701
566.292654	0.998675
566.648638	0.999181
567.004567	0.999208
567.360441	0.999153
567.716260	0.998472
568.072023	0.998105
568.427732	0.998503
568.783385	0.998572
569.138982	0.998965
569.494525	0.998673
569.850013	0.999404
570.205445	0.998469
570.560823	0.998739
570.916145	0.998612
571.271412	0.998234
571.626625	0.999098
571.981782	0.998788
572.336884	0.999524
572.691931	0.999036
573.046923	0.999300
573.401860	0.998503
573.756743	0.999497
574.111570	0.998717
574.466342	0.999863
574.821059	0.998289
575.175722	0.999138
575.530330	0.998977
575.884882	0.998980
576.239380	0.998686
576.593823	0.998353
576.948211	0.999594
577.302544	0.998481
577.656823	0.998884
578.011047	0.998355
578.365216	0.999575
578.719330	0.999927
579.073389	0.997523
579.427394	0.998728
579.781344	0.999562
580.135239	0.998432
580.489080	0.999367
580.842866	0.999043
581.196597	0.998421
581.550273	0.998308
581.903895	0.999260
582.257463	0.999048
582.610975	0.998785
582.964434	0.998561
583.317837	0.999676
583.671186	0.998716
584.024481	0.998606
584.377721	0.998433
584.730906	0.999517
585.084037	0.999080
585.437113	0.998935
585.790135	0.999041
586.143103	0.999257
586.496016	0.999155
586.848874	0.998944
587.201679	0.999284
587.554428	0.998706
587.907124	0.998605
588.259765	1.000071
588.612352	0.998903
588.964884	0.999197
589.317362	0.999578
589.669786	0.998320
590.022155	0.998216
590.374470	0.998621
590.726731	0.998197
591.078937	0.998523
591.431090	0.998830
591.783188	0.998173
592.135232	0.999165
592.487222	0.998963
592.839157	0.998767
593.191038	0.998734
593.542866	0.999320
593.894639	0.998054
594.246358	0.999198
594.598022	0.998924
594.949633	0.999092
595.301190	0.998216
595.652692	0.998713
596.004141	0.998707
596.355535	0.998540
596.706876	0.999046
597.058162	0.999395
597.409395	0.998904
597.760573	0.998524
598.111698	0.998695
598.462768	0.997851
598.813785	0.997978
599.164748	0.998181
599.515657	0.998634
599.866511	0.999105
600.217312	0.999375
600.568060	0.998758
600.918753	0.999284
601.269392	0.999340
601.619978	0.999205
601.970510	0.998193
602.320988	0.999545
602.671412	0.998430
603.021783	0.999370
603.372100	0.999828
603.722363	0.999128
604.072572	0.998831
604.422728	0.998607
604.772830	0.998559
605.122878	0.999246
605.472872	0.999420
605.822813	0.998638
606.172701	0.998776
606.522534	0.999542
606.872314	0.999335
607.222041	0.998804
607.571714	0.998904
607.921333	0.998957
608.270899	0.998724
608.620411	0.998801
608.969870	0.999774
609.319276	0.999219
609.668627	0.999757
610.017926	0.999017
610.367171	0.998417
610.716362	0.999263
611.065500	0.998441
611.414585	0.999078
611.763616	0.998223
612.112594	0.998991
612.461518	0.998437
612.810389	0.998849
613.159207	0.998980
613.507971	0.998090
613.856682	0.999776
614.205340	0.998035
614.553945	0.998907
614.902496	0.998579
615.250994	0.998994
615.599439	0.999233
615.947830	0.998329
616.296169	0.998582
616.644454	0.998886
616.992686	0.998383
617.340864	0.999365
617.688990	0.999186
618.037063	0.999370
618.385082	0.998618
618.733048	0.998223
619.080961	0.998458
619.428821	0.998533
619.776628	0.998018
620.124382	0.999481
620.472083	0.998903
620.819731	0.999529
621.167326	0.998816
621.514868	0.999397
621.862357	0.998975
622.209793	0.998887
622.557176	0.998232
622.904506	0.998879
623.251783	0.998579
623.599007	0.998952
623.946179	0.998649
624.293297	0.999194
624.640363	0.999794
624.987376	0.998192
625.334336	0.998473
625.681243	0.998512
626.028097	0.999097
626.374899	0.998404
626.721647	0.999334
627.068343	0.999327
627.414987	0.998624
627.761577	0.998275
628.108115	0.998042
628.454600	0.998804
628.801032	0.998282
629.147412	0.998489
629.493739	0.999260
629.840014	0.997957
630.186236	0.997603
630.532405	0.999109
630.878521	0.997593
631.224585	0.998858
631.570597	0.998162
631.916556	0.998313
632.262462	0.997978
632.608316	0.999584
632.954117	0.998384
633.299866	0.998282
633.645562	0.998554
633.991206	0.999722
634.336797	0.998722
634.682336	0.999164
635.027823	0.998402
635.373257	0.998229
635.718639	0.999366
636.063968	0.998192
636.409245	0.998311
636.754470	0.998541
637.099642	0.999426
637.444762	0.998618
637.789829	0.998853
638.134845	0.998314
638.479808	0.999206
638.824719	0.999093
639.169577	0.998615
639.514383	0.998842
639.859137	0.999549
640.203839	0.998725
640.548489	0.999371
640.893086	0.998575
641.237632	0.998643
641.582125	0.998467
641.926566	0.999700
642.270955	0.998570
642.615292	0.998365
642.959576	0.998711
643.303809	0.999467
643.647990	0.998727
643.992118	0.998700
644.336195	0.997873
644.680219	0.997948
645.024192	0.998922
645.368112	0.998843
645.711981	0.998385
646.055797	0.998428
646.399562	0.997802
646.743274	0.999281
647.086935	0.998041
647.430544	0.997594
647.774101	0.997977
648.117606	0.998775
648.461059	0.998574
648.804460	0.998890
649.147810	0.997535
649.491108	0.998481
649.834354	0.998294
650.177548	0.998588
650.520690	0.999052
650.863781	0.997662
651.206820	0.998400
651.549807	0.998419
651.892742	0.999352
652.235626	0.999834
652.578458	0.998055
652.921238	0.998794
653.263967	0.998862
653.606644	0.998395
653.949269	0.999501
654.291843	0.997442
654.634365	0.998906
654.976836	0.998538
655.319255	0.999293
655.661622	0.998741
656.003938	0.999088
656.346203	0.997553
656.688416	0.998898
657.030577	0.997954
657.372687	0.999012
657.714746	0.998600
658.056753	0.998088
658.398708	0.998787
658.740612	0.998895
659.082465	0.998975
659.424266	0.998495
659.766016	0.998178
660.107715	0.998379
660.449362	0.998150
660.790958	0.997283
661.132503	0.998536
661.473996	0.997679
661.815438	0.999014
662.156829	0.998473
662.498168	0.999461
662.839456	0.997246
663.180693	0.999052
663.521879	0.998740
663.863013	0.998799
664.204097	0.997663
664.545129	0.997988
664.886110	0.999290
665.227040	0.998700
665.567918	0.997996
665.908746	0.998245
666.249522	0.998613
666.590248	0.998497
666.930922	0.997734
667.271545	0.998876
667.612118	0.998148
667.952639	0.997634
668.293109	0.998056
668.633528	0.997988
668.973896	0.998480
669.314213	0.997737
669.654480	0.999357
669.994695	0.997735
670.334859	0.998716
670.674973	0.998327
671.015035	0.998116
671.355047	0.998142
671.695008	0.998156
672.034918	0.997184
672.374777	0.998036
672.714585	0.997319
673.054342	0.998824
673.394049	0.998371
673.733705	0.996944
674.073310	0.998410
674.412864	0.997278
674.752368	0.997117
675.091820	0.998981
675.431223	0.998610
675.770574	0.997032
676.109875	0.998379
676.449125	0.997172
676.788324	0.998023
677.127473	0.999350
677.466571	0.998054
677.805619	0.997935
678.144616	0.998672
678.483562	0.998747
678.822458	0.998244
679.161303	0.998029
679.500098	0.998750
679.838842	0.998875
680.177535	0.997614
680.516179	0.997331
680.854771	0.997516
681.193314	0.997624
681.531805	0.998320
681.870247	0.998018
682.208638	0.997586
682.546978	0.997279
682.885268	0.997314
683.223508	0.997527
683.561697	0.997363
683.899836	0.998297
684.237925	0.997140
684.575963	0.997433
684.913951	0.998168
685.251889	0.996874
685.589776	0.997416
685.927614	0.998058
686.265401	0.997473
686.603137	0.997562
686.940824	0.997797
687.278460	0.996910
687.616046	0.997478
687.953582	0.997559
688.291068	0.998093
688.628504	0.997773
688.965889	0.997282
689.303224	0.996375
689.640510	0.997003
689.977745	0.997649
690.314930	0.997178
690.652065	0.997145
690.989150	0.997436
691.326185	0.997560
691.663170	0.997946
692.000105	0.998111
692.336990	0.998306
692.673825	0.998141
693.010610	0.998034
693.347345	0.997947
693.684030	0.997436
694.020665	0.997603
694.357251	0.997502
694.693786	0.998270
695.030272	0.997186
695.366707	0.997280
695.703093	0.997247
696.039429	0.996937
696.375716	0.998253
696.711952	0.997212
697.048139	0.997572
697.384276	0.997824
697.720363	0.998220
698.056400	0.997012
698.392388	0.997090
698.728326	0.997564
699.064214	0.996962
699.400053	0.996952
699.735842	0.998167
700.071581	0.997766
700.407270	0.997245
700.742910	0.998020
701.078501	0.997605
701.414042	0.998550
701.749533	0.996498
702.084974	0.997604
702.420366	0.997857
702.755709	0.997380
703.091002	0.997855
703.426246	0.998384
703.761440	0.997495
704.096584	0.996746
704.431679	0.996998
704.766725	0.997937
705.101721	0.997831
705.436668	0.997322
705.771565	0.997875
706.106413	0.997281
706.441212	0.998005
706.775961	0.997868
707.110661	0.996742
707.445311	0.997988
707.779913	0.998810
708.114465	0.997602
708.448967	0.998857
708.783421	0.998397
709.117825	0.997598
709.452180	0.998302
709.786485	0.998067
710.120742	0.997053
710.454949	0.996140
710.789107	0.996802
711.123216	0.996597
711.457275	0.996442
711.791286	0.996680
712.125247	0.998610
712.459159	0.997399
712.793023	0.996414
713.126837	0.998349
713.460602	0.996670
713.794318	0.996276
714.127985	0.996535
714.461602	0.997613
714.795171	0.996323
715.128691	0.997178
715.462162	0.997908
715.795584	0.997184
716.128957	0.997752
716.462281	0.997285
716.795556	0.996377
717.128782	0.997378
717.461960	0.996897
717.795088	0.997455
718.128167	0.997927
718.461198	0.997335
718.794180	0.997950
719.127113	0.997657
719.459997	0.997494
719.792833	0.997850
720.125619	0.997234
720.458357	0.997792
720.791046	0.998398
721.123686	0.997911
721.456278	0.997382
721.788821	0.996998
722.121315	0.999247
722.453761	0.997803
722.786158	0.997691
723.118506	0.997871
723.450805	0.997293
723.783056	0.997937
724.115259	0.996607
724.447412	0.998401
724.779518	0.997674
725.111574	0.997284
725.443582	0.997366
725.775542	0.997638
726.107453	0.997981
726.439315	0.998334
726.771129	0.997780
727.102895	0.997772
727.434612	0.997214
727.766281	0.996919
728.097901	0.996794
728.429473	0.997535
728.760996	0.997237
729.092471	0.997456
729.423897	0.997963
729.755276	0.997355
730.086606	0.996504
730.417887	0.997610
730.749120	0.998076
731.080305	0.997413
731.411442	0.996606
731.742530	0.997077
732.073570	0.996927
732.404562	0.997272
732.735506	0.997132
733.066401	0.997283
733.397249	0.997649
733.728048	0.997476
734.058798	0.997778
734.389501	0.997904
734.720156	0.998167
735.050762	0.998447
735.381320	0.997035
735.711831	0.997000
736.042293	0.997070
736.372707	0.998166
736.703073	0.996474
737.033391	0.996943
737.363661	0.997627
737.693883	0.997029
738.024056	0.997578
738.354182	0.998012
738.684260	0.997082
739.014290	0.997178
739.344272	0.997427
739.674207	0.997791
740.004093	0.997971
740.333931	0.997643
740.663722	0.996482
740.993464	0.998071
741.323159	0.997512
741.652806	0.997767
741.982405	0.997458
742.311956	0.998170
742.641460	0.996913
742.970915	0.996913
743.300323	0.996150
743.629683	0.997026
743.958996	0.999428
744.288260	0.996924
744.617477	0.996963
744.946647	0.996823
745.275768	0.998501
745.604842	0.996651
745.933869	0.996557
746.262847	0.998419
746.591778	0.995563
746.920662	0.997320
747.249498	0.998742
747.578286	0.998439
747.907027	0.997949
748.235720	0.998059
748.564365	0.998134
748.892963	0.997615
749.221514	0.998882
749.550017	0.996931
749.878473	0.997727
750.206881	0.998316
750.535242	0.997022
750.863555	0.997649
751.191821	0.997593
751.520039	0.997998
751.848210	0.996326
752.176334	0.997225
752.504411	0.996946
752.832440	0.997382
753.160421	0.997758
753.488356	0.997582
753.816243	0.996902
754.144082	0.996975
754.471875	0.998140
754.799620	0.998010
755.127318	0.997940
755.454969	0.997449
755.782572	0.998371
756.110129	0.996331
756.437638	0.998488
756.765100	0.998033
757.092515	0.996565
757.419882	0.997433
757.747203	0.998153
758.074477	0.998141
758.401703	0.997801
758.728882	0.997891
759.056014	0.996931
759.383099	0.998083
759.710138	0.996974
760.037129	0.998094
760.364073	0.997732
760.690970	0.997325
761.017820	0.996593
761.344623	0.998542
761.671379	0.997741
761.998088	0.997233
762.324751	0.997624
762.651366	0.996224
762.977935	0.996785
763.304456	0.996322
763.630931	0.995698
763.957359	0.994518
764.283740	0.995522
764.610074	0.997393
764.936362	0.996061
765.262602	0.998443
765.588796	0.997271
765.914943	0.997360
766.241044	0.997891
766.567097	0.997303
766.893104	0.998492
767.219064	0.996212
767.544978	0.997802
767.870845	0.997524
768.196665	0.997548
768.522438	0.997966
768.848165	0.998250
769.173846	0.998648
769.499479	0.998151
769.825066	0.999200
770.150607	0.998572
770.476101	0.997692
770.801548	0.998984
771.126949	0.999653
771.452303	0.998468
771.777611	0.998363
772.102872	0.998263
772.428087	0.997756
772.753256	0.998550
773.078378	0.998509
773.403453	0.997306
773.728482	0.999101
774.053465	0.997023
774.378401	0.997393
774.703291	0.998357
775.028135	0.998829
775.352932	0.997706
775.677683	0.999010
776.002388	0.997576
776.327046	0.998240
776.651658	0.999727
776.976224	0.998714
777.300743	0.997537
777.625216	0.998161
777.949643	0.998722
778.274024	0.998147
778.598359	0.999031
778.922647	0.998952
779.246889	0.999048
779.571086	0.998834
779.895236	0.998781
780.219339	0.998829
780.543397	0.997394
780.867409	1.000037
781.191374	0.998487
781.515294	0.998441
781.839167	0.998372
782.162995	0.999118
782.486776	0.997548
782.810511	0.999001
783.134201	0.999522
783.457844	0.998427
783.781441	0.998200
784.104993	0.997652
784.428498	0.998609
784.751958	0.999565
785.075372	0.998826
785.398739	0.998023
785.722061	0.997471
786.045337	0.998943
786.368568	0.997494
786.691752	0.998294
787.014891	0.998042
787.337983	0.997639
787.661030	0.997501
787.984031	0.998866
788.306987	0.998306
788.629897	0.997461
788.952760	0.998350
789.275579	0.998520
789.598351	0.998422
789.921078	0.998830
790.243759	0.997568
790.566395	0.997502
790.888984	0.998542
791.211529	0.998127
791.534027	0.998224
791.856480	0.998495
792.178888	0.998254
792.501249	0.998318
792.823566	1.000403
793.145836	0.998367
793.468062	0.998519
793.790241	0.999621
794.112375	0.997660
794.434464	0.998672
794.756507	0.998533
795.078505	0.999641
795.400457	0.998713
795.722364	0.998323
796.044226	0.998581
796.366042	0.998808
796.687812	0.996377
797.009538	0.998113
797.331218	0.999090
797.652852	0.998591
797.974442	0.997200
798.295986	0.998994
798.617484	0.997592
798.938938	0.998148
799.260346	0.998064
799.581709	0.997225
799.903026	0.999151
800.224299	0.997649
800.545526	0.997914
800.866708	0.998409
801.187845	0.998341
801.508936	0.998782
801.829983	0.998888
802.150984	0.998563
802.471940	0.998989
802.792851	0.998555
803.113717	0.999742
803.434538	0.998445
803.755314	0.999147
804.076045	0.998751
804.396731	0.998295
804.717372	0.996659
805.037967	0.999567
805.358518	0.997704
805.679024	0.997514
805.999485	0.999423
806.319901	0.998936
806.640272	0.998901
806.960598	0.998940
807.280879	0.999494
807.601115	0.998673
807.921306	0.999155
808.241453	0.997795
808.561554	0.998765
808.881611	0.999332
809.201623	0.997839
809.521590	0.998836
809.841513	0.998789
810.161390	0.997346
810.481223	0.998197
810.801011	0.998965
811.120755	0.998394
811.440453	0.998568
811.760107	0.999310
812.079716	0.997999
812.399281	0.998950
812.718801	0.998106
813.038276	0.998789
813.357707	0.999132
813.677093	0.998671
813.996434	0.998024
814.315731	1.000872
814.634983	0.999012
814.954191	0.999466
815.273354	0.998042
815.592473	0.998736
815.911547	0.998852
816.230577	0.998699
816.549562	0.999434
816.868502	0.997470
817.187399	1.000177
817.506250	0.998131
817.825058	0.997672
818.143821	0.998759
818.462539	0.997868
818.781213	0.998016
819.099843	0.998247
819.418429	0.997897
819.736970	0.998754
820.055466	0.997275
820.373919	0.996792
820.692327	0.995774
821.010691	0.996417
821.329011	0.994773
821.647286	0.993141
821.965517	0.991520
822.283704	0.991230
822.601847	0.990078
822.919945	0.991413
823.237999	0.990694
823.556010	0.992574
823.873976	0.992287
824.191897	0.993677
824.509775	0.995407
824.827609	0.995633
825.145398	0.996606
825.463144	0.993566
825.780845	0.994290
826.098502	0.994755
826.416116	0.995122
826.733685	0.995789
827.051210	0.993787
827.368692	0.993743
827.686129	0.994498
828.003522	0.995866
828.320872	0.995659
828.638177	0.995843
828.955439	0.997467
829.272656	0.997456
829.589830	0.996624
829.906960	0.997366
830.224046	0.997845
830.541088	0.998083
830.858086	0.997667
831.175041	0.998421
831.491952	0.997209
831.808819	0.997823
832.125642	0.996952
832.442421	0.998715
832.759157	0.998917
833.075849	0.997193
833.392497	0.996194
833.709101	0.995254
834.025662	0.996137
834.342179	0.996312
834.658653	0.997213
834.975083	0.997085
835.291469	0.997384
835.607811	0.997113
835.924110	0.997899
836.240366	0.998413
836.556578	0.999031
836.872746	0.998479
837.188871	0.998461
837.504952	0.998394
837.820990	0.998816
838.136984	0.997934
838.452935	0.998575
838.768842	0.999262
839.084706	0.998589
839.400526	0.998489
839.716303	0.996867
840.032037	0.998278
840.347727	0.997574
840.663373	0.997420
840.978977	0.997772
841.294537	0.998644
841.610054	0.997564
841.925527	0.998613
842.240957	0.998717
842.556344	0.998828
842.871687	0.998690
843.186987	0.998512
843.502244	0.999489
843.817458	0.997826
844.132629	0.998655
844.447756	0.999591
844.762840	0.999531
845.077881	0.998678
845.392879	0.998727
845.707833	0.999153
846.022745	0.999110
846.337613	0.998669
846.652438	0.998560
846.967221	0.999660
847.281960	0.998946
847.596656	0.999413
847.911309	0.998905
848.225919	0.998625
848.540485	0.998433
848.855009	1.001172
849.169490	0.999312
849.483928	0.998945
849.798323	0.998282
850.112675	0.999866
850.426984	0.999624
850.741251	0.999113
851.055474	0.999270
851.369654	1.000582
851.683792	0.998901
851.997887	0.998872
852.311938	0.999245
852.625947	0.999433
852.939914	0.998000
853.253837	0.999947
853.567718	1.000089
853.881555	1.000192
854.195350	0.999436
854.509103	0.999154
854.822812	0.998754
855.136479	0.998275
855.450103	0.999174
855.763685	0.999733
856.077224	0.999765
856.390720	0.997856
856.704173	1.000072
857.017584	1.000461
857.330953	1.000047
857.644278	0.998896
857.957561	0.999608
858.270802	0.998888
858.584000	0.998630
858.897155	0.999414
859.210268	0.999231
859.523339	0.999923
859.836367	0.999309
860.149352	0.999062
860.462295	0.997913
860.775195	0.999557
861.088054	0.997223
861.400869	0.999523
861.713642	0.998475
862.026373	1.000079
862.339062	0.999729
862.651708	0.999189
862.964312	0.999444
863.276873	0.998689
863.589392	0.998983
863.901869	0.999037
864.214303	0.999856
864.526696	0.999457
864.839045	0.999817
865.151353	0.999371
865.463619	0.998921
865.775842	0.999166
866.088023	1.000435
866.400162	0.999070
866.712258	1.000284
867.024313	0.999396
867.336325	0.999590
867.648296	1.000417
867.960224	0.999441
868.272110	0.999090
868.583954	1.000233
868.895755	0.999799
869.207515	0.997828
869.519233	0.999874
869.830909	0.998616
870.142542	0.997800
870.454134	0.999816
870.765684	0.998157
871.077191	0.999752
871.388657	0.999557
871.700081	0.999958
872.011463	0.999535
872.322803	0.998854
872.634101	0.999572
872.945357	0.998345
873.256571	0.999375
873.567744	0.998902
873.878874	0.998668
874.189963	0.998898
874.501010	1.000053
874.812015	0.998712
875.122979	0.999420
875.433900	0.998778
875.744780	1.000234
876.055618	0.997999
876.366415	0.998787
876.677169	0.998240
876.987882	0.998666
877.298554	0.999350
877.609183	0.998289
877.919771	0.999995
878.230317	0.999346
878.540822	0.997431
878.851285	0.998156
879.161707	0.998638
879.472087	0.998786
879.782425	0.997341
880.092722	0.998075
880.402977	0.995848
880.713191	0.994917
881.023363	0.993242
881.333494	0.992156
881.643583	0.992219
881.953631	0.992159
882.263637	0.991964
882.573602	0.992130
882.883526	0.993174
883.193408	0.993909
883.503248	0.994220
883.813048	0.994186
884.122806	0.995333
884.432522	0.995696
884.742197	0.997443
885.051831	0.996915
885.361424	0.997691
885.670975	0.998533
885.980485	0.996867
886.289954	0.997590
886.599382	0.997394
886.908768	0.999308
887.218113	0.998208
887.527417	0.998299
887.836680	0.999480
888.145901	0.999510
888.455082	1.000276
888.764221	0.999870
889.073319	0.999059
889.382376	0.999998
889.691392	0.998046
890.000366	0.999243
890.309300	0.998644
890.618193	0.999740
890.927044	0.998093
891.235855	0.998222
891.544625	0.999074
891.853353	0.999224
892.162041	0.998497
892.470687	1.000203
892.779293	0.997102
893.087858	0.997682
893.396381	0.998375
893.704864	0.997148
894.013306	0.996653
894.321707	0.996964
894.630068	0.996318
894.938387	0.995560
895.246665	0.996001
895.554903	0.995068
895.863100	0.997419
896.171256	0.996720
896.479371	0.997223
896.787446	0.997718
897.095480	0.996949
897.403473	0.998309
897.711425	0.997661
898.019336	0.998782
898.327207	0.998629
898.635038	0.997999
898.942827	0.999125
899.250576	0.997806
899.558284	0.999144
899.865952	0.997708
900.173579	0.999651
900.481165	0.999603
900.788711	0.999454
901.096216	0.999419
901.403681	0.998286
901.711105	0.999319
902.018489	0.999414
902.325832	0.998980
902.633135	0.998735
902.940397	0.998685
903.247619	0.998207
903.554800	0.997386
903.861941	0.996549
904.169041	0.995895
904.476101	0.995971
904.783121	0.994149
905.090100	0.995818
905.397039	0.995626
905.703938	0.996740
906.010796	0.996543
906.317614	0.997767
906.624391	0.997528
906.931129	0.998364
907.237826	0.998868
907.544483	0.998612
907.851099	0.998469
908.157675	0.998597
908.464211	0.998521
908.770707	0.998165
909.077163	0.999020
909.383578	0.999493
909.689954	0.999163
909.996289	0.998751
910.302584	0.999801
910.608839	1.000174
910.915054	0.999333
911.221229	1.000207
911.527363	0.998869
911.833458	1.000450
912.139513	0.998840
912.445527	0.999749
912.751502	0.998677
913.057436	0.998046
913.363331	0.999868
913.669186	0.999784
913.975000	0.998203
914.280775	0.998971
914.586510	0.998318
914.892205	0.996938
915.197859	0.997348
915.503475	0.995955
915.809050	0.995952
916.114585	0.994551
916.420081	0.995495
916.725536	0.996128
917.030952	0.995804
917.336328	0.995048
917.641665	0.995302
917.946961	0.995998
918.252218	0.995654
918.557435	0.996647
918.862612	0.997341
919.167750	0.997554
919.472848	0.998096
919.777906	0.999393
920.082925	0.999283
920.387904	0.998663
920.692843	0.998755
920.997743	0.997718
921.302603	0.998868
921.607423	0.998002
921.912204	0.998475
922.216946	0.998644
922.521647	0.998908
922.826310	0.998994
923.130932	1.000259
923.435516	0.999898
923.740059	0.999322
924.044564	0.997645
924.349028	0.998240
924.653454	1.000647
924.957840	0.999058
925.262186	0.997723
925.566493	0.999049
925.870761	0.998702
926.174989	0.998840
926.479178	0.999982
926.783328	0.998807
927.087438	0.998583
927.391509	0.998088
927.695541	0.999344
927.999533	1.000078
928.303486	0.998750
928.607400	0.999469
928.911275	1.000104
929.215110	0.999845
929.518906	1.000064
929.822663	1.000071
930.126381	1.001138
930.430060	0.999090
930.733699	0.999741
931.037299	0.999505
931.340861	0.999725
931.644383	0.998706
931.947866	0.999260
932.251309	1.000104
932.554714	0.998600
932.858080	1.000911
933.161407	0.998581
933.464694	0.999768
933.767943	0.999050
934.071153	0.999735
934.374323	0.999323
934.677455	0.998745
934.980548	0.999533
935.283602	1.000177
935.586617	0.999696
935.889593	1.000758
936.192530	0.999917
936.495428	0.999367
936.798287	0.999479
937.101108	0.999607
937.403890	0.999399
937.706632	0.999550
938.009336	0.999481
938.312002	0.999182
938.614628	0.999809
938.917216	0.998285
939.219765	0.998271
939.522275	0.999901
939.824747	0.998880
940.127179	0.999801
940.429573	0.999773
940.731929	0.998303
941.034246	0.998256
941.336524	0.997616
941.638763	0.999323
941.940964	0.997768
942.243126	0.999322
942.545250	0.999453
942.847335	0.998665
943.149381	1.000798
943.451389	0.998185
943.753359	0.999789
944.055290	1.001151
944.357182	0.999132
944.659036	1.000467
944.960851	0.999892
945.262628	0.999564
945.564367	0.999953
945.866067	0.999026
946.167729	0.999375
946.469352	0.999662
946.770937	0.998801
947.072484	0.999483
947.373992	1.000603
947.675462	0.999810
947.976893	0.997413
948.278286	1.000963
948.579641	1.000344
948.880958	0.999701
949.182236	0.999765
949.483476	0.999772
949.784678	0.999154
950.085841	0.999233
950.386967	0.997699
950.688054	0.999074
950.989103	0.998825
951.290114	0.998134
951.591087	0.998956
951.892021	0.999412
952.192917	0.999807
952.493776	0.999634
952.794596	0.999270
953.095378	0.998632
953.396122	0.999181
953.696828	0.999718
953.997496	0.999627
954.298126	1.000069
954.598718	0.999354
954.899272	1.000573
955.199788	0.998878
955.500266	0.999732
955.800706	0.999704
956.101108	0.998270
956.401472	1.001196
956.701798	0.999801
957.002087	0.999530
957.302337	0.999979
957.602550	0.999619
957.902724	0.999143
958.202861	0.999607
958.502960	0.999351
958.803022	1.000460
959.103045	0.998850
959.403031	1.000495
959.702979	0.999834
960.002889	0.999997
960.302762	0.998582
960.602596	1.000155
960.902393	0.999624
961.202153	1.000038
961.501875	1.000115
961.801559	0.999862
962.101205	0.999304
962.400814	1.000620
962.700385	0.999680
962.999918	0.999149
963.299414	0.999210
963.598873	1.000406
963.898293	0.999194
964.197677	0.998392
964.497022	1.000353
964.796331	1.001514
965.095601	1.001030
965.394835	0.999703
965.694030	1.001106
965.993189	0.998969
966.292309	0.999983
966.591393	0.998160
966.890439	0.998667
967.189447	0.998940
967.488419	0.999209
967.787353	0.998468
968.086249	0.998772
968.385108	1.000004
968.683930	1.000023
968.982714	1.000403
969.281462	0.999888
969.580172	0.999356
969.878844	1.000310
970.177480	0.999828
970.476078	1.001130
970.774639	1.000477
971.073162	0.998727
971.371649	0.999641
971.670098	0.999569
971.968510	1.000014
972.266885	0.998875
972.565223	0.998916
972.863524	0.998714
973.161788	1.000095
973.460014	1.001522
973.758204	0.998583
974.056356	1.000020
974.354471	1.000118
974.652550	1.000621
974.950591	0.998773
975.248595	0.999594
975.546563	1.000467
975.844493	1.000903
976.142386	0.997976
976.440243	1.000970
976.738062	0.999736
977.035845	0.999784
977.333590	1.000851
977.631299	1.000309
977.928971	0.999830
978.226606	1.000531
978.524204	0.998711
978.821765	1.000365
979.119290	0.999733
979.416777	0.998895
979.714228	1.000288
980.011642	1.000500
980.309020	0.998583
980.606360	0.999166
980.903664	0.999289
981.200931	0.999522
981.498162	0.999557
981.795356	1.000127
982.092513	0.998570
982.389633	1.001436
982.686717	0.997746
982.983764	0.999401
983.280775	0.999452
983.577749	1.001288
983.874686	0.998413
984.171587	0.998374
984.468451	0.999708
984.765279	0.999122
985.062070	0.999828
985.358824	0.998713
985.655543	0.999398
985.952224	1.000465
986.248869	0.999439
986.545478	0.999969
986.842050	1.000056
987.138586	0.999091
987.435086	1.000089
987.731549	1.001397
988.027975	1.000388
988.324366	0.999529
988.620719	1.000810
988.917037	0.999565
989.213318	0.999847
989.509563	0.999999
989.805772	0.999341
990.101944	1.000666
990.398080	1.001017
990.694180	1.000339
990.990244	0.998703
991.286271	0.999126
991.582262	0.999206
991.878217	1.000270
992.174136	1.001193
992.470019	1.000146
992.765865	1.001838
993.061676	0.999712
993.357450	0.999733
993.653188	0.999680
993.948890	0.999648
994.244556	0.999969
994.540186	0.998594
994.835780	0.998899
995.131337	1.000992
995.426859	1.000512
995.722345	0.999914
996.017795	0.998881
996.313208	0.999634
996.608586	0.999622
996.903928	0.999266
997.199234	0.999905
997.494504	1.000411
997.789738	0.998163
998.084936	0.999841
998.380099	0.998556
998.675225	1.000203
998.970316	0.999334
999.265371	0.998862
999.560390	1.000174
999.855373	1.000001
1000.150320	0.998836
1000.445232	1.000455
1000.740108	0.999476
1001.034948	0.998976
1001.329752	1.001529
1001.624521	0.999385
1001.919254	0.999136
1002.213951	0.999802
1002.508613	0.998531
1002.803239	0.998928
1003.097829	1.000280
1003.392384	1.000506
1003.686903	1.000513
1003.981386	1.000623
1004.275834	1.000316
1004.570246	0.997622
1004.864623	1.000377
1005.158964	0.999839
1005.453270	0.999714
1005.747540	0.998703
1006.041775	1.001043
1006.335974	1.000430
1006.630138	1.000297
1006.924266	0.999061
1007.218359	0.998150
1007.512416	1.001183
1007.806438	0.999273
1008.100425	0.999537
1008.394376	1.000911
1008.688292	0.999359
1008.982172	0.999144
1009.276017	1.000963
1009.569827	1.000467
1009.863602	0.999576
1010.157341	1.000870
1010.451045	0.998390
1010.744714	1.001130
1011.038347	1.000182
1011.331945	0.999843
1011.625508	0.998577
1011.919036	0.999009
1012.212528	1.000599
1012.505986	0.999403
1012.799408	1.000449
1013.092795	1.000551
1013.386147	0.999377
1013.679464	1.001342
1013.972745	1.000023
1014.265992	0.999940
1014.559204	0.998733
1014.852380	1.000228
1015.145521	0.999464
1015.438628	0.999511
1015.731699	0.998746
1016.024736	1.000883
1016.317737	0.999755
1016.610703	1.000261
1016.903635	0.999596
1017.196531	1.000258
1017.489393	1.000038
1017.782219	0.999516
1018.075011	0.998830
1018.367768	0.999703
1018.660490	1.000672
1018.953177	1.000672
1019.245829	1.000672
