Dividing Wavelength (nm)	Counts (n)	Blue Motor Position (mm): 38.000000	Red Motor Position (mm): 0.000000	
326.493990	0.998964
326.888308	0.998964
327.282561	0.998964
327.676750	0.999835
328.070874	1.000788
328.464933	1.000779
328.858929	1.000902
329.252859	0.999931
329.646726	0.999350
330.040528	0.999860
330.434265	0.999524
330.827938	0.999958
331.221547	0.999401
331.615091	1.000776
332.008571	1.001202
332.401986	0.998485
332.795338	0.998848
333.188625	1.000078
333.581847	0.999205
333.975006	0.999953
334.368100	0.999646
334.761129	0.999483
335.154095	1.000412
335.546996	0.999667
335.939833	0.998485
336.332606	0.999780
336.725315	0.998874
337.117960	1.000414
337.510540	0.999023
337.903056	0.999597
338.295508	0.998839
338.687896	0.999933
339.080220	0.999504
339.472480	1.000232
339.864676	1.000635
340.256807	0.997983
340.648875	1.000384
341.040879	0.998406
341.432818	0.999797
341.824694	0.999196
342.216506	1.000659
342.608253	1.000791
342.999937	0.998831
343.391557	0.998461
343.783113	1.000469
344.174605	1.000529
344.566033	0.999192
344.957397	1.000232
345.348697	1.000206
345.739934	0.998553
346.131106	0.999001
346.522215	0.999252
346.913260	0.999025
347.304241	0.998758
347.695159	0.999137
348.086012	0.999554
348.476802	0.999865
348.867528	0.998869
349.258191	0.999617
349.648789	1.000125
350.039324	0.999154
350.429796	0.998943
350.820203	0.997875
351.210548	0.999902
351.600828	1.000338
351.991045	0.999119
352.381198	0.999774
352.771288	0.999064
353.161314	0.999329
353.551276	0.998040
353.941175	0.997276
354.331010	0.999652
354.720782	1.000001
355.110490	0.999036
355.500135	0.998101
355.889717	0.998731
356.279235	0.998623
356.668689	0.999103
357.058080	0.998943
357.447408	0.997935
357.836672	0.998533
358.225873	0.998058
358.615010	0.997820
359.004084	0.997273
359.393095	0.999288
359.782043	0.997636
360.170927	0.998818
360.559748	0.997559
360.948505	0.998219
361.337199	0.998073
361.725830	0.998178
362.114398	0.997612
362.502903	0.997491
362.891344	0.996782
363.279722	0.998230
363.668037	0.998304
364.056289	0.998626
364.444478	0.997976
364.832603	0.998079
365.220665	0.996970
365.608665	0.997660
365.996601	0.997277
366.384474	0.995952
366.772284	0.997429
367.160031	0.995448
367.547715	0.996245
367.935336	0.995469
368.322893	0.994320
368.710388	0.993687
369.097820	0.991910
369.485189	0.988520
369.872495	0.988482
370.259738	0.986245
370.646918	0.984095
371.034035	0.980620
371.421090	0.977665
371.808081	0.973434
372.195010	0.970500
372.581875	0.965700
372.968678	0.959901
373.355418	0.957518
373.742096	0.949935
374.128710	0.944389
374.515262	0.941265
374.901751	0.935641
375.288177	0.929615
375.674540	0.922709
376.060841	0.917214
376.447079	0.910061
376.833254	0.904627
377.219367	0.899537
377.605417	0.887909
377.991404	0.885734
378.377329	0.878324
378.763191	0.871591
379.148991	0.863309
379.534727	0.855275
379.920402	0.848068
380.306013	0.843615
380.691563	0.830558
381.077049	0.824990
381.462474	0.820032
381.847835	0.809155
382.233134	0.804957
382.618371	0.803127
383.003545	0.787705
383.388657	0.784134
383.773706	0.777614
384.158693	0.773562
384.543618	0.768239
384.928480	0.759962
385.313280	0.749376
385.698017	0.748877
386.082692	0.737945
386.467305	0.735874
386.851856	0.730862
387.236344	0.726290
387.620770	0.719837
388.005133	0.714516
388.389435	0.709279
388.773674	0.706695
389.157851	0.698905
389.541965	0.695595
389.926018	0.703089
390.310008	0.689038
390.693936	0.686264
391.077802	0.678411
391.461606	0.680172
391.845348	0.669864
392.229027	0.669599
392.612645	0.667950
392.996200	0.654946
393.379694	0.648990
393.763125	0.639839
394.146494	0.645539
394.529801	0.637177
394.913047	0.631236
395.296230	0.638887
395.679351	0.631288
396.062410	0.630952
396.445408	0.635243
396.828343	0.634178
397.211217	0.631870
397.594028	0.646372
397.976778	0.640628
398.359466	0.641281
398.742092	0.641187
399.124656	0.655971
399.507158	0.649530
399.889598	0.650951
400.271977	0.648547
400.654294	0.657010
401.036549	0.662597
401.418742	0.671124
401.800874	0.665541
402.182944	0.669254
402.564952	0.668530
402.946898	0.677206
403.328783	0.684900
403.710606	0.700717
404.092367	0.689947
404.474067	0.701891
404.855705	0.707760
405.237282	0.721353
405.618797	0.720346
406.000250	0.725827
406.381642	0.728172
406.762972	0.740060
407.144240	0.748015
407.525447	0.756007
407.906593	0.760765
408.287677	0.768026
408.668700	0.780833
409.049661	0.786474
409.430560	0.792617
409.811399	0.805472
410.192176	0.806748
410.572891	0.818512
410.953545	0.822014
411.334138	0.836021
411.714669	0.840731
412.095139	0.853717
412.475547	0.856105
412.855894	0.864562
413.236180	0.872259
413.616405	0.880654
413.996568	0.886552
414.376670	0.893603
414.756711	0.900824
415.136691	0.908083
415.516609	0.911392
415.896466	0.917605
416.276262	0.921177
416.655997	0.928403
417.035670	0.931160
417.415283	0.934842
417.794834	0.941071
418.174324	0.946184
418.553753	0.951747
418.933121	0.952237
419.312428	0.958017
419.691674	0.962148
420.070859	0.965227
420.449983	0.967302
420.829045	0.969687
421.208047	0.973645
421.586988	0.975370
421.965867	0.977275
422.344686	0.979404
422.723444	0.981972
423.102141	0.984302
423.480777	0.984760
423.859352	0.986735
424.237866	0.987093
424.616319	0.989079
424.994712	0.990352
425.373044	0.991445
425.751314	0.991777
426.129524	0.993431
426.507673	0.992321
426.885762	0.993821
427.263789	0.994535
427.641756	0.994926
428.019662	0.995161
428.397508	0.995062
428.775292	0.995547
429.153016	0.996315
429.530679	0.996837
429.908282	0.998226
430.285824	0.996022
430.663305	0.997064
431.040726	0.997192
431.418086	0.997300
431.795385	0.997979
432.172624	0.997932
432.549802	0.997333
432.926920	0.997398
433.303977	0.997643
433.680974	0.998364
434.057910	0.997533
434.434786	0.997319
434.811601	0.998437
435.188355	0.998784
435.565050	0.998302
435.941683	0.997060
436.318257	0.996853
436.694770	0.997986
437.071222	0.998583
437.447614	0.997520
437.823946	0.997885
438.200218	0.997367
438.576429	0.998132
438.952580	0.998437
439.328670	0.997102
439.704700	0.997544
440.080670	0.998899
440.456580	0.997994
440.832429	0.998193
441.208218	0.998370
441.583947	0.998137
441.959616	0.997593
442.335224	0.999285
442.710773	0.998481
443.086261	0.999086
443.461689	0.998449
443.837057	0.998242
444.212365	0.998162
444.587612	0.999112
444.962800	0.998883
445.337927	0.998773
445.712995	0.998160
446.088002	0.998606
446.462949	0.998173
446.837837	0.999303
447.212664	0.998675
447.587431	0.998665
447.962139	0.998432
448.336786	0.998082
448.711374	0.997980
449.085901	0.998565
449.460369	0.999025
449.834776	0.997883
450.209124	0.998493
450.583412	0.998397
450.957640	0.998548
451.331808	0.998685
451.705917	0.997921
452.079965	0.998280
452.453954	0.999189
452.827883	0.998467
453.201752	0.998722
453.575562	0.997982
453.949311	0.998476
454.323001	0.998319
454.696632	0.997671
455.070202	0.998066
455.443713	0.998713
455.817164	0.997529
456.190556	0.997583
456.563888	0.999195
456.937160	0.997827
457.310373	0.997840
457.683526	0.998693
458.056619	0.998761
458.429653	0.998080
458.802628	0.997724
459.175542	0.998157
459.548398	0.998489
459.921194	0.998224
460.293930	0.999355
460.666607	0.998410
461.039224	0.998201
461.411782	0.998552
461.784280	0.997535
462.156719	0.998557
462.529099	0.998252
462.901419	0.998979
463.273680	0.997850
463.645882	0.997602
464.018024	0.998142
464.390106	0.998482
464.762130	0.998530
465.134094	0.998242
465.505999	0.998360
465.877845	0.998515
466.249631	0.997251
466.621358	0.996809
466.993026	0.997812
467.364634	0.997335
467.736184	0.997914
468.107674	0.998095
468.479105	0.998153
468.850477	0.998223
469.221790	0.998221
469.593043	0.997471
469.964238	0.997778
470.335373	0.997620
470.706449	0.997481
471.077467	0.997425
471.448425	0.998505
471.819324	0.998188
472.190164	0.997136
472.560945	0.997669
472.931667	0.997694
473.302330	0.998337
473.672934	0.997870
474.043479	0.997371
474.413965	0.998124
474.784393	0.997378
475.154761	0.997577
475.525070	0.997986
475.895321	0.998129
476.265513	0.997948
476.635645	0.997650
477.005719	0.997915
477.375734	0.997496
477.745691	0.997122
478.115588	0.997678
478.485427	0.997749
478.855207	0.997561
479.224928	0.997072
479.594591	0.998015
479.964194	0.997344
480.333739	0.997623
480.703226	0.996491
481.072653	0.996776
481.442022	0.997800
481.811333	0.997846
482.180584	0.997863
482.549777	0.997676
482.918912	0.998210
483.287988	0.997803
483.657005	0.997281
484.025964	0.997446
484.394864	0.997240
484.763706	0.997391
485.132489	0.997736
485.501213	0.997907
485.869879	0.997522
486.238487	0.996849
486.607036	0.998700
486.975527	0.998116
487.343959	0.997302
487.712333	0.997905
488.080648	0.997176
488.448905	0.997568
488.817104	0.997580
489.185244	0.997302
489.553326	0.997855
489.921350	0.997844
490.289315	0.997493
490.657222	0.997189
491.025070	0.997726
491.392861	0.997918
491.760593	0.997576
492.128267	0.997453
492.495883	0.997280
492.863440	0.997288
493.230939	0.997812
493.598380	0.998357
493.965763	0.997635
494.333088	0.997083
494.700354	0.997297
495.067563	0.996799
495.434713	0.998037
495.801805	0.998243
496.168839	0.998273
496.535815	0.997501
496.902733	0.997416
497.269593	0.997423
497.636395	0.997205
498.003139	0.997286
498.369825	0.998058
498.736453	0.997200
499.103023	0.998034
499.469535	0.998221
499.835989	0.997641
500.202385	0.997638
500.568723	0.997670
500.935003	0.997414
501.301226	0.997872
501.667390	0.997065
502.033497	0.997899
502.399546	0.997018
502.765537	0.997656
503.131470	0.998181
503.497345	0.997396
503.863163	0.997473
504.228923	0.997289
504.594625	0.997211
504.960269	0.997670
505.325856	0.998416
505.691385	0.997585
506.056856	0.997830
506.422270	0.998394
506.787625	0.997839
507.152924	0.997607
507.518164	0.997608
507.883347	0.997239
508.248472	0.998154
508.613540	0.997535
508.978550	0.997827
509.343503	0.997500
509.708398	0.998163
510.073236	0.998190
510.438016	0.997424
510.802738	0.997008
511.167403	0.997330
511.532010	0.997585
511.896561	0.997890
512.261053	0.997423
512.625488	0.997756
512.989866	0.997432
513.354186	0.997317
513.718449	0.998312
514.082655	0.997409
514.446803	0.997406
514.810894	0.997769
515.174927	0.998050
515.538904	0.997924
515.902822	0.997996
516.266684	0.998543
516.630488	0.997463
516.994235	0.998067
517.357925	0.998292
517.721558	0.997780
518.085133	0.997859
518.448651	0.997673
518.812112	0.998363
519.175516	0.997880
519.538863	0.997675
519.902152	0.998037
520.265385	0.998042
520.628560	0.997846
520.991678	0.998129
521.354739	0.997828
521.717743	0.998013
522.080690	0.996947
522.443580	0.997619
522.806413	0.997324
523.169189	0.997768
523.531908	0.996789
523.894569	0.997721
524.257174	0.998348
524.619722	0.997850
524.982213	0.997457
525.344647	0.997398
525.707025	0.997678
526.069345	0.997232
526.431608	0.997596
526.793815	0.998150
527.155964	0.997429
527.518057	0.998411
527.880093	0.997761
528.242072	0.997916
528.603995	0.997889
528.965860	0.998154
529.327669	0.998963
529.689421	0.997197
530.051117	0.998438
530.412755	0.998536
530.774337	0.997393
531.135862	0.998463
531.497331	0.997402
531.858743	0.998375
532.220098	0.997922
532.581396	0.998161
532.942638	0.998359
533.303824	0.998530
533.664953	0.997293
534.026025	0.998451
534.387040	0.998383
534.747999	0.997503
535.108902	0.998117
535.469748	0.998590
535.830537	0.998011
536.191270	0.998024
536.551947	0.997247
536.912567	0.998186
537.273131	0.998310
537.633638	0.997663
537.994089	0.997949
538.354483	0.997835
538.714821	0.998334
539.075103	0.997885
539.435328	0.998527
539.795497	0.998499
540.155609	0.997770
540.515665	0.998541
540.875665	0.997489
541.235609	0.998243
541.595496	0.997591
541.955328	0.998035
542.315102	0.997874
542.674821	0.998931
543.034483	0.998385
543.394090	0.997528
543.753640	0.998298
544.113134	0.997979
544.472571	0.998558
544.831953	0.998934
545.191278	0.998066
545.550548	0.998013
545.909761	0.997234
546.268918	0.998451
546.628019	0.998711
546.987064	0.997718
547.346053	0.997263
547.704986	0.996899
548.063863	0.997788
548.422684	0.997859
548.781449	0.998067
549.140158	0.998518
549.498811	0.997937
549.857408	0.997246
550.215949	0.997355
550.574434	0.997897
550.932864	0.998131
551.291237	0.998058
551.649555	0.998573
552.007817	0.998042
552.366022	0.998216
552.724173	0.998789
553.082267	0.997639
553.440305	0.997816
553.798288	0.997321
554.156215	0.997444
554.514086	0.998287
554.871902	0.998394
555.229661	0.997533
555.587365	0.998122
555.945014	0.998294
556.302606	0.997754
556.660143	0.998242
557.017625	0.998573
557.375050	0.997534
557.732421	0.997869
558.089735	0.997506
558.446994	0.997700
558.804197	0.998206
559.161345	0.997785
559.518437	0.997863
559.875474	0.998705
560.232455	0.998561
560.589381	0.998221
560.946251	0.997865
561.303065	0.998667
561.659825	0.997669
562.016528	0.998765
562.373177	0.998259
562.729770	0.997836
563.086307	0.997530
563.442789	0.997747
563.799216	0.997375
564.155587	0.997848
564.511904	0.998620
564.868164	0.997482
565.224370	0.997486
565.580520	0.997495
565.936615	0.997863
566.292654	0.997826
566.648638	0.998412
567.004567	0.998043
567.360441	0.997906
567.716260	0.998033
568.072023	0.997790
568.427732	0.998643
568.783385	0.997884
569.138982	0.998189
569.494525	0.998030
569.850013	0.998732
570.205445	0.998396
570.560823	0.998181
570.916145	0.997953
571.271412	0.998106
571.626625	0.998065
571.981782	0.998193
572.336884	0.998785
572.691931	0.998144
573.046923	0.998021
573.401860	0.997842
573.756743	0.998043
574.111570	0.998078
574.466342	0.998781
574.821059	0.998464
575.175722	0.998152
575.530330	0.998611
575.884882	0.998351
576.239380	0.998586
576.593823	0.998719
576.948211	0.998344
577.302544	0.998391
577.656823	0.999245
578.011047	0.997493
578.365216	0.998754
578.719330	0.998141
579.073389	0.997442
579.427394	0.997471
579.781344	0.998644
580.135239	0.997433
580.489080	0.998205
580.842866	0.998696
581.196597	0.997879
581.550273	0.997922
581.903895	0.998957
582.257463	0.997682
582.610975	0.997715
582.964434	0.998607
583.317837	0.998620
583.671186	0.997954
584.024481	0.997570
584.377721	0.997394
584.730906	0.998169
585.084037	0.999210
585.437113	0.999249
585.790135	0.998168
586.143103	0.998008
586.496016	0.997368
586.848874	0.998316
587.201679	0.998131
587.554428	0.997958
587.907124	0.998634
588.259765	0.998839
588.612352	0.998605
588.964884	0.998313
589.317362	0.999085
589.669786	0.998663
590.022155	0.997833
590.374470	0.998198
590.726731	0.998196
591.078937	0.998027
591.431090	0.998951
591.783188	0.997811
592.135232	0.998564
592.487222	0.997975
592.839157	0.997905
593.191038	0.998401
593.542866	0.998200
593.894639	0.997679
594.246358	0.998062
594.598022	0.998455
594.949633	0.998473
595.301190	0.998720
595.652692	0.997957
596.004141	0.998273
596.355535	0.998098
596.706876	0.998455
597.058162	0.998184
597.409395	0.998742
597.760573	0.998129
598.111698	0.998408
598.462768	0.997275
598.813785	0.997546
599.164748	0.998163
599.515657	0.997664
599.866511	0.998406
600.217312	0.998839
600.568060	0.998200
600.918753	0.997978
601.269392	0.998656
601.619978	0.998079
601.970510	0.998913
602.320988	0.998663
602.671412	0.997801
603.021783	0.998510
603.372100	0.998403
603.722363	0.998874
604.072572	0.998292
604.422728	0.997274
604.772830	0.998373
605.122878	0.998384
605.472872	0.999027
605.822813	0.998120
606.172701	0.998094
606.522534	0.998710
606.872314	0.998849
607.222041	0.998235
607.571714	0.998298
607.921333	0.998281
608.270899	0.997982
608.620411	0.998783
608.969870	0.999509
609.319276	0.998139
609.668627	0.998667
610.017926	0.998444
610.367171	0.998832
610.716362	0.998842
611.065500	0.997945
611.414585	0.998540
611.763616	0.997581
612.112594	0.998570
612.461518	0.998030
612.810389	0.998223
613.159207	0.998473
613.507971	0.997566
613.856682	0.998752
614.205340	0.997247
614.553945	0.998063
614.902496	0.998124
615.250994	0.998281
615.599439	0.998286
615.947830	0.997399
616.296169	0.997969
616.644454	0.998091
616.992686	0.998423
617.340864	0.998710
617.688990	0.998284
618.037063	0.998062
618.385082	0.998104
618.733048	0.997479
619.080961	0.998362
619.428821	0.998902
619.776628	0.998360
620.124382	0.998926
620.472083	0.998320
620.819731	0.999380
621.167326	0.998922
621.514868	0.998472
621.862357	0.998118
622.209793	0.998343
622.557176	0.998099
622.904506	0.997598
623.251783	0.998874
623.599007	0.998249
623.946179	0.998107
624.293297	0.998604
624.640363	0.998994
624.987376	0.997716
625.334336	0.998474
625.681243	0.998701
626.028097	0.998289
626.374899	0.998022
626.721647	0.999143
627.068343	0.998345
627.414987	0.998480
627.761577	0.997764
628.108115	0.997934
628.454600	0.998228
628.801032	0.998894
629.147412	0.997891
629.493739	0.999246
629.840014	0.998477
630.186236	0.998121
630.532405	0.998092
630.878521	0.997902
631.224585	0.998090
631.570597	0.998686
631.916556	0.999078
632.262462	0.997857
632.608316	0.999082
632.954117	0.997878
633.299866	0.998237
633.645562	0.998118
633.991206	0.998069
634.336797	0.998614
634.682336	0.999223
635.027823	0.998290
635.373257	0.998716
635.718639	0.998854
636.063968	0.998268
636.409245	0.997787
636.754470	0.998116
637.099642	0.998645
637.444762	0.998521
637.789829	0.997758
638.134845	0.998643
638.479808	0.998541
638.824719	0.997834
639.169577	0.997862
639.514383	0.997998
639.859137	0.998882
640.203839	0.998577
640.548489	0.998493
640.893086	0.997843
641.237632	0.998014
641.582125	0.998424
641.926566	0.998831
642.270955	0.999120
642.615292	0.997834
642.959576	0.999048
643.303809	0.999087
643.647990	0.998555
643.992118	0.998557
644.336195	0.997520
644.680219	0.997749
645.024192	0.998210
645.368112	0.997890
645.711981	0.998087
646.055797	0.998410
646.399562	0.997162
646.743274	0.999190
647.086935	0.998185
647.430544	0.998439
647.774101	0.997585
648.117606	0.999137
648.461059	0.999015
648.804460	0.998244
649.147810	0.997654
649.491108	0.997752
649.834354	0.998160
650.177548	0.998533
650.520690	0.998478
650.863781	0.998308
651.206820	0.998109
651.549807	0.997851
651.892742	0.998824
652.235626	0.998670
652.578458	0.998683
652.921238	0.998961
653.263967	0.999135
653.606644	0.998068
653.949269	0.998938
654.291843	0.997886
654.634365	0.997889
654.976836	0.998523
655.319255	0.999295
655.661622	0.999289
656.003938	0.998342
656.346203	0.997316
656.688416	0.998857
657.030577	0.998107
657.372687	0.998308
657.714746	0.998287
658.056753	0.998464
658.398708	0.997330
658.740612	0.998447
659.082465	0.998190
659.424266	0.997883
659.766016	0.997372
660.107715	0.998870
660.449362	0.998383
660.790958	0.997951
661.132503	0.998770
661.473996	0.997536
661.815438	0.998334
662.156829	0.998966
662.498168	0.998566
662.839456	0.997653
663.180693	0.998103
663.521879	0.998372
663.863013	0.998451
664.204097	0.998509
664.545129	0.998472
664.886110	0.998335
665.227040	0.997923
665.567918	0.997824
665.908746	0.997607
666.249522	0.998200
666.590248	0.998148
666.930922	0.998546
667.271545	0.998479
667.612118	0.998448
667.952639	0.998326
668.293109	0.998050
668.633528	0.997731
668.973896	0.998773
669.314213	0.997361
669.654480	0.997757
669.994695	0.997315
670.334859	0.998657
670.674973	0.997671
671.015035	0.998146
671.355047	0.998416
671.695008	0.997848
672.034918	0.997879
672.374777	0.998608
672.714585	0.998813
673.054342	0.998398
673.394049	0.997564
673.733705	0.998488
674.073310	0.998084
674.412864	0.998141
674.752368	0.997846
675.091820	0.998236
675.431223	0.998614
675.770574	0.997747
676.109875	0.997900
676.449125	0.997333
676.788324	0.998129
677.127473	0.998902
677.466571	0.997479
677.805619	0.998073
678.144616	0.998183
678.483562	0.998554
678.822458	0.998039
679.161303	0.997333
679.500098	0.998608
679.838842	0.998626
680.177535	0.998168
680.516179	0.996177
680.854771	0.997409
681.193314	0.997941
681.531805	0.997951
681.870247	0.997472
682.208638	0.997573
682.546978	0.996886
682.885268	0.997759
683.223508	0.997485
683.561697	0.997867
683.899836	0.998187
684.237925	0.998098
684.575963	0.998258
684.913951	0.998043
685.251889	0.997784
685.589776	0.997802
685.927614	0.997765
686.265401	0.997222
686.603137	0.997664
686.940824	0.997267
687.278460	0.998972
687.616046	0.997690
687.953582	0.997863
688.291068	0.998352
688.628504	0.997575
688.965889	0.997188
689.303224	0.997482
689.640510	0.998064
689.977745	0.997410
690.314930	0.998192
690.652065	0.997745
690.989150	0.997301
691.326185	0.998441
691.663170	0.997815
692.000105	0.998398
692.336990	0.997492
692.673825	0.997447
693.010610	0.997922
693.347345	0.997740
693.684030	0.997525
694.020665	0.998212
694.357251	0.997961
694.693786	0.998557
695.030272	0.996302
695.366707	0.997735
695.703093	0.997498
696.039429	0.997283
696.375716	0.998006
696.711952	0.997678
697.048139	0.998521
697.384276	0.997531
697.720363	0.997526
698.056400	0.996880
698.392388	0.996467
698.728326	0.997587
699.064214	0.998652
699.400053	0.997559
699.735842	0.998362
700.071581	0.997723
700.407270	0.997709
700.742910	0.998484
701.078501	0.996981
701.414042	0.998437
701.749533	0.996512
702.084974	0.998081
702.420366	0.998348
702.755709	0.996479
703.091002	0.998875
703.426246	0.998239
703.761440	0.997866
704.096584	0.996246
704.431679	0.997163
704.766725	0.997117
705.101721	0.998321
705.436668	0.997756
705.771565	0.996751
706.106413	0.996800
706.441212	0.996721
706.775961	0.998031
707.110661	0.997663
707.445311	0.997630
707.779913	0.998309
708.114465	0.999313
708.448967	0.998156
708.783421	0.999081
709.117825	0.998087
709.452180	0.999104
709.786485	0.998373
710.120742	0.997212
710.454949	0.997470
710.789107	0.998082
711.123216	0.996819
711.457275	0.996864
711.791286	0.997622
712.125247	0.998795
712.459159	0.997474
712.793023	0.997000
713.126837	0.997944
713.460602	0.997678
713.794318	0.997461
714.127985	0.996254
714.461602	0.998327
714.795171	0.996803
715.128691	0.997121
715.462162	0.998136
715.795584	0.997331
716.128957	0.996748
716.462281	0.997817
716.795556	0.997773
717.128782	0.998865
717.461960	0.997508
717.795088	0.996409
718.128167	0.998268
718.461198	0.997044
718.794180	0.998209
719.127113	0.997783
719.459997	0.997834
719.792833	0.996939
720.125619	0.997678
720.458357	0.997658
720.791046	0.998341
721.123686	0.997296
721.456278	0.997778
721.788821	0.996672
722.121315	0.998041
722.453761	0.997409
722.786158	0.997545
723.118506	0.997172
723.450805	0.996407
723.783056	0.997849
724.115259	0.995875
724.447412	0.998070
724.779518	0.997845
725.111574	0.997257
725.443582	0.997475
725.775542	0.998179
726.107453	0.998881
726.439315	0.998044
726.771129	0.998304
727.102895	0.998662
727.434612	0.997427
727.766281	0.996955
728.097901	0.997375
728.429473	0.998041
728.760996	0.995990
729.092471	0.997018
729.423897	0.997985
729.755276	0.997720
730.086606	0.997563
730.417887	0.998585
730.749120	0.998308
731.080305	0.998025
731.411442	0.997012
731.742530	0.996485
732.073570	0.997190
732.404562	0.997797
732.735506	0.997558
733.066401	0.997635
733.397249	0.997581
733.728048	0.996886
734.058798	0.998063
734.389501	0.998899
734.720156	0.997370
735.050762	0.998514
735.381320	0.997988
735.711831	0.996281
736.042293	0.997159
736.372707	0.998113
736.703073	0.996149
737.033391	0.997300
737.363661	0.998456
737.693883	0.997661
738.024056	0.996691
738.354182	0.998397
738.684260	0.996990
739.014290	0.997490
739.344272	0.997863
739.674207	0.998130
740.004093	0.997862
740.333931	0.997653
740.663722	0.996976
740.993464	0.998213
741.323159	0.997997
741.652806	0.997714
741.982405	0.997570
742.311956	0.997845
742.641460	0.997059
742.970915	0.997876
743.300323	0.996075
743.629683	0.996892
743.958996	0.998415
744.288260	0.996619
744.617477	0.997283
744.946647	0.997332
745.275768	0.997424
745.604842	0.997496
745.933869	0.997542
746.262847	0.997667
746.591778	0.997055
746.920662	0.997872
747.249498	0.998113
747.578286	0.998747
747.907027	0.998051
748.235720	0.997475
748.564365	0.997997
748.892963	0.997298
749.221514	0.997897
749.550017	0.997655
749.878473	0.997896
750.206881	0.998926
750.535242	0.997924
750.863555	0.997106
751.191821	0.998882
751.520039	0.997942
751.848210	0.996203
752.176334	0.996879
752.504411	0.997362
752.832440	0.996767
753.160421	0.997663
753.488356	0.996627
753.816243	0.997715
754.144082	0.997300
754.471875	0.997135
754.799620	0.998339
755.127318	0.997196
755.454969	0.998085
755.782572	0.999322
756.110129	0.997112
756.437638	0.999058
756.765100	0.998824
757.092515	0.997731
757.419882	0.998603
757.747203	0.997327
758.074477	0.998199
758.401703	0.998703
758.728882	0.997981
759.056014	0.997954
759.383099	0.997878
759.710138	0.998261
760.037129	0.998538
760.364073	0.998169
760.690970	0.997552
761.017820	0.997717
761.344623	0.997878
761.671379	0.998024
761.998088	0.998346
762.324751	0.997372
762.651366	0.996567
762.977935	0.996946
763.304456	0.997908
763.630931	0.995136
763.957359	0.995816
764.283740	0.995685
764.610074	0.996463
764.936362	0.997349
765.262602	0.997535
765.588796	0.997588
765.914943	0.997061
766.241044	0.997302
766.567097	0.996956
766.893104	0.998053
767.219064	0.996031
767.544978	0.997954
767.870845	0.998022
768.196665	0.997911
768.522438	0.998820
768.848165	0.998287
769.173846	0.998370
769.499479	0.999159
769.825066	0.998829
770.150607	0.999041
770.476101	0.998419
770.801548	0.998278
771.126949	0.998289
771.452303	0.998215
771.777611	0.998727
772.102872	0.998619
772.428087	0.998165
772.753256	0.998273
773.078378	0.998437
773.403453	0.997793
773.728482	0.998681
774.053465	0.997431
774.378401	0.998806
774.703291	0.998563
775.028135	0.999798
775.352932	0.997290
775.677683	0.998731
776.002388	0.998333
776.327046	0.997672
776.651658	0.999846
776.976224	0.998055
777.300743	0.997784
777.625216	0.998336
777.949643	0.998567
778.274024	0.997956
778.598359	0.998849
778.922647	0.998818
779.246889	0.999077
779.571086	0.998785
779.895236	0.998944
780.219339	0.999089
780.543397	0.997320
780.867409	0.999317
781.191374	0.998544
781.515294	0.999694
781.839167	0.998488
782.162995	0.997782
782.486776	0.997793
782.810511	0.998316
783.134201	0.999022
783.457844	0.998871
783.781441	0.998260
784.104993	0.998301
784.428498	0.998484
784.751958	0.999344
785.075372	0.999687
785.398739	0.998196
785.722061	0.997165
786.045337	0.999676
786.368568	0.997786
786.691752	0.998361
787.014891	0.998297
787.337983	0.997481
787.661030	0.998237
787.984031	0.998211
788.306987	0.998608
788.629897	0.997958
788.952760	0.998379
789.275579	0.997908
789.598351	0.999178
789.921078	0.999153
790.243759	0.997966
790.566395	0.997647
790.888984	0.998450
791.211529	0.998586
791.534027	0.997694
791.856480	0.998602
792.178888	0.998583
792.501249	0.998717
792.823566	0.999101
793.145836	0.999254
793.468062	0.997486
793.790241	0.998792
794.112375	0.998249
794.434464	0.997846
794.756507	0.998398
795.078505	0.998801
795.400457	0.999755
795.722364	0.999274
796.044226	0.998692
796.366042	0.997646
796.687812	0.996864
797.009538	0.998071
797.331218	0.999476
797.652852	0.998870
797.974442	0.997852
798.295986	0.998958
798.617484	0.998207
798.938938	0.998066
799.260346	0.997468
799.581709	0.998216
799.903026	0.998742
800.224299	0.997557
800.545526	0.998449
800.866708	0.998002
801.187845	0.999365
801.508936	0.998142
801.829983	0.997851
802.150984	0.997778
802.471940	0.998615
802.792851	0.997627
803.113717	0.999407
803.434538	0.999599
803.755314	0.999389
804.076045	0.997868
804.396731	0.997943
804.717372	0.997758
805.037967	0.998557
805.358518	0.999815
805.679024	0.999440
805.999485	0.999295
806.319901	0.998134
806.640272	0.999635
806.960598	0.998971
807.280879	0.998688
807.601115	0.999100
807.921306	0.999209
808.241453	0.997927
808.561554	0.998592
808.881611	0.998537
809.201623	0.998333
809.521590	0.999024
809.841513	0.999370
810.161390	0.997160
810.481223	0.996660
810.801011	0.999196
811.120755	0.999855
811.440453	0.997562
811.760107	0.998650
812.079716	0.998333
812.399281	0.998483
812.718801	0.998016
813.038276	0.998148
813.357707	0.998426
813.677093	0.999758
813.996434	0.998106
814.315731	0.999543
814.634983	0.998587
814.954191	0.999936
815.273354	0.998817
815.592473	0.997877
815.911547	0.999006
816.230577	0.998559
816.549562	0.998792
816.868502	0.997976
817.187399	0.998794
817.506250	0.998446
817.825058	0.997398
818.143821	0.998631
818.462539	0.998645
818.781213	0.999245
819.099843	0.998922
819.418429	0.998043
819.736970	0.998699
820.055466	0.996907
820.373919	0.997110
820.692327	0.996281
821.010691	0.996675
821.329011	0.994628
821.647286	0.993059
821.965517	0.992581
822.283704	0.991970
822.601847	0.991416
822.919945	0.991254
823.237999	0.991922
823.556010	0.992562
823.873976	0.993437
824.191897	0.994434
824.509775	0.995053
824.827609	0.994332
825.145398	0.995123
825.463144	0.994838
825.780845	0.994124
826.098502	0.995351
826.416116	0.995417
826.733685	0.994643
827.051210	0.993202
827.368692	0.993885
827.686129	0.993846
828.003522	0.996168
828.320872	0.995517
828.638177	0.996445
828.955439	0.997791
829.272656	0.997015
829.589830	0.996805
829.906960	0.997455
830.224046	0.997624
830.541088	0.997265
830.858086	0.997995
831.175041	1.000078
831.491952	0.997670
831.808819	0.998183
832.125642	0.998169
832.442421	0.998576
832.759157	0.998424
833.075849	0.997324
833.392497	0.997045
833.709101	0.995908
834.025662	0.996455
834.342179	0.996172
834.658653	0.997210
834.975083	0.998346
835.291469	0.997653
835.607811	0.997037
835.924110	0.997325
836.240366	0.999591
836.556578	0.998183
836.872746	0.998111
837.188871	0.998394
837.504952	0.998063
837.820990	0.999491
838.136984	0.998944
838.452935	0.998476
838.768842	0.998520
839.084706	0.999328
839.400526	0.998640
839.716303	0.997177
840.032037	0.997418
840.347727	0.997252
840.663373	0.997955
840.978977	0.997507
841.294537	0.999261
841.610054	0.998910
841.925527	0.999354
842.240957	0.998938
842.556344	0.998379
842.871687	0.998841
843.186987	0.998014
843.502244	0.998564
843.817458	0.998194
844.132629	0.999088
844.447756	0.999043
844.762840	0.999055
845.077881	0.999992
845.392879	0.997357
845.707833	0.999367
846.022745	1.000218
846.337613	0.999770
846.652438	0.999301
846.967221	0.998513
847.281960	0.998844
847.596656	0.999506
847.911309	0.999420
848.225919	0.997058
848.540485	0.999469
848.855009	0.999349
849.169490	0.998698
849.483928	0.998694
849.798323	0.998177
850.112675	0.999604
850.426984	0.999950
850.741251	0.999232
851.055474	0.999678
851.369654	0.999415
851.683792	0.998511
851.997887	0.998683
852.311938	0.999765
852.625947	0.998173
852.939914	0.997420
853.253837	0.999472
853.567718	1.000064
853.881555	0.998708
854.195350	0.999645
854.509103	1.000151
854.822812	0.999607
855.136479	0.999440
855.450103	0.999149
855.763685	0.999422
856.077224	0.999455
856.390720	0.999204
856.704173	0.999389
857.017584	1.000192
857.330953	0.998267
857.644278	0.998217
857.957561	0.999231
858.270802	0.998924
858.584000	0.998830
858.897155	0.998641
859.210268	0.998335
859.523339	1.000042
859.836367	1.000152
860.149352	0.997877
860.462295	0.999351
860.775195	0.999266
861.088054	0.997988
861.400869	0.999524
861.713642	0.998883
862.026373	1.000737
862.339062	0.999739
862.651708	0.998961
862.964312	0.999945
863.276873	0.998686
863.589392	0.999932
863.901869	0.998534
864.214303	0.999070
864.526696	0.999986
864.839045	0.999097
865.151353	0.998596
865.463619	0.998657
865.775842	0.998769
866.088023	0.999336
866.400162	0.999563
866.712258	1.000758
867.024313	0.999570
867.336325	0.999398
867.648296	0.999441
867.960224	0.999984
868.272110	0.999608
868.583954	0.999056
868.895755	1.000679
869.207515	0.999073
869.519233	0.999642
869.830909	0.998382
870.142542	0.998265
870.454134	0.999067
870.765684	0.998249
871.077191	0.999568
871.388657	1.000061
871.700081	0.998990
872.011463	0.999962
872.322803	0.999507
872.634101	0.999339
872.945357	0.998096
873.256571	0.999035
873.567744	0.999045
873.878874	0.997844
874.189963	0.998816
874.501010	1.000415
874.812015	0.999054
875.122979	1.000026
875.433900	0.998620
875.744780	0.999498
876.055618	0.998111
876.366415	0.998895
876.677169	0.997503
876.987882	0.999186
877.298554	0.999613
877.609183	0.997927
877.919771	0.999094
878.230317	0.999090
878.540822	0.998016
878.851285	0.998180
879.161707	0.997496
879.472087	0.999696
879.782425	0.997571
880.092722	0.997543
880.402977	0.995429
880.713191	0.994889
881.023363	0.992903
881.333494	0.991931
881.643583	0.993237
881.953631	0.992589
882.263637	0.992309
882.573602	0.992555
882.883526	0.993393
883.193408	0.994859
883.503248	0.993301
883.813048	0.995011
884.122806	0.995499
884.432522	0.996062
884.742197	0.996804
885.051831	0.996719
885.361424	0.996963
885.670975	0.998543
885.980485	0.998140
886.289954	0.997621
886.599382	0.997368
886.908768	0.997784
887.218113	0.997930
887.527417	0.998342
887.836680	0.998574
888.145901	0.999434
888.455082	0.999953
888.764221	0.999336
889.073319	0.998629
889.382376	0.999411
889.691392	0.998137
890.000366	0.998972
890.309300	0.999174
890.618193	0.998945
890.927044	0.998865
891.235855	0.997671
891.544625	0.998774
891.853353	0.998391
892.162041	0.998145
892.470687	0.998625
892.779293	0.997936
893.087858	0.996311
893.396381	0.997987
893.704864	0.997376
894.013306	0.996978
894.321707	0.995577
894.630068	0.996069
894.938387	0.995978
895.246665	0.996056
895.554903	0.996354
895.863100	0.997319
896.171256	0.997056
896.479371	0.997706
896.787446	0.997397
897.095480	0.998017
897.403473	0.998046
897.711425	0.997859
898.019336	0.998098
898.327207	0.998388
898.635038	0.998041
898.942827	0.999583
899.250576	0.997727
899.558284	0.999956
899.865952	0.997603
900.173579	0.998594
900.481165	0.996686
900.788711	0.998319
901.096216	0.998506
901.403681	0.998614
901.711105	0.999303
902.018489	0.998019
902.325832	0.998689
902.633135	0.998632
902.940397	0.998428
903.247619	0.997585
903.554800	0.997557
903.861941	0.996542
904.169041	0.996609
904.476101	0.995025
904.783121	0.994867
905.090100	0.995971
905.397039	0.996473
905.703938	0.996692
906.010796	0.997113
906.317614	0.997184
906.624391	0.997253
906.931129	0.998635
907.237826	0.998848
907.544483	0.997903
907.851099	0.997535
908.157675	0.998553
908.464211	0.999808
908.770707	0.998096
909.077163	0.999019
909.383578	0.999674
909.689954	0.998708
909.996289	1.000146
910.302584	0.999223
910.608839	0.999471
910.915054	0.997988
911.221229	1.000549
911.527363	0.999768
911.833458	1.000171
912.139513	0.999973
912.445527	0.999456
912.751502	0.999121
913.057436	0.997955
913.363331	0.999918
913.669186	1.000188
913.975000	0.998738
914.280775	0.998361
914.586510	0.998766
914.892205	0.998046
915.197859	0.996816
915.503475	0.996241
915.809050	0.996272
916.114585	0.994371
916.420081	0.995477
916.725536	0.996083
917.030952	0.995582
917.336328	0.995711
917.641665	0.996483
917.946961	0.996544
918.252218	0.997046
918.557435	0.996100
918.862612	0.996739
919.167750	0.998712
919.472848	0.998446
919.777906	0.999817
920.082925	0.999126
920.387904	0.998218
920.692843	0.999040
920.997743	0.997369
921.302603	0.998623
921.607423	0.997234
921.912204	0.999167
922.216946	0.999055
922.521647	0.999097
922.826310	0.998790
923.130932	1.000318
923.435516	1.000287
923.740059	0.998892
924.044564	0.999024
924.349028	0.998762
924.653454	0.999907
924.957840	0.998600
925.262186	1.000196
925.566493	0.999420
925.870761	0.998550
926.174989	0.998661
926.479178	0.999167
926.783328	1.000081
927.087438	1.000231
927.391509	0.997997
927.695541	1.000581
927.999533	1.000722
928.303486	0.999033
928.607400	0.999617
928.911275	1.000131
929.215110	0.999814
929.518906	0.999899
929.822663	1.000319
930.126381	1.000795
930.430060	0.999492
930.733699	0.999171
931.037299	1.000154
931.340861	1.000205
931.644383	0.998502
931.947866	0.999346
932.251309	1.000427
932.554714	0.999423
932.858080	1.000409
933.161407	0.998109
933.464694	1.000105
933.767943	1.000112
934.071153	0.999618
934.374323	1.000743
934.677455	0.998516
934.980548	0.999026
935.283602	0.998960
935.586617	0.997846
935.889593	1.000720
936.192530	1.000329
936.495428	0.999641
936.798287	0.999023
937.101108	0.998971
937.403890	0.999871
937.706632	0.999942
938.009336	1.000194
938.312002	0.998372
938.614628	0.998654
938.917216	0.998518
939.219765	0.998984
939.522275	1.000524
939.824747	0.999145
940.127179	0.998860
940.429573	0.999698
940.731929	0.999651
941.034246	0.998437
941.336524	0.998200
941.638763	0.999551
941.940964	0.998717
942.243126	0.998511
942.545250	0.999420
942.847335	0.999961
943.149381	0.999224
943.451389	0.997745
943.753359	0.999293
944.055290	1.000575
944.357182	1.000270
944.659036	0.999757
944.960851	0.998798
945.262628	0.999870
945.564367	0.999507
945.866067	0.999548
946.167729	0.999445
946.469352	0.999376
946.770937	0.997316
947.072484	0.999535
947.373992	0.999219
947.675462	0.999648
947.976893	0.999027
948.278286	1.000828
948.579641	0.999750
948.880958	0.999329
949.182236	0.999390
949.483476	1.000297
949.784678	0.999901
950.085841	0.999435
950.386967	0.998655
950.688054	0.999867
950.989103	0.996405
951.290114	0.998997
951.591087	0.999464
951.892021	0.998708
952.192917	0.999401
952.493776	0.999449
952.794596	0.999546
953.095378	0.999291
953.396122	0.999944
953.696828	1.000746
953.997496	1.001971
954.298126	0.999555
954.598718	0.998656
954.899272	1.000288
955.199788	0.999398
955.500266	1.000270
955.800706	0.998493
956.101108	0.999236
956.401472	1.000928
956.701798	0.999035
957.002087	0.999004
957.302337	0.998169
957.602550	0.999324
957.902724	0.999497
958.202861	0.999319
958.502960	0.999378
958.803022	1.000883
959.103045	1.000050
959.403031	1.000452
959.702979	1.000493
960.002889	0.999235
960.302762	1.000176
960.602596	0.999954
960.902393	0.999972
961.202153	1.000896
961.501875	0.999443
961.801559	1.000027
962.101205	0.999779
962.400814	1.000606
962.700385	1.000070
962.999918	0.998704
963.299414	0.999287
963.598873	1.000863
963.898293	0.999496
964.197677	0.999458
964.497022	0.999951
964.796331	1.000187
965.095601	1.001221
965.394835	0.999537
965.694030	1.000323
965.993189	0.998627
966.292309	1.000208
966.591393	0.999239
966.890439	1.000247
967.189447	0.999262
967.488419	0.999739
967.787353	0.999345
968.086249	0.998759
968.385108	0.998972
968.683930	1.000566
968.982714	1.000671
969.281462	0.999421
969.580172	0.998621
969.878844	1.000354
970.177480	1.000120
970.476078	1.000495
970.774639	1.000956
971.073162	0.999662
971.371649	0.999584
971.670098	0.997855
971.968510	0.999965
972.266885	1.000025
972.565223	1.000366
972.863524	0.999163
973.161788	0.998835
973.460014	1.001208
973.758204	0.998785
974.056356	0.999345
974.354471	0.999425
974.652550	1.000240
974.950591	0.999383
975.248595	0.998442
975.546563	1.001208
975.844493	0.999754
976.142386	0.998425
976.440243	1.000518
976.738062	0.999682
977.035845	0.999142
977.333590	0.998614
977.631299	0.999061
977.928971	1.000078
978.226606	0.999372
978.524204	0.998909
978.821765	0.999041
979.119290	1.001159
979.416777	0.999875
979.714228	1.000003
980.011642	1.000302
980.309020	0.999830
980.606360	0.998468
980.903664	1.000495
981.200931	0.998310
981.498162	0.999089
981.795356	1.000694
982.092513	0.999297
982.389633	1.000636
982.686717	0.997867
982.983764	0.999651
983.280775	0.999422
983.577749	1.000017
983.874686	0.998463
984.171587	0.998738
984.468451	1.000183
984.765279	0.999659
985.062070	0.999863
985.358824	0.999356
985.655543	1.000271
985.952224	0.999017
986.248869	1.000043
986.545478	1.000659
986.842050	0.999078
987.138586	0.998853
987.435086	0.999489
987.731549	1.000468
988.027975	1.001222
988.324366	0.999506
988.620719	1.000776
988.917037	0.999530
989.213318	0.999988
989.509563	0.999683
989.805772	0.999562
990.101944	1.000414
990.398080	1.000221
990.694180	0.999692
990.990244	0.998761
991.286271	0.999402
991.582262	1.000787
991.878217	0.999652
992.174136	1.000523
992.470019	1.000586
992.765865	1.000652
993.061676	1.000629
993.357450	1.000115
993.653188	0.999884
993.948890	0.999907
994.244556	1.000028
994.540186	0.999490
994.835780	0.999786
995.131337	0.999876
995.426859	1.000115
995.722345	0.999611
996.017795	0.999580
996.313208	1.000437
996.608586	0.999543
996.903928	0.999272
997.199234	0.999586
997.494504	1.000437
997.789738	0.999606
998.084936	1.001346
998.380099	0.998368
998.675225	0.999988
998.970316	1.000078
999.265371	0.999324
999.560390	0.999163
999.855373	0.999748
1000.150320	1.000402
1000.445232	0.999217
1000.740108	1.000320
1001.034948	0.999480
1001.329752	1.001130
1001.624521	0.999796
1001.919254	0.999254
1002.213951	0.999886
1002.508613	0.999589
1002.803239	0.999516
1003.097829	0.999921
1003.392384	1.000767
1003.686903	1.000381
1003.981386	0.999196
1004.275834	1.001095
1004.570246	0.998899
1004.864623	1.000446
1005.158964	0.999593
1005.453270	0.999297
1005.747540	1.000768
1006.041775	0.999917
1006.335974	1.000276
1006.630138	0.999715
1006.924266	0.998076
1007.218359	0.999271
1007.512416	1.000834
1007.806438	0.999089
1008.100425	0.999969
1008.394376	1.000283
1008.688292	0.999070
1008.982172	0.999459
1009.276017	1.000025
1009.569827	1.001145
1009.863602	0.997886
1010.157341	0.999863
1010.451045	1.000559
1010.744714	1.001646
1011.038347	0.999771
1011.331945	0.998899
1011.625508	0.998894
1011.919036	0.999786
1012.212528	0.999350
1012.505986	0.999797
1012.799408	1.000451
1013.092795	0.999715
1013.386147	0.999332
1013.679464	1.001135
1013.972745	0.999666
1014.265992	0.999678
1014.559204	1.000251
1014.852380	1.000083
1015.145521	1.000784
1015.438628	1.000241
1015.731699	0.999290
1016.024736	1.000561
1016.317737	1.000065
1016.610703	0.999747
1016.903635	1.000166
1017.196531	0.998690
1017.489393	0.999367
1017.782219	0.999504
1018.075011	0.999646
1018.367768	0.999897
1018.660490	0.999530
1018.953177	0.999530
1019.245829	0.999530
