Dividing Wavelength (nm)	Counts (n)	Blue Motor Position (mm): 33.100000	Red Motor Position (mm): 0.000000	
326.493990	0.999526
326.888308	0.999526
327.282561	0.999526
327.676750	0.999804
328.070874	1.001195
328.464933	1.000820
328.858929	1.000246
329.252859	1.000981
329.646726	0.999620
330.040528	0.998829
330.434265	1.000476
330.827938	1.000102
331.221547	1.000155
331.615091	1.000067
332.008571	1.000742
332.401986	0.999602
332.795338	0.999306
333.188625	1.001262
333.581847	0.998991
333.975006	1.000208
334.368100	0.999657
334.761129	0.999174
335.154095	0.999117
335.546996	0.999002
335.939833	1.000206
336.332606	1.001031
336.725315	0.998783
337.117960	0.999397
337.510540	0.998897
337.903056	1.000382
338.295508	0.999622
338.687896	0.999864
339.080220	0.999417
339.472480	0.998446
339.864676	0.999177
340.256807	0.998723
340.648875	0.999275
341.040879	0.999104
341.432818	0.999595
341.824694	0.999124
342.216506	1.000188
342.608253	0.998979
342.999937	0.999034
343.391557	0.999153
343.783113	1.000446
344.174605	0.999478
344.566033	0.997615
344.957397	0.999803
345.348697	0.998698
345.739934	0.999193
346.131106	0.998296
346.522215	0.999107
346.913260	0.998694
347.304241	0.997577
347.695159	1.000106
348.086012	0.999430
348.476802	0.998781
348.867528	0.998536
349.258191	0.999631
349.648789	0.999064
350.039324	0.999112
350.429796	0.998705
350.820203	0.998825
351.210548	0.998405
351.600828	0.998178
351.991045	0.999551
352.381198	0.998434
352.771288	0.998692
353.161314	0.998420
353.551276	0.997947
353.941175	0.997282
354.331010	0.999066
354.720782	0.999428
355.110490	0.998622
355.500135	0.998798
355.889717	0.998036
356.279235	0.997860
356.668689	0.999586
357.058080	0.998950
357.447408	0.997879
357.836672	0.998438
358.225873	0.999065
358.615010	0.997624
359.004084	0.998187
359.393095	0.997812
359.782043	0.997922
360.170927	0.998906
360.559748	0.998013
360.948505	0.997189
361.337199	0.998319
361.725830	0.998088
362.114398	0.998294
362.502903	0.996920
362.891344	0.997408
363.279722	0.996974
363.668037	0.997868
364.056289	0.996884
364.444478	0.998648
364.832603	0.997910
365.220665	0.996711
365.608665	0.996424
365.996601	0.997625
366.384474	0.996872
366.772284	0.996419
367.160031	0.995452
367.547715	0.996562
367.935336	0.994228
368.322893	0.994600
368.710388	0.993110
369.097820	0.990043
369.485189	0.988822
369.872495	0.988116
370.259738	0.985870
370.646918	0.982234
371.034035	0.980752
371.421090	0.976831
371.808081	0.971650
372.195010	0.970217
372.581875	0.964587
372.968678	0.959621
373.355418	0.957375
373.742096	0.948118
374.128710	0.944423
374.515262	0.940571
374.901751	0.933809
375.288177	0.929430
375.674540	0.922616
376.060841	0.916140
376.447079	0.909862
376.833254	0.902387
377.219367	0.897300
377.605417	0.887178
377.991404	0.882312
378.377329	0.876797
378.763191	0.869569
379.148991	0.861894
379.534727	0.855068
379.920402	0.846391
380.306013	0.843040
380.691563	0.829326
381.077049	0.822879
381.462474	0.819076
381.847835	0.807729
382.233134	0.803024
382.618371	0.803253
383.003545	0.785953
383.388657	0.784290
383.773706	0.776773
384.158693	0.771255
384.543618	0.766914
384.928480	0.758775
385.313280	0.748278
385.698017	0.747176
386.082692	0.735525
386.467305	0.735191
386.851856	0.729051
387.236344	0.723688
387.620770	0.718206
388.005133	0.712307
388.389435	0.706761
388.773674	0.704918
389.157851	0.697059
389.541965	0.693674
389.926018	0.700364
390.310008	0.687045
390.693936	0.685049
391.077802	0.676572
391.461606	0.678619
391.845348	0.667136
392.229027	0.667921
392.612645	0.665908
392.996200	0.652482
393.379694	0.645982
393.763125	0.635416
394.146494	0.640341
394.529801	0.630604
394.913047	0.623171
395.296230	0.628775
395.679351	0.619618
396.062410	0.617475
396.445408	0.619553
396.828343	0.614559
397.211217	0.610168
397.594028	0.622381
397.976778	0.612888
398.359466	0.609185
398.742092	0.604696
399.124656	0.616200
399.507158	0.605183
399.889598	0.601618
400.271977	0.593058
400.654294	0.596960
401.036549	0.596923
401.418742	0.600393
401.800874	0.586161
402.182944	0.583550
402.564952	0.574732
402.946898	0.576963
403.328783	0.577802
403.710606	0.588756
404.092367	0.564129
404.474067	0.569311
404.855705	0.568059
405.237282	0.577205
405.618797	0.562666
406.000250	0.558795
406.381642	0.549241
406.762972	0.554746
407.144240	0.553011
407.525447	0.552828
407.906593	0.546027
408.287677	0.541615
408.668700	0.550235
409.049661	0.544446
409.430560	0.539418
409.811399	0.548661
410.192176	0.530903
410.572891	0.538831
410.953545	0.527168
411.334138	0.541665
411.714669	0.535049
412.095139	0.548069
412.475547	0.533799
412.855894	0.536745
413.236180	0.536907
413.616405	0.544072
413.996568	0.537055
414.376670	0.544556
414.756711	0.551218
415.136691	0.550630
415.516609	0.544645
415.896466	0.544015
416.276262	0.542611
416.655997	0.547618
417.035670	0.533070
417.415283	0.529001
417.794834	0.536246
418.174324	0.545126
418.553753	0.556445
418.933121	0.544501
419.312428	0.543917
419.691674	0.553370
420.070859	0.546951
420.449983	0.559360
420.829045	0.554401
421.208047	0.567783
421.586988	0.567791
421.965867	0.572187
422.344686	0.569641
422.723444	0.585037
423.102141	0.605428
423.480777	0.589621
423.859352	0.613562
424.237866	0.603089
424.616319	0.610787
424.994712	0.611276
425.373044	0.626702
425.751314	0.625940
426.129524	0.645784
426.507673	0.642247
426.885762	0.644561
427.263789	0.658543
427.641756	0.671204
428.019662	0.674015
428.397508	0.682164
428.775292	0.695389
429.153016	0.698457
429.530679	0.710782
429.908282	0.715904
430.285824	0.729031
430.663305	0.727510
431.040726	0.747303
431.418086	0.754488
431.795385	0.760931
432.172624	0.768673
432.549802	0.776625
432.926920	0.785096
433.303977	0.792931
433.680974	0.800082
434.057910	0.808265
434.434786	0.816521
434.811601	0.825827
435.188355	0.828019
435.565050	0.838252
435.941683	0.845692
436.318257	0.848198
436.694770	0.857168
437.071222	0.864495
437.447614	0.871931
437.823946	0.879686
438.200218	0.884453
438.576429	0.892468
438.952580	0.897937
439.328670	0.902041
439.704700	0.908632
440.080670	0.915431
440.456580	0.918433
440.832429	0.924284
441.208218	0.930938
441.583947	0.933765
441.959616	0.937663
442.335224	0.944101
442.710773	0.946777
443.086261	0.951483
443.461689	0.954427
443.837057	0.957291
444.212365	0.961158
444.587612	0.964662
444.962800	0.967237
445.337927	0.969733
445.712995	0.973034
446.088002	0.972785
446.462949	0.975830
446.837837	0.980361
447.212664	0.979433
447.587431	0.982005
447.962139	0.982180
448.336786	0.981120
448.711374	0.983511
449.085901	0.986398
449.460369	0.988676
449.834776	0.988653
450.209124	0.990180
450.583412	0.990535
450.957640	0.990840
451.331808	0.992861
451.705917	0.992997
452.079965	0.993103
452.453954	0.994866
452.827883	0.994764
453.201752	0.995411
453.575562	0.995046
453.949311	0.995169
454.323001	0.994950
454.696632	0.996419
455.070202	0.994909
455.443713	0.996135
455.817164	0.996202
456.190556	0.996298
456.563888	0.997459
456.937160	0.997100
457.310373	0.996668
457.683526	0.997466
458.056619	0.997684
458.429653	0.997612
458.802628	0.997247
459.175542	0.997436
459.548398	0.998232
459.921194	0.998151
460.293930	0.998696
460.666607	0.997713
461.039224	0.998117
461.411782	0.997575
461.784280	0.997176
462.156719	0.998217
462.529099	0.998247
462.901419	0.998301
463.273680	0.997881
463.645882	0.997741
464.018024	0.998306
464.390106	0.997630
464.762130	0.997515
465.134094	0.997731
465.505999	0.997625
465.877845	0.997280
466.249631	0.997251
466.621358	0.996778
466.993026	0.997678
467.364634	0.998147
467.736184	0.997843
468.107674	0.998036
468.479105	0.997042
468.850477	0.997788
469.221790	0.997919
469.593043	0.997977
469.964238	0.998178
470.335373	0.997542
470.706449	0.997906
471.077467	0.997978
471.448425	0.998084
471.819324	0.998358
472.190164	0.997895
472.560945	0.997306
472.931667	0.998021
473.302330	0.998217
473.672934	0.998358
474.043479	0.997759
474.413965	0.997944
474.784393	0.997794
475.154761	0.997710
475.525070	0.997559
475.895321	0.998468
476.265513	0.997862
476.635645	0.997725
477.005719	0.997255
477.375734	0.997074
477.745691	0.997029
478.115588	0.996384
478.485427	0.997290
478.855207	0.996924
479.224928	0.997350
479.594591	0.997000
479.964194	0.996536
480.333739	0.998068
480.703226	0.997020
481.072653	0.997119
481.442022	0.997233
481.811333	0.996698
482.180584	0.996604
482.549777	0.996997
482.918912	0.997185
483.287988	0.997781
483.657005	0.997540
484.025964	0.997017
484.394864	0.996987
484.763706	0.997179
485.132489	0.997412
485.501213	0.997308
485.869879	0.997036
486.238487	0.996614
486.607036	0.997155
486.975527	0.997825
487.343959	0.997551
487.712333	0.997335
488.080648	0.997156
488.448905	0.996902
488.817104	0.996977
489.185244	0.997147
489.553326	0.997044
489.921350	0.997559
490.289315	0.996659
490.657222	0.997090
491.025070	0.997400
491.392861	0.997596
491.760593	0.997407
492.128267	0.997141
492.495883	0.996961
492.863440	0.997749
493.230939	0.998163
493.598380	0.997656
493.965763	0.997253
494.333088	0.997046
494.700354	0.997246
495.067563	0.997471
495.434713	0.997709
495.801805	0.997662
496.168839	0.997954
496.535815	0.998016
496.902733	0.997463
497.269593	0.997367
497.636395	0.996720
498.003139	0.997096
498.369825	0.998798
498.736453	0.997462
499.103023	0.997608
499.469535	0.997727
499.835989	0.998152
500.202385	0.997345
500.568723	0.997415
500.935003	0.997253
501.301226	0.997828
501.667390	0.997611
502.033497	0.997647
502.399546	0.997795
502.765537	0.997933
503.131470	0.997655
503.497345	0.997951
503.863163	0.997759
504.228923	0.997624
504.594625	0.997307
504.960269	0.997870
505.325856	0.998200
505.691385	0.997954
506.056856	0.997569
506.422270	0.997183
506.787625	0.997439
507.152924	0.997804
507.518164	0.997764
507.883347	0.997961
508.248472	0.997917
508.613540	0.997518
508.978550	0.998131
509.343503	0.997693
509.708398	0.997918
510.073236	0.997737
510.438016	0.997132
510.802738	0.997076
511.167403	0.997764
511.532010	0.997862
511.896561	0.997625
512.261053	0.997372
512.625488	0.997584
512.989866	0.997176
513.354186	0.997150
513.718449	0.997497
514.082655	0.996888
514.446803	0.997537
514.810894	0.997802
515.174927	0.997579
515.538904	0.997695
515.902822	0.997823
516.266684	0.997664
516.630488	0.997803
516.994235	0.997750
517.357925	0.998000
517.721558	0.997884
518.085133	0.997319
518.448651	0.998108
518.812112	0.998193
519.175516	0.997507
519.538863	0.997251
519.902152	0.997651
520.265385	0.997343
520.628560	0.997453
520.991678	0.997451
521.354739	0.998201
521.717743	0.997559
522.080690	0.997100
522.443580	0.997446
522.806413	0.997330
523.169189	0.997585
523.531908	0.996855
523.894569	0.997886
524.257174	0.997531
524.619722	0.997111
524.982213	0.997208
525.344647	0.997257
525.707025	0.997353
526.069345	0.996665
526.431608	0.997526
526.793815	0.998304
527.155964	0.997731
527.518057	0.997487
527.880093	0.996959
528.242072	0.997568
528.603995	0.997604
528.965860	0.997857
529.327669	0.997868
529.689421	0.997653
530.051117	0.998050
530.412755	0.998238
530.774337	0.997896
531.135862	0.997908
531.497331	0.997022
531.858743	0.998180
532.220098	0.996868
532.581396	0.997317
532.942638	0.997834
533.303824	0.998061
533.664953	0.996616
534.026025	0.998200
534.387040	0.998153
534.747999	0.997554
535.108902	0.997801
535.469748	0.997890
535.830537	0.997589
536.191270	0.997799
536.551947	0.997811
536.912567	0.998147
537.273131	0.997752
537.633638	0.997366
537.994089	0.998628
538.354483	0.996912
538.714821	0.997472
539.075103	0.998159
539.435328	0.997476
539.795497	0.998046
540.155609	0.997194
540.515665	0.997458
540.875665	0.997551
541.235609	0.997714
541.595496	0.997047
541.955328	0.997238
542.315102	0.997221
542.674821	0.997854
543.034483	0.997724
543.394090	0.997036
543.753640	0.997781
544.113134	0.998145
544.472571	0.998062
544.831953	0.997889
545.191278	0.997614
545.550548	0.997344
545.909761	0.997344
546.268918	0.998574
546.628019	0.997793
546.987064	0.997619
547.346053	0.997156
547.704986	0.997729
548.063863	0.997306
548.422684	0.997957
548.781449	0.997433
549.140158	0.998268
549.498811	0.996955
549.857408	0.997070
550.215949	0.996932
550.574434	0.997928
550.932864	0.997677
551.291237	0.997992
551.649555	0.998429
552.007817	0.997835
552.366022	0.997788
552.724173	0.998304
553.082267	0.997725
553.440305	0.997606
553.798288	0.996588
554.156215	0.997557
554.514086	0.997590
554.871902	0.997164
555.229661	0.997330
555.587365	0.997179
555.945014	0.998703
556.302606	0.997534
556.660143	0.998782
557.017625	0.997636
557.375050	0.997770
557.732421	0.997891
558.089735	0.997512
558.446994	0.996980
558.804197	0.998300
559.161345	0.996882
559.518437	0.997278
559.875474	0.997852
560.232455	0.997323
560.589381	0.998098
560.946251	0.997655
561.303065	0.998150
561.659825	0.997161
562.016528	0.997677
562.373177	0.997408
562.729770	0.997955
563.086307	0.996636
563.442789	0.997385
563.799216	0.997474
564.155587	0.998156
564.511904	0.998230
564.868164	0.996721
565.224370	0.996792
565.580520	0.998002
565.936615	0.997760
566.292654	0.997741
566.648638	0.998455
567.004567	0.997261
567.360441	0.998471
567.716260	0.997655
568.072023	0.997450
568.427732	0.997874
568.783385	0.997177
569.138982	0.998082
569.494525	0.997394
569.850013	0.998298
570.205445	0.997506
570.560823	0.997689
570.916145	0.997671
571.271412	0.998034
571.626625	0.997562
571.981782	0.997815
572.336884	0.997526
572.691931	0.998100
573.046923	0.998311
573.401860	0.997344
573.756743	0.997825
574.111570	0.997143
574.466342	0.998140
574.821059	0.997446
575.175722	0.998038
575.530330	0.997777
575.884882	0.997172
576.239380	0.998073
576.593823	0.997992
576.948211	0.998074
577.302544	0.997349
577.656823	0.997937
578.011047	0.997510
578.365216	0.998541
578.719330	0.997901
579.073389	0.996998
579.427394	0.997286
579.781344	0.998420
580.135239	0.997366
580.489080	0.998276
580.842866	0.997344
581.196597	0.998044
581.550273	0.997107
581.903895	0.998075
582.257463	0.998038
582.610975	0.998112
582.964434	0.997983
583.317837	0.998235
583.671186	0.998155
584.024481	0.997055
584.377721	0.997128
584.730906	0.997714
585.084037	0.999318
585.437113	0.997757
585.790135	0.997694
586.143103	0.998085
586.496016	0.997074
586.848874	0.997601
587.201679	0.997214
587.554428	0.997568
587.907124	0.998717
588.259765	0.998433
588.612352	0.999088
588.964884	0.997829
589.317362	0.997772
589.669786	0.997465
590.022155	0.997771
590.374470	0.997863
590.726731	0.997676
591.078937	0.997903
591.431090	0.998335
591.783188	0.997493
592.135232	0.998786
592.487222	0.997927
592.839157	0.997344
593.191038	0.998068
593.542866	0.997787
593.894639	0.997287
594.246358	0.997830
594.598022	0.997729
594.949633	0.997900
595.301190	0.997974
595.652692	0.997139
596.004141	0.997732
596.355535	0.997859
596.706876	0.998063
597.058162	0.997537
597.409395	0.998081
597.760573	0.998390
598.111698	0.997485
598.462768	0.997185
598.813785	0.997206
599.164748	0.997635
599.515657	0.997879
599.866511	0.998091
600.217312	0.998094
600.568060	0.997460
600.918753	0.997936
601.269392	0.997833
601.619978	0.998347
601.970510	0.998098
602.320988	0.997967
602.671412	0.997503
603.021783	0.997999
603.372100	0.997898
603.722363	0.998282
604.072572	0.997888
604.422728	0.997946
604.772830	0.997886
605.122878	0.998048
605.472872	0.998723
605.822813	0.998016
606.172701	0.997992
606.522534	0.997599
606.872314	0.998911
607.222041	0.997075
607.571714	0.998029
607.921333	0.998001
608.270899	0.997290
608.620411	0.998452
608.969870	0.998266
609.319276	0.997900
609.668627	0.998740
610.017926	0.997831
610.367171	0.997635
610.716362	0.997963
611.065500	0.997395
611.414585	0.998393
611.763616	0.997514
612.112594	0.998530
612.461518	0.996820
612.810389	0.998481
613.159207	0.997265
613.507971	0.997117
613.856682	0.998910
614.205340	0.996635
614.553945	0.997670
614.902496	0.997874
615.250994	0.998277
615.599439	0.998568
615.947830	0.998375
616.296169	0.997899
616.644454	0.998268
616.992686	0.997858
617.340864	0.997967
617.688990	0.997989
618.037063	0.998047
618.385082	0.997885
618.733048	0.997404
619.080961	0.997531
619.428821	0.998316
619.776628	0.996986
620.124382	0.998385
620.472083	0.998389
620.819731	0.998543
621.167326	0.998026
621.514868	0.998705
621.862357	0.998055
622.209793	0.998472
622.557176	0.998301
622.904506	0.997933
623.251783	0.998009
623.599007	0.998498
623.946179	0.997349
624.293297	0.998616
624.640363	0.998918
624.987376	0.997236
625.334336	0.997781
625.681243	0.998823
626.028097	0.998696
626.374899	0.998093
626.721647	0.998758
627.068343	0.997873
627.414987	0.998370
627.761577	0.997883
628.108115	0.997799
628.454600	0.998554
628.801032	0.998564
629.147412	0.998635
629.493739	0.999681
629.840014	0.997426
630.186236	0.998258
630.532405	0.997998
630.878521	0.997407
631.224585	0.998153
631.570597	0.997765
631.916556	0.998131
632.262462	0.997501
632.608316	0.998102
632.954117	0.996978
633.299866	0.997799
633.645562	0.997991
633.991206	0.998421
634.336797	0.998302
634.682336	0.998970
635.027823	0.997818
635.373257	0.998147
635.718639	0.998852
636.063968	0.997990
636.409245	0.997612
636.754470	0.998263
637.099642	0.998484
637.444762	0.997978
637.789829	0.997219
638.134845	0.997622
638.479808	0.997897
638.824719	0.998147
639.169577	0.998066
639.514383	0.997975
639.859137	0.999349
640.203839	0.997785
640.548489	0.998060
640.893086	0.997927
641.237632	0.998047
641.582125	0.998173
641.926566	0.999276
642.270955	0.997863
642.615292	0.997379
642.959576	0.998506
643.303809	0.998898
643.647990	0.998309
643.992118	0.998120
644.336195	0.997624
644.680219	0.998270
645.024192	0.998027
645.368112	0.997164
645.711981	0.998793
646.055797	0.998164
646.399562	0.997664
646.743274	0.998633
647.086935	0.997607
647.430544	0.997398
647.774101	0.997736
648.117606	0.998098
648.461059	0.997825
648.804460	0.998151
649.147810	0.997726
649.491108	0.997469
649.834354	0.998429
650.177548	0.998093
650.520690	0.997940
650.863781	0.997799
651.206820	0.998573
651.549807	0.998127
651.892742	0.998125
652.235626	0.997859
652.578458	0.998111
652.921238	0.998502
653.263967	0.998528
653.606644	0.997633
653.949269	0.998350
654.291843	0.997401
654.634365	0.998329
654.976836	0.997698
655.319255	0.998772
655.661622	0.998767
656.003938	0.997693
656.346203	0.997189
656.688416	0.998806
657.030577	0.998323
657.372687	0.998679
657.714746	0.997341
658.056753	0.997609
658.398708	0.996935
658.740612	0.999147
659.082465	0.997902
659.424266	0.998105
659.766016	0.997468
660.107715	0.997555
660.449362	0.998009
660.790958	0.997586
661.132503	0.997745
661.473996	0.997354
661.815438	0.997579
662.156829	0.997871
662.498168	0.998169
662.839456	0.997160
663.180693	0.998689
663.521879	0.997954
663.863013	0.997797
664.204097	0.996869
664.545129	0.998279
664.886110	0.997917
665.227040	0.998149
665.567918	0.997711
665.908746	0.997248
666.249522	0.997858
666.590248	0.997902
666.930922	0.997776
667.271545	0.998219
667.612118	0.997939
667.952639	0.997956
668.293109	0.996983
668.633528	0.997581
668.973896	0.998040
669.314213	0.997663
669.654480	0.997938
669.994695	0.997077
670.334859	0.997012
670.674973	0.997777
671.015035	0.998152
671.355047	0.997444
671.695008	0.997410
672.034918	0.997369
672.374777	0.998381
672.714585	0.997227
673.054342	0.998455
673.394049	0.997267
673.733705	0.997190
674.073310	0.998040
674.412864	0.997088
674.752368	0.997533
675.091820	0.998576
675.431223	0.998101
675.770574	0.997269
676.109875	0.997155
676.449125	0.997618
676.788324	0.997238
677.127473	0.998236
677.466571	0.998276
677.805619	0.997911
678.144616	0.997399
678.483562	0.997979
678.822458	0.998151
679.161303	0.997078
679.500098	0.997402
679.838842	0.998771
680.177535	0.998164
680.516179	0.997049
680.854771	0.997685
681.193314	0.997551
681.531805	0.997219
681.870247	0.997025
682.208638	0.997446
682.546978	0.997108
682.885268	0.997566
683.223508	0.997007
683.561697	0.997024
683.899836	0.997675
684.237925	0.996417
684.575963	0.997543
684.913951	0.997764
685.251889	0.997163
685.589776	0.997923
685.927614	0.997121
686.265401	0.997594
686.603137	0.996659
686.940824	0.997788
687.278460	0.998245
687.616046	0.996822
687.953582	0.996894
688.291068	0.997857
688.628504	0.997229
688.965889	0.996293
689.303224	0.996067
689.640510	0.996382
689.977745	0.996134
690.314930	0.997169
690.652065	0.997329
690.989150	0.997723
691.326185	0.997181
691.663170	0.997023
692.000105	0.997362
692.336990	0.997997
692.673825	0.997492
693.010610	0.996483
693.347345	0.997490
693.684030	0.996687
694.020665	0.996104
694.357251	0.997120
694.693786	0.997749
695.030272	0.996104
695.366707	0.997145
695.703093	0.997229
696.039429	0.996529
696.375716	0.996922
696.711952	0.996830
697.048139	0.997708
697.384276	0.997496
697.720363	0.997335
698.056400	0.995999
698.392388	0.996456
698.728326	0.997183
699.064214	0.998162
699.400053	0.997343
699.735842	0.997743
700.071581	0.997101
700.407270	0.996603
700.742910	0.996804
701.078501	0.996824
701.414042	0.997773
701.749533	0.996656
702.084974	0.998247
702.420366	0.997655
702.755709	0.997385
703.091002	0.997706
703.426246	0.998485
703.761440	0.996813
704.096584	0.996593
704.431679	0.997385
704.766725	0.997605
705.101721	0.997466
705.436668	0.997884
705.771565	0.997187
706.106413	0.996913
706.441212	0.997720
706.775961	0.997515
707.110661	0.996969
707.445311	0.998491
707.779913	0.997475
708.114465	0.998065
708.448967	0.997730
708.783421	0.997667
709.117825	0.997430
709.452180	0.997885
709.786485	0.996935
710.120742	0.997025
710.454949	0.996313
710.789107	0.997433
711.123216	0.994871
711.457275	0.995837
711.791286	0.997284
712.125247	0.997667
712.459159	0.996469
712.793023	0.996447
713.126837	0.997083
713.460602	0.996314
713.794318	0.995531
714.127985	0.996591
714.461602	0.997260
714.795171	0.996848
715.128691	0.996816
715.462162	0.997881
715.795584	0.996892
716.128957	0.996520
716.462281	0.997197
716.795556	0.997049
717.128782	0.997771
717.461960	0.997820
717.795088	0.996002
718.128167	0.997389
718.461198	0.997408
718.794180	0.997542
719.127113	0.996738
719.459997	0.996311
719.792833	0.997295
720.125619	0.997305
720.458357	0.997395
720.791046	0.997789
721.123686	0.997061
721.456278	0.997079
721.788821	0.996475
722.121315	0.997424
722.453761	0.997533
722.786158	0.996729
723.118506	0.997779
723.450805	0.995829
723.783056	0.997631
724.115259	0.996635
724.447412	0.997981
724.779518	0.997475
725.111574	0.996261
725.443582	0.997217
725.775542	0.997651
726.107453	0.998232
726.439315	0.998262
726.771129	0.997656
727.102895	0.996636
727.434612	0.996756
727.766281	0.997153
728.097901	0.997104
728.429473	0.997458
728.760996	0.995405
729.092471	0.996536
729.423897	0.997039
729.755276	0.996599
730.086606	0.996565
730.417887	0.996539
730.749120	0.996518
731.080305	0.996037
731.411442	0.995789
731.742530	0.995560
732.073570	0.996114
732.404562	0.996150
732.735506	0.997336
733.066401	0.996639
733.397249	0.996118
733.728048	0.997414
734.058798	0.996797
734.389501	0.997876
734.720156	0.995954
735.050762	0.997418
735.381320	0.997046
735.711831	0.996455
736.042293	0.996822
736.372707	0.998056
736.703073	0.995773
737.033391	0.996556
737.363661	0.996864
737.693883	0.997305
738.024056	0.996133
738.354182	0.996345
738.684260	0.996762
739.014290	0.996660
739.344272	0.996731
739.674207	0.996836
740.004093	0.997325
740.333931	0.996660
740.663722	0.996152
740.993464	0.997976
741.323159	0.996112
741.652806	0.996764
741.982405	0.996554
742.311956	0.997166
742.641460	0.996990
742.970915	0.996011
743.300323	0.996210
743.629683	0.996487
743.958996	0.998003
744.288260	0.995936
744.617477	0.996878
744.946647	0.996861
745.275768	0.997224
745.604842	0.996415
745.933869	0.997207
746.262847	0.996887
746.591778	0.995611
746.920662	0.997106
747.249498	0.999105
747.578286	0.997812
747.907027	0.997516
748.235720	0.997891
748.564365	0.997383
748.892963	0.997327
749.221514	0.998527
749.550017	0.996369
749.878473	0.997183
750.206881	0.998400
750.535242	0.997321
750.863555	0.996131
751.191821	0.997469
751.520039	0.997199
751.848210	0.995359
752.176334	0.997236
752.504411	0.997392
752.832440	0.996862
753.160421	0.996935
753.488356	0.996916
753.816243	0.997320
754.144082	0.996402
754.471875	0.996767
754.799620	0.997358
755.127318	0.997200
755.454969	0.996400
755.782572	0.998300
756.110129	0.996642
756.437638	0.997859
756.765100	0.997115
757.092515	0.996921
757.419882	0.997492
757.747203	0.996248
758.074477	0.997882
758.401703	0.997549
758.728882	0.998042
759.056014	0.996590
759.383099	0.997441
759.710138	0.996476
760.037129	0.997454
760.364073	0.997352
760.690970	0.997876
761.017820	0.996173
761.344623	0.997635
761.671379	0.998275
761.998088	0.997274
762.324751	0.997603
762.651366	0.996872
762.977935	0.995435
763.304456	0.995412
763.630931	0.993839
763.957359	0.994456
764.283740	0.995114
764.610074	0.995908
764.936362	0.995880
765.262602	0.996188
765.588796	0.996706
765.914943	0.996684
766.241044	0.996101
766.567097	0.997198
766.893104	0.997161
767.219064	0.996243
767.544978	0.996737
767.870845	0.998081
768.196665	0.996517
768.522438	0.997396
768.848165	0.997235
769.173846	0.997559
769.499479	0.998663
769.825066	0.998033
770.150607	0.998180
770.476101	0.997270
770.801548	0.997986
771.126949	0.997486
771.452303	0.998135
771.777611	0.998208
772.102872	0.996991
772.428087	0.997807
772.753256	0.997675
773.078378	0.997754
773.403453	0.997153
773.728482	0.999521
774.053465	0.997774
774.378401	0.998059
774.703291	0.998582
775.028135	0.999067
775.352932	0.996724
775.677683	0.998892
776.002388	0.997869
776.327046	0.998256
776.651658	0.999269
776.976224	0.998313
777.300743	0.998333
777.625216	0.997170
777.949643	0.997234
778.274024	0.996815
778.598359	0.998090
778.922647	0.997730
779.246889	0.997631
779.571086	0.998239
779.895236	0.997917
780.219339	0.998119
780.543397	0.997382
780.867409	0.997935
781.191374	0.997366
781.515294	0.998031
781.839167	0.998033
782.162995	0.997927
782.486776	0.998059
782.810511	0.998570
783.134201	0.999293
783.457844	0.998878
783.781441	0.997910
784.104993	0.997743
784.428498	0.998140
784.751958	0.998548
785.075372	0.997880
785.398739	0.998325
785.722061	0.997917
786.045337	0.997881
786.368568	0.996958
786.691752	0.997624
787.014891	0.997488
787.337983	0.996904
787.661030	0.996239
787.984031	0.998038
788.306987	0.997610
788.629897	0.996650
788.952760	0.997436
789.275579	0.998033
789.598351	0.997573
789.921078	0.998324
790.243759	0.998344
790.566395	0.997974
790.888984	0.998000
791.211529	0.999002
791.534027	0.997576
791.856480	0.998150
792.178888	0.998230
792.501249	0.997503
792.823566	0.998202
793.145836	0.999026
793.468062	0.999082
793.790241	0.998982
794.112375	0.996968
794.434464	0.998661
794.756507	0.998908
795.078505	0.998885
795.400457	0.998984
795.722364	0.998050
796.044226	0.998473
796.366042	0.996902
796.687812	0.995760
797.009538	0.997223
797.331218	0.999696
797.652852	0.998586
797.974442	0.997371
798.295986	0.998627
798.617484	0.997152
798.938938	0.998545
799.260346	0.997243
799.581709	0.998196
799.903026	0.998529
800.224299	0.997628
800.545526	0.997673
800.866708	0.997205
801.187845	0.998277
801.508936	0.998648
801.829983	0.998361
802.150984	0.998719
802.471940	0.999083
802.792851	0.997680
803.113717	0.998760
803.434538	0.998622
803.755314	0.999113
804.076045	0.998896
804.396731	0.998299
804.717372	0.996798
805.037967	0.998567
805.358518	0.997851
805.679024	0.998247
805.999485	0.998816
806.319901	0.998709
806.640272	0.999603
806.960598	0.998405
807.280879	0.998283
807.601115	0.998474
807.921306	1.000317
808.241453	0.998925
808.561554	0.999060
808.881611	0.998090
809.201623	0.998347
809.521590	0.997948
809.841513	0.999234
810.161390	0.996750
810.481223	0.997936
810.801011	0.998357
811.120755	0.999000
811.440453	0.997897
811.760107	0.998540
812.079716	0.998312
812.399281	0.997380
812.718801	0.998039
813.038276	0.997988
813.357707	0.998869
813.677093	0.999082
813.996434	0.998097
814.315731	0.998894
814.634983	0.997886
814.954191	0.998933
815.273354	0.998194
815.592473	0.998366
815.911547	0.999629
816.230577	0.998204
816.549562	0.998352
816.868502	0.997585
817.187399	0.999023
817.506250	0.998291
817.825058	0.996971
818.143821	0.997680
818.462539	0.997563
818.781213	0.997877
819.099843	0.996545
819.418429	0.996576
819.736970	0.997425
820.055466	0.994825
820.373919	0.996598
820.692327	0.994757
821.010691	0.994319
821.329011	0.992825
821.647286	0.990687
821.965517	0.989078
822.283704	0.987587
822.601847	0.987388
822.919945	0.987135
823.237999	0.988233
823.556010	0.989800
823.873976	0.990764
824.191897	0.992147
824.509775	0.993423
824.827609	0.993684
825.145398	0.993816
825.463144	0.992518
825.780845	0.992608
826.098502	0.993570
826.416116	0.993007
826.733685	0.992090
827.051210	0.990374
827.368692	0.990736
827.686129	0.992023
828.003522	0.993173
828.320872	0.994140
828.638177	0.994861
828.955439	0.996369
829.272656	0.996497
829.589830	0.995566
829.906960	0.997773
830.224046	0.997289
830.541088	0.996839
830.858086	0.996793
831.175041	0.998478
831.491952	0.997010
831.808819	0.997326
832.125642	0.997786
832.442421	0.997207
832.759157	0.997412
833.075849	0.996655
833.392497	0.994455
833.709101	0.993526
834.025662	0.994599
834.342179	0.994699
834.658653	0.995742
834.975083	0.996039
835.291469	0.996358
835.607811	0.996851
835.924110	0.997640
836.240366	0.998551
836.556578	0.997857
836.872746	0.998678
837.188871	0.998010
837.504952	0.997651
837.820990	0.998001
838.136984	0.998184
838.452935	0.999101
838.768842	0.998549
839.084706	0.997144
839.400526	0.997719
839.716303	0.996148
840.032037	0.996824
840.347727	0.996228
840.663373	0.997734
840.978977	0.997541
841.294537	0.998664
841.610054	0.997793
841.925527	0.998379
842.240957	0.998341
842.556344	0.998086
842.871687	0.998060
843.186987	0.999245
843.502244	0.999464
843.817458	0.997687
844.132629	0.999380
844.447756	0.998971
844.762840	0.999632
845.077881	0.999662
845.392879	0.998548
845.707833	0.998879
846.022745	0.999466
846.337613	0.999215
846.652438	0.998550
846.967221	0.999164
847.281960	0.998645
847.596656	0.999932
847.911309	0.999144
848.225919	0.998318
848.540485	1.000093
848.855009	1.000396
849.169490	0.998964
849.483928	0.999360
849.798323	0.997343
850.112675	1.000638
850.426984	0.999678
850.741251	0.999845
851.055474	0.999208
851.369654	0.999582
851.683792	0.997962
851.997887	0.998318
852.311938	0.999162
852.625947	0.998276
852.939914	0.997988
853.253837	1.000533
853.567718	0.998444
853.881555	0.999019
854.195350	0.999862
854.509103	0.999007
854.822812	0.999074
855.136479	0.998844
855.450103	0.999362
855.763685	0.999681
856.077224	0.999155
856.390720	0.998653
856.704173	1.001033
857.017584	1.000717
857.330953	0.998610
857.644278	0.997912
857.957561	0.999996
858.270802	0.999634
858.584000	0.999320
858.897155	0.999177
859.210268	0.998642
859.523339	1.000061
859.836367	0.999521
860.149352	0.999021
860.462295	0.998610
860.775195	0.998455
861.088054	0.997802
861.400869	0.998644
861.713642	0.997793
862.026373	1.000461
862.339062	0.999247
862.651708	1.000355
862.964312	1.000064
863.276873	0.998831
863.589392	0.998849
863.901869	0.998717
864.214303	0.998892
864.526696	0.998934
864.839045	0.998914
865.151353	0.999068
865.463619	0.998691
865.775842	0.999165
866.088023	0.999860
866.400162	0.999431
866.712258	0.999339
867.024313	0.999191
867.336325	0.999132
867.648296	0.998584
867.960224	1.000014
868.272110	0.998876
868.583954	1.000050
868.895755	1.001140
869.207515	0.999105
869.519233	0.999731
869.830909	0.999008
870.142542	0.997622
870.454134	0.998195
870.765684	0.998989
871.077191	0.998786
871.388657	0.998935
871.700081	0.999838
872.011463	0.999507
872.322803	0.998707
872.634101	0.997271
872.945357	0.997680
873.256571	0.998425
873.567744	0.999408
873.878874	0.999206
874.189963	0.998056
874.501010	0.999869
874.812015	0.999114
875.122979	0.999049
875.433900	0.999017
875.744780	0.999609
876.055618	0.997753
876.366415	0.997809
876.677169	0.997587
876.987882	0.998166
877.298554	0.999344
877.609183	0.998874
877.919771	0.999322
878.230317	0.999433
878.540822	0.998324
878.851285	0.997859
879.161707	0.997620
879.472087	0.998279
879.782425	0.995465
880.092722	0.994991
880.402977	0.994401
880.713191	0.991217
881.023363	0.989313
881.333494	0.987964
881.643583	0.988163
881.953631	0.988891
882.263637	0.988266
882.573602	0.988708
882.883526	0.989943
883.193408	0.991680
883.503248	0.992126
883.813048	0.991642
884.122806	0.994686
884.432522	0.993875
884.742197	0.995827
885.051831	0.994534
885.361424	0.995260
885.670975	0.997767
885.980485	0.996311
886.289954	0.996545
886.599382	0.996491
886.908768	0.998383
887.218113	0.996823
887.527417	0.997805
887.836680	0.997712
888.145901	0.999424
888.455082	1.000028
888.764221	0.999583
889.073319	0.997196
889.382376	0.998270
889.691392	0.997274
890.000366	0.999263
890.309300	0.998091
890.618193	0.999297
890.927044	0.998714
891.235855	0.998817
891.544625	0.998229
891.853353	0.998132
892.162041	0.998117
892.470687	0.999099
892.779293	0.996529
893.087858	0.996203
893.396381	0.996940
893.704864	0.995900
894.013306	0.996521
894.321707	0.995835
894.630068	0.993488
894.938387	0.993800
895.246665	0.993717
895.554903	0.993477
895.863100	0.995085
896.171256	0.995739
896.479371	0.996504
896.787446	0.996685
897.095480	0.995905
897.403473	0.998154
897.711425	0.996744
898.019336	0.998795
898.327207	0.998993
898.635038	0.996930
898.942827	0.998668
899.250576	0.997771
899.558284	0.998675
899.865952	0.996789
900.173579	0.997640
900.481165	0.998295
900.788711	0.997678
901.096216	0.998718
901.403681	0.998260
901.711105	0.998347
902.018489	0.998068
902.325832	0.998473
902.633135	0.998345
902.940397	0.998048
903.247619	0.996756
903.554800	0.995981
903.861941	0.995732
904.169041	0.993946
904.476101	0.992591
904.783121	0.992335
905.090100	0.993296
905.397039	0.993877
905.703938	0.995313
906.010796	0.995244
906.317614	0.996371
906.624391	0.997510
906.931129	0.998528
907.237826	0.997928
907.544483	0.997787
907.851099	0.999107
908.157675	0.998839
908.464211	0.999104
908.770707	0.997716
909.077163	0.998340
909.383578	0.999695
909.689954	0.997993
909.996289	0.999329
910.302584	0.999506
910.608839	0.999494
910.915054	0.998397
911.221229	0.999258
911.527363	0.998994
911.833458	0.999126
912.139513	0.999475
912.445527	0.999234
912.751502	0.999479
913.057436	0.998274
913.363331	0.998708
913.669186	0.999822
913.975000	0.998837
914.280775	0.997050
914.586510	0.997668
914.892205	0.995878
915.197859	0.994672
915.503475	0.995732
915.809050	0.994841
916.114585	0.991795
916.420081	0.992703
916.725536	0.993601
917.030952	0.992919
917.336328	0.993606
917.641665	0.993574
917.946961	0.994827
918.252218	0.995694
918.557435	0.996201
918.862612	0.996877
919.167750	0.997922
919.472848	0.997156
919.777906	0.998465
920.082925	0.998678
920.387904	0.998401
920.692843	0.997426
920.997743	0.997644
921.302603	0.997710
921.607423	0.997543
921.912204	0.998683
922.216946	0.999120
922.521647	0.998929
922.826310	0.998567
923.130932	0.999931
923.435516	0.999487
923.740059	0.998054
924.044564	0.998416
924.349028	0.998737
924.653454	1.000020
924.957840	0.998269
925.262186	0.999147
925.566493	0.999688
925.870761	0.998553
926.174989	0.999038
926.479178	1.000768
926.783328	1.000142
927.087438	0.999399
927.391509	0.998938
927.695541	0.999655
927.999533	0.999779
928.303486	0.999815
928.607400	0.999059
928.911275	0.999983
929.215110	0.999890
929.518906	0.999646
929.822663	1.000124
930.126381	1.000900
930.430060	0.999037
930.733699	0.999842
931.037299	1.000758
931.340861	1.000356
931.644383	0.998515
931.947866	0.999283
932.251309	0.998905
932.554714	0.999503
932.858080	1.000287
933.161407	0.998801
933.464694	0.999616
933.767943	0.999680
934.071153	0.999551
934.374323	1.000668
934.677455	1.000096
934.980548	0.998217
935.283602	1.000064
935.586617	0.998422
935.889593	1.000697
936.192530	0.999520
936.495428	0.999438
936.798287	0.999626
937.101108	0.999623
937.403890	1.000664
937.706632	1.000271
938.009336	0.999467
938.312002	0.998643
938.614628	0.999869
938.917216	0.998471
939.219765	0.998043
939.522275	0.999233
939.824747	0.998411
940.127179	0.998323
940.429573	1.000404
940.731929	0.998412
941.034246	0.999174
941.336524	0.998538
941.638763	0.999247
941.940964	0.998570
942.243126	0.999079
942.545250	0.999120
942.847335	0.998475
943.149381	0.999811
943.451389	0.998802
943.753359	0.999519
944.055290	1.001429
944.357182	0.999888
944.659036	0.999024
944.960851	0.998998
945.262628	0.999950
945.564367	0.999818
945.866067	0.998855
946.167729	0.999107
946.469352	1.000024
946.770937	0.998031
947.072484	0.999387
947.373992	0.999187
947.675462	0.999517
947.976893	0.999379
948.278286	1.001254
948.579641	1.000519
948.880958	0.998416
949.182236	0.999643
949.483476	1.000650
949.784678	0.999333
950.085841	0.998550
950.386967	0.998853
950.688054	0.999371
950.989103	0.997783
951.290114	0.999442
951.591087	0.999550
951.892021	0.999191
952.192917	1.000019
952.493776	0.999608
952.794596	0.998856
953.095378	0.999551
953.396122	0.997918
953.696828	0.999365
953.997496	1.000121
954.298126	1.000451
954.598718	0.999010
954.899272	0.999244
955.199788	1.000178
955.500266	1.000234
955.800706	1.000280
956.101108	0.999893
956.401472	1.000505
956.701798	0.997859
957.002087	0.999377
957.302337	0.997955
957.602550	1.000054
957.902724	1.000169
958.202861	1.000551
958.502960	0.999335
958.803022	1.000358
959.103045	0.999695
959.403031	1.000693
959.702979	1.000437
960.002889	1.000515
960.302762	0.999046
960.602596	1.001382
960.902393	0.998725
961.202153	1.000016
961.501875	0.999191
961.801559	1.000017
962.101205	0.999744
962.400814	1.000339
962.700385	0.999974
962.999918	1.000205
963.299414	0.999772
963.598873	1.001032
963.898293	0.998868
964.197677	1.000030
964.497022	0.999615
964.796331	0.999725
965.095601	0.999946
965.394835	1.000332
965.694030	1.000602
965.993189	0.999457
966.292309	0.999287
966.591393	0.998829
966.890439	1.001052
967.189447	1.000330
967.488419	0.999695
967.787353	0.999658
968.086249	0.998824
968.385108	1.000033
968.683930	1.000792
968.982714	0.998597
969.281462	0.998852
969.580172	0.999207
969.878844	1.001568
970.177480	0.999727
970.476078	1.001607
970.774639	1.000232
971.073162	0.999888
971.371649	0.999343
971.670098	0.998680
971.968510	0.999471
972.266885	0.999823
972.565223	0.999880
972.863524	0.998717
973.161788	0.999789
973.460014	1.000418
973.758204	0.999259
974.056356	0.999544
974.354471	0.998761
974.652550	0.999826
974.950591	0.999371
975.248595	0.998551
975.546563	1.000329
975.844493	1.000298
976.142386	1.000379
976.440243	1.001347
976.738062	1.000576
977.035845	0.999079
977.333590	1.000800
977.631299	0.999611
977.928971	1.000414
978.226606	0.998651
978.524204	0.999508
978.821765	1.000874
979.119290	1.001006
979.416777	1.000063
979.714228	0.999858
980.011642	1.000483
980.309020	0.999522
980.606360	0.999821
980.903664	0.999600
981.200931	1.000278
981.498162	0.999741
981.795356	0.999319
982.092513	0.999526
982.389633	1.000170
982.686717	0.998451
982.983764	0.998672
983.280775	0.999485
983.577749	1.000802
983.874686	0.999187
984.171587	0.998594
984.468451	1.000108
984.765279	1.000721
985.062070	0.999487
985.358824	0.998929
985.655543	1.000069
985.952224	1.000513
986.248869	0.999680
986.545478	1.001157
986.842050	0.999919
987.138586	0.999165
987.435086	0.998907
987.731549	1.000572
988.027975	1.000582
988.324366	0.999725
988.620719	0.999237
988.917037	1.000347
989.213318	0.999504
989.509563	0.999228
989.805772	1.000267
990.101944	0.999853
990.398080	1.000388
990.694180	1.000343
990.990244	0.997738
991.286271	0.999760
991.582262	1.001102
991.878217	0.999794
992.174136	0.999659
992.470019	1.000150
992.765865	1.001112
993.061676	1.000086
993.357450	1.000047
993.653188	1.001003
993.948890	0.999831
994.244556	0.999925
994.540186	0.999137
994.835780	1.000702
995.131337	1.001208
995.426859	1.000497
995.722345	1.000713
996.017795	0.998893
996.313208	1.000134
996.608586	0.999670
996.903928	1.000149
997.199234	1.001472
997.494504	1.000938
997.789738	0.998462
998.084936	0.999359
998.380099	1.000101
998.675225	1.001089
998.970316	0.999994
999.265371	1.000065
999.560390	0.999509
999.855373	1.000450
1000.150320	1.001094
1000.445232	0.999797
1000.740108	0.999411
1001.034948	0.998982
1001.329752	1.000299
1001.624521	1.000069
1001.919254	0.998776
1002.213951	0.999951
1002.508613	0.999496
1002.803239	0.999212
1003.097829	1.000849
1003.392384	0.999831
1003.686903	1.000085
1003.981386	0.999728
1004.275834	1.001042
1004.570246	0.999355
1004.864623	1.000326
1005.158964	1.000739
1005.453270	0.999621
1005.747540	0.999434
1006.041775	1.000405
1006.335974	1.000255
1006.630138	0.999671
1006.924266	0.999379
1007.218359	0.998455
1007.512416	1.001973
1007.806438	0.999719
1008.100425	1.000342
1008.394376	1.000432
1008.688292	0.999416
1008.982172	0.998954
1009.276017	1.000609
1009.569827	1.000754
1009.863602	0.998419
1010.157341	0.999773
1010.451045	0.999600
1010.744714	1.001585
1011.038347	1.000145
1011.331945	0.999042
1011.625508	0.999989
1011.919036	1.000596
1012.212528	0.999691
1012.505986	0.999752
1012.799408	1.001205
1013.092795	0.999714
1013.386147	0.999941
1013.679464	1.001318
1013.972745	0.999562
1014.265992	0.999839
1014.559204	0.998138
1014.852380	1.001434
1015.145521	0.999893
1015.438628	1.000530
1015.731699	0.999900
1016.024736	1.001492
1016.317737	1.000103
1016.610703	1.000421
1016.903635	1.000457
1017.196531	1.000575
1017.489393	0.999482
1017.782219	1.000004
1018.075011	0.999229
1018.367768	0.999813
1018.660490	1.001166
1018.953177	1.001166
1019.245829	1.001166
