Dividing Wavelength (nm)	Counts (n)	Blue Motor Position (mm): 46.900000	Red Motor Position (mm): 0.000000	
326.493990	1.000585
326.888308	1.000585
327.282561	1.000585
327.676750	1.001498
328.070874	1.000751
328.464933	1.001504
328.858929	1.001136
329.252859	0.998929
329.646726	0.999539
330.040528	1.000378
330.434265	0.999712
330.827938	0.999135
331.221547	1.000522
331.615091	1.000589
332.008571	1.000999
332.401986	0.999403
332.795338	0.997927
333.188625	1.001240
333.581847	1.000465
333.975006	1.000432
334.368100	1.000390
334.761129	0.999167
335.154095	0.999378
335.546996	1.000137
335.939833	1.000082
336.332606	1.000263
336.725315	0.998822
337.117960	1.000886
337.510540	0.998546
337.903056	0.999641
338.295508	1.000856
338.687896	0.999585
339.080220	0.999683
339.472480	1.000268
339.864676	1.001131
340.256807	0.998628
340.648875	1.000946
341.040879	0.999630
341.432818	1.000589
341.824694	1.000655
342.216506	1.001112
342.608253	0.998980
342.999937	0.999563
343.391557	0.999469
343.783113	1.001300
344.174605	1.001019
344.566033	0.999904
344.957397	1.000475
345.348697	0.999713
345.739934	1.000324
346.131106	0.999253
346.522215	0.999428
346.913260	1.000059
347.304241	0.998583
347.695159	0.999183
348.086012	0.999905
348.476802	0.999775
348.867528	0.999720
349.258191	1.001276
349.648789	0.999853
350.039324	1.000876
350.429796	0.999935
350.820203	1.000231
351.210548	0.999450
351.600828	1.000606
351.991045	1.000206
352.381198	1.000592
352.771288	1.000124
353.161314	1.000175
353.551276	0.999017
353.941175	0.998397
354.331010	1.000480
354.720782	0.999595
355.110490	0.999934
355.500135	0.999173
355.889717	0.998081
356.279235	0.999780
356.668689	0.999316
357.058080	1.000027
357.447408	0.998628
357.836672	1.000003
358.225873	0.999706
358.615010	1.000485
359.004084	0.998763
359.393095	0.999742
359.782043	0.999636
360.170927	0.999877
360.559748	1.000896
360.948505	0.999778
361.337199	0.999298
361.725830	1.000061
362.114398	1.000513
362.502903	0.998905
362.891344	0.998676
363.279722	0.999181
363.668037	1.000601
364.056289	0.999039
364.444478	1.000108
364.832603	1.000272
365.220665	0.998983
365.608665	0.999317
365.996601	0.999540
366.384474	0.999184
366.772284	0.999895
367.160031	0.998695
367.547715	0.998897
367.935336	0.997386
368.322893	0.996294
368.710388	0.996116
369.097820	0.994443
369.485189	0.991348
369.872495	0.990843
370.259738	0.988744
370.646918	0.985584
371.034035	0.984444
371.421090	0.982173
371.808081	0.978094
372.195010	0.977082
372.581875	0.972730
372.968678	0.970275
373.355418	0.968711
373.742096	0.963274
374.128710	0.961485
374.515262	0.960131
374.901751	0.958508
375.288177	0.957573
375.674540	0.954465
376.060841	0.951773
376.447079	0.950215
376.833254	0.949683
377.219367	0.948648
377.605417	0.945341
377.991404	0.946584
378.377329	0.945442
378.763191	0.944812
379.148991	0.943814
379.534727	0.943559
379.920402	0.942138
380.306013	0.943712
380.691563	0.943072
381.077049	0.943842
381.462474	0.946593
381.847835	0.945129
382.233134	0.947864
382.618371	0.951651
383.003545	0.950949
383.388657	0.953900
383.773706	0.955192
384.158693	0.957906
384.543618	0.961132
384.928480	0.962439
385.313280	0.964221
385.698017	0.966412
386.082692	0.967491
386.467305	0.970002
386.851856	0.973668
387.236344	0.974913
387.620770	0.976980
388.005133	0.979412
388.389435	0.980770
388.773674	0.983236
389.157851	0.985581
389.541965	0.987043
389.926018	0.987271
390.310008	0.990359
390.693936	0.992358
391.077802	0.993190
391.461606	0.993494
391.845348	0.993276
392.229027	0.993715
392.612645	0.995118
392.996200	0.995982
393.379694	0.996554
393.763125	0.997785
394.146494	0.996652
394.529801	0.997494
394.913047	0.996480
395.296230	0.998802
395.679351	0.998418
396.062410	0.998350
396.445408	0.998983
396.828343	0.999770
397.211217	0.998551
397.594028	0.998011
397.976778	0.999129
398.359466	0.999860
398.742092	0.999926
399.124656	0.999032
399.507158	0.997996
399.889598	0.999545
400.271977	1.000649
400.654294	0.999094
401.036549	1.000491
401.418742	1.000328
401.800874	1.000523
402.182944	0.998426
402.564952	0.998800
402.946898	0.999193
403.328783	1.000001
403.710606	0.999105
404.092367	1.000091
404.474067	1.000686
404.855705	1.000504
405.237282	0.998423
405.618797	0.999937
406.000250	0.999544
406.381642	0.999000
406.762972	1.000486
407.144240	0.999515
407.525447	0.997353
407.906593	0.998737
408.287677	0.999142
408.668700	1.000505
409.049661	0.999569
409.430560	0.999047
409.811399	1.000179
410.192176	0.999324
410.572891	1.000742
410.953545	0.998383
411.334138	0.999671
411.714669	0.999268
412.095139	1.000082
412.475547	0.999477
412.855894	1.000593
413.236180	0.999531
413.616405	0.999682
413.996568	0.999163
414.376670	0.999570
414.756711	0.999250
415.136691	0.999492
415.516609	0.999769
415.896466	1.000059
416.276262	0.999044
416.655997	0.999800
417.035670	0.999818
417.415283	0.999189
417.794834	0.999445
418.174324	1.000022
418.553753	0.999319
418.933121	0.999115
419.312428	1.001009
419.691674	1.000280
420.070859	0.999319
420.449983	0.999885
420.829045	0.998583
421.208047	1.000607
421.586988	0.998914
421.965867	0.998792
422.344686	0.999350
422.723444	0.999215
423.102141	0.999211
423.480777	0.998754
423.859352	0.999485
424.237866	0.998343
424.616319	0.999795
424.994712	0.999110
425.373044	0.999209
425.751314	0.999882
426.129524	0.999789
426.507673	0.998606
426.885762	0.999058
427.263789	0.999177
427.641756	0.999511
428.019662	0.999314
428.397508	0.999776
428.775292	0.998718
429.153016	0.999625
429.530679	1.000308
429.908282	0.999638
430.285824	0.998846
430.663305	1.000532
431.040726	0.999716
431.418086	0.998974
431.795385	1.000013
432.172624	1.000165
432.549802	0.999345
432.926920	0.999834
433.303977	0.999335
433.680974	0.999749
434.057910	0.999906
434.434786	0.999142
434.811601	0.999442
435.188355	1.000215
435.565050	1.000013
435.941683	0.999457
436.318257	0.998852
436.694770	1.000510
437.071222	1.000342
437.447614	0.999299
437.823946	0.999917
438.200218	0.999102
438.576429	1.000084
438.952580	0.999806
439.328670	0.999247
439.704700	0.998947
440.080670	0.999154
440.456580	0.999944
440.832429	0.999664
441.208218	1.000187
441.583947	0.999828
441.959616	0.999371
442.335224	1.000264
442.710773	1.000429
443.086261	0.999443
443.461689	0.999415
443.837057	0.999326
444.212365	1.000664
444.587612	1.000941
444.962800	1.000003
445.337927	1.000464
445.712995	0.999383
446.088002	0.999873
446.462949	0.999226
446.837837	1.000928
447.212664	0.999499
447.587431	1.000586
447.962139	0.999232
448.336786	0.998987
448.711374	0.998882
449.085901	0.999769
449.460369	0.999882
449.834776	0.999161
450.209124	0.999868
450.583412	0.999445
450.957640	0.998705
451.331808	1.000846
451.705917	0.998900
452.079965	0.999698
452.453954	0.999980
452.827883	0.999900
453.201752	0.999794
453.575562	0.999494
453.949311	0.999909
454.323001	0.999589
454.696632	0.999776
455.070202	0.999326
455.443713	0.999565
455.817164	0.999473
456.190556	0.999792
456.563888	1.000217
456.937160	1.000103
457.310373	0.999091
457.683526	0.999674
458.056619	1.000242
458.429653	0.999148
458.802628	0.999688
459.175542	1.000019
459.548398	0.999617
459.921194	0.999522
460.293930	1.000104
460.666607	1.000669
461.039224	0.999327
461.411782	1.000242
461.784280	0.999245
462.156719	1.000202
462.529099	0.999251
462.901419	0.999468
463.273680	0.999086
463.645882	0.999287
464.018024	1.000461
464.390106	1.000442
464.762130	0.999612
465.134094	0.999215
465.505999	0.999910
465.877845	0.999942
466.249631	0.999815
466.621358	0.999338
466.993026	0.999343
467.364634	0.999689
467.736184	0.999455
468.107674	1.000251
468.479105	0.999581
468.850477	0.999625
469.221790	1.000494
469.593043	0.999540
469.964238	0.999695
470.335373	0.999598
470.706449	0.999506
471.077467	0.999497
471.448425	0.999671
471.819324	0.999836
472.190164	0.999611
472.560945	0.999913
472.931667	0.999514
473.302330	0.999443
473.672934	1.000253
474.043479	0.999598
474.413965	0.999547
474.784393	1.000324
475.154761	0.998779
475.525070	0.999027
475.895321	1.000109
476.265513	0.999848
476.635645	1.000216
477.005719	1.000189
477.375734	0.999674
477.745691	0.999055
478.115588	0.999429
478.485427	0.999541
478.855207	0.999367
479.224928	0.999616
479.594591	0.999768
479.964194	0.999766
480.333739	0.999766
480.703226	0.999351
481.072653	0.999570
481.442022	1.000018
481.811333	0.999289
482.180584	0.999403
482.549777	0.999602
482.918912	0.999171
483.287988	0.999835
483.657005	0.999741
484.025964	0.999352
484.394864	0.999896
484.763706	0.999735
485.132489	0.999556
485.501213	0.999905
485.869879	0.999257
486.238487	0.998805
486.607036	1.000033
486.975527	0.999191
487.343959	0.999151
487.712333	0.998900
488.080648	0.998580
488.448905	0.999956
488.817104	0.999490
489.185244	0.999136
489.553326	0.999524
489.921350	0.999437
490.289315	0.999373
490.657222	0.998659
491.025070	0.999554
491.392861	0.999727
491.760593	0.999232
492.128267	0.999088
492.495883	0.998254
492.863440	0.999060
493.230939	0.999886
493.598380	0.999919
493.965763	0.999045
494.333088	0.998390
494.700354	0.999478
495.067563	0.999203
495.434713	0.999358
495.801805	0.999246
496.168839	0.999243
496.535815	0.999920
496.902733	0.999656
497.269593	0.999554
497.636395	0.998865
498.003139	0.999048
498.369825	0.999818
498.736453	0.999638
499.103023	0.999333
499.469535	0.999587
499.835989	0.999743
500.202385	0.998998
500.568723	0.999403
500.935003	0.999470
501.301226	0.999848
501.667390	0.999160
502.033497	0.999449
502.399546	0.998814
502.765537	0.999749
503.131470	0.999675
503.497345	1.000007
503.863163	0.999730
504.228923	0.999030
504.594625	0.999346
504.960269	0.999839
505.325856	1.000345
505.691385	0.999428
506.056856	0.999488
506.422270	0.999391
506.787625	0.999745
507.152924	0.999236
507.518164	0.998738
507.883347	0.999007
508.248472	0.999076
508.613540	0.999426
508.978550	0.999746
509.343503	0.999397
509.708398	1.000047
510.073236	0.999961
510.438016	0.998732
510.802738	0.999172
511.167403	0.999411
511.532010	0.999158
511.896561	0.999625
512.261053	0.998678
512.625488	0.999266
512.989866	0.999315
513.354186	0.998854
513.718449	0.999661
514.082655	0.999116
514.446803	0.999177
514.810894	0.999904
515.174927	0.999730
515.538904	0.999728
515.902822	0.999701
516.266684	0.999878
516.630488	0.999111
516.994235	0.999797
517.357925	0.999884
517.721558	0.999325
518.085133	0.998729
518.448651	0.999006
518.812112	1.000263
519.175516	0.999041
519.538863	0.998814
519.902152	0.999544
520.265385	0.999070
520.628560	0.999289
520.991678	0.999931
521.354739	0.999718
521.717743	0.999603
522.080690	0.999268
522.443580	0.999456
522.806413	0.998830
523.169189	1.000076
523.531908	0.999279
523.894569	0.999728
524.257174	0.999862
524.619722	0.999601
524.982213	0.999607
525.344647	0.999548
525.707025	0.998912
526.069345	0.998897
526.431608	0.999827
526.793815	0.999802
527.155964	0.999384
527.518057	1.000186
527.880093	0.999014
528.242072	0.999273
528.603995	0.999545
528.965860	1.000113
529.327669	0.999412
529.689421	0.999433
530.051117	0.999456
530.412755	0.999810
530.774337	0.999438
531.135862	1.000091
531.497331	0.999253
531.858743	1.000251
532.220098	0.998926
532.581396	0.999618
532.942638	0.999346
533.303824	0.999577
533.664953	0.999058
534.026025	1.000354
534.387040	0.999925
534.747999	0.999272
535.108902	0.999348
535.469748	0.999624
535.830537	0.999872
536.191270	0.999408
536.551947	0.998841
536.912567	0.999687
537.273131	0.999969
537.633638	1.000127
537.994089	0.999986
538.354483	0.999593
538.714821	1.000028
539.075103	0.999471
539.435328	0.999952
539.795497	1.000263
540.155609	0.999889
540.515665	1.000230
540.875665	0.999597
541.235609	1.000118
541.595496	0.998272
541.955328	0.999111
542.315102	1.000324
542.674821	1.000162
543.034483	0.999481
543.394090	0.999494
543.753640	0.999412
544.113134	0.999344
544.472571	0.999640
544.831953	1.000317
545.191278	0.999762
545.550548	0.999396
545.909761	0.999283
546.268918	1.000248
546.628019	1.000257
546.987064	0.999330
547.346053	0.999241
547.704986	0.999295
548.063863	0.999519
548.422684	0.999875
548.781449	0.999489
549.140158	0.999138
549.498811	0.999184
549.857408	0.998830
550.215949	0.999097
550.574434	0.998838
550.932864	1.000088
551.291237	0.999737
551.649555	1.000507
552.007817	0.999929
552.366022	0.999851
552.724173	1.000013
553.082267	0.999408
553.440305	0.999373
553.798288	0.998198
554.156215	0.998968
554.514086	0.999554
554.871902	0.999608
555.229661	0.999022
555.587365	0.999097
555.945014	0.999822
556.302606	0.999292
556.660143	0.999971
557.017625	0.999670
557.375050	0.999266
557.732421	0.999485
558.089735	0.999075
558.446994	0.999572
558.804197	0.999654
559.161345	0.999441
559.518437	0.998932
559.875474	0.999536
560.232455	1.000154
560.589381	1.000240
560.946251	0.999996
561.303065	1.000237
561.659825	0.999118
562.016528	0.999961
562.373177	1.000104
562.729770	0.999057
563.086307	0.999081
563.442789	0.999913
563.799216	0.998817
564.155587	0.999627
564.511904	1.000099
564.868164	0.999366
565.224370	0.999575
565.580520	0.999076
565.936615	0.999179
566.292654	0.999668
566.648638	1.000292
567.004567	0.999587
567.360441	1.000005
567.716260	0.999831
568.072023	0.999101
568.427732	0.999627
568.783385	0.999490
569.138982	0.999863
569.494525	0.999712
569.850013	0.999622
570.205445	0.999256
570.560823	0.999269
570.916145	0.999746
571.271412	0.999628
571.626625	0.999941
571.981782	0.999601
572.336884	0.999560
572.691931	1.000147
573.046923	0.999422
573.401860	0.999601
573.756743	1.000208
574.111570	0.999603
574.466342	1.000421
574.821059	0.999539
575.175722	0.999918
575.530330	0.999368
575.884882	1.000071
576.239380	0.999470
576.593823	0.999673
576.948211	0.999976
577.302544	0.999425
577.656823	0.999782
578.011047	0.999055
578.365216	1.000549
578.719330	1.000444
579.073389	0.998889
579.427394	0.999389
579.781344	0.999679
580.135239	0.998888
580.489080	0.999131
580.842866	0.999931
581.196597	1.000017
581.550273	0.999310
581.903895	0.999991
582.257463	0.999422
582.610975	0.999933
582.964434	0.999871
583.317837	1.000682
583.671186	0.999967
584.024481	0.999601
584.377721	0.999120
584.730906	0.999610
585.084037	1.000077
585.437113	1.000121
585.790135	0.999536
586.143103	0.999602
586.496016	0.999663
586.848874	1.000393
587.201679	0.999624
587.554428	0.999493
587.907124	0.999990
588.259765	1.000763
588.612352	0.999963
588.964884	1.000154
589.317362	0.999856
589.669786	0.999101
590.022155	0.999901
590.374470	1.000047
590.726731	0.999461
591.078937	0.999750
591.431090	0.999445
591.783188	0.999151
592.135232	1.000488
592.487222	0.999937
592.839157	0.998868
593.191038	0.999749
593.542866	0.999874
593.894639	0.999321
594.246358	1.000503
594.598022	0.999852
594.949633	1.000148
595.301190	1.000356
595.652692	0.999094
596.004141	0.999528
596.355535	0.999670
596.706876	1.000624
597.058162	0.999928
597.409395	1.000949
597.760573	1.000086
598.111698	0.999723
598.462768	0.999806
598.813785	0.999718
599.164748	0.999504
599.515657	0.999547
599.866511	1.000235
600.217312	1.000086
600.568060	0.999897
600.918753	1.000298
601.269392	0.999723
601.619978	1.000501
601.970510	0.999731
602.320988	1.000125
602.671412	0.999549
603.021783	1.000065
603.372100	1.001036
603.722363	1.000320
604.072572	1.000286
604.422728	0.999664
604.772830	0.999376
605.122878	0.999817
605.472872	1.000362
605.822813	0.999521
606.172701	0.999715
606.522534	0.999770
606.872314	1.000549
607.222041	0.999228
607.571714	1.000136
607.921333	0.999394
608.270899	1.000023
608.620411	1.000112
608.969870	1.000495
609.319276	0.999657
609.668627	1.000694
610.017926	0.999355
610.367171	0.999772
610.716362	0.999395
611.065500	1.000142
611.414585	0.999742
611.763616	0.999276
612.112594	0.999740
612.461518	0.998606
612.810389	0.999779
613.159207	0.999999
613.507971	0.998749
613.856682	1.000657
614.205340	0.999182
614.553945	0.999211
614.902496	0.999030
615.250994	1.000850
615.599439	1.000440
615.947830	0.999275
616.296169	0.999904
616.644454	1.000322
616.992686	0.999803
617.340864	1.000578
617.688990	0.999858
618.037063	1.000710
618.385082	0.999611
618.733048	0.999564
619.080961	1.000180
619.428821	1.000284
619.776628	0.999945
620.124382	1.000391
620.472083	0.999435
620.819731	1.000723
621.167326	0.999874
621.514868	1.000443
621.862357	0.999921
622.209793	1.000234
622.557176	0.999573
622.904506	1.000280
623.251783	1.000347
623.599007	1.000049
623.946179	0.999461
624.293297	1.000805
624.640363	1.001046
624.987376	0.999576
625.334336	0.999910
625.681243	0.999230
626.028097	1.000377
626.374899	1.000234
626.721647	1.000861
627.068343	0.999523
627.414987	1.000267
627.761577	0.998914
628.108115	0.999474
628.454600	1.000111
628.801032	1.000115
629.147412	0.999513
629.493739	1.000607
629.840014	1.000525
630.186236	0.999655
630.532405	1.000436
630.878521	0.999505
631.224585	0.999785
631.570597	0.999735
631.916556	1.000235
632.262462	0.999254
632.608316	1.000107
632.954117	0.999459
633.299866	0.999862
633.645562	1.000158
633.991206	0.999788
634.336797	1.000193
634.682336	1.001194
635.027823	0.999689
635.373257	0.999971
635.718639	1.000143
636.063968	0.999913
636.409245	0.999679
636.754470	0.999773
637.099642	0.999780
637.444762	0.999574
637.789829	0.999765
638.134845	1.000153
638.479808	1.000144
638.824719	0.999866
639.169577	0.999453
639.514383	1.000027
639.859137	1.000024
640.203839	1.000165
640.548489	1.000069
640.893086	0.999167
641.237632	1.000530
641.582125	0.999769
641.926566	1.000498
642.270955	0.999689
642.615292	1.000447
642.959576	0.999428
643.303809	1.000867
643.647990	0.999681
643.992118	1.000272
644.336195	0.999490
644.680219	1.000312
645.024192	0.999762
645.368112	0.999237
645.711981	0.999703
646.055797	0.999465
646.399562	0.999779
646.743274	1.000075
647.086935	1.000000
647.430544	0.999601
647.774101	0.999566
648.117606	1.000058
648.461059	1.000167
648.804460	0.999701
649.147810	0.999920
649.491108	0.999398
649.834354	0.999936
650.177548	0.999847
650.520690	1.000190
650.863781	0.998550
651.206820	0.999849
651.549807	0.999676
651.892742	1.000092
652.235626	0.999705
652.578458	0.999782
652.921238	0.999356
653.263967	0.999982
653.606644	0.999835
653.949269	1.000684
654.291843	0.999337
654.634365	1.000093
654.976836	0.998988
655.319255	0.999831
655.661622	0.999670
656.003938	0.999621
656.346203	0.999468
656.688416	1.001293
657.030577	0.999583
657.372687	1.000208
657.714746	1.000053
658.056753	0.998771
658.398708	0.999037
658.740612	1.000248
659.082465	1.000133
659.424266	1.000291
659.766016	0.999492
660.107715	1.000141
660.449362	1.000284
660.790958	0.999513
661.132503	1.000222
661.473996	0.998897
661.815438	1.000092
662.156829	0.999347
662.498168	1.000896
662.839456	0.998664
663.180693	0.999756
663.521879	0.999550
663.863013	0.999744
664.204097	0.998390
664.545129	0.999655
664.886110	0.999687
665.227040	0.999686
665.567918	0.999923
665.908746	0.998360
666.249522	0.998289
666.590248	0.999551
666.930922	0.998943
667.271545	0.999583
667.612118	0.999013
667.952639	0.999207
668.293109	0.999657
668.633528	0.999308
668.973896	1.000104
669.314213	0.999168
669.654480	0.999914
669.994695	0.999195
670.334859	1.000126
670.674973	0.999180
671.015035	0.999760
671.355047	0.998949
671.695008	0.999168
672.034918	0.999412
672.374777	0.999595
672.714585	0.999596
673.054342	1.000115
673.394049	0.999446
673.733705	0.998642
674.073310	0.999704
674.412864	0.999198
674.752368	0.998626
675.091820	1.000910
675.431223	1.000442
675.770574	0.998583
676.109875	0.999434
676.449125	0.999235
676.788324	0.998383
677.127473	0.999542
677.466571	0.999371
677.805619	0.999631
678.144616	0.998857
678.483562	0.999304
678.822458	0.999719
679.161303	0.998918
679.500098	0.999711
679.838842	1.000467
680.177535	0.999296
680.516179	0.999096
680.854771	0.999309
681.193314	0.999305
681.531805	0.999039
681.870247	0.999202
682.208638	1.000084
682.546978	0.998803
682.885268	0.998974
683.223508	0.999347
683.561697	0.999146
683.899836	0.999785
684.237925	0.999213
684.575963	0.999002
684.913951	0.999291
685.251889	0.999022
685.589776	0.999225
685.927614	0.999557
686.265401	0.999171
686.603137	0.999475
686.940824	0.999058
687.278460	0.999273
687.616046	0.999794
687.953582	0.999618
688.291068	0.999415
688.628504	0.999167
688.965889	0.998826
689.303224	0.998648
689.640510	0.999144
689.977745	0.999147
690.314930	0.999243
690.652065	0.998732
690.989150	0.998039
691.326185	0.999230
691.663170	0.998759
692.000105	0.999314
692.336990	0.999364
692.673825	0.998826
693.010610	0.998538
693.347345	0.999254
693.684030	0.998489
694.020665	0.998730
694.357251	0.998398
694.693786	0.998393
695.030272	0.998347
695.366707	0.997634
695.703093	0.998719
696.039429	0.999153
696.375716	0.998780
696.711952	0.998534
697.048139	0.999151
697.384276	0.999256
697.720363	0.998725
698.056400	0.996640
698.392388	0.998450
698.728326	0.998336
699.064214	0.999997
699.400053	0.998976
699.735842	0.999514
700.071581	0.998872
700.407270	0.998167
700.742910	1.000011
701.078501	0.999325
701.414042	0.998686
701.749533	0.997866
702.084974	0.999112
702.420366	0.999294
702.755709	0.998686
703.091002	0.998798
703.426246	0.999923
703.761440	0.998589
704.096584	0.997856
704.431679	0.998896
704.766725	0.998539
705.101721	0.998823
705.436668	0.998447
705.771565	0.998284
706.106413	0.997783
706.441212	0.998083
706.775961	0.999069
707.110661	0.998140
707.445311	0.998457
707.779913	0.999199
708.114465	0.999368
708.448967	0.998997
708.783421	1.000406
709.117825	0.999114
709.452180	0.998497
709.786485	0.999393
710.120742	0.998540
710.454949	0.998057
710.789107	0.999237
711.123216	0.998232
711.457275	0.998133
711.791286	0.998798
712.125247	1.000296
712.459159	0.998699
712.793023	0.997848
713.126837	0.999181
713.460602	0.997733
713.794318	0.997819
714.127985	0.998055
714.461602	0.998480
714.795171	0.998086
715.128691	0.998374
715.462162	0.999787
715.795584	0.997716
716.128957	0.999065
716.462281	0.999546
716.795556	0.998520
717.128782	0.998930
717.461960	0.998551
717.795088	0.998087
718.128167	1.000543
718.461198	0.998602
718.794180	0.999255
719.127113	0.998761
719.459997	0.998435
719.792833	0.998071
720.125619	0.998155
720.458357	0.998210
720.791046	0.998427
721.123686	0.999102
721.456278	0.998342
721.788821	0.998526
722.121315	1.000208
722.453761	0.998758
722.786158	0.998138
723.118506	0.998240
723.450805	0.998123
723.783056	0.999032
724.115259	0.999276
724.447412	0.999406
724.779518	0.999634
725.111574	0.997783
725.443582	1.000207
725.775542	0.998727
726.107453	0.999060
726.439315	0.999409
726.771129	0.998865
727.102895	0.998562
727.434612	0.998615
727.766281	0.999147
728.097901	0.997509
728.429473	0.999406
728.760996	0.998447
729.092471	0.998400
729.423897	0.998166
729.755276	0.998733
730.086606	0.999013
730.417887	0.999499
730.749120	0.998385
731.080305	0.998451
731.411442	0.997398
731.742530	0.997208
732.073570	0.997850
732.404562	0.997607
732.735506	0.998494
733.066401	0.998244
733.397249	0.998335
733.728048	0.998696
734.058798	0.999243
734.389501	1.000045
734.720156	0.998353
735.050762	0.998969
735.381320	0.998029
735.711831	0.997946
736.042293	0.997889
736.372707	0.999409
736.703073	0.997789
737.033391	0.998504
737.363661	0.998419
737.693883	0.998174
738.024056	0.997922
738.354182	0.999185
738.684260	0.998866
739.014290	0.998597
739.344272	0.998567
739.674207	0.998922
740.004093	0.998303
740.333931	0.998599
740.663722	0.997801
740.993464	0.997823
741.323159	0.998577
741.652806	0.998580
741.982405	0.998345
742.311956	0.999328
742.641460	0.999139
742.970915	0.998360
743.300323	0.997684
743.629683	0.997899
743.958996	1.000155
744.288260	0.998321
744.617477	0.998895
744.946647	0.998094
745.275768	0.999889
745.604842	0.997441
745.933869	0.997685
746.262847	0.998956
746.591778	0.997468
746.920662	0.998856
747.249498	0.998923
747.578286	1.000162
747.907027	0.998673
748.235720	0.998919
748.564365	0.998300
748.892963	0.998668
749.221514	0.998659
749.550017	0.997213
749.878473	0.998328
750.206881	1.000843
750.535242	0.999336
750.863555	0.998071
751.191821	0.998051
751.520039	0.998492
751.848210	0.997147
752.176334	0.998239
752.504411	0.998792
752.832440	0.997470
753.160421	0.998652
753.488356	0.998898
753.816243	0.998269
754.144082	0.998080
754.471875	0.998122
754.799620	0.999713
755.127318	0.999681
755.454969	0.998024
755.782572	0.999402
756.110129	0.997991
756.437638	1.000003
756.765100	0.999202
757.092515	0.998286
757.419882	0.998406
757.747203	0.998297
758.074477	1.000032
758.401703	0.999165
758.728882	0.998244
759.056014	0.998785
759.383099	0.998483
759.710138	0.998194
760.037129	0.998660
760.364073	0.999001
760.690970	0.999037
761.017820	0.998351
761.344623	0.999333
761.671379	1.000083
761.998088	0.999013
762.324751	0.999178
762.651366	0.998613
762.977935	0.997936
763.304456	0.998685
763.630931	0.996831
763.957359	0.997885
764.283740	0.996819
764.610074	0.998116
764.936362	0.997673
765.262602	0.998694
765.588796	0.998532
765.914943	0.998858
766.241044	0.998751
766.567097	0.998029
766.893104	0.998219
767.219064	0.998164
767.544978	0.998694
767.870845	0.998125
768.196665	0.998819
768.522438	0.999451
768.848165	0.999090
769.173846	0.998865
769.499479	1.000147
769.825066	0.998429
770.150607	0.999738
770.476101	0.998131
770.801548	0.999532
771.126949	0.999667
771.452303	0.998443
771.777611	0.999296
772.102872	0.998031
772.428087	0.998377
772.753256	0.998954
773.078378	0.999482
773.403453	0.999011
773.728482	1.000056
774.053465	0.998974
774.378401	0.999332
774.703291	0.999848
775.028135	1.000012
775.352932	0.998137
775.677683	0.999795
776.002388	1.000338
776.327046	0.997734
776.651658	1.000201
776.976224	0.999834
777.300743	0.999561
777.625216	0.998946
777.949643	0.998844
778.274024	0.998225
778.598359	0.999059
778.922647	0.998435
779.246889	0.998990
779.571086	0.999818
779.895236	0.999479
780.219339	0.999848
780.543397	0.998633
780.867409	0.999173
781.191374	0.998513
781.515294	1.000065
781.839167	0.999983
782.162995	0.998928
782.486776	0.998123
782.810511	0.999575
783.134201	0.999786
783.457844	0.999388
783.781441	0.998302
784.104993	0.997921
784.428498	0.999723
784.751958	1.000367
785.075372	0.999360
785.398739	0.998608
785.722061	0.998774
786.045337	0.999982
786.368568	0.999112
786.691752	0.999229
787.014891	0.998536
787.337983	0.997884
787.661030	0.999225
787.984031	1.000081
788.306987	0.999279
788.629897	0.997608
788.952760	0.998938
789.275579	0.999459
789.598351	0.998120
789.921078	1.000524
790.243759	0.998680
790.566395	0.998643
790.888984	0.999661
791.211529	0.999595
791.534027	0.999440
791.856480	0.999179
792.178888	0.998676
792.501249	0.998392
792.823566	0.999950
793.145836	0.998870
793.468062	0.999098
793.790241	0.999801
794.112375	0.998615
794.434464	0.999489
794.756507	0.999267
795.078505	0.998725
795.400457	1.000516
795.722364	0.999396
796.044226	0.999895
796.366042	0.999237
796.687812	0.998681
797.009538	0.998510
797.331218	0.999370
797.652852	0.999561
797.974442	0.998326
798.295986	0.998851
798.617484	0.998711
798.938938	0.998833
799.260346	0.998756
799.581709	0.999063
799.903026	0.999587
800.224299	0.997993
800.545526	0.998430
800.866708	0.998753
801.187845	0.999243
801.508936	0.999412
801.829983	0.998295
802.150984	1.000325
802.471940	0.999830
802.792851	0.998431
803.113717	0.999683
803.434538	0.999863
803.755314	1.000522
804.076045	0.999878
804.396731	0.998059
804.717372	0.997912
805.037967	1.000252
805.358518	0.999824
805.679024	0.999030
805.999485	1.000513
806.319901	0.999244
806.640272	1.000425
806.960598	1.000013
807.280879	0.998894
807.601115	0.999019
807.921306	0.999851
808.241453	0.998384
808.561554	0.999405
808.881611	0.998962
809.201623	0.998646
809.521590	0.998283
809.841513	0.999768
810.161390	0.998725
810.481223	0.997846
810.801011	0.999679
811.120755	1.000119
811.440453	0.999241
811.760107	1.000492
812.079716	0.998688
812.399281	0.999504
812.718801	0.998420
813.038276	0.998949
813.357707	0.999360
813.677093	0.999921
813.996434	0.999574
814.315731	1.000726
814.634983	0.999561
814.954191	0.999709
815.273354	0.998165
815.592473	0.999046
815.911547	0.999775
816.230577	0.999000
816.549562	0.999934
816.868502	0.998407
817.187399	1.000100
817.506250	0.998952
817.825058	0.997987
818.143821	0.999285
818.462539	0.998660
818.781213	0.999809
819.099843	0.999813
819.418429	0.998610
819.736970	0.999654
820.055466	0.999074
820.373919	0.997751
820.692327	0.999148
821.010691	0.997171
821.329011	0.996746
821.647286	0.996677
821.965517	0.996520
822.283704	0.996117
822.601847	0.995841
822.919945	0.995689
823.237999	0.996192
823.556010	0.995857
823.873976	0.996422
824.191897	0.996711
824.509775	0.997050
824.827609	0.997702
825.145398	0.997825
825.463144	0.996115
825.780845	0.997150
826.098502	0.996889
826.416116	0.997632
826.733685	0.997634
827.051210	0.996764
827.368692	0.996803
827.686129	0.997285
828.003522	0.998315
828.320872	0.997660
828.638177	0.997507
828.955439	0.998788
829.272656	0.999161
829.589830	0.997596
829.906960	1.000047
830.224046	0.998209
830.541088	0.998344
830.858086	0.998966
831.175041	1.000093
831.491952	0.999415
831.808819	0.998711
832.125642	0.998718
832.442421	0.999427
832.759157	1.000637
833.075849	0.998710
833.392497	0.998340
833.709101	0.997211
834.025662	0.997867
834.342179	0.997564
834.658653	0.999500
834.975083	0.999549
835.291469	0.999624
835.607811	0.997892
835.924110	0.998957
836.240366	1.000945
836.556578	0.999910
836.872746	1.000125
837.188871	0.999575
837.504952	0.998799
837.820990	0.999809
838.136984	0.998906
838.452935	0.999014
838.768842	1.000154
839.084706	0.999934
839.400526	1.000001
839.716303	0.997781
840.032037	0.999658
840.347727	0.998554
840.663373	0.999525
840.978977	0.998602
841.294537	0.999694
841.610054	0.998952
841.925527	0.999778
842.240957	0.999709
842.556344	0.998936
842.871687	0.999035
843.186987	0.998748
843.502244	0.999652
843.817458	0.998934
844.132629	0.999400
844.447756	1.000056
844.762840	0.999071
845.077881	1.000008
845.392879	0.998832
845.707833	1.000004
846.022745	0.999147
846.337613	0.999444
846.652438	0.999617
846.967221	1.000324
847.281960	0.999909
847.596656	1.000592
847.911309	0.999873
848.225919	0.999209
848.540485	0.999777
848.855009	1.000832
849.169490	0.999278
849.483928	1.000463
849.798323	0.999338
850.112675	1.000506
850.426984	1.000583
850.741251	1.000089
851.055474	0.998915
851.369654	0.999384
851.683792	0.999093
851.997887	0.999849
852.311938	1.000884
852.625947	0.999257
852.939914	0.999118
853.253837	1.000519
853.567718	1.000439
853.881555	0.998765
854.195350	0.998912
854.509103	1.001071
854.822812	0.999853
855.136479	1.000309
855.450103	1.000527
855.763685	1.000897
856.077224	0.999713
856.390720	0.999486
856.704173	1.000196
857.017584	0.999681
857.330953	0.999821
857.644278	0.999412
857.957561	1.000499
858.270802	1.000958
858.584000	0.999256
858.897155	0.999354
859.210268	0.999539
859.523339	0.999912
859.836367	1.000765
860.149352	0.999305
860.462295	0.999433
860.775195	0.999616
861.088054	0.998238
861.400869	0.999430
861.713642	0.999440
862.026373	1.000713
862.339062	1.000400
862.651708	0.999716
862.964312	0.999497
863.276873	1.000255
863.589392	0.999567
863.901869	0.999088
864.214303	0.999800
864.526696	0.999414
864.839045	1.001243
865.151353	0.998955
865.463619	0.998919
865.775842	1.000198
866.088023	1.000202
866.400162	1.000315
866.712258	1.000934
867.024313	0.999912
867.336325	1.000640
867.648296	1.000739
867.960224	1.000559
868.272110	1.000373
868.583954	1.000046
868.895755	1.000316
869.207515	0.999751
869.519233	1.000362
869.830909	0.998945
870.142542	0.998922
870.454134	1.000064
870.765684	0.999722
871.077191	1.000039
871.388657	0.999496
871.700081	1.000411
872.011463	1.000759
872.322803	0.999633
872.634101	1.000465
872.945357	0.999108
873.256571	0.999604
873.567744	0.998902
873.878874	0.998715
874.189963	0.999888
874.501010	1.001711
874.812015	1.000139
875.122979	1.000334
875.433900	1.000543
875.744780	1.000434
876.055618	0.998823
876.366415	0.998704
876.677169	0.999588
876.987882	0.999117
877.298554	1.000445
877.609183	0.999598
877.919771	0.999754
878.230317	1.000542
878.540822	0.999418
878.851285	0.999120
879.161707	0.999028
879.472087	1.000665
879.782425	0.998785
880.092722	0.998118
880.402977	0.998365
880.713191	0.998114
881.023363	0.997438
881.333494	0.997795
881.643583	0.998825
881.953631	0.997568
882.263637	0.997365
882.573602	0.997286
882.883526	0.997627
883.193408	0.997727
883.503248	0.997742
883.813048	0.998069
884.122806	0.998515
884.432522	0.998831
884.742197	0.999704
885.051831	0.999218
885.361424	0.999363
885.670975	1.000155
885.980485	0.999534
886.289954	0.998987
886.599382	0.999127
886.908768	1.000170
887.218113	0.999930
887.527417	1.000281
887.836680	1.000561
888.145901	0.999993
888.455082	1.001409
888.764221	0.999677
889.073319	0.999565
889.382376	1.000583
889.691392	0.999803
890.000366	0.999036
890.309300	1.000058
890.618193	1.000405
890.927044	0.999066
891.235855	0.999919
891.544625	0.999779
891.853353	0.999316
892.162041	1.000030
892.470687	1.000813
892.779293	0.999508
893.087858	0.998675
893.396381	0.998895
893.704864	0.999054
894.013306	0.999109
894.321707	0.999252
894.630068	0.998408
894.938387	0.998390
895.246665	0.998956
895.554903	0.997429
895.863100	0.998998
896.171256	0.998703
896.479371	0.998421
896.787446	0.998838
897.095480	0.999465
897.403473	0.999915
897.711425	0.999429
898.019336	0.999848
898.327207	1.000355
898.635038	0.998880
898.942827	1.000359
899.250576	0.998984
899.558284	1.000581
899.865952	0.999359
900.173579	1.000079
900.481165	0.999042
900.788711	1.000115
901.096216	0.999004
901.403681	0.999444
901.711105	0.999550
902.018489	0.999401
902.325832	1.000222
902.633135	0.999459
902.940397	0.999544
903.247619	0.999801
903.554800	0.998488
903.861941	0.998719
904.169041	0.999867
904.476101	0.999790
904.783121	0.998394
905.090100	0.999472
905.397039	0.998786
905.703938	0.999290
906.010796	0.999149
906.317614	0.999567
906.624391	1.000030
906.931129	1.000010
907.237826	1.000043
907.544483	1.000121
907.851099	0.999656
908.157675	0.998834
908.464211	0.999900
908.770707	0.999338
909.077163	0.999925
909.383578	0.999585
909.689954	0.999015
909.996289	0.999057
910.302584	1.000888
910.608839	1.001249
910.915054	0.999547
911.221229	1.001477
911.527363	0.999137
911.833458	1.000568
912.139513	1.000467
912.445527	0.999955
912.751502	0.999690
913.057436	1.000088
913.363331	1.001104
913.669186	1.000166
913.975000	0.999547
914.280775	0.999923
914.586510	0.999702
914.892205	0.998570
915.197859	0.998595
915.503475	0.999697
915.809050	0.998568
916.114585	0.997528
916.420081	0.999535
916.725536	0.998800
917.030952	0.999335
917.336328	0.998607
917.641665	0.997892
917.946961	0.998692
918.252218	0.998184
918.557435	0.998849
918.862612	1.000004
919.167750	0.999719
919.472848	0.999825
919.777906	1.000192
920.082925	1.001276
920.387904	1.000353
920.692843	0.999205
920.997743	0.998848
921.302603	0.999543
921.607423	0.998797
921.912204	0.999155
922.216946	1.000365
922.521647	1.000765
922.826310	0.998745
923.130932	0.999392
923.435516	1.000183
923.740059	0.998870
924.044564	0.999480
924.349028	0.999969
924.653454	1.000142
924.957840	0.999422
925.262186	0.999793
925.566493	1.000059
925.870761	0.999757
926.174989	0.999367
926.479178	1.000467
926.783328	0.999952
927.087438	0.999798
927.391509	0.998421
927.695541	1.000657
927.999533	0.999809
928.303486	0.999607
928.607400	1.000398
928.911275	1.000361
929.215110	1.001956
929.518906	1.001129
929.822663	1.001772
930.126381	1.001269
930.430060	1.000081
930.733699	1.001107
931.037299	1.000320
931.340861	1.001597
931.644383	0.999249
931.947866	1.000287
932.251309	1.000451
932.554714	0.999857
932.858080	1.000057
933.161407	0.998247
933.464694	1.000479
933.767943	0.998729
934.071153	1.000712
934.374323	1.000984
934.677455	1.000759
934.980548	1.000256
935.283602	1.000349
935.586617	0.999370
935.889593	1.001367
936.192530	1.000974
936.495428	0.999959
936.798287	0.998666
937.101108	1.000813
937.403890	0.999586
937.706632	1.000445
938.009336	0.999897
938.312002	0.999118
938.614628	0.998919
938.917216	0.999873
939.219765	0.999924
939.522275	0.999981
939.824747	0.999323
940.127179	0.999876
940.429573	1.001318
940.731929	0.999537
941.034246	0.999670
941.336524	0.999238
941.638763	1.000016
941.940964	0.999985
942.243126	1.000019
942.545250	1.000726
942.847335	0.999558
943.149381	1.000083
943.451389	1.000292
943.753359	0.999395
944.055290	1.000473
944.357182	1.000783
944.659036	0.999281
944.960851	1.000784
945.262628	1.000826
945.564367	1.000283
945.866067	0.999524
946.167729	0.999507
946.469352	1.000239
946.770937	0.998543
947.072484	1.001065
947.373992	0.999692
947.675462	0.999709
947.976893	0.999001
948.278286	1.002324
948.579641	1.001018
948.880958	0.998324
949.182236	1.000586
949.483476	1.001089
949.784678	0.999602
950.085841	0.999367
950.386967	0.999387
950.688054	1.000725
950.989103	0.998954
951.290114	0.998247
951.591087	0.999159
951.892021	0.999317
952.192917	1.000475
952.493776	0.999616
952.794596	0.999712
953.095378	0.999497
953.396122	0.998901
953.696828	0.999975
953.997496	0.999750
954.298126	1.001348
954.598718	0.998912
954.899272	1.000695
955.199788	0.999035
955.500266	1.000865
955.800706	1.000431
956.101108	0.999868
956.401472	1.001542
956.701798	0.999579
957.002087	0.999426
957.302337	1.000076
957.602550	0.999128
957.902724	1.000283
958.202861	0.999474
958.502960	0.998133
958.803022	1.000193
959.103045	0.999973
959.403031	1.000546
959.702979	1.000059
960.002889	0.999712
960.302762	0.999351
960.602596	1.000468
960.902393	1.000649
961.202153	0.999727
961.501875	0.999774
961.801559	1.000451
962.101205	0.999519
962.400814	1.000902
962.700385	1.000412
962.999918	1.000715
963.299414	0.999316
963.598873	1.000081
963.898293	1.000236
964.197677	0.999616
964.497022	0.999349
964.796331	0.999158
965.095601	1.000843
965.394835	1.001117
965.694030	1.000927
965.993189	0.999519
966.292309	1.000177
966.591393	0.999005
966.890439	1.000012
967.189447	1.000820
967.488419	0.999114
967.787353	1.000158
968.086249	0.998665
968.385108	1.000814
968.683930	1.001177
968.982714	0.999579
969.281462	1.000760
969.580172	0.999683
969.878844	1.000582
970.177480	1.000293
970.476078	1.001225
970.774639	1.000207
971.073162	0.998760
971.371649	0.998791
971.670098	0.998812
971.968510	1.000036
972.266885	0.999988
972.565223	0.998026
972.863524	0.999044
973.161788	1.000616
973.460014	1.001235
973.758204	0.999653
974.056356	0.999538
974.354471	0.999411
974.652550	1.001507
974.950591	0.999137
975.248595	0.998701
975.546563	1.000383
975.844493	1.000967
976.142386	0.999314
976.440243	1.001148
976.738062	0.999899
977.035845	1.000196
977.333590	1.000948
977.631299	0.999408
977.928971	0.999577
978.226606	0.999506
978.524204	0.999338
978.821765	1.000113
979.119290	1.000803
979.416777	0.999673
979.714228	0.999707
980.011642	1.000177
980.309020	0.999594
980.606360	0.999434
980.903664	0.999983
981.200931	1.000331
981.498162	1.000275
981.795356	0.999355
982.092513	0.999701
982.389633	1.000294
982.686717	0.998684
982.983764	1.000498
983.280775	0.999612
983.577749	1.001941
983.874686	0.998051
984.171587	0.998774
984.468451	1.000064
984.765279	1.000541
985.062070	0.999525
985.358824	0.999220
985.655543	0.999915
985.952224	1.000616
986.248869	0.999683
986.545478	1.000856
986.842050	0.999584
987.138586	0.999179
987.435086	0.999209
987.731549	1.000618
988.027975	1.000825
988.324366	0.999504
988.620719	1.000168
988.917037	0.999630
989.213318	1.000683
989.509563	1.000287
989.805772	1.000727
990.101944	1.000950
990.398080	1.000742
990.694180	1.000288
990.990244	0.999486
991.286271	0.999158
991.582262	0.999806
991.878217	0.999796
992.174136	1.001420
992.470019	0.999957
992.765865	1.002306
993.061676	0.999768
993.357450	1.001091
993.653188	1.001452
993.948890	0.998989
994.244556	1.000535
994.540186	0.999326
994.835780	0.998833
995.131337	1.000944
995.426859	0.999854
995.722345	0.999961
996.017795	0.998904
996.313208	0.999917
996.608586	0.999869
996.903928	1.000896
997.199234	1.001606
997.494504	1.000814
997.789738	0.998269
998.084936	1.000843
998.380099	0.999805
998.675225	1.000716
998.970316	1.000764
999.265371	0.999909
999.560390	1.000616
999.855373	1.000051
1000.150320	1.000091
1000.445232	1.000451
1000.740108	1.001266
1001.034948	0.999246
1001.329752	1.000628
1001.624521	1.000648
1001.919254	0.999568
1002.213951	1.000144
1002.508613	0.999303
1002.803239	0.998854
1003.097829	0.999793
1003.392384	1.000391
1003.686903	1.000830
1003.981386	1.000588
1004.275834	1.000718
1004.570246	0.998289
1004.864623	1.000533
1005.158964	0.999749
1005.453270	1.000098
1005.747540	0.999906
1006.041775	1.000878
1006.335974	0.999509
1006.630138	0.999682
1006.924266	0.999003
1007.218359	0.999010
1007.512416	0.999875
1007.806438	0.999595
1008.100425	0.999748
1008.394376	1.000647
1008.688292	0.999016
1008.982172	0.998898
1009.276017	1.001837
1009.569827	1.001083
1009.863602	0.998732
1010.157341	1.000291
1010.451045	0.999936
1010.744714	1.001788
1011.038347	1.000680
1011.331945	0.999805
1011.625508	1.000076
1011.919036	1.000720
1012.212528	1.001181
1012.505986	0.999427
1012.799408	0.999852
1013.092795	1.000332
1013.386147	0.999672
1013.679464	1.000927
1013.972745	0.999376
1014.265992	0.999742
1014.559204	0.999640
1014.852380	1.000325
1015.145521	1.000460
1015.438628	1.000135
1015.731699	0.998661
1016.024736	1.000641
1016.317737	1.000458
1016.610703	1.000213
1016.903635	1.000529
1017.196531	1.000201
1017.489393	0.999671
1017.782219	0.999655
1018.075011	0.998562
1018.367768	1.000107
1018.660490	1.000724
1018.953177	1.000724
1019.245829	1.000724
