Dividing Wavelength (nm)	Counts (n)	Blue Motor Position (mm): 25.400000	Red Motor Position (mm): 0.000000	
326.493990	1.000341
326.888308	1.000341
327.282561	1.000341
327.676750	1.001183
328.070874	1.002438
328.464933	1.001949
328.858929	1.001191
329.252859	0.999461
329.646726	1.001434
330.040528	1.001265
330.434265	1.000575
330.827938	1.000386
331.221547	1.000948
331.615091	1.000673
332.008571	1.001142
332.401986	1.000683
332.795338	1.000795
333.188625	1.001162
333.581847	0.999445
333.975006	1.000735
334.368100	1.001207
334.761129	1.000108
335.154095	1.001170
335.546996	1.000350
335.939833	0.998310
336.332606	1.000072
336.725315	0.998117
337.117960	0.999918
337.510540	0.998324
337.903056	1.000150
338.295508	0.999912
338.687896	0.999750
339.080220	0.999634
339.472480	0.998779
339.864676	0.999984
340.256807	0.997898
340.648875	0.999125
341.040879	0.998839
341.432818	1.000002
341.824694	0.999766
342.216506	0.999829
342.608253	0.998618
342.999937	0.997452
343.391557	0.998831
343.783113	1.000366
344.174605	0.999714
344.566033	0.997854
344.957397	1.000101
345.348697	0.999493
345.739934	0.998989
346.131106	0.999404
346.522215	0.998784
346.913260	0.999600
347.304241	0.998151
347.695159	0.999615
348.086012	0.998320
348.476802	0.998738
348.867528	0.998068
349.258191	0.999192
349.648789	0.999394
350.039324	0.998560
350.429796	0.998709
350.820203	0.997639
351.210548	0.998889
351.600828	0.999166
351.991045	0.998287
352.381198	0.999503
352.771288	0.997655
353.161314	0.999575
353.551276	0.997740
353.941175	0.997078
354.331010	0.998657
354.720782	0.999359
355.110490	0.997919
355.500135	0.999229
355.889717	0.998349
356.279235	0.997169
356.668689	0.998533
357.058080	0.998542
357.447408	0.997318
357.836672	0.996518
358.225873	0.997684
358.615010	0.998424
359.004084	0.997106
359.393095	0.998682
359.782043	0.998303
360.170927	0.998089
360.559748	0.997843
360.948505	0.996849
361.337199	0.997817
361.725830	0.997678
362.114398	0.997750
362.502903	0.995710
362.891344	0.996140
363.279722	0.996320
363.668037	0.997797
364.056289	0.997003
364.444478	0.998689
364.832603	0.996447
365.220665	0.997530
365.608665	0.996783
365.996601	0.997020
366.384474	0.995252
366.772284	0.997519
367.160031	0.994974
367.547715	0.996043
367.935336	0.994225
368.322893	0.993536
368.710388	0.992288
369.097820	0.990944
369.485189	0.989441
369.872495	0.986912
370.259738	0.985280
370.646918	0.981245
371.034035	0.978906
371.421090	0.976701
371.808081	0.971581
372.195010	0.969500
372.581875	0.963555
372.968678	0.958667
373.355418	0.955721
373.742096	0.948846
374.128710	0.944033
374.515262	0.939865
374.901751	0.934097
375.288177	0.929596
375.674540	0.921928
376.060841	0.915172
376.447079	0.908569
376.833254	0.902238
377.219367	0.897791
377.605417	0.885902
377.991404	0.882243
378.377329	0.876591
378.763191	0.869751
379.148991	0.861139
379.534727	0.853226
379.920402	0.845861
380.306013	0.841775
380.691563	0.829244
381.077049	0.823688
381.462474	0.818936
381.847835	0.806563
382.233134	0.802200
382.618371	0.802977
383.003545	0.785027
383.388657	0.782555
383.773706	0.775593
384.158693	0.772300
384.543618	0.767149
384.928480	0.758357
385.313280	0.748308
385.698017	0.746925
386.082692	0.735955
386.467305	0.734480
386.851856	0.728863
387.236344	0.723770
387.620770	0.717719
388.005133	0.712820
388.389435	0.706151
388.773674	0.703568
389.157851	0.696077
389.541965	0.694160
389.926018	0.700565
390.310008	0.686403
390.693936	0.683302
391.077802	0.675146
391.461606	0.677470
391.845348	0.666359
392.229027	0.665553
392.612645	0.663694
392.996200	0.651160
393.379694	0.644425
393.763125	0.634808
394.146494	0.639598
394.529801	0.630178
394.913047	0.621295
395.296230	0.627570
395.679351	0.619493
396.062410	0.615594
396.445408	0.618948
396.828343	0.614021
397.211217	0.608649
397.594028	0.621409
397.976778	0.611392
398.359466	0.607754
398.742092	0.603305
399.124656	0.614929
399.507158	0.603304
399.889598	0.600967
400.271977	0.591380
400.654294	0.596328
401.036549	0.594611
401.418742	0.599102
401.800874	0.585605
402.182944	0.581688
402.564952	0.573666
402.946898	0.575399
403.328783	0.576274
403.710606	0.587540
404.092367	0.562189
404.474067	0.567158
404.855705	0.566781
405.237282	0.575319
405.618797	0.560752
406.000250	0.556875
406.381642	0.547405
406.762972	0.552839
407.144240	0.550725
407.525447	0.550646
407.906593	0.543468
408.287677	0.539358
408.668700	0.547108
409.049661	0.541444
409.430560	0.536214
409.811399	0.544859
410.192176	0.526706
410.572891	0.534212
410.953545	0.521539
411.334138	0.535951
411.714669	0.527583
412.095139	0.540796
412.475547	0.524083
412.855894	0.526343
413.236180	0.524847
413.616405	0.530923
413.996568	0.521328
414.376670	0.527253
414.756711	0.532438
415.136691	0.529012
415.516609	0.520418
415.896466	0.516618
416.276262	0.513355
416.655997	0.514549
417.035670	0.496050
417.415283	0.487436
417.794834	0.492726
418.174324	0.498291
418.553753	0.507401
418.933121	0.489366
419.312428	0.483499
419.691674	0.489137
420.070859	0.476830
420.449983	0.485790
420.829045	0.474470
421.208047	0.483830
421.586988	0.476231
421.965867	0.475388
422.344686	0.464348
422.723444	0.476480
423.102141	0.493773
423.480777	0.466041
423.859352	0.488069
424.237866	0.464552
424.616319	0.465047
424.994712	0.455767
425.373044	0.466467
425.751314	0.455246
426.129524	0.470918
426.507673	0.454042
426.885762	0.448579
427.263789	0.454007
427.641756	0.463430
428.019662	0.453522
428.397508	0.452956
428.775292	0.457691
429.153016	0.449471
429.530679	0.455445
429.908282	0.449131
430.285824	0.458533
430.663305	0.437098
431.040726	0.458033
431.418086	0.458021
431.795385	0.450069
432.172624	0.449232
432.549802	0.449428
432.926920	0.448120
433.303977	0.447719
433.680974	0.444760
434.057910	0.443774
434.434786	0.442716
434.811601	0.445490
435.188355	0.428370
435.565050	0.437576
435.941683	0.438740
436.318257	0.422563
436.694770	0.424069
437.071222	0.421657
437.447614	0.426179
437.823946	0.432509
438.200218	0.422222
438.576429	0.431892
438.952580	0.424732
439.328670	0.421143
439.704700	0.427848
440.080670	0.429965
440.456580	0.410886
440.832429	0.418636
441.208218	0.429339
441.583947	0.419115
441.959616	0.418200
442.335224	0.423635
442.710773	0.414539
443.086261	0.412777
443.461689	0.426499
443.837057	0.417155
444.212365	0.406471
444.587612	0.413593
444.962800	0.403905
445.337927	0.405123
445.712995	0.431990
446.088002	0.393669
446.462949	0.404315
446.837837	0.409407
447.212664	0.398080
447.587431	0.390003
447.962139	0.360854
448.336786	0.320514
448.711374	0.331031
449.085901	0.375607
449.460369	0.380399
449.834776	0.384591
450.209124	0.364317
450.583412	0.357960
450.957640	0.351337
451.331808	0.363738
451.705917	0.387629
452.079965	0.393092
452.453954	0.382138
452.827883	0.389746
453.201752	0.385653
453.575562	0.397295
453.949311	0.387960
454.323001	0.394860
454.696632	0.391923
455.070202	0.385874
455.443713	0.379417
455.817164	0.375742
456.190556	0.373421
456.563888	0.372703
456.937160	0.370993
457.310373	0.389264
457.683526	0.389838
458.056619	0.397433
458.429653	0.399874
458.802628	0.405317
459.175542	0.402324
459.548398	0.388084
459.921194	0.383829
460.293930	0.387206
460.666607	0.369928
461.039224	0.362206
461.411782	0.361321
461.784280	0.363063
462.156719	0.369403
462.529099	0.375908
462.901419	0.394394
463.273680	0.401209
463.645882	0.403555
464.018024	0.414091
464.390106	0.410798
464.762130	0.401116
465.134094	0.392807
465.505999	0.373902
465.877845	0.354595
466.249631	0.346715
466.621358	0.356176
466.993026	0.372161
467.364634	0.381714
467.736184	0.394183
468.107674	0.407615
468.479105	0.413714
468.850477	0.423376
469.221790	0.435000
469.593043	0.449281
469.964238	0.459684
470.335373	0.465702
470.706449	0.470604
471.077467	0.477335
471.448425	0.456772
471.819324	0.446445
472.190164	0.451006
472.560945	0.478527
472.931667	0.503091
473.302330	0.511925
473.672934	0.528098
474.043479	0.527163
474.413965	0.535858
474.784393	0.546636
475.154761	0.550008
475.525070	0.555910
475.895321	0.566566
476.265513	0.570569
476.635645	0.574708
477.005719	0.583542
477.375734	0.588183
477.745691	0.592389
478.115588	0.598304
478.485427	0.602972
478.855207	0.602988
479.224928	0.602023
479.594591	0.602716
479.964194	0.613720
480.333739	0.621142
480.703226	0.632678
481.072653	0.639198
481.442022	0.646764
481.811333	0.651886
482.180584	0.661876
482.549777	0.673510
482.918912	0.682117
483.287988	0.690462
483.657005	0.697854
484.025964	0.708897
484.394864	0.715353
484.763706	0.724216
485.132489	0.733343
485.501213	0.741509
485.869879	0.747285
486.238487	0.757469
486.607036	0.763457
486.975527	0.772850
487.343959	0.776754
487.712333	0.784457
488.080648	0.791207
488.448905	0.798495
488.817104	0.804634
489.185244	0.809912
489.553326	0.815568
489.921350	0.818574
490.289315	0.817077
490.657222	0.820430
491.025070	0.827825
491.392861	0.834321
491.760593	0.843450
492.128267	0.851553
492.495883	0.858653
492.863440	0.865779
493.230939	0.873180
493.598380	0.878033
493.965763	0.882933
494.333088	0.886578
494.700354	0.892964
495.067563	0.896541
495.434713	0.902158
495.801805	0.905618
496.168839	0.909806
496.535815	0.914198
496.902733	0.917705
497.269593	0.921543
497.636395	0.923983
498.003139	0.927739
498.369825	0.932027
498.736453	0.933682
499.103023	0.937624
499.469535	0.940408
499.835989	0.943295
500.202385	0.945803
500.568723	0.948528
500.935003	0.950803
501.301226	0.953869
501.667390	0.954887
502.033497	0.957155
502.399546	0.959689
502.765537	0.961698
503.131470	0.963883
503.497345	0.965712
503.863163	0.967179
504.228923	0.968682
504.594625	0.969990
504.960269	0.972511
505.325856	0.973872
505.691385	0.975459
506.056856	0.976081
506.422270	0.976575
506.787625	0.977446
507.152924	0.979052
507.518164	0.979818
507.883347	0.980658
508.248472	0.982320
508.613540	0.982090
508.978550	0.983343
509.343503	0.983835
509.708398	0.984935
510.073236	0.985132
510.438016	0.985594
510.802738	0.985735
511.167403	0.986663
511.532010	0.987381
511.896561	0.987260
512.261053	0.987991
512.625488	0.987995
512.989866	0.988378
513.354186	0.988617
513.718449	0.989180
514.082655	0.989088
514.446803	0.989679
514.810894	0.991023
515.174927	0.990571
515.538904	0.990433
515.902822	0.990865
516.266684	0.990956
516.630488	0.990493
516.994235	0.991216
517.357925	0.991930
517.721558	0.991703
518.085133	0.991436
518.448651	0.991568
518.812112	0.992421
519.175516	0.991728
519.538863	0.991481
519.902152	0.992112
520.265385	0.992363
520.628560	0.992211
520.991678	0.991957
521.354739	0.993502
521.717743	0.992654
522.080690	0.992325
522.443580	0.992801
522.806413	0.992620
523.169189	0.993342
523.531908	0.992355
523.894569	0.992783
524.257174	0.993675
524.619722	0.993435
524.982213	0.993355
525.344647	0.992942
525.707025	0.992230
526.069345	0.992953
526.431608	0.993643
526.793815	0.994231
527.155964	0.993932
527.518057	0.993958
527.880093	0.993370
528.242072	0.993988
528.603995	0.993518
528.965860	0.994599
529.327669	0.993779
529.689421	0.993274
530.051117	0.993701
530.412755	0.994208
530.774337	0.993892
531.135862	0.994430
531.497331	0.994191
531.858743	0.994737
532.220098	0.994209
532.581396	0.994172
532.942638	0.994431
533.303824	0.995302
533.664953	0.993850
534.026025	0.994917
534.387040	0.994283
534.747999	0.993363
535.108902	0.993837
535.469748	0.994584
535.830537	0.994317
536.191270	0.994069
536.551947	0.993848
536.912567	0.994317
537.273131	0.994391
537.633638	0.994025
537.994089	0.994426
538.354483	0.994386
538.714821	0.994435
539.075103	0.994147
539.435328	0.994720
539.795497	0.995028
540.155609	0.994255
540.515665	0.994701
540.875665	0.994449
541.235609	0.994560
541.595496	0.993734
541.955328	0.994580
542.315102	0.994618
542.674821	0.994498
543.034483	0.994376
543.394090	0.993845
543.753640	0.994270
544.113134	0.994014
544.472571	0.995739
544.831953	0.994327
545.191278	0.994350
545.550548	0.994205
545.909761	0.993841
546.268918	0.995315
546.628019	0.994508
546.987064	0.994328
547.346053	0.993576
547.704986	0.994377
548.063863	0.993676
548.422684	0.994454
548.781449	0.994942
549.140158	0.994787
549.498811	0.994255
549.857408	0.993488
550.215949	0.994062
550.574434	0.993916
550.932864	0.994273
551.291237	0.993784
551.649555	0.994871
552.007817	0.994333
552.366022	0.994751
552.724173	0.994899
553.082267	0.994320
553.440305	0.993489
553.798288	0.993231
554.156215	0.994042
554.514086	0.994249
554.871902	0.994208
555.229661	0.994057
555.587365	0.994511
555.945014	0.994684
556.302606	0.993932
556.660143	0.994915
557.017625	0.995067
557.375050	0.993829
557.732421	0.994280
558.089735	0.994106
558.446994	0.994082
558.804197	0.994130
559.161345	0.993927
559.518437	0.993858
559.875474	0.993946
560.232455	0.994706
560.589381	0.995021
560.946251	0.994343
561.303065	0.994296
561.659825	0.994593
562.016528	0.994222
562.373177	0.994397
562.729770	0.994065
563.086307	0.994361
563.442789	0.994002
563.799216	0.993581
564.155587	0.994359
564.511904	0.994894
564.868164	0.993696
565.224370	0.993756
565.580520	0.994244
565.936615	0.994596
566.292654	0.993650
566.648638	0.994320
567.004567	0.993620
567.360441	0.993831
567.716260	0.993801
568.072023	0.993493
568.427732	0.994424
568.783385	0.994187
569.138982	0.994252
569.494525	0.994535
569.850013	0.994064
570.205445	0.994656
570.560823	0.994410
570.916145	0.993926
571.271412	0.993881
571.626625	0.994243
571.981782	0.994323
572.336884	0.994550
572.691931	0.994002
573.046923	0.994951
573.401860	0.993534
573.756743	0.994234
574.111570	0.994133
574.466342	0.994821
574.821059	0.993709
575.175722	0.994745
575.530330	0.994233
575.884882	0.994543
576.239380	0.994431
576.593823	0.994174
576.948211	0.994268
577.302544	0.994066
577.656823	0.994768
578.011047	0.993254
578.365216	0.994591
578.719330	0.993900
579.073389	0.993431
579.427394	0.994127
579.781344	0.994640
580.135239	0.994082
580.489080	0.993719
580.842866	0.993916
581.196597	0.993850
581.550273	0.993594
581.903895	0.994107
582.257463	0.994007
582.610975	0.993842
582.964434	0.994167
583.317837	0.994741
583.671186	0.994231
584.024481	0.993526
584.377721	0.993708
584.730906	0.993895
585.084037	0.995038
585.437113	0.994629
585.790135	0.993453
586.143103	0.994301
586.496016	0.993762
586.848874	0.994707
587.201679	0.994449
587.554428	0.994400
587.907124	0.995397
588.259765	0.994602
588.612352	0.994884
588.964884	0.994696
589.317362	0.994226
589.669786	0.993542
590.022155	0.993604
590.374470	0.994358
590.726731	0.993399
591.078937	0.993719
591.431090	0.993955
591.783188	0.993389
592.135232	0.994250
592.487222	0.994144
592.839157	0.994115
593.191038	0.994618
593.542866	0.993952
593.894639	0.993110
594.246358	0.994871
594.598022	0.994872
594.949633	0.993878
595.301190	0.993781
595.652692	0.994004
596.004141	0.993991
596.355535	0.993812
596.706876	0.994421
597.058162	0.994084
597.409395	0.994164
597.760573	0.994307
598.111698	0.993498
598.462768	0.993144
598.813785	0.993343
599.164748	0.993597
599.515657	0.993405
599.866511	0.994560
600.217312	0.994889
600.568060	0.993760
600.918753	0.994407
601.269392	0.994079
601.619978	0.994557
601.970510	0.993435
602.320988	0.994026
602.671412	0.994092
603.021783	0.994413
603.372100	0.994394
603.722363	0.994252
604.072572	0.993904
604.422728	0.993431
604.772830	0.993604
605.122878	0.994636
605.472872	0.994736
605.822813	0.993800
606.172701	0.994958
606.522534	0.994421
606.872314	0.995036
607.222041	0.993946
607.571714	0.994217
607.921333	0.994736
608.270899	0.993200
608.620411	0.993579
608.969870	0.995055
609.319276	0.994146
609.668627	0.995298
610.017926	0.994272
610.367171	0.993681
610.716362	0.994402
611.065500	0.994249
611.414585	0.994401
611.763616	0.993505
612.112594	0.993855
612.461518	0.993472
612.810389	0.994313
613.159207	0.993867
613.507971	0.993109
613.856682	0.994869
614.205340	0.993469
614.553945	0.994357
614.902496	0.993323
615.250994	0.993533
615.599439	0.994083
615.947830	0.993226
616.296169	0.993495
616.644454	0.994053
616.992686	0.994251
617.340864	0.994397
617.688990	0.993914
618.037063	0.994083
618.385082	0.993805
618.733048	0.993464
619.080961	0.993435
619.428821	0.994058
619.776628	0.993228
620.124382	0.994000
620.472083	0.993854
620.819731	0.994882
621.167326	0.994330
621.514868	0.994559
621.862357	0.994448
622.209793	0.994201
622.557176	0.994127
622.904506	0.994585
623.251783	0.994123
623.599007	0.995005
623.946179	0.993546
624.293297	0.994196
624.640363	0.994179
624.987376	0.993513
625.334336	0.993881
625.681243	0.994441
626.028097	0.994186
626.374899	0.994173
626.721647	0.994277
627.068343	0.994744
627.414987	0.993764
627.761577	0.993258
628.108115	0.993261
628.454600	0.995071
628.801032	0.994525
629.147412	0.994126
629.493739	0.994852
629.840014	0.993258
630.186236	0.993916
630.532405	0.993987
630.878521	0.993920
631.224585	0.994556
631.570597	0.994147
631.916556	0.994369
632.262462	0.992980
632.608316	0.994297
632.954117	0.993393
633.299866	0.993916
633.645562	0.993923
633.991206	0.994956
634.336797	0.994122
634.682336	0.994666
635.027823	0.994292
635.373257	0.994588
635.718639	0.994750
636.063968	0.993312
636.409245	0.994479
636.754470	0.994110
637.099642	0.994372
637.444762	0.993905
637.789829	0.994503
638.134845	0.994370
638.479808	0.994103
638.824719	0.994132
639.169577	0.994858
639.514383	0.994863
639.859137	0.994807
640.203839	0.994803
640.548489	0.994381
640.893086	0.993944
641.237632	0.993562
641.582125	0.993878
641.926566	0.994626
642.270955	0.994177
642.615292	0.994501
642.959576	0.994498
643.303809	0.994706
643.647990	0.994707
643.992118	0.994958
644.336195	0.994145
644.680219	0.995396
645.024192	0.994275
645.368112	0.994085
645.711981	0.994187
646.055797	0.994552
646.399562	0.994058
646.743274	0.994937
647.086935	0.993520
647.430544	0.995318
647.774101	0.993944
648.117606	0.994590
648.461059	0.995325
648.804460	0.994879
649.147810	0.994681
649.491108	0.993740
649.834354	0.994361
650.177548	0.993979
650.520690	0.994332
650.863781	0.994660
651.206820	0.993734
651.549807	0.994339
651.892742	0.994522
652.235626	0.994259
652.578458	0.994921
652.921238	0.995765
653.263967	0.994898
653.606644	0.994192
653.949269	0.995632
654.291843	0.993710
654.634365	0.995626
654.976836	0.993241
655.319255	0.994826
655.661622	0.995252
656.003938	0.993605
656.346203	0.994172
656.688416	0.995178
657.030577	0.994767
657.372687	0.994603
657.714746	0.994485
658.056753	0.994624
658.398708	0.993826
658.740612	0.994907
659.082465	0.994498
659.424266	0.994249
659.766016	0.994097
660.107715	0.994902
660.449362	0.994438
660.790958	0.994526
661.132503	0.994750
661.473996	0.994171
661.815438	0.994961
662.156829	0.995183
662.498168	0.995365
662.839456	0.993754
663.180693	0.995228
663.521879	0.994648
663.863013	0.994882
664.204097	0.994041
664.545129	0.994321
664.886110	0.994763
665.227040	0.996029
665.567918	0.994511
665.908746	0.993677
666.249522	0.993513
666.590248	0.994262
666.930922	0.993880
667.271545	0.994929
667.612118	0.994717
667.952639	0.994737
668.293109	0.994064
668.633528	0.993775
668.973896	0.995087
669.314213	0.994046
669.654480	0.993721
669.994695	0.994036
670.334859	0.993351
670.674973	0.994258
671.015035	0.994305
671.355047	0.994663
671.695008	0.993632
672.034918	0.994772
672.374777	0.994279
672.714585	0.994881
673.054342	0.994759
673.394049	0.993965
673.733705	0.994362
674.073310	0.994198
674.412864	0.994349
674.752368	0.993621
675.091820	0.994592
675.431223	0.995168
675.770574	0.993519
676.109875	0.994070
676.449125	0.994349
676.788324	0.994165
677.127473	0.995021
677.466571	0.994965
677.805619	0.994405
678.144616	0.994631
678.483562	0.995189
678.822458	0.995006
679.161303	0.994166
679.500098	0.994510
679.838842	0.995137
680.177535	0.994475
680.516179	0.994217
680.854771	0.994338
681.193314	0.994315
681.531805	0.993477
681.870247	0.994226
682.208638	0.994367
682.546978	0.993704
682.885268	0.993988
683.223508	0.993614
683.561697	0.994774
683.899836	0.994264
684.237925	0.994359
684.575963	0.994716
684.913951	0.995151
685.251889	0.994399
685.589776	0.995060
685.927614	0.993825
686.265401	0.995106
686.603137	0.994287
686.940824	0.994424
687.278460	0.994432
687.616046	0.994873
687.953582	0.995199
688.291068	0.995446
688.628504	0.993734
688.965889	0.994039
689.303224	0.993455
689.640510	0.993794
689.977745	0.994336
690.314930	0.993569
690.652065	0.995285
690.989150	0.993256
691.326185	0.994474
691.663170	0.993708
692.000105	0.994085
692.336990	0.994656
692.673825	0.994065
693.010610	0.994583
693.347345	0.994557
693.684030	0.994532
694.020665	0.994661
694.357251	0.994920
694.693786	0.994531
695.030272	0.993643
695.366707	0.994647
695.703093	0.994573
696.039429	0.994831
696.375716	0.994702
696.711952	0.994245
697.048139	0.995276
697.384276	0.994609
697.720363	0.995107
698.056400	0.994128
698.392388	0.994202
698.728326	0.995098
699.064214	0.995910
699.400053	0.994739
699.735842	0.994896
700.071581	0.994849
700.407270	0.994446
700.742910	0.994676
701.078501	0.994825
701.414042	0.995401
701.749533	0.994209
702.084974	0.995477
702.420366	0.995055
702.755709	0.994292
703.091002	0.995188
703.426246	0.995481
703.761440	0.995048
704.096584	0.994650
704.431679	0.994604
704.766725	0.995011
705.101721	0.995774
705.436668	0.995168
705.771565	0.994939
706.106413	0.994468
706.441212	0.995879
706.775961	0.995733
707.110661	0.994786
707.445311	0.995072
707.779913	0.995766
708.114465	0.996565
708.448967	0.996234
708.783421	0.996055
709.117825	0.995272
709.452180	0.995690
709.786485	0.995624
710.120742	0.995335
710.454949	0.995103
710.789107	0.995093
711.123216	0.993924
711.457275	0.994121
711.791286	0.995366
712.125247	0.996236
712.459159	0.994941
712.793023	0.994837
713.126837	0.995386
713.460602	0.993952
713.794318	0.992883
714.127985	0.993839
714.461602	0.995004
714.795171	0.994551
715.128691	0.994427
715.462162	0.995502
715.795584	0.995070
716.128957	0.995147
716.462281	0.995577
716.795556	0.994195
717.128782	0.995346
717.461960	0.994949
717.795088	0.995116
718.128167	0.996037
718.461198	0.995617
718.794180	0.995291
719.127113	0.995813
719.459997	0.995132
719.792833	0.995421
720.125619	0.994678
720.458357	0.995655
720.791046	0.995634
721.123686	0.995323
721.456278	0.994854
721.788821	0.995147
722.121315	0.996961
722.453761	0.995929
722.786158	0.994985
723.118506	0.995866
723.450805	0.994997
723.783056	0.996027
724.115259	0.995052
724.447412	0.996047
724.779518	0.995880
725.111574	0.995822
725.443582	0.996311
725.775542	0.994954
726.107453	0.996136
726.439315	0.996577
726.771129	0.996104
727.102895	0.994727
727.434612	0.995543
727.766281	0.995294
728.097901	0.995383
728.429473	0.995859
728.760996	0.994735
729.092471	0.995392
729.423897	0.995405
729.755276	0.995571
730.086606	0.994916
730.417887	0.995575
730.749120	0.995783
731.080305	0.995360
731.411442	0.994242
731.742530	0.994402
732.073570	0.994547
732.404562	0.995028
732.735506	0.994912
733.066401	0.994560
733.397249	0.994973
733.728048	0.995467
734.058798	0.994896
734.389501	0.995820
734.720156	0.996297
735.050762	0.995836
735.381320	0.995392
735.711831	0.994822
736.042293	0.995286
736.372707	0.995912
736.703073	0.994342
737.033391	0.995963
737.363661	0.996434
737.693883	0.996177
738.024056	0.995016
738.354182	0.995857
738.684260	0.995735
739.014290	0.994815
739.344272	0.996229
739.674207	0.995892
740.004093	0.995237
740.333931	0.996418
740.663722	0.995094
740.993464	0.995779
741.323159	0.995297
741.652806	0.995561
741.982405	0.995662
742.311956	0.996657
742.641460	0.995722
742.970915	0.996335
743.300323	0.994454
743.629683	0.995745
743.958996	0.995955
744.288260	0.996130
744.617477	0.995988
744.946647	0.995798
745.275768	0.996370
745.604842	0.994328
745.933869	0.995307
746.262847	0.996037
746.591778	0.994303
746.920662	0.996174
747.249498	0.996922
747.578286	0.997431
747.907027	0.995925
748.235720	0.995807
748.564365	0.996542
748.892963	0.994296
749.221514	0.996331
749.550017	0.995617
749.878473	0.996285
750.206881	0.997156
750.535242	0.995858
750.863555	0.995933
751.191821	0.995845
751.520039	0.995819
751.848210	0.994750
752.176334	0.995579
752.504411	0.995128
752.832440	0.994580
753.160421	0.995411
753.488356	0.995813
753.816243	0.995523
754.144082	0.995804
754.471875	0.996075
754.799620	0.996043
755.127318	0.995739
755.454969	0.995900
755.782572	0.997578
756.110129	0.995434
756.437638	0.996944
756.765100	0.996201
757.092515	0.995687
757.419882	0.996603
757.747203	0.995907
758.074477	0.996850
758.401703	0.995921
758.728882	0.996359
759.056014	0.995369
759.383099	0.996353
759.710138	0.995734
760.037129	0.996108
760.364073	0.996934
760.690970	0.995900
761.017820	0.994359
761.344623	0.996212
761.671379	0.996592
761.998088	0.996488
762.324751	0.996700
762.651366	0.995659
762.977935	0.994681
763.304456	0.995005
763.630931	0.992344
763.957359	0.991397
764.283740	0.992213
764.610074	0.994019
764.936362	0.994396
765.262602	0.995423
765.588796	0.995462
765.914943	0.995533
766.241044	0.996044
766.567097	0.995163
766.893104	0.995333
767.219064	0.995284
767.544978	0.995658
767.870845	0.996013
768.196665	0.996220
768.522438	0.996716
768.848165	0.996879
769.173846	0.996385
769.499479	0.997773
769.825066	0.997839
770.150607	0.997257
770.476101	0.996980
770.801548	0.996892
771.126949	0.996762
771.452303	0.996472
771.777611	0.997216
772.102872	0.997167
772.428087	0.996358
772.753256	0.998826
773.078378	0.997306
773.403453	0.996655
773.728482	0.998861
774.053465	0.996032
774.378401	0.997562
774.703291	0.998652
775.028135	0.998291
775.352932	0.996220
775.677683	0.997858
776.002388	0.997399
776.327046	0.996932
776.651658	0.998258
776.976224	0.997743
777.300743	0.997856
777.625216	0.996906
777.949643	0.996955
778.274024	0.997008
778.598359	0.997776
778.922647	0.997314
779.246889	0.998478
779.571086	0.997549
779.895236	0.998149
780.219339	0.998411
780.543397	0.997057
780.867409	0.998030
781.191374	0.997353
781.515294	0.997203
781.839167	0.997991
782.162995	0.997254
782.486776	0.997387
782.810511	0.997738
783.134201	0.998717
783.457844	0.998472
783.781441	0.996835
784.104993	0.997478
784.428498	0.997696
784.751958	0.998825
785.075372	0.999173
785.398739	0.998055
785.722061	0.997390
786.045337	0.998268
786.368568	0.996718
786.691752	0.997387
787.014891	0.999357
787.337983	0.997236
787.661030	0.997749
787.984031	0.997851
788.306987	0.998391
788.629897	0.995639
788.952760	0.996889
789.275579	0.997025
789.598351	0.996094
789.921078	0.998142
790.243759	0.996971
790.566395	0.997377
790.888984	0.998364
791.211529	0.997720
791.534027	0.996939
791.856480	0.998485
792.178888	0.996872
792.501249	0.997585
792.823566	0.997934
793.145836	0.997172
793.468062	0.997999
793.790241	0.997980
794.112375	0.997074
794.434464	0.998762
794.756507	0.998317
795.078505	0.998573
795.400457	0.998785
795.722364	0.998351
796.044226	0.997336
796.366042	0.996715
796.687812	0.995882
797.009538	0.998022
797.331218	0.998160
797.652852	0.998255
797.974442	0.997141
798.295986	0.997576
798.617484	0.997177
798.938938	0.997857
799.260346	0.996587
799.581709	0.997122
799.903026	0.998576
800.224299	0.997817
800.545526	0.997358
800.866708	0.997743
801.187845	0.997884
801.508936	0.997145
801.829983	0.997842
802.150984	0.997538
802.471940	0.998356
802.792851	0.997778
803.113717	0.998178
803.434538	0.998498
803.755314	0.999192
804.076045	0.998732
804.396731	0.998313
804.717372	0.997854
805.037967	0.998590
805.358518	0.999069
805.679024	0.997621
805.999485	0.998112
806.319901	0.997695
806.640272	0.998833
806.960598	0.998513
807.280879	0.997838
807.601115	0.998301
807.921306	0.998983
808.241453	0.998202
808.561554	0.997073
808.881611	0.998214
809.201623	0.998560
809.521590	0.997446
809.841513	0.998449
810.161390	0.997014
810.481223	0.997370
810.801011	0.997835
811.120755	0.999501
811.440453	0.997081
811.760107	0.997846
812.079716	0.997501
812.399281	0.998941
812.718801	0.997211
813.038276	0.997316
813.357707	0.998169
813.677093	0.998829
813.996434	0.997784
814.315731	0.999020
814.634983	0.999208
814.954191	0.998304
815.273354	0.997857
815.592473	0.997982
815.911547	0.999233
816.230577	0.997209
816.549562	0.999084
816.868502	0.997977
817.187399	0.998144
817.506250	0.997581
817.825058	0.996979
818.143821	0.997732
818.462539	0.997158
818.781213	0.997437
819.099843	0.998039
819.418429	0.996515
819.736970	0.997341
820.055466	0.995146
820.373919	0.995370
820.692327	0.993818
821.010691	0.993461
821.329011	0.991782
821.647286	0.989541
821.965517	0.987475
822.283704	0.985081
822.601847	0.984085
822.919945	0.982953
823.237999	0.984942
823.556010	0.986061
823.873976	0.986798
824.191897	0.988632
824.509775	0.989619
824.827609	0.990188
825.145398	0.992257
825.463144	0.991531
825.780845	0.991571
826.098502	0.991789
826.416116	0.992745
826.733685	0.991398
827.051210	0.987894
827.368692	0.988103
827.686129	0.989433
828.003522	0.991855
828.320872	0.991349
828.638177	0.992825
828.955439	0.994504
829.272656	0.996034
829.589830	0.994848
829.906960	0.995900
830.224046	0.996178
830.541088	0.996243
830.858086	0.996656
831.175041	0.997540
831.491952	0.996331
831.808819	0.997014
832.125642	0.996979
832.442421	0.997871
832.759157	0.996081
833.075849	0.995163
833.392497	0.994697
833.709101	0.993320
834.025662	0.992405
834.342179	0.993314
834.658653	0.994497
834.975083	0.994703
835.291469	0.995284
835.607811	0.995110
835.924110	0.996041
836.240366	0.997823
836.556578	0.997026
836.872746	0.997736
837.188871	0.997739
837.504952	0.997853
837.820990	0.998494
838.136984	0.997518
838.452935	0.997908
838.768842	0.998967
839.084706	0.998755
839.400526	0.998606
839.716303	0.995599
840.032037	0.995918
840.347727	0.995950
840.663373	0.995296
840.978977	0.997376
841.294537	0.998345
841.610054	0.998741
841.925527	0.997847
842.240957	0.998456
842.556344	0.998043
842.871687	0.997360
843.186987	0.998229
843.502244	0.998981
843.817458	0.997080
844.132629	0.998979
844.447756	0.998431
844.762840	0.998463
845.077881	0.999842
845.392879	0.998282
845.707833	0.998637
846.022745	0.998703
846.337613	0.998714
846.652438	0.998742
846.967221	0.998228
847.281960	1.000107
847.596656	0.999619
847.911309	0.999074
848.225919	0.998142
848.540485	1.000083
848.855009	0.999538
849.169490	0.998872
849.483928	0.999931
849.798323	0.998144
850.112675	1.000372
850.426984	0.999354
850.741251	0.999646
851.055474	0.999093
851.369654	0.999646
851.683792	0.998377
851.997887	0.998929
852.311938	1.000413
852.625947	0.998754
852.939914	0.998416
853.253837	1.000626
853.567718	1.000599
853.881555	0.999265
854.195350	1.000137
854.509103	0.999496
854.822812	1.000228
855.136479	0.999402
855.450103	0.999863
855.763685	1.000686
856.077224	0.999124
856.390720	0.999672
856.704173	1.000101
857.017584	1.000145
857.330953	1.000154
857.644278	0.998759
857.957561	0.998942
858.270802	0.999060
858.584000	0.999506
858.897155	0.999166
859.210268	0.999885
859.523339	0.999804
859.836367	0.999240
860.149352	0.998569
860.462295	0.998133
860.775195	0.999784
861.088054	0.997609
861.400869	0.998447
861.713642	0.998937
862.026373	0.999799
862.339062	1.000244
862.651708	0.999800
862.964312	0.999678
863.276873	0.999104
863.589392	0.998443
863.901869	0.999144
864.214303	0.999016
864.526696	0.998777
864.839045	1.000296
865.151353	0.998856
865.463619	0.998327
865.775842	0.999161
866.088023	0.999784
866.400162	0.999108
866.712258	1.000247
867.024313	0.998788
867.336325	0.999746
867.648296	0.999167
867.960224	0.998753
868.272110	0.999646
868.583954	0.999340
868.895755	1.000295
869.207515	0.998815
869.519233	0.999973
869.830909	0.997802
870.142542	0.999140
870.454134	0.998544
870.765684	0.997953
871.077191	1.000492
871.388657	0.999635
871.700081	0.998930
872.011463	0.999788
872.322803	0.999289
872.634101	0.997827
872.945357	0.998509
873.256571	0.999425
873.567744	0.999059
873.878874	0.999181
874.189963	0.998707
874.501010	1.000317
874.812015	0.999539
875.122979	0.998695
875.433900	0.998627
875.744780	0.999040
876.055618	0.997487
876.366415	0.998822
876.677169	0.998120
876.987882	0.998653
877.298554	0.998571
877.609183	0.998551
877.919771	0.998139
878.230317	0.998315
878.540822	0.996786
878.851285	0.997390
879.161707	0.996416
879.472087	0.998190
879.782425	0.994597
880.092722	0.995601
880.402977	0.993005
880.713191	0.989573
881.023363	0.986387
881.333494	0.984703
881.643583	0.985988
881.953631	0.985390
882.263637	0.983930
882.573602	0.985388
882.883526	0.986767
883.193408	0.988736
883.503248	0.989999
883.813048	0.989608
884.122806	0.992098
884.432522	0.992521
884.742197	0.994163
885.051831	0.994219
885.361424	0.995097
885.670975	0.996334
885.980485	0.996746
886.289954	0.997215
886.599382	0.995646
886.908768	0.997069
887.218113	0.997055
887.527417	0.997885
887.836680	0.997184
888.145901	0.997562
888.455082	0.999627
888.764221	0.998201
889.073319	0.998027
889.382376	0.999278
889.691392	0.997539
890.000366	0.999209
890.309300	1.000047
890.618193	0.999296
890.927044	0.998808
891.235855	0.997758
891.544625	0.998622
891.853353	0.998163
892.162041	0.997988
892.470687	0.998864
892.779293	0.997864
893.087858	0.996336
893.396381	0.996630
893.704864	0.994169
894.013306	0.995111
894.321707	0.995153
894.630068	0.992915
894.938387	0.992505
895.246665	0.992952
895.554903	0.993093
895.863100	0.994448
896.171256	0.994092
896.479371	0.995026
896.787446	0.995776
897.095480	0.996740
897.403473	0.997441
897.711425	0.997312
898.019336	0.997236
898.327207	0.997118
898.635038	0.996564
898.942827	0.998517
899.250576	0.997883
899.558284	0.998102
899.865952	0.997452
900.173579	0.998187
900.481165	0.998580
900.788711	0.997954
901.096216	0.998329
901.403681	0.999110
901.711105	0.998416
902.018489	0.998147
902.325832	0.997853
902.633135	0.997618
902.940397	0.998153
903.247619	0.997441
903.554800	0.996464
903.861941	0.995641
904.169041	0.991964
904.476101	0.990429
904.783121	0.990383
905.090100	0.991224
905.397039	0.992163
905.703938	0.993133
906.010796	0.995694
906.317614	0.994932
906.624391	0.996071
906.931129	0.997830
907.237826	0.996881
907.544483	0.997750
907.851099	0.997686
908.157675	0.999156
908.464211	0.999042
908.770707	0.997146
909.077163	0.998925
909.383578	0.998347
909.689954	0.998914
909.996289	0.999281
910.302584	0.999429
910.608839	0.999920
910.915054	0.998753
911.221229	0.999838
911.527363	0.998888
911.833458	0.998807
912.139513	0.999886
912.445527	0.999094
912.751502	0.999163
913.057436	0.998529
913.363331	0.999619
913.669186	0.999202
913.975000	0.998040
914.280775	0.998605
914.586510	0.996630
914.892205	0.995453
915.197859	0.994845
915.503475	0.994378
915.809050	0.991658
916.114585	0.989686
916.420081	0.989646
916.725536	0.991778
917.030952	0.992297
917.336328	0.993545
917.641665	0.992112
917.946961	0.993259
918.252218	0.994495
918.557435	0.995431
918.862612	0.996595
919.167750	0.996259
919.472848	0.997207
919.777906	0.998252
920.082925	0.999323
920.387904	0.998186
920.692843	0.998016
920.997743	0.997962
921.302603	0.997982
921.607423	0.997423
921.912204	0.997782
922.216946	0.999260
922.521647	0.998389
922.826310	0.999552
923.130932	0.999240
923.435516	0.999711
923.740059	0.998472
924.044564	0.999568
924.349028	0.998447
924.653454	0.999795
924.957840	0.999456
925.262186	0.998857
925.566493	0.998971
925.870761	0.999904
926.174989	0.997928
926.479178	1.000011
926.783328	0.999424
927.087438	0.999109
927.391509	0.999653
927.695541	1.000838
927.999533	0.999541
928.303486	0.999128
928.607400	1.000727
928.911275	1.000319
929.215110	1.000345
929.518906	1.000980
929.822663	1.000724
930.126381	1.001938
930.430060	0.998919
930.733699	1.001112
931.037299	0.999410
931.340861	1.000705
931.644383	0.998259
931.947866	0.998770
932.251309	1.001034
932.554714	0.999480
932.858080	0.999867
933.161407	0.998389
933.464694	0.999895
933.767943	1.000975
934.071153	1.000178
934.374323	1.000287
934.677455	1.000620
934.980548	0.998887
935.283602	1.000431
935.586617	1.000262
935.889593	1.000760
936.192530	1.000678
936.495428	0.999263
936.798287	0.999291
937.101108	1.000121
937.403890	0.999495
937.706632	1.000698
938.009336	0.999115
938.312002	0.998518
938.614628	0.999414
938.917216	0.998584
939.219765	0.997915
939.522275	1.000472
939.824747	0.999145
940.127179	0.999450
940.429573	1.000168
940.731929	0.998717
941.034246	0.999216
941.336524	0.999061
941.638763	0.999219
941.940964	0.999006
942.243126	0.998934
942.545250	1.000898
942.847335	0.998647
943.149381	1.000100
943.451389	0.998753
943.753359	1.000543
944.055290	1.000558
944.357182	0.999832
944.659036	1.000647
944.960851	0.999336
945.262628	0.999165
945.564367	0.999124
945.866067	1.000828
946.167729	1.000220
946.469352	1.000373
946.770937	0.998081
947.072484	1.001231
947.373992	0.999908
947.675462	0.998462
947.976893	0.999057
948.278286	1.001349
948.579641	1.000806
948.880958	1.000133
949.182236	1.000443
949.483476	0.999717
949.784678	1.000181
950.085841	0.999776
950.386967	0.999711
950.688054	1.000812
950.989103	0.999133
951.290114	0.999317
951.591087	1.001187
951.892021	0.999156
952.192917	1.000456
952.493776	0.999711
952.794596	1.000616
953.095378	1.000280
953.396122	0.999652
953.696828	1.000996
953.997496	0.999971
954.298126	1.000655
954.598718	0.999603
954.899272	1.000128
955.199788	0.998980
955.500266	1.000484
955.800706	0.999941
956.101108	0.999672
956.401472	1.000730
956.701798	1.000311
957.002087	0.999415
957.302337	0.998944
957.602550	1.000627
957.902724	1.000178
958.202861	0.999715
958.502960	0.999539
958.803022	1.001198
959.103045	1.000472
959.403031	1.000930
959.702979	1.001658
960.002889	1.000048
960.302762	1.000025
960.602596	1.000655
960.902393	1.000093
961.202153	1.000135
961.501875	1.000702
961.801559	1.000350
962.101205	1.001099
962.400814	1.001109
962.700385	1.000701
962.999918	1.001289
963.299414	0.999667
963.598873	1.000220
963.898293	1.000506
964.197677	1.000104
964.497022	1.000330
964.796331	0.999977
965.095601	1.000865
965.394835	1.000367
965.694030	1.000883
965.993189	0.999883
966.292309	1.000950
966.591393	0.999490
966.890439	1.001269
967.189447	1.000771
967.488419	1.000203
967.787353	0.999361
968.086249	1.000726
968.385108	1.000318
968.683930	1.001471
968.982714	1.000158
969.281462	1.000309
969.580172	1.001014
969.878844	1.000583
970.177480	1.001353
970.476078	1.001071
970.774639	1.001052
971.073162	1.000172
971.371649	1.000245
971.670098	0.999506
971.968510	1.001072
972.266885	0.999035
972.565223	1.000187
972.863524	0.998825
973.161788	0.999420
973.460014	1.001390
973.758204	0.999621
974.056356	1.000417
974.354471	1.000386
974.652550	1.000478
974.950591	0.999768
975.248595	0.999766
975.546563	1.000368
975.844493	1.000929
976.142386	0.999750
976.440243	1.000204
976.738062	0.999999
977.035845	0.999015
977.333590	1.001478
977.631299	1.000390
977.928971	0.999991
978.226606	0.999467
978.524204	1.000476
978.821765	0.999999
979.119290	1.002339
979.416777	1.000091
979.714228	0.999806
980.011642	1.001249
980.309020	1.000103
980.606360	0.999732
980.903664	0.999846
981.200931	0.998911
981.498162	1.000387
981.795356	1.000963
982.092513	1.000702
982.389633	1.001513
982.686717	0.999275
982.983764	1.000078
983.280775	1.000535
983.577749	1.001089
983.874686	0.999953
984.171587	1.000372
984.468451	0.999326
984.765279	1.000386
985.062070	1.000516
985.358824	1.000411
985.655543	1.000577
985.952224	0.999645
986.248869	1.000703
986.545478	1.001978
986.842050	0.999674
987.138586	0.999675
987.435086	1.000387
987.731549	1.001575
988.027975	1.000496
988.324366	1.000022
988.620719	1.001792
988.917037	1.000461
989.213318	1.000857
989.509563	1.000896
989.805772	1.001293
990.101944	1.001778
990.398080	1.001012
990.694180	1.001936
990.990244	1.000633
991.286271	1.000057
991.582262	1.002029
991.878217	1.000176
992.174136	1.002515
992.470019	1.000871
992.765865	1.001765
993.061676	1.001278
993.357450	1.000795
993.653188	1.001632
993.948890	1.000366
994.244556	0.999679
994.540186	1.001882
994.835780	1.000631
995.131337	1.001470
995.426859	1.000552
995.722345	1.000417
996.017795	0.999619
996.313208	1.000723
996.608586	0.999429
996.903928	1.001074
997.199234	1.000681
997.494504	1.000844
997.789738	0.999720
998.084936	1.001038
998.380099	1.000388
998.675225	1.001340
998.970316	1.001328
999.265371	1.000910
999.560390	1.000621
999.855373	1.000493
1000.150320	1.001470
1000.445232	1.000563
1000.740108	1.001489
1001.034948	1.000097
1001.329752	1.001346
1001.624521	1.000738
1001.919254	1.000371
1002.213951	1.000745
1002.508613	0.999218
1002.803239	1.000437
1003.097829	1.000441
1003.392384	1.001648
1003.686903	1.001909
1003.981386	1.000058
1004.275834	1.002021
1004.570246	1.000536
1004.864623	1.001414
1005.158964	0.999856
1005.453270	1.000778
1005.747540	0.999123
1006.041775	1.001334
1006.335974	1.001654
1006.630138	1.002850
1006.924266	0.999936
1007.218359	0.998914
1007.512416	1.001534
1007.806438	1.000156
1008.100425	1.000958
1008.394376	1.000753
1008.688292	1.000658
1008.982172	0.999796
1009.276017	1.001280
1009.569827	1.001095
1009.863602	0.999019
1010.157341	1.001423
1010.451045	1.001119
1010.744714	1.002515
1011.038347	1.001170
1011.331945	0.999907
1011.625508	1.000072
1011.919036	1.001070
1012.212528	1.000203
1012.505986	0.999922
1012.799408	1.000287
1013.092795	1.000655
1013.386147	1.000322
1013.679464	1.000816
1013.972745	1.001224
1014.265992	1.001505
1014.559204	0.999855
1014.852380	1.001424
1015.145521	1.000400
1015.438628	1.000957
1015.731699	0.999901
1016.024736	1.000773
1016.317737	1.001394
1016.610703	1.000136
1016.903635	1.001143
1017.196531	1.001003
1017.489393	1.000008
1017.782219	0.999843
1018.075011	1.000857
1018.367768	1.001093
1018.660490	0.999854
1018.953177	0.999854
1019.245829	0.999854
