Dividing Wavelength (nm)	Counts (n)	Blue Motor Position (mm): 6.400000	Red Motor Position (mm): 0.000000	
326.493990	1.004939
326.888308	1.004939
327.282561	1.004939
327.676750	1.007643
328.070874	1.006901
328.464933	1.007635
328.858929	1.006465
329.252859	1.006382
329.646726	1.006150
330.040528	1.006070
330.434265	1.005321
330.827938	1.005913
331.221547	1.007405
331.615091	1.007638
332.008571	1.007168
332.401986	1.005446
332.795338	1.006505
333.188625	1.005247
333.581847	1.006179
333.975006	1.006887
334.368100	1.006837
334.761129	1.005986
335.154095	1.006736
335.546996	1.004200
335.939833	0.998687
336.332606	1.001001
336.725315	0.998910
337.117960	0.999493
337.510540	0.998066
337.903056	1.000025
338.295508	0.999928
338.687896	0.999710
339.080220	1.000586
339.472480	0.999229
339.864676	0.999910
340.256807	0.997885
340.648875	0.999687
341.040879	0.999937
341.432818	0.999604
341.824694	0.999522
342.216506	0.999456
342.608253	0.999702
342.999937	0.999089
343.391557	1.000371
343.783113	0.999601
344.174605	1.000411
344.566033	0.999456
344.957397	0.999033
345.348697	0.999584
345.739934	0.999777
346.131106	0.999666
346.522215	0.998519
346.913260	0.999313
347.304241	0.998458
347.695159	0.998981
348.086012	1.000094
348.476802	0.998776
348.867528	0.998998
349.258191	0.999233
349.648789	0.999132
350.039324	0.998375
350.429796	0.998769
350.820203	0.998499
351.210548	1.000494
351.600828	0.999090
351.991045	0.999121
352.381198	0.999807
352.771288	0.998519
353.161314	0.998585
353.551276	0.997911
353.941175	0.997713
354.331010	0.998965
354.720782	0.999072
355.110490	0.998706
355.500135	0.998941
355.889717	0.997392
356.279235	0.997936
356.668689	0.998759
357.058080	0.998910
357.447408	0.997038
357.836672	0.998550
358.225873	0.997608
358.615010	0.997945
359.004084	0.997302
359.393095	0.998994
359.782043	0.997309
360.170927	0.997357
360.559748	0.997932
360.948505	0.997527
361.337199	0.997923
361.725830	0.997861
362.114398	0.998077
362.502903	0.996944
362.891344	0.995416
363.279722	0.996827
363.668037	0.998323
364.056289	0.997191
364.444478	0.998061
364.832603	0.996442
365.220665	0.996888
365.608665	0.996068
365.996601	0.996177
366.384474	0.995603
366.772284	0.996077
367.160031	0.995032
367.547715	0.995953
367.935336	0.994367
368.322893	0.993173
368.710388	0.994268
369.097820	0.991668
369.485189	0.988145
369.872495	0.987630
370.259738	0.985041
370.646918	0.981393
371.034035	0.979902
371.421090	0.976400
371.808081	0.973014
372.195010	0.970023
372.581875	0.964329
372.968678	0.959632
373.355418	0.956586
373.742096	0.949026
374.128710	0.943755
374.515262	0.938680
374.901751	0.933176
375.288177	0.928668
375.674540	0.923001
376.060841	0.915240
376.447079	0.909986
376.833254	0.903596
377.219367	0.897792
377.605417	0.885589
377.991404	0.884120
378.377329	0.877135
378.763191	0.871782
379.148991	0.861481
379.534727	0.853570
379.920402	0.845005
380.306013	0.841869
380.691563	0.829325
381.077049	0.823569
381.462474	0.819908
381.847835	0.807729
382.233134	0.802049
382.618371	0.803165
383.003545	0.785334
383.388657	0.783375
383.773706	0.775551
384.158693	0.771563
384.543618	0.766384
384.928480	0.757895
385.313280	0.748359
385.698017	0.747453
386.082692	0.735494
386.467305	0.733818
386.851856	0.728249
387.236344	0.723456
387.620770	0.716828
388.005133	0.711938
388.389435	0.706341
388.773674	0.704294
389.157851	0.695372
389.541965	0.693488
389.926018	0.699971
390.310008	0.686931
390.693936	0.683499
391.077802	0.675812
391.461606	0.677338
391.845348	0.666529
392.229027	0.666378
392.612645	0.664698
392.996200	0.651859
393.379694	0.644501
393.763125	0.634472
394.146494	0.639257
394.529801	0.629003
394.913047	0.621742
395.296230	0.627200
395.679351	0.619338
396.062410	0.616130
396.445408	0.618847
396.828343	0.613200
397.211217	0.608885
397.594028	0.620890
397.976778	0.611937
398.359466	0.608380
398.742092	0.603054
399.124656	0.615448
399.507158	0.603492
399.889598	0.600645
400.271977	0.591835
400.654294	0.595769
401.036549	0.595358
401.418742	0.598973
401.800874	0.584930
402.182944	0.581758
402.564952	0.573091
402.946898	0.576076
403.328783	0.575687
403.710606	0.587112
404.092367	0.562176
404.474067	0.566953
404.855705	0.566117
405.237282	0.574518
405.618797	0.560920
406.000250	0.556542
406.381642	0.546455
406.762972	0.551895
407.144240	0.549876
407.525447	0.550513
407.906593	0.543395
408.287677	0.538812
408.668700	0.547213
409.049661	0.540355
409.430560	0.536075
409.811399	0.544592
410.192176	0.525917
410.572891	0.533979
410.953545	0.521790
411.334138	0.534970
411.714669	0.527016
412.095139	0.539660
412.475547	0.523632
412.855894	0.526425
413.236180	0.525132
413.616405	0.529603
413.996568	0.520747
414.376670	0.527028
414.756711	0.531904
415.136691	0.529110
415.516609	0.519623
415.896466	0.516150
416.276262	0.512734
416.655997	0.514019
417.035670	0.495640
417.415283	0.487046
417.794834	0.492618
418.174324	0.497858
418.553753	0.506420
418.933121	0.488556
419.312428	0.482967
419.691674	0.488386
420.070859	0.476463
420.449983	0.484563
420.829045	0.473528
421.208047	0.482967
421.586988	0.475564
421.965867	0.475174
422.344686	0.463616
422.723444	0.476819
423.102141	0.493078
423.480777	0.466302
423.859352	0.486760
424.237866	0.464291
424.616319	0.464609
424.994712	0.455596
425.373044	0.465847
425.751314	0.454030
426.129524	0.471079
426.507673	0.454267
426.885762	0.447120
427.263789	0.452782
427.641756	0.462940
428.019662	0.452805
428.397508	0.452029
428.775292	0.456896
429.153016	0.448426
429.530679	0.455236
429.908282	0.447751
430.285824	0.457973
430.663305	0.437152
431.040726	0.457696
431.418086	0.457373
431.795385	0.449126
432.172624	0.448268
432.549802	0.448234
432.926920	0.447269
433.303977	0.447226
433.680974	0.444362
434.057910	0.443198
434.434786	0.441857
434.811601	0.444637
435.188355	0.427452
435.565050	0.436575
435.941683	0.438080
436.318257	0.421573
436.694770	0.422562
437.071222	0.420570
437.447614	0.425366
437.823946	0.431335
438.200218	0.421014
438.576429	0.430686
438.952580	0.423722
439.328670	0.420505
439.704700	0.426481
440.080670	0.427740
440.456580	0.409421
440.832429	0.417177
441.208218	0.428001
441.583947	0.417101
441.959616	0.416640
442.335224	0.422468
442.710773	0.412942
443.086261	0.410815
443.461689	0.425049
443.837057	0.414667
444.212365	0.404753
444.587612	0.411914
444.962800	0.401465
445.337927	0.403384
445.712995	0.428960
446.088002	0.391407
446.462949	0.401739
446.837837	0.406921
447.212664	0.394853
447.587431	0.386746
447.962139	0.357243
448.336786	0.316381
448.711374	0.326674
449.085901	0.371173
449.460369	0.375040
449.834776	0.378859
450.209124	0.357840
450.583412	0.350786
450.957640	0.343746
451.331808	0.355448
451.705917	0.378069
452.079965	0.383000
452.453954	0.371161
452.827883	0.378285
453.201752	0.372653
453.575562	0.384080
453.949311	0.372491
454.323001	0.379164
454.696632	0.374749
455.070202	0.367427
455.443713	0.358971
455.817164	0.354013
456.190556	0.349923
456.563888	0.346608
456.937160	0.343895
457.310373	0.361265
457.683526	0.360022
458.056619	0.365939
458.429653	0.366529
458.802628	0.370232
459.175542	0.364368
459.548398	0.346665
459.921194	0.339307
460.293930	0.339248
460.666607	0.316638
461.039224	0.305170
461.411782	0.300874
461.784280	0.299708
462.156719	0.304056
462.529099	0.308571
462.901419	0.324437
463.273680	0.328800
463.645882	0.327880
464.018024	0.334431
464.390106	0.326666
464.762130	0.311547
465.134094	0.294611
465.505999	0.263419
465.877845	0.233895
466.249631	0.220821
466.621358	0.228181
466.993026	0.242073
467.364634	0.248375
467.736184	0.256941
468.107674	0.266207
468.479105	0.265025
468.850477	0.271853
469.221790	0.278638
469.593043	0.289039
469.964238	0.293485
470.335373	0.292920
470.706449	0.291321
471.077467	0.291946
471.448425	0.253877
471.819324	0.229412
472.190164	0.228933
472.560945	0.257513
472.931667	0.280439
473.302330	0.284423
473.672934	0.296393
474.043479	0.284416
474.413965	0.286043
474.784393	0.289582
475.154761	0.284689
475.525070	0.281966
475.895321	0.287539
476.265513	0.281915
476.635645	0.277050
477.005719	0.276848
477.375734	0.273563
477.745691	0.266756
478.115588	0.263103
478.485427	0.256436
478.855207	0.243589
479.224928	0.225944
479.594591	0.214066
479.964194	0.217343
480.333739	0.218639
480.703226	0.219972
481.072653	0.218199
481.442022	0.214144
481.811333	0.210769
482.180584	0.214288
482.549777	0.219527
482.918912	0.222714
483.287988	0.222530
483.657005	0.222534
484.025964	0.228722
484.394864	0.225990
484.763706	0.226643
485.132489	0.231707
485.501213	0.232316
485.869879	0.230473
486.238487	0.233771
486.607036	0.231748
486.975527	0.236543
487.343959	0.232242
487.712333	0.231262
488.080648	0.232762
488.448905	0.231910
488.817104	0.233272
489.185244	0.227708
489.553326	0.224862
489.921350	0.214287
490.289315	0.196838
490.657222	0.191658
491.025070	0.193121
491.392861	0.195146
491.760593	0.200866
492.128267	0.206544
492.495883	0.212028
492.863440	0.218461
493.230939	0.224768
493.598380	0.226394
493.965763	0.228253
494.333088	0.230285
494.700354	0.232031
495.067563	0.230902
495.434713	0.234609
495.801805	0.232334
496.168839	0.233806
496.535815	0.235176
496.902733	0.234935
497.269593	0.236663
497.636395	0.234301
498.003139	0.234679
498.369825	0.237351
498.736453	0.234162
499.103023	0.235862
499.469535	0.235018
499.835989	0.235604
500.202385	0.236055
500.568723	0.239457
500.935003	0.234784
501.301226	0.238849
501.667390	0.233034
502.033497	0.231135
502.399546	0.234327
502.765537	0.236111
503.131470	0.234797
503.497345	0.230962
503.863163	0.239450
504.228923	0.232534
504.594625	0.231151
504.960269	0.236555
505.325856	0.232063
505.691385	0.236604
506.056856	0.232803
506.422270	0.232490
506.787625	0.235098
507.152924	0.232328
507.518164	0.232662
507.883347	0.234365
508.248472	0.236196
508.613540	0.230960
508.978550	0.233776
509.343503	0.234021
509.708398	0.231753
510.073236	0.229309
510.438016	0.228865
510.802738	0.230223
511.167403	0.229180
511.532010	0.231361
511.896561	0.226571
512.261053	0.224992
512.625488	0.227732
512.989866	0.227739
513.354186	0.228240
513.718449	0.229877
514.082655	0.226089
514.446803	0.228464
514.810894	0.226382
515.174927	0.228727
515.538904	0.228378
515.902822	0.225280
516.266684	0.227508
516.630488	0.228814
516.994235	0.227716
517.357925	0.226364
517.721558	0.224508
518.085133	0.224406
518.448651	0.224113
518.812112	0.226577
519.175516	0.226316
519.538863	0.223806
519.902152	0.225810
520.265385	0.222227
520.628560	0.223990
520.991678	0.224449
521.354739	0.223291
521.717743	0.224768
522.080690	0.224897
522.443580	0.222182
522.806413	0.223071
523.169189	0.222765
523.531908	0.221297
523.894569	0.224845
524.257174	0.224781
524.619722	0.222648
524.982213	0.223757
525.344647	0.222327
525.707025	0.223319
526.069345	0.221453
526.431608	0.223326
526.793815	0.221191
527.155964	0.225448
527.518057	0.224222
527.880093	0.225199
528.242072	0.223994
528.603995	0.225929
528.965860	0.227356
529.327669	0.226422
529.689421	0.227227
530.051117	0.228229
530.412755	0.226093
530.774337	0.227887
531.135862	0.228794
531.497331	0.227964
531.858743	0.230868
532.220098	0.227401
532.581396	0.229982
532.942638	0.230411
533.303824	0.231611
533.664953	0.231179
534.026025	0.233064
534.387040	0.231050
534.747999	0.230911
535.108902	0.229477
535.469748	0.235026
535.830537	0.232703
536.191270	0.233150
536.551947	0.232455
536.912567	0.232587
537.273131	0.234346
537.633638	0.234362
537.994089	0.234868
538.354483	0.235776
538.714821	0.232922
539.075103	0.232594
539.435328	0.233505
539.795497	0.237065
540.155609	0.233835
540.515665	0.231936
540.875665	0.237663
541.235609	0.236039
541.595496	0.236079
541.955328	0.232745
542.315102	0.235580
542.674821	0.236571
543.034483	0.236665
543.394090	0.236467
543.753640	0.237865
544.113134	0.233159
544.472571	0.236564
544.831953	0.233283
545.191278	0.237528
545.550548	0.236745
545.909761	0.233889
546.268918	0.234584
546.628019	0.232559
546.987064	0.235606
547.346053	0.236979
547.704986	0.234799
548.063863	0.235420
548.422684	0.235410
548.781449	0.237488
549.140158	0.235328
549.498811	0.237997
549.857408	0.240716
550.215949	0.235736
550.574434	0.238626
550.932864	0.237010
551.291237	0.235157
551.649555	0.236894
552.007817	0.236587
552.366022	0.237802
552.724173	0.237707
553.082267	0.238083
553.440305	0.234824
553.798288	0.239317
554.156215	0.235846
554.514086	0.236224
554.871902	0.239680
555.229661	0.238749
555.587365	0.239522
555.945014	0.241946
556.302606	0.239043
556.660143	0.241462
557.017625	0.238033
557.375050	0.240450
557.732421	0.237308
558.089735	0.239059
558.446994	0.238985
558.804197	0.238425
559.161345	0.238155
559.518437	0.241608
559.875474	0.239583
560.232455	0.239238
560.589381	0.240624
560.946251	0.240527
561.303065	0.237935
561.659825	0.239297
562.016528	0.240982
562.373177	0.243499
562.729770	0.240775
563.086307	0.242877
563.442789	0.240556
563.799216	0.243784
564.155587	0.242639
564.511904	0.243685
564.868164	0.243564
565.224370	0.243016
565.580520	0.245166
565.936615	0.244926
566.292654	0.248296
566.648638	0.245303
567.004567	0.245863
567.360441	0.246566
567.716260	0.248668
568.072023	0.246322
568.427732	0.247048
568.783385	0.249704
569.138982	0.247654
569.494525	0.247173
569.850013	0.250061
570.205445	0.248617
570.560823	0.251248
570.916145	0.253212
571.271412	0.251482
571.626625	0.252991
571.981782	0.253257
572.336884	0.254327
572.691931	0.253880
573.046923	0.255435
573.401860	0.256490
573.756743	0.258227
574.111570	0.257115
574.466342	0.257968
574.821059	0.256480
575.175722	0.259664
575.530330	0.259405
575.884882	0.259629
576.239380	0.261447
576.593823	0.261977
576.948211	0.261713
577.302544	0.264991
577.656823	0.264488
578.011047	0.264403
578.365216	0.265235
578.719330	0.267347
579.073389	0.266915
579.427394	0.268128
579.781344	0.269034
580.135239	0.270403
580.489080	0.270491
580.842866	0.273267
581.196597	0.273311
581.550273	0.271565
581.903895	0.272536
582.257463	0.270677
582.610975	0.274309
582.964434	0.273417
583.317837	0.275991
583.671186	0.276392
584.024481	0.276388
584.377721	0.278747
584.730906	0.280059
585.084037	0.278948
585.437113	0.280851
585.790135	0.280283
586.143103	0.283063
586.496016	0.284139
586.848874	0.281874
587.201679	0.282130
587.554428	0.285572
587.907124	0.284725
588.259765	0.285355
588.612352	0.285758
588.964884	0.290070
589.317362	0.289265
589.669786	0.289207
590.022155	0.287440
590.374470	0.286964
590.726731	0.288704
591.078937	0.293840
591.431090	0.290408
591.783188	0.294526
592.135232	0.294997
592.487222	0.294802
592.839157	0.292970
593.191038	0.295219
593.542866	0.296881
593.894639	0.300384
594.246358	0.298991
594.598022	0.298318
594.949633	0.301711
595.301190	0.302541
595.652692	0.301426
596.004141	0.297418
596.355535	0.305676
596.706876	0.306322
597.058162	0.308825
597.409395	0.305876
597.760573	0.303860
598.111698	0.306893
598.462768	0.307447
598.813785	0.308444
599.164748	0.310055
599.515657	0.310224
599.866511	0.313988
600.217312	0.308909
600.568060	0.314397
600.918753	0.310682
601.269392	0.311957
601.619978	0.314929
601.970510	0.312578
602.320988	0.312557
602.671412	0.310677
603.021783	0.313172
603.372100	0.314184
603.722363	0.314132
604.072572	0.314782
604.422728	0.314653
604.772830	0.317018
605.122878	0.316501
605.472872	0.317124
605.822813	0.315345
606.172701	0.317932
606.522534	0.315143
606.872314	0.315474
607.222041	0.316434
607.571714	0.314312
607.921333	0.316195
608.270899	0.315501
608.620411	0.312059
608.969870	0.316419
609.319276	0.316631
609.668627	0.315928
610.017926	0.314774
610.367171	0.313268
610.716362	0.314014
611.065500	0.314226
611.414585	0.312733
611.763616	0.313159
612.112594	0.313943
612.461518	0.312994
612.810389	0.311197
613.159207	0.313230
613.507971	0.314945
613.856682	0.310983
614.205340	0.312205
614.553945	0.309433
614.902496	0.313284
615.250994	0.311384
615.599439	0.311813
615.947830	0.311072
616.296169	0.312453
616.644454	0.312044
616.992686	0.311924
617.340864	0.309834
617.688990	0.313297
618.037063	0.309902
618.385082	0.311640
618.733048	0.308740
619.080961	0.311179
619.428821	0.310193
619.776628	0.310117
620.124382	0.312108
620.472083	0.312876
620.819731	0.312052
621.167326	0.315548
621.514868	0.315508
621.862357	0.319501
622.209793	0.318783
622.557176	0.321595
622.904506	0.322541
623.251783	0.324811
623.599007	0.327524
623.946179	0.327070
624.293297	0.328757
624.640363	0.333323
624.987376	0.333404
625.334336	0.335967
625.681243	0.338038
626.028097	0.338385
626.374899	0.339551
626.721647	0.340433
627.068343	0.343082
627.414987	0.344845
627.761577	0.346249
628.108115	0.344845
628.454600	0.349729
628.801032	0.347312
629.147412	0.349223
629.493739	0.350398
629.840014	0.352776
630.186236	0.350127
630.532405	0.355962
630.878521	0.353233
631.224585	0.355324
631.570597	0.359062
631.916556	0.357649
632.262462	0.357321
632.608316	0.359696
632.954117	0.360619
633.299866	0.360944
633.645562	0.361424
633.991206	0.366163
634.336797	0.368876
634.682336	0.371320
635.027823	0.373128
635.373257	0.373506
635.718639	0.377385
636.063968	0.376132
636.409245	0.382338
636.754470	0.382141
637.099642	0.385044
637.444762	0.388716
637.789829	0.387616
638.134845	0.391344
638.479808	0.392284
638.824719	0.392111
639.169577	0.396048
639.514383	0.395102
639.859137	0.399353
640.203839	0.399071
640.548489	0.399543
640.893086	0.400436
641.237632	0.402450
641.582125	0.400951
641.926566	0.403269
642.270955	0.402958
642.615292	0.402588
642.959576	0.402364
643.303809	0.403445
643.647990	0.402422
643.992118	0.403314
644.336195	0.406035
644.680219	0.404475
645.024192	0.405166
645.368112	0.399158
645.711981	0.397543
646.055797	0.393405
646.399562	0.395506
646.743274	0.388209
647.086935	0.385108
647.430544	0.385104
647.774101	0.383727
648.117606	0.383603
648.461059	0.384596
648.804460	0.387081
649.147810	0.391696
649.491108	0.393426
649.834354	0.395557
650.177548	0.400500
650.520690	0.405978
650.863781	0.406998
651.206820	0.406313
651.549807	0.411062
651.892742	0.415622
652.235626	0.414520
652.578458	0.415382
652.921238	0.421868
653.263967	0.419734
653.606644	0.423059
653.949269	0.423461
654.291843	0.426933
654.634365	0.424593
654.976836	0.426813
655.319255	0.427661
655.661622	0.428863
656.003938	0.428955
656.346203	0.431644
656.688416	0.429589
657.030577	0.433196
657.372687	0.435184
657.714746	0.436391
658.056753	0.432608
658.398708	0.436308
658.740612	0.438004
659.082465	0.433812
659.424266	0.434552
659.766016	0.433703
660.107715	0.437221
660.449362	0.436044
660.790958	0.436452
661.132503	0.437336
661.473996	0.434312
661.815438	0.435474
662.156829	0.436253
662.498168	0.436575
662.839456	0.437704
663.180693	0.435282
663.521879	0.435686
663.863013	0.436309
664.204097	0.434757
664.545129	0.431450
664.886110	0.432466
665.227040	0.429273
665.567918	0.432043
665.908746	0.429879
666.249522	0.429976
666.590248	0.430620
666.930922	0.428600
667.271545	0.428121
667.612118	0.427804
667.952639	0.429658
668.293109	0.428473
668.633528	0.430793
668.973896	0.430727
669.314213	0.431472
669.654480	0.432860
669.994695	0.433239
670.334859	0.434150
670.674973	0.434446
671.015035	0.433822
671.355047	0.434306
671.695008	0.435490
672.034918	0.437437
672.374777	0.436518
672.714585	0.437225
673.054342	0.437926
673.394049	0.437604
673.733705	0.435312
674.073310	0.436887
674.412864	0.439547
674.752368	0.440052
675.091820	0.440369
675.431223	0.445464
675.770574	0.444507
676.109875	0.448300
676.449125	0.447252
676.788324	0.449931
677.127473	0.454998
677.466571	0.455289
677.805619	0.456813
678.144616	0.458292
678.483562	0.459700
678.822458	0.462303
679.161303	0.462716
679.500098	0.463958
679.838842	0.465071
680.177535	0.464249
680.516179	0.463223
680.854771	0.462294
681.193314	0.455430
681.531805	0.446855
681.870247	0.435541
682.208638	0.428164
682.546978	0.426945
682.885268	0.429126
683.223508	0.434863
683.561697	0.439252
683.899836	0.441291
684.237925	0.444674
684.575963	0.447890
684.913951	0.450687
685.251889	0.446707
685.589776	0.448566
685.927614	0.450596
686.265401	0.445071
686.603137	0.446228
686.940824	0.439947
687.278460	0.439165
687.616046	0.437882
687.953582	0.433131
688.291068	0.434698
688.628504	0.429379
688.965889	0.432392
689.303224	0.436500
689.640510	0.439915
689.977745	0.445956
690.314930	0.453666
690.652065	0.458264
690.989150	0.466198
691.326185	0.473334
691.663170	0.477767
692.000105	0.484809
692.336990	0.491460
692.673825	0.494011
693.010610	0.500421
693.347345	0.507244
693.684030	0.508219
694.020665	0.513026
694.357251	0.521928
694.693786	0.521495
695.030272	0.524746
695.366707	0.529296
695.703093	0.532360
696.039429	0.529758
696.375716	0.532468
696.711952	0.534083
697.048139	0.536373
697.384276	0.538630
697.720363	0.537075
698.056400	0.535436
698.392388	0.541862
698.728326	0.543993
699.064214	0.547386
699.400053	0.548365
699.735842	0.551855
700.071581	0.554997
700.407270	0.557597
700.742910	0.560539
701.078501	0.566068
701.414042	0.567247
701.749533	0.570151
702.084974	0.579353
702.420366	0.571933
702.755709	0.579463
703.091002	0.586414
703.426246	0.580746
703.761440	0.586491
704.096584	0.590855
704.431679	0.588516
704.766725	0.590267
705.101721	0.592172
705.436668	0.587651
705.771565	0.595406
706.106413	0.591282
706.441212	0.587109
706.775961	0.586468
707.110661	0.588336
707.445311	0.585057
707.779913	0.582985
708.114465	0.581107
708.448967	0.577473
708.783421	0.570078
709.117825	0.564832
709.452180	0.564261
709.786485	0.558782
710.120742	0.548763
710.454949	0.550144
710.789107	0.541907
711.123216	0.532376
711.457275	0.534111
711.791286	0.526796
712.125247	0.525101
712.459159	0.535713
712.793023	0.527763
713.126837	0.532174
713.460602	0.532955
713.794318	0.541477
714.127985	0.540806
714.461602	0.550914
714.795171	0.554089
715.128691	0.562548
715.462162	0.570031
715.795584	0.575522
716.128957	0.578643
716.462281	0.585128
716.795556	0.588234
717.128782	0.594226
717.461960	0.603099
717.795088	0.602281
718.128167	0.608201
718.461198	0.616297
718.794180	0.618273
719.127113	0.619495
719.459997	0.623035
719.792833	0.629992
720.125619	0.630955
720.458357	0.637086
720.791046	0.636297
721.123686	0.639524
721.456278	0.647263
721.788821	0.644253
722.121315	0.649307
722.453761	0.652837
722.786158	0.650608
723.118506	0.646699
723.450805	0.654846
723.783056	0.652680
724.115259	0.649023
724.447412	0.649048
724.779518	0.649527
725.111574	0.648371
725.443582	0.644232
725.775542	0.646811
726.107453	0.638013
726.439315	0.638192
726.771129	0.636785
727.102895	0.631112
727.434612	0.623299
727.766281	0.621834
728.097901	0.620921
728.429473	0.619628
728.760996	0.618396
729.092471	0.619475
729.423897	0.623004
729.755276	0.621472
730.086606	0.622106
730.417887	0.616399
730.749120	0.607334
731.080305	0.597822
731.411442	0.594513
731.742530	0.598292
732.073570	0.597537
732.404562	0.590692
732.735506	0.592211
733.066401	0.597052
733.397249	0.606009
733.728048	0.616770
734.058798	0.629859
734.389501	0.641571
734.720156	0.650828
735.050762	0.657706
735.381320	0.660001
735.711831	0.667015
736.042293	0.672934
736.372707	0.669712
736.703073	0.673179
737.033391	0.675847
737.363661	0.672720
737.693883	0.668169
738.024056	0.666570
738.354182	0.667709
738.684260	0.657668
739.014290	0.653880
739.344272	0.654275
739.674207	0.646686
740.004093	0.647224
740.333931	0.647785
740.663722	0.647679
740.993464	0.648285
741.323159	0.651852
741.652806	0.657044
741.982405	0.662143
742.311956	0.666917
742.641460	0.669781
742.970915	0.672979
743.300323	0.679450
743.629683	0.685522
743.958996	0.688321
744.288260	0.692055
744.617477	0.698970
744.946647	0.699922
745.275768	0.706580
745.604842	0.705753
745.933869	0.715006
746.262847	0.717174
746.591778	0.710378
746.920662	0.716465
747.249498	0.722572
747.578286	0.714297
747.907027	0.710104
748.235720	0.710933
748.564365	0.706129
748.892963	0.705383
749.221514	0.709239
749.550017	0.712867
749.878473	0.714432
750.206881	0.720714
750.535242	0.721130
750.863555	0.720008
751.191821	0.722221
751.520039	0.725074
751.848210	0.728614
752.176334	0.723028
752.504411	0.722601
752.832440	0.728751
753.160421	0.732653
753.488356	0.731342
753.816243	0.729163
754.144082	0.737086
754.471875	0.741389
754.799620	0.736954
755.127318	0.737910
755.454969	0.738887
755.782572	0.739181
756.110129	0.742634
756.437638	0.745390
756.765100	0.742145
757.092515	0.739768
757.419882	0.738915
757.747203	0.744205
758.074477	0.744053
758.401703	0.741563
758.728882	0.736567
759.056014	0.734614
759.383099	0.733755
759.710138	0.734546
760.037129	0.731924
760.364073	0.726064
760.690970	0.727063
761.017820	0.732416
761.344623	0.729039
761.671379	0.720602
761.998088	0.709988
762.324751	0.686158
762.651366	0.644162
762.977935	0.577669
763.304456	0.527272
763.630931	0.518407
763.957359	0.556599
764.283740	0.600001
764.610074	0.628000
764.936362	0.658650
765.262602	0.685990
765.588796	0.707684
765.914943	0.723423
766.241044	0.741827
766.567097	0.747733
766.893104	0.758215
767.219064	0.763881
767.544978	0.770610
767.870845	0.783555
768.196665	0.788085
768.522438	0.786179
768.848165	0.787389
769.173846	0.796522
769.499479	0.800357
769.825066	0.805135
770.150607	0.808628
770.476101	0.805170
770.801548	0.806527
771.126949	0.818053
771.452303	0.821525
771.777611	0.819997
772.102872	0.819178
772.428087	0.824702
772.753256	0.828678
773.078378	0.830418
773.403453	0.838998
773.728482	0.843008
774.053465	0.834876
774.378401	0.839616
774.703291	0.848614
775.028135	0.848189
775.352932	0.848793
775.677683	0.853049
776.002388	0.853892
776.327046	0.852451
776.651658	0.857739
776.976224	0.860146
777.300743	0.858768
777.625216	0.861873
777.949643	0.863377
778.274024	0.862381
778.598359	0.865163
778.922647	0.862694
779.246889	0.865171
779.571086	0.868228
779.895236	0.870390
780.219339	0.868297
780.543397	0.864029
780.867409	0.864866
781.191374	0.865564
781.515294	0.867916
781.839167	0.866440
782.162995	0.867966
782.486776	0.866230
782.810511	0.867506
783.134201	0.871597
783.457844	0.870479
783.781441	0.871571
784.104993	0.876238
784.428498	0.878084
784.751958	0.874741
785.075372	0.876113
785.398739	0.879644
785.722061	0.874870
786.045337	0.871791
786.368568	0.875382
786.691752	0.878472
787.014891	0.863763
787.337983	0.855373
787.661030	0.848598
787.984031	0.831479
788.306987	0.818599
788.629897	0.819376
788.952760	0.823829
789.275579	0.828090
789.598351	0.844181
789.921078	0.857333
790.243759	0.858552
790.566395	0.863824
790.888984	0.871913
791.211529	0.875807
791.534027	0.878451
791.856480	0.881027
792.178888	0.886585
792.501249	0.887794
792.823566	0.890496
793.145836	0.889192
793.468062	0.891579
793.790241	0.892962
794.112375	0.889167
794.434464	0.886832
794.756507	0.885396
795.078505	0.884321
795.400457	0.879554
795.722364	0.867098
796.044226	0.861765
796.366042	0.859635
796.687812	0.863047
797.009538	0.857592
797.331218	0.863306
797.652852	0.866939
797.974442	0.871455
798.295986	0.873708
798.617484	0.873908
798.938938	0.879525
799.260346	0.883056
799.581709	0.883931
799.903026	0.887970
800.224299	0.887855
800.545526	0.891122
800.866708	0.895143
801.187845	0.899952
801.508936	0.898132
801.829983	0.896165
802.150984	0.899520
802.471940	0.904685
802.792851	0.904425
803.113717	0.905118
803.434538	0.903292
803.755314	0.905771
804.076045	0.907391
804.396731	0.907203
804.717372	0.906123
805.037967	0.909464
805.358518	0.906750
805.679024	0.903223
805.999485	0.903894
806.319901	0.903308
806.640272	0.906105
806.960598	0.904140
807.280879	0.899900
807.601115	0.898991
807.921306	0.903273
808.241453	0.903812
808.561554	0.902146
808.881611	0.901257
809.201623	0.903240
809.521590	0.903073
809.841513	0.904785
810.161390	0.902289
810.481223	0.905582
810.801011	0.908206
811.120755	0.909790
811.440453	0.908478
811.760107	0.909404
812.079716	0.908335
812.399281	0.911602
812.718801	0.913395
813.038276	0.912977
813.357707	0.915070
813.677093	0.911957
813.996434	0.913936
814.315731	0.917044
814.634983	0.917464
814.954191	0.916705
815.273354	0.912328
815.592473	0.909293
815.911547	0.909183
816.230577	0.905329
816.549562	0.903650
816.868502	0.903401
817.187399	0.901813
817.506250	0.896255
817.825058	0.898008
818.143821	0.893452
818.462539	0.888990
818.781213	0.881896
819.099843	0.871564
819.418429	0.854913
819.736970	0.838337
820.055466	0.818812
820.373919	0.794135
820.692327	0.762640
821.010691	0.728412
821.329011	0.649363
821.647286	0.534202
821.965517	0.421461
822.283704	0.378114
822.601847	0.380159
822.919945	0.418400
823.237999	0.454467
823.556010	0.501073
823.873976	0.556110
824.191897	0.606597
824.509775	0.648929
824.827609	0.692662
825.145398	0.715268
825.463144	0.715872
825.780845	0.699450
826.098502	0.681727
826.416116	0.636271
826.733685	0.592504
827.051210	0.584652
827.368692	0.599836
827.686129	0.637430
828.003522	0.690368
828.320872	0.736893
828.638177	0.779686
828.955439	0.810770
829.272656	0.831452
829.589830	0.847578
829.906960	0.863822
830.224046	0.875801
830.541088	0.886216
830.858086	0.890355
831.175041	0.896902
831.491952	0.895380
831.808819	0.891475
832.125642	0.885122
832.442421	0.872757
832.759157	0.851552
833.075849	0.804561
833.392497	0.741335
833.709101	0.702462
834.025662	0.712917
834.342179	0.744530
834.658653	0.783130
834.975083	0.817561
835.291469	0.843759
835.607811	0.865537
835.924110	0.880761
836.240366	0.896751
836.556578	0.909561
836.872746	0.916877
837.188871	0.923532
837.504952	0.928164
837.820990	0.931152
838.136984	0.935053
838.452935	0.937109
838.768842	0.939304
839.084706	0.932082
839.400526	0.908073
839.716303	0.866654
840.032037	0.845650
840.347727	0.850771
840.663373	0.867639
840.978977	0.889277
841.294537	0.911833
841.610054	0.925708
841.925527	0.933913
842.240957	0.941040
842.556344	0.947068
842.871687	0.953629
843.186987	0.956796
843.502244	0.957621
843.817458	0.959585
844.132629	0.963304
844.447756	0.966928
844.762840	0.966988
845.077881	0.967560
845.392879	0.966701
845.707833	0.968568
846.022745	0.971448
846.337613	0.971316
846.652438	0.972689
846.967221	0.971891
847.281960	0.973087
847.596656	0.973990
847.911309	0.973750
848.225919	0.972606
848.540485	0.976002
848.855009	0.976196
849.169490	0.975921
849.483928	0.975425
849.798323	0.975240
850.112675	0.977206
850.426984	0.975736
850.741251	0.977460
851.055474	0.977429
851.369654	0.974413
851.683792	0.975322
851.997887	0.976393
852.311938	0.976831
852.625947	0.974920
852.939914	0.972968
853.253837	0.976886
853.567718	0.977159
853.881555	0.977376
854.195350	0.975293
854.509103	0.976187
854.822812	0.977623
855.136479	0.978405
855.450103	0.975981
855.763685	0.975397
856.077224	0.977221
856.390720	0.978319
856.704173	0.977413
857.017584	0.975089
857.330953	0.975002
857.644278	0.972734
857.957561	0.974125
858.270802	0.976181
858.584000	0.976122
858.897155	0.973923
859.210268	0.972780
859.523339	0.975209
859.836367	0.978134
860.149352	0.977330
860.462295	0.975782
860.775195	0.976059
861.088054	0.975908
861.400869	0.976902
861.713642	0.976766
862.026373	0.978321
862.339062	0.977686
862.651708	0.976049
862.964312	0.976401
863.276873	0.976477
863.589392	0.974709
863.901869	0.972767
864.214303	0.973125
864.526696	0.972285
864.839045	0.970748
865.151353	0.969651
865.463619	0.968456
865.775842	0.970299
866.088023	0.970471
866.400162	0.969969
866.712258	0.970668
867.024313	0.971693
867.336325	0.972143
867.648296	0.971006
867.960224	0.970322
868.272110	0.969633
868.583954	0.972198
868.895755	0.972364
869.207515	0.970314
869.519233	0.968708
869.830909	0.967178
870.142542	0.969399
870.454134	0.969202
870.765684	0.966280
871.077191	0.967799
871.388657	0.966133
871.700081	0.967081
872.011463	0.967209
872.322803	0.965630
872.634101	0.963918
872.945357	0.961543
873.256571	0.959613
873.567744	0.961562
873.878874	0.961597
874.189963	0.961482
874.501010	0.961380
874.812015	0.957828
875.122979	0.959673
875.433900	0.961962
875.744780	0.962769
876.055618	0.959048
876.366415	0.957551
876.677169	0.957436
876.987882	0.959580
877.298554	0.959387
877.609183	0.956915
877.919771	0.954047
878.230317	0.952105
878.540822	0.948728
878.851285	0.945744
879.161707	0.937303
879.472087	0.927327
879.782425	0.910144
880.092722	0.877026
880.402977	0.826143
880.713191	0.765375
881.023363	0.705003
881.333494	0.670289
881.643583	0.644093
881.953631	0.645370
882.263637	0.674948
882.573602	0.714273
882.883526	0.739338
883.193408	0.763946
883.503248	0.786394
883.813048	0.813381
884.122806	0.842745
884.432522	0.863519
884.742197	0.883254
885.051831	0.893822
885.361424	0.904205
885.670975	0.915649
885.980485	0.924848
886.289954	0.930091
886.599382	0.932802
886.908768	0.938678
887.218113	0.943350
887.527417	0.948266
887.836680	0.950774
888.145901	0.953438
888.455082	0.957374
888.764221	0.958906
889.073319	0.961499
889.382376	0.961866
889.691392	0.960815
890.000366	0.962072
890.309300	0.961992
890.618193	0.961874
890.927044	0.960053
891.235855	0.960688
891.544625	0.960659
891.853353	0.960425
892.162041	0.957535
892.470687	0.952648
892.779293	0.947274
893.087858	0.941868
893.396381	0.934554
893.704864	0.921657
894.013306	0.898175
894.321707	0.874147
894.630068	0.859558
894.938387	0.854390
895.246665	0.857471
895.554903	0.869592
895.863100	0.882519
896.171256	0.899342
896.479371	0.917292
896.787446	0.929606
897.095480	0.935134
897.403473	0.938381
897.711425	0.942043
898.019336	0.948598
898.327207	0.953762
898.635038	0.953299
898.942827	0.954713
899.250576	0.957459
899.558284	0.961420
899.865952	0.962296
900.173579	0.963662
900.481165	0.965776
900.788711	0.966283
901.096216	0.968600
901.403681	0.970734
901.711105	0.970567
902.018489	0.970073
902.325832	0.969794
902.633135	0.968727
902.940397	0.964094
903.247619	0.952928
903.554800	0.927936
903.861941	0.888341
904.169041	0.853361
904.476101	0.836844
904.783121	0.839152
905.090100	0.855337
905.397039	0.875922
905.703938	0.897681
906.010796	0.917247
906.317614	0.932428
906.624391	0.944877
906.931129	0.953310
907.237826	0.960898
907.544483	0.966635
907.851099	0.970376
908.157675	0.973138
908.464211	0.976955
908.770707	0.979518
909.077163	0.981701
909.383578	0.982363
909.689954	0.982671
909.996289	0.983333
910.302584	0.985080
910.608839	0.986639
910.915054	0.986004
911.221229	0.985646
911.527363	0.983925
911.833458	0.985313
912.139513	0.984557
912.445527	0.984235
912.751502	0.981679
913.057436	0.978228
913.363331	0.978372
913.669186	0.975367
913.975000	0.970477
914.280775	0.962802
914.586510	0.956955
914.892205	0.944021
915.197859	0.921977
915.503475	0.897962
915.809050	0.878267
916.114585	0.871050
916.420081	0.869849
916.725536	0.867852
917.030952	0.875224
917.336328	0.888309
917.641665	0.902168
917.946961	0.918037
918.252218	0.929140
918.557435	0.936454
918.862612	0.944383
919.167750	0.949868
919.472848	0.955032
919.777906	0.962807
920.082925	0.966996
920.387904	0.969525
920.692843	0.970587
920.997743	0.971973
921.302603	0.974523
921.607423	0.976380
921.912204	0.979115
922.216946	0.980155
922.521647	0.982080
922.826310	0.981113
923.130932	0.984439
923.435516	0.986127
923.740059	0.985744
924.044564	0.985199
924.349028	0.987250
924.653454	0.989077
924.957840	0.990463
925.262186	0.990328
925.566493	0.991132
925.870761	0.992531
926.174989	0.991146
926.479178	0.993706
926.783328	0.993811
927.087438	0.994839
927.391509	0.993352
927.695541	0.995760
927.999533	0.996571
928.303486	0.995167
928.607400	0.995880
928.911275	0.995742
929.215110	0.996921
929.518906	0.996733
929.822663	0.997462
930.126381	0.997429
930.430060	0.996187
930.733699	0.997113
931.037299	0.996517
931.340861	0.995643
931.644383	0.995243
931.947866	0.996964
932.251309	0.996162
932.554714	0.996253
932.858080	0.995589
933.161407	0.995366
933.464694	0.996737
933.767943	0.997129
934.071153	0.996712
934.374323	0.998100
934.677455	0.997825
934.980548	0.997136
935.283602	0.998845
935.586617	0.996923
935.889593	0.998614
936.192530	0.998190
936.495428	0.997173
936.798287	0.996639
937.101108	0.995903
937.403890	0.995319
937.706632	0.995413
938.009336	0.991683
938.312002	0.992014
938.614628	0.991211
938.917216	0.988335
939.219765	0.990130
939.522275	0.989031
939.824747	0.990243
940.127179	0.990369
940.429573	0.992282
940.731929	0.990847
941.034246	0.990921
941.336524	0.990831
941.638763	0.992057
941.940964	0.992417
942.243126	0.993150
942.545250	0.994978
942.847335	0.994450
943.149381	0.994920
943.451389	0.994142
943.753359	0.995377
944.055290	0.997262
944.357182	0.996700
944.659036	0.996217
944.960851	0.996049
945.262628	0.996243
945.564367	0.996630
945.866067	0.994846
946.167729	0.995979
946.469352	0.996492
946.770937	0.994110
947.072484	0.996195
947.373992	0.996567
947.675462	0.996379
947.976893	0.997332
948.278286	0.997633
948.579641	0.997066
948.880958	0.996959
949.182236	0.996584
949.483476	0.996871
949.784678	0.997234
950.085841	0.996048
950.386967	0.997448
950.688054	0.997399
950.989103	0.994975
951.290114	0.995565
951.591087	0.995635
951.892021	0.994434
952.192917	0.995339
952.493776	0.995347
952.794596	0.993791
953.095378	0.993773
953.396122	0.994144
953.696828	0.996283
953.997496	0.995486
954.298126	0.997639
954.598718	0.995681
954.899272	0.996424
955.199788	0.997621
955.500266	0.998778
955.800706	0.999293
956.101108	0.998175
956.401472	0.999339
956.701798	0.999183
957.002087	0.999874
957.302337	0.998537
957.602550	1.000263
957.902724	1.000034
958.202861	1.001173
958.502960	1.000121
958.803022	1.001553
959.103045	1.000479
959.403031	1.001732
959.702979	1.002348
960.002889	1.000109
960.302762	1.002145
960.602596	1.002777
960.902393	1.002472
961.202153	1.002399
961.501875	1.002250
961.801559	1.001860
962.101205	1.001097
962.400814	1.003177
962.700385	1.001650
962.999918	1.002414
963.299414	1.001270
963.598873	1.003402
963.898293	1.002399
964.197677	1.002917
964.497022	1.002349
964.796331	1.003103
965.095601	1.003539
965.394835	1.002545
965.694030	1.004158
965.993189	1.002626
966.292309	1.003664
966.591393	1.001549
966.890439	1.003342
967.189447	1.002991
967.488419	1.002826
967.787353	1.002508
968.086249	1.002658
968.385108	1.003171
968.683930	1.003793
968.982714	1.002391
969.281462	1.002251
969.580172	1.003105
969.878844	1.003423
970.177480	1.002099
970.476078	1.003904
970.774639	1.002078
971.073162	1.002444
971.371649	1.001713
971.670098	1.002071
971.968510	1.003056
972.266885	1.002099
972.565223	1.001541
972.863524	1.000495
973.161788	1.001274
973.460014	1.002730
973.758204	1.001520
974.056356	1.002430
974.354471	1.001200
974.652550	1.003127
974.950591	1.001843
975.248595	1.001479
975.546563	1.003111
975.844493	1.003124
976.142386	1.001398
976.440243	1.003338
976.738062	1.003006
977.035845	1.001827
977.333590	1.002771
977.631299	1.003389
977.928971	1.002872
978.226606	1.002628
978.524204	1.001215
978.821765	1.002683
979.119290	1.002980
979.416777	1.002905
979.714228	1.002902
980.011642	1.003670
980.309020	1.002752
980.606360	1.002924
980.903664	1.002376
981.200931	1.001431
981.498162	1.001771
981.795356	1.001090
982.092513	1.000039
982.389633	1.000539
982.686717	0.997664
982.983764	0.997359
983.280775	0.996549
983.577749	0.997026
983.874686	0.996398
984.171587	0.997569
984.468451	0.998938
984.765279	1.000387
985.062070	1.001161
985.358824	1.001233
985.655543	1.002689
985.952224	1.002418
986.248869	1.003225
986.545478	1.003528
986.842050	1.002534
987.138586	1.002844
987.435086	1.002757
987.731549	1.003720
988.027975	1.003631
988.324366	1.003432
988.620719	1.003910
988.917037	1.003569
989.213318	1.004698
989.509563	1.003605
989.805772	1.004061
990.101944	1.004578
990.398080	1.004153
990.694180	1.004361
990.990244	1.004061
991.286271	1.004627
991.582262	1.004259
991.878217	1.004230
992.174136	1.005458
992.470019	1.004764
992.765865	1.004561
993.061676	1.005135
993.357450	1.004577
993.653188	1.004738
993.948890	1.003699
994.244556	1.003147
994.540186	1.003537
994.835780	1.003391
995.131337	1.003875
995.426859	1.003407
995.722345	1.001970
996.017795	1.002385
996.313208	1.001955
996.608586	1.002465
996.903928	1.003905
997.199234	1.002598
997.494504	1.003005
997.789738	1.001311
998.084936	1.003242
998.380099	1.002715
998.675225	1.004608
998.970316	1.003531
999.265371	1.004515
999.560390	1.003937
999.855373	1.005270
1000.150320	1.003735
1000.445232	1.003966
1000.740108	1.003927
1001.034948	1.003177
1001.329752	1.004311
1001.624521	1.003893
1001.919254	1.003524
1002.213951	1.004715
1002.508613	1.002914
1002.803239	1.003526
1003.097829	1.003851
1003.392384	1.004638
1003.686903	1.005331
1003.981386	1.004423
1004.275834	1.005431
1004.570246	1.004125
1004.864623	1.005372
1005.158964	1.005499
1005.453270	1.003240
1005.747540	1.004885
1006.041775	1.004846
1006.335974	1.006123
1006.630138	1.005146
1006.924266	1.003696
1007.218359	1.003746
1007.512416	1.005439
1007.806438	1.003503
1008.100425	1.004795
1008.394376	1.005563
1008.688292	1.004115
1008.982172	1.003157
1009.276017	1.005106
1009.569827	1.005272
1009.863602	1.003829
1010.157341	1.005494
1010.451045	1.003727
1010.744714	1.005447
1011.038347	1.005081
1011.331945	1.004004
1011.625508	1.004286
1011.919036	1.004896
1012.212528	1.004227
1012.505986	1.004056
1012.799408	1.005426
1013.092795	1.006036
1013.386147	1.004552
1013.679464	1.006700
1013.972745	1.004649
1014.265992	1.004642
1014.559204	1.004186
1014.852380	1.004991
1015.145521	1.004984
1015.438628	1.005072
1015.731699	1.004697
1016.024736	1.005447
1016.317737	1.004079
1016.610703	1.004851
1016.903635	1.005017
1017.196531	1.004283
1017.489393	1.004119
1017.782219	1.004677
1018.075011	1.004758
1018.367768	1.004179
1018.660490	1.004136
1018.953177	1.004136
1019.245829	1.004136
