Dividing Wavelength (nm)	Counts (n)	Blue Motor Position (mm): 4.200000	Red Motor Position (mm): 0.000000	
326.493990	1.005136
326.888308	1.005136
327.282561	1.005136
327.676750	1.005689
328.070874	1.006547
328.464933	1.007652
328.858929	1.006991
329.252859	1.007276
329.646726	1.005857
330.040528	1.005341
330.434265	1.006924
330.827938	1.005293
331.221547	1.006747
331.615091	1.006221
332.008571	1.006393
332.401986	1.006287
332.795338	1.006640
333.188625	1.006993
333.581847	1.005773
333.975006	1.005667
334.368100	1.006779
334.761129	1.006700
335.154095	1.007170
335.546996	1.004825
335.939833	0.998884
336.332606	0.999505
336.725315	0.998459
337.117960	0.999743
337.510540	0.998679
337.903056	0.998823
338.295508	1.000093
338.687896	0.999001
339.080220	1.000032
339.472480	0.999712
339.864676	0.998833
340.256807	0.999097
340.648875	0.999641
341.040879	0.998857
341.432818	0.999668
341.824694	0.998925
342.216506	0.999557
342.608253	0.999753
342.999937	0.998591
343.391557	0.998780
343.783113	1.001088
344.174605	0.999020
344.566033	0.998973
344.957397	0.999867
345.348697	0.999286
345.739934	0.999863
346.131106	0.999408
346.522215	0.999956
346.913260	0.999322
347.304241	0.998157
347.695159	0.998849
348.086012	0.999174
348.476802	0.998437
348.867528	0.999685
349.258191	0.999370
349.648789	0.999401
350.039324	0.999689
350.429796	0.999046
350.820203	0.997802
351.210548	0.999187
351.600828	0.998873
351.991045	0.999555
352.381198	0.999108
352.771288	0.999625
353.161314	0.999460
353.551276	0.998346
353.941175	0.997311
354.331010	0.998545
354.720782	0.999220
355.110490	0.998424
355.500135	0.998242
355.889717	0.998998
356.279235	0.996626
356.668689	0.998891
357.058080	0.997284
357.447408	0.997464
357.836672	0.998568
358.225873	0.998188
358.615010	0.997763
359.004084	0.997066
359.393095	0.998369
359.782043	0.997985
360.170927	0.998892
360.559748	0.998361
360.948505	0.996926
361.337199	0.997167
361.725830	0.997610
362.114398	0.997607
362.502903	0.997852
362.891344	0.996104
363.279722	0.996885
363.668037	0.998265
364.056289	0.996957
364.444478	0.998241
364.832603	0.996798
365.220665	0.996989
365.608665	0.996008
365.996601	0.996870
366.384474	0.995738
366.772284	0.996131
367.160031	0.994976
367.547715	0.995349
367.935336	0.994601
368.322893	0.992944
368.710388	0.992863
369.097820	0.991084
369.485189	0.988930
369.872495	0.986837
370.259738	0.985611
370.646918	0.981239
371.034035	0.980388
371.421090	0.976854
371.808081	0.972938
372.195010	0.969073
372.581875	0.964426
372.968678	0.958812
373.355418	0.956352
373.742096	0.949150
374.128710	0.944748
374.515262	0.939501
374.901751	0.933300
375.288177	0.929561
375.674540	0.922790
376.060841	0.915173
376.447079	0.909110
376.833254	0.903314
377.219367	0.897894
377.605417	0.886670
377.991404	0.883331
378.377329	0.876594
378.763191	0.870787
379.148991	0.861537
379.534727	0.853892
379.920402	0.845681
380.306013	0.841558
380.691563	0.829380
381.077049	0.822918
381.462474	0.819094
381.847835	0.807357
382.233134	0.801993
382.618371	0.803016
383.003545	0.785071
383.388657	0.783335
383.773706	0.775431
384.158693	0.771553
384.543618	0.766499
384.928480	0.757937
385.313280	0.747976
385.698017	0.747352
386.082692	0.735271
386.467305	0.734266
386.851856	0.728510
387.236344	0.723287
387.620770	0.717668
388.005133	0.712400
388.389435	0.705982
388.773674	0.703721
389.157851	0.695722
389.541965	0.693629
389.926018	0.700634
390.310008	0.686773
390.693936	0.683230
391.077802	0.674550
391.461606	0.676687
391.845348	0.666378
392.229027	0.666096
392.612645	0.664760
392.996200	0.651159
393.379694	0.644141
393.763125	0.634954
394.146494	0.638188
394.529801	0.629220
394.913047	0.621482
395.296230	0.627696
395.679351	0.619459
396.062410	0.615318
396.445408	0.618301
396.828343	0.613643
397.211217	0.608486
397.594028	0.620577
397.976778	0.610670
398.359466	0.607669
398.742092	0.603310
399.124656	0.614835
399.507158	0.603128
399.889598	0.600713
400.271977	0.591101
400.654294	0.594948
401.036549	0.594426
401.418742	0.598935
401.800874	0.584568
402.182944	0.581165
402.564952	0.572921
402.946898	0.574249
403.328783	0.576026
403.710606	0.586650
404.092367	0.561906
404.474067	0.566360
404.855705	0.566037
405.237282	0.574380
405.618797	0.561007
406.000250	0.556749
406.381642	0.546660
406.762972	0.552070
407.144240	0.550605
407.525447	0.549656
407.906593	0.543169
408.287677	0.538685
408.668700	0.547210
409.049661	0.541611
409.430560	0.536000
409.811399	0.545201
410.192176	0.525571
410.572891	0.533960
410.953545	0.521602
411.334138	0.535797
411.714669	0.527499
412.095139	0.540090
412.475547	0.523583
412.855894	0.525957
413.236180	0.524995
413.616405	0.529781
413.996568	0.520181
414.376670	0.526875
414.756711	0.531907
415.136691	0.528478
415.516609	0.520059
415.896466	0.516347
416.276262	0.512583
416.655997	0.513581
417.035670	0.495736
417.415283	0.486954
417.794834	0.491897
418.174324	0.497580
418.553753	0.506340
418.933121	0.488247
419.312428	0.483216
419.691674	0.488339
420.070859	0.476930
420.449983	0.485026
420.829045	0.473841
421.208047	0.483137
421.586988	0.475822
421.965867	0.474780
422.344686	0.463187
422.723444	0.476631
423.102141	0.493019
423.480777	0.466022
423.859352	0.486502
424.237866	0.464058
424.616319	0.464743
424.994712	0.455523
425.373044	0.466023
425.751314	0.453574
426.129524	0.470644
426.507673	0.453637
426.885762	0.447681
427.263789	0.453355
427.641756	0.463051
428.019662	0.452929
428.397508	0.452036
428.775292	0.456378
429.153016	0.448476
429.530679	0.454736
429.908282	0.447974
430.285824	0.458025
430.663305	0.436389
431.040726	0.457840
431.418086	0.457149
431.795385	0.449416
432.172624	0.448232
432.549802	0.448529
432.926920	0.447019
433.303977	0.446855
433.680974	0.444711
434.057910	0.442430
434.434786	0.441780
434.811601	0.444858
435.188355	0.427208
435.565050	0.436136
435.941683	0.437528
436.318257	0.421238
436.694770	0.422239
437.071222	0.420996
437.447614	0.424754
437.823946	0.431520
438.200218	0.420753
438.576429	0.430813
438.952580	0.423263
439.328670	0.419900
439.704700	0.426956
440.080670	0.428128
440.456580	0.409281
440.832429	0.417120
441.208218	0.428419
441.583947	0.417475
441.959616	0.416614
442.335224	0.422127
442.710773	0.413096
443.086261	0.411164
443.461689	0.424874
443.837057	0.414681
444.212365	0.404531
444.587612	0.411798
444.962800	0.401814
445.337927	0.403257
445.712995	0.429071
446.088002	0.390705
446.462949	0.401027
446.837837	0.406695
447.212664	0.395018
447.587431	0.386596
447.962139	0.357094
448.336786	0.315826
448.711374	0.326384
449.085901	0.371194
449.460369	0.375002
449.834776	0.378210
450.209124	0.357681
450.583412	0.350323
450.957640	0.343565
451.331808	0.354899
451.705917	0.378501
452.079965	0.383158
452.453954	0.371375
452.827883	0.378224
453.201752	0.372855
453.575562	0.384098
453.949311	0.372901
454.323001	0.378976
454.696632	0.374552
455.070202	0.366855
455.443713	0.359179
455.817164	0.353626
456.190556	0.349764
456.563888	0.346384
456.937160	0.343941
457.310373	0.361053
457.683526	0.360258
458.056619	0.366118
458.429653	0.366575
458.802628	0.369816
459.175542	0.364369
459.548398	0.346590
459.921194	0.339039
460.293930	0.339302
460.666607	0.316880
461.039224	0.305083
461.411782	0.300673
461.784280	0.300142
462.156719	0.303999
462.529099	0.308550
462.901419	0.324180
463.273680	0.329190
463.645882	0.328633
464.018024	0.334342
464.390106	0.326579
464.762130	0.311718
465.134094	0.294495
465.505999	0.263615
465.877845	0.233760
466.249631	0.220488
466.621358	0.228106
466.993026	0.242139
467.364634	0.248239
467.736184	0.257124
468.107674	0.265794
468.479105	0.264906
468.850477	0.271862
469.221790	0.279012
469.593043	0.288911
469.964238	0.293402
470.335373	0.292996
470.706449	0.291574
471.077467	0.291693
471.448425	0.253853
471.819324	0.229401
472.190164	0.228965
472.560945	0.257883
472.931667	0.280350
473.302330	0.284294
473.672934	0.296222
474.043479	0.284302
474.413965	0.286036
474.784393	0.289666
475.154761	0.284595
475.525070	0.281756
475.895321	0.287371
476.265513	0.281688
476.635645	0.277078
477.005719	0.276750
477.375734	0.273482
477.745691	0.266627
478.115588	0.262957
478.485427	0.256280
478.855207	0.243386
479.224928	0.225619
479.594591	0.214067
479.964194	0.217280
480.333739	0.218530
480.703226	0.219857
481.072653	0.218370
481.442022	0.214068
481.811333	0.210559
482.180584	0.214449
482.549777	0.219726
482.918912	0.222731
483.287988	0.222545
483.657005	0.222240
484.025964	0.228531
484.394864	0.225740
484.763706	0.226439
485.132489	0.231675
485.501213	0.232298
485.869879	0.230728
486.238487	0.233739
486.607036	0.231770
486.975527	0.236521
487.343959	0.232284
487.712333	0.231410
488.080648	0.232710
488.448905	0.231830
488.817104	0.233180
489.185244	0.227761
489.553326	0.224759
489.921350	0.214535
490.289315	0.196861
490.657222	0.191474
491.025070	0.193102
491.392861	0.195149
491.760593	0.200614
492.128267	0.206451
492.495883	0.212059
492.863440	0.218354
493.230939	0.224753
493.598380	0.226519
493.965763	0.228344
494.333088	0.230377
494.700354	0.232005
495.067563	0.230962
495.434713	0.234437
495.801805	0.232121
496.168839	0.233887
496.535815	0.234978
496.902733	0.234952
497.269593	0.236426
497.636395	0.234167
498.003139	0.234388
498.369825	0.237524
498.736453	0.234132
499.103023	0.235681
499.469535	0.235007
499.835989	0.235351
500.202385	0.236109
500.568723	0.239421
500.935003	0.234559
501.301226	0.238692
501.667390	0.233154
502.033497	0.231029
502.399546	0.234534
502.765537	0.236044
503.131470	0.234547
503.497345	0.231013
503.863163	0.239501
504.228923	0.232433
504.594625	0.231133
504.960269	0.236384
505.325856	0.232112
505.691385	0.236380
506.056856	0.233058
506.422270	0.232362
506.787625	0.235007
507.152924	0.232418
507.518164	0.232760
507.883347	0.234564
508.248472	0.236211
508.613540	0.231227
508.978550	0.233686
509.343503	0.234107
509.708398	0.231831
510.073236	0.229504
510.438016	0.229009
510.802738	0.230000
511.167403	0.229156
511.532010	0.231484
511.896561	0.226802
512.261053	0.225041
512.625488	0.227443
512.989866	0.227568
513.354186	0.227898
513.718449	0.229877
514.082655	0.226097
514.446803	0.228563
514.810894	0.226288
515.174927	0.228945
515.538904	0.228526
515.902822	0.225346
516.266684	0.227335
516.630488	0.228753
516.994235	0.227804
517.357925	0.226590
517.721558	0.224896
518.085133	0.224211
518.448651	0.224228
518.812112	0.226824
519.175516	0.226196
519.538863	0.223643
519.902152	0.225578
520.265385	0.222224
520.628560	0.224012
520.991678	0.224447
521.354739	0.223398
521.717743	0.224289
522.080690	0.224874
522.443580	0.222028
522.806413	0.223020
523.169189	0.222531
523.531908	0.221288
523.894569	0.224942
524.257174	0.224833
524.619722	0.222548
524.982213	0.223630
525.344647	0.222512
525.707025	0.223524
526.069345	0.221567
526.431608	0.223324
526.793815	0.221310
527.155964	0.225452
527.518057	0.224414
527.880093	0.225204
528.242072	0.223830
528.603995	0.225820
528.965860	0.227479
529.327669	0.226172
529.689421	0.227464
530.051117	0.227900
530.412755	0.226083
530.774337	0.227980
531.135862	0.228637
531.497331	0.228032
531.858743	0.230543
532.220098	0.227478
532.581396	0.230121
532.942638	0.230158
533.303824	0.231593
533.664953	0.231285
534.026025	0.232957
534.387040	0.230739
534.747999	0.230796
535.108902	0.229877
535.469748	0.234936
535.830537	0.232446
536.191270	0.232999
536.551947	0.232447
536.912567	0.232640
537.273131	0.234172
537.633638	0.234376
537.994089	0.234741
538.354483	0.235900
538.714821	0.232920
539.075103	0.232719
539.435328	0.233476
539.795497	0.237200
540.155609	0.233624
540.515665	0.231979
540.875665	0.237683
541.235609	0.236133
541.595496	0.236172
541.955328	0.232821
542.315102	0.235488
542.674821	0.236514
543.034483	0.236652
543.394090	0.236068
543.753640	0.237956
544.113134	0.233109
544.472571	0.236412
544.831953	0.233266
545.191278	0.237505
545.550548	0.236646
545.909761	0.233677
546.268918	0.234340
546.628019	0.232737
546.987064	0.235542
547.346053	0.237163
547.704986	0.234811
548.063863	0.235293
548.422684	0.235656
548.781449	0.237000
549.140158	0.235077
549.498811	0.237768
549.857408	0.241002
550.215949	0.235338
550.574434	0.238770
550.932864	0.236825
551.291237	0.235248
551.649555	0.236797
552.007817	0.236448
552.366022	0.237567
552.724173	0.237423
553.082267	0.237961
553.440305	0.234911
553.798288	0.239092
554.156215	0.235819
554.514086	0.236308
554.871902	0.239769
555.229661	0.238473
555.587365	0.239546
555.945014	0.241877
556.302606	0.238660
556.660143	0.241571
557.017625	0.237883
557.375050	0.240082
557.732421	0.237070
558.089735	0.239076
558.446994	0.238803
558.804197	0.238400
559.161345	0.238155
559.518437	0.241359
559.875474	0.239862
560.232455	0.239102
560.589381	0.240203
560.946251	0.240384
561.303065	0.237764
561.659825	0.239074
562.016528	0.240830
562.373177	0.243428
562.729770	0.240697
563.086307	0.242710
563.442789	0.240699
563.799216	0.243615
564.155587	0.242356
564.511904	0.243401
564.868164	0.243637
565.224370	0.243456
565.580520	0.244887
565.936615	0.244868
566.292654	0.248231
566.648638	0.244863
567.004567	0.246095
567.360441	0.246236
567.716260	0.248634
568.072023	0.246167
568.427732	0.247150
568.783385	0.249276
569.138982	0.247593
569.494525	0.247157
569.850013	0.250134
570.205445	0.248428
570.560823	0.250943
570.916145	0.253066
571.271412	0.251325
571.626625	0.253083
571.981782	0.253242
572.336884	0.253970
572.691931	0.253866
573.046923	0.255271
573.401860	0.256466
573.756743	0.258029
574.111570	0.256988
574.466342	0.257286
574.821059	0.256605
575.175722	0.259210
575.530330	0.259295
575.884882	0.259183
576.239380	0.261280
576.593823	0.261983
576.948211	0.261359
577.302544	0.264766
577.656823	0.264433
578.011047	0.264158
578.365216	0.265241
578.719330	0.267193
579.073389	0.266411
579.427394	0.268134
579.781344	0.268945
580.135239	0.270421
580.489080	0.270352
580.842866	0.272734
581.196597	0.272865
581.550273	0.271466
581.903895	0.272438
582.257463	0.270659
582.610975	0.274190
582.964434	0.273611
583.317837	0.275733
583.671186	0.276413
584.024481	0.276435
584.377721	0.278881
584.730906	0.279626
585.084037	0.278993
585.437113	0.280685
585.790135	0.280315
586.143103	0.282996
586.496016	0.284264
586.848874	0.281628
587.201679	0.282155
587.554428	0.285774
587.907124	0.284491
588.259765	0.285124
588.612352	0.285927
588.964884	0.289514
589.317362	0.289309
589.669786	0.288681
590.022155	0.287543
590.374470	0.287122
590.726731	0.288901
591.078937	0.293851
591.431090	0.289972
591.783188	0.294162
592.135232	0.294887
592.487222	0.294488
592.839157	0.292975
593.191038	0.295085
593.542866	0.297022
593.894639	0.300149
594.246358	0.298644
594.598022	0.297741
594.949633	0.302002
595.301190	0.302669
595.652692	0.301628
596.004141	0.297501
596.355535	0.305805
596.706876	0.306281
597.058162	0.308738
597.409395	0.305874
597.760573	0.303822
598.111698	0.307102
598.462768	0.307320
598.813785	0.308613
599.164748	0.310093
599.515657	0.310151
599.866511	0.314122
600.217312	0.309128
600.568060	0.314304
600.918753	0.310828
601.269392	0.311763
601.619978	0.315120
601.970510	0.312429
602.320988	0.312341
602.671412	0.310566
603.021783	0.312739
603.372100	0.314356
603.722363	0.313939
604.072572	0.314891
604.422728	0.314398
604.772830	0.316488
605.122878	0.316491
605.472872	0.316947
605.822813	0.315395
606.172701	0.318247
606.522534	0.315431
606.872314	0.315605
607.222041	0.316568
607.571714	0.314206
607.921333	0.316005
608.270899	0.315458
608.620411	0.312117
608.969870	0.316376
609.319276	0.316011
609.668627	0.315987
610.017926	0.314700
610.367171	0.313442
610.716362	0.313859
611.065500	0.314202
611.414585	0.312928
611.763616	0.313470
612.112594	0.313571
612.461518	0.313043
612.810389	0.311157
613.159207	0.313359
613.507971	0.315197
613.856682	0.310962
614.205340	0.312147
614.553945	0.309236
614.902496	0.313005
615.250994	0.310953
615.599439	0.311509
615.947830	0.311054
616.296169	0.311959
616.644454	0.311835
616.992686	0.311896
617.340864	0.309441
617.688990	0.313254
618.037063	0.309817
618.385082	0.311613
618.733048	0.308378
619.080961	0.310625
619.428821	0.310581
619.776628	0.309814
620.124382	0.312071
620.472083	0.312739
620.819731	0.311718
621.167326	0.315644
621.514868	0.315505
621.862357	0.319628
622.209793	0.318749
622.557176	0.321518
622.904506	0.322671
623.251783	0.325185
623.599007	0.327269
623.946179	0.326814
624.293297	0.329151
624.640363	0.332917
624.987376	0.333097
625.334336	0.335587
625.681243	0.338023
626.028097	0.338377
626.374899	0.339530
626.721647	0.340054
627.068343	0.343070
627.414987	0.344288
627.761577	0.346772
628.108115	0.344273
628.454600	0.349773
628.801032	0.347182
629.147412	0.349338
629.493739	0.349606
629.840014	0.352531
630.186236	0.349926
630.532405	0.355986
630.878521	0.353253
631.224585	0.355305
631.570597	0.359169
631.916556	0.357419
632.262462	0.357214
632.608316	0.359372
632.954117	0.360478
633.299866	0.361408
633.645562	0.361418
633.991206	0.366352
634.336797	0.369025
634.682336	0.371352
635.027823	0.372937
635.373257	0.372994
635.718639	0.377060
636.063968	0.376501
636.409245	0.381799
636.754470	0.382924
637.099642	0.384794
637.444762	0.388445
637.789829	0.387194
638.134845	0.390736
638.479808	0.391662
638.824719	0.391914
639.169577	0.396026
639.514383	0.395084
639.859137	0.399284
640.203839	0.398835
640.548489	0.399983
640.893086	0.400504
641.237632	0.402613
641.582125	0.400942
641.926566	0.403113
642.270955	0.402155
642.615292	0.402870
642.959576	0.401768
643.303809	0.402948
643.647990	0.402401
643.992118	0.402883
644.336195	0.405729
644.680219	0.404015
645.024192	0.405339
645.368112	0.398680
645.711981	0.397895
646.055797	0.392829
646.399562	0.395727
646.743274	0.388249
647.086935	0.385047
647.430544	0.384981
647.774101	0.383781
648.117606	0.383634
648.461059	0.384464
648.804460	0.386793
649.147810	0.391779
649.491108	0.393589
649.834354	0.395214
650.177548	0.400234
650.520690	0.405469
650.863781	0.407291
651.206820	0.406560
651.549807	0.410673
651.892742	0.414942
652.235626	0.414427
652.578458	0.415663
652.921238	0.421473
653.263967	0.419572
653.606644	0.423693
653.949269	0.423593
654.291843	0.427365
654.634365	0.423678
654.976836	0.426534
655.319255	0.427294
655.661622	0.428787
656.003938	0.428650
656.346203	0.431181
656.688416	0.429456
657.030577	0.432397
657.372687	0.435357
657.714746	0.435965
658.056753	0.433019
658.398708	0.436622
658.740612	0.438134
659.082465	0.434010
659.424266	0.434444
659.766016	0.433980
660.107715	0.437144
660.449362	0.435217
660.790958	0.436238
661.132503	0.437788
661.473996	0.433796
661.815438	0.435409
662.156829	0.435719
662.498168	0.436335
662.839456	0.437340
663.180693	0.435455
663.521879	0.435378
663.863013	0.436173
664.204097	0.434274
664.545129	0.431371
664.886110	0.431922
665.227040	0.429519
665.567918	0.432112
665.908746	0.429536
666.249522	0.429733
666.590248	0.430741
666.930922	0.428375
667.271545	0.427792
667.612118	0.427329
667.952639	0.429803
668.293109	0.428282
668.633528	0.430845
668.973896	0.430870
669.314213	0.431122
669.654480	0.432807
669.994695	0.432799
670.334859	0.433667
670.674973	0.434140
671.015035	0.434108
671.355047	0.434007
671.695008	0.434972
672.034918	0.437211
672.374777	0.436073
672.714585	0.437617
673.054342	0.437506
673.394049	0.437416
673.733705	0.435138
674.073310	0.436899
674.412864	0.439463
674.752368	0.439331
675.091820	0.440123
675.431223	0.444274
675.770574	0.444445
676.109875	0.447924
676.449125	0.447483
676.788324	0.449988
677.127473	0.455013
677.466571	0.455315
677.805619	0.456626
678.144616	0.457810
678.483562	0.459485
678.822458	0.462502
679.161303	0.462457
679.500098	0.463460
679.838842	0.464797
680.177535	0.464065
680.516179	0.463015
680.854771	0.461728
681.193314	0.455091
681.531805	0.446575
681.870247	0.435446
682.208638	0.427849
682.546978	0.426402
682.885268	0.428105
683.223508	0.434433
683.561697	0.438759
683.899836	0.440887
684.237925	0.444407
684.575963	0.447109
684.913951	0.450579
685.251889	0.445690
685.589776	0.447771
685.927614	0.449803
686.265401	0.444683
686.603137	0.446135
686.940824	0.439529
687.278460	0.438816
687.616046	0.437751
687.953582	0.433006
688.291068	0.434587
688.628504	0.429631
688.965889	0.431722
689.303224	0.435902
689.640510	0.440049
689.977745	0.445658
690.314930	0.452713
690.652065	0.458338
690.989150	0.465549
691.326185	0.472084
691.663170	0.476745
692.000105	0.483982
692.336990	0.491020
692.673825	0.493599
693.010610	0.500287
693.347345	0.506544
693.684030	0.506751
694.020665	0.512000
694.357251	0.520742
694.693786	0.520577
695.030272	0.524203
695.366707	0.528609
695.703093	0.532241
696.039429	0.529433
696.375716	0.531998
696.711952	0.534333
697.048139	0.535523
697.384276	0.537846
697.720363	0.536352
698.056400	0.535509
698.392388	0.541168
698.728326	0.543700
699.064214	0.546982
699.400053	0.547268
699.735842	0.550883
700.071581	0.553879
700.407270	0.556197
700.742910	0.559599
701.078501	0.564799
701.414042	0.566421
701.749533	0.568593
702.084974	0.578738
702.420366	0.570873
702.755709	0.578740
703.091002	0.585847
703.426246	0.580134
703.761440	0.585359
704.096584	0.590358
704.431679	0.586723
704.766725	0.589398
705.101721	0.591002
705.436668	0.587113
705.771565	0.594109
706.106413	0.589985
706.441212	0.586303
706.775961	0.584932
707.110661	0.587136
707.445311	0.585053
707.779913	0.581125
708.114465	0.579622
708.448967	0.576996
708.783421	0.568302
709.117825	0.563373
709.452180	0.562940
709.786485	0.556834
710.120742	0.546623
710.454949	0.548424
710.789107	0.540398
711.123216	0.531217
711.457275	0.532195
711.791286	0.524682
712.125247	0.523569
712.459159	0.533431
712.793023	0.525572
713.126837	0.529632
713.460602	0.531215
713.794318	0.539168
714.127985	0.538848
714.461602	0.548972
714.795171	0.553003
715.128691	0.560745
715.462162	0.567804
715.795584	0.573183
716.128957	0.575956
716.462281	0.583364
716.795556	0.586102
717.128782	0.592551
717.461960	0.601343
717.795088	0.599773
718.128167	0.606589
718.461198	0.613901
718.794180	0.615175
719.127113	0.618380
719.459997	0.621173
719.792833	0.627550
720.125619	0.629012
720.458357	0.635103
720.791046	0.634222
721.123686	0.638047
721.456278	0.645034
721.788821	0.642159
722.121315	0.646679
722.453761	0.650940
722.786158	0.648215
723.118506	0.644617
723.450805	0.652621
723.783056	0.650003
724.115259	0.646127
724.447412	0.646269
724.779518	0.647366
725.111574	0.646256
725.443582	0.641405
725.775542	0.644071
726.107453	0.635288
726.439315	0.635675
726.771129	0.634534
727.102895	0.627888
727.434612	0.620355
727.766281	0.618574
728.097901	0.617894
728.429473	0.617338
728.760996	0.615249
729.092471	0.616152
729.423897	0.620239
729.755276	0.618900
730.086606	0.618805
730.417887	0.613384
730.749120	0.604374
731.080305	0.594726
731.411442	0.590806
731.742530	0.594900
732.073570	0.594891
732.404562	0.587145
732.735506	0.588319
733.066401	0.593724
733.397249	0.602165
733.728048	0.613866
734.058798	0.627047
734.389501	0.637649
734.720156	0.647472
735.050762	0.654944
735.381320	0.656330
735.711831	0.664420
736.042293	0.670064
736.372707	0.666256
736.703073	0.669880
737.033391	0.672423
737.363661	0.669830
737.693883	0.665346
738.024056	0.664177
738.354182	0.664124
738.684260	0.653437
739.014290	0.649727
739.344272	0.650311
739.674207	0.643644
740.004093	0.643536
740.333931	0.643876
740.663722	0.643553
740.993464	0.643999
741.323159	0.648621
741.652806	0.653557
741.982405	0.657436
742.311956	0.663212
742.641460	0.664915
742.970915	0.668629
743.300323	0.675296
743.629683	0.681852
743.958996	0.684984
744.288260	0.688241
744.617477	0.695067
744.946647	0.696373
745.275768	0.702703
745.604842	0.701379
745.933869	0.711533
746.262847	0.713373
746.591778	0.706014
746.920662	0.713477
747.249498	0.719670
747.578286	0.709986
747.907027	0.706574
748.235720	0.706206
748.564365	0.701993
748.892963	0.700929
749.221514	0.705431
749.550017	0.708516
749.878473	0.709508
750.206881	0.716314
750.535242	0.716323
750.863555	0.715268
751.191821	0.717223
751.520039	0.720726
751.848210	0.724897
752.176334	0.718089
752.504411	0.717231
752.832440	0.724495
753.160421	0.729207
753.488356	0.727309
753.816243	0.724478
754.144082	0.733173
754.471875	0.737529
754.799620	0.733001
755.127318	0.734596
755.454969	0.733495
755.782572	0.734638
756.110129	0.737730
756.437638	0.741063
756.765100	0.737625
757.092515	0.735453
757.419882	0.733981
757.747203	0.739057
758.074477	0.739216
758.401703	0.736150
758.728882	0.730927
759.056014	0.730277
759.383099	0.729262
759.710138	0.730337
760.037129	0.725454
760.364073	0.720399
760.690970	0.723423
761.017820	0.727682
761.344623	0.723658
761.671379	0.715004
761.998088	0.704052
762.324751	0.680027
762.651366	0.636903
762.977935	0.569912
763.304456	0.517562
763.630931	0.507980
763.957359	0.547252
764.283740	0.591736
764.610074	0.619426
764.936362	0.651191
765.262602	0.679451
765.588796	0.700297
765.914943	0.717400
766.241044	0.735051
766.567097	0.741978
766.893104	0.752689
767.219064	0.758607
767.544978	0.766295
767.870845	0.778850
768.196665	0.782710
768.522438	0.781278
768.848165	0.782649
769.173846	0.791627
769.499479	0.796162
769.825066	0.800367
770.150607	0.804909
770.476101	0.800061
770.801548	0.801877
771.126949	0.814376
771.452303	0.816898
771.777611	0.815167
772.102872	0.813565
772.428087	0.820398
772.753256	0.824169
773.078378	0.825657
773.403453	0.833613
773.728482	0.839721
774.053465	0.831484
774.378401	0.835848
774.703291	0.845083
775.028135	0.844530
775.352932	0.844267
775.677683	0.850009
776.002388	0.849953
776.327046	0.848419
776.651658	0.853375
776.976224	0.855856
777.300743	0.855330
777.625216	0.857495
777.949643	0.860480
778.274024	0.858714
778.598359	0.861779
778.922647	0.859831
779.246889	0.860483
779.571086	0.863540
779.895236	0.865417
780.219339	0.864698
780.543397	0.859104
780.867409	0.859023
781.191374	0.861584
781.515294	0.862284
781.839167	0.861783
782.162995	0.864811
782.486776	0.861130
782.810511	0.863295
783.134201	0.868217
783.457844	0.865272
783.781441	0.868404
784.104993	0.873393
784.428498	0.873515
784.751958	0.870587
785.075372	0.871838
785.398739	0.875130
785.722061	0.870775
786.045337	0.867884
786.368568	0.871264
786.691752	0.873898
787.014891	0.860860
787.337983	0.850237
787.661030	0.843770
787.984031	0.825290
788.306987	0.813391
788.629897	0.813075
788.952760	0.819363
789.275579	0.822472
789.598351	0.839279
789.921078	0.853534
790.243759	0.854070
790.566395	0.859050
790.888984	0.867222
791.211529	0.871765
791.534027	0.873880
791.856480	0.876861
792.178888	0.881976
792.501249	0.883774
792.823566	0.886601
793.145836	0.886206
793.468062	0.888340
793.790241	0.888065
794.112375	0.885039
794.434464	0.882838
794.756507	0.881308
795.078505	0.879519
795.400457	0.874082
795.722364	0.862935
796.044226	0.856867
796.366042	0.854089
796.687812	0.857116
797.009538	0.852780
797.331218	0.858178
797.652852	0.861751
797.974442	0.865112
798.295986	0.867366
798.617484	0.868981
798.938938	0.873859
799.260346	0.878371
799.581709	0.879218
799.903026	0.883748
800.224299	0.883093
800.545526	0.887592
800.866708	0.889961
801.187845	0.894940
801.508936	0.894794
801.829983	0.892359
802.150984	0.897554
802.471940	0.900111
802.792851	0.900880
803.113717	0.901706
803.434538	0.898638
803.755314	0.902175
804.076045	0.903450
804.396731	0.904286
804.717372	0.902264
805.037967	0.905602
805.358518	0.903957
805.679024	0.898906
805.999485	0.899877
806.319901	0.898643
806.640272	0.903144
806.960598	0.900375
807.280879	0.896611
807.601115	0.894328
807.921306	0.899051
808.241453	0.899815
808.561554	0.897952
808.881611	0.897827
809.201623	0.898804
809.521590	0.898337
809.841513	0.901571
810.161390	0.898318
810.481223	0.900215
810.801011	0.904804
811.120755	0.906070
811.440453	0.904720
811.760107	0.904664
812.079716	0.904412
812.399281	0.906257
812.718801	0.908845
813.038276	0.910853
813.357707	0.909711
813.677093	0.908688
813.996434	0.910492
814.315731	0.911846
814.634983	0.912506
814.954191	0.912549
815.273354	0.908027
815.592473	0.904828
815.911547	0.904068
816.230577	0.901397
816.549562	0.898955
816.868502	0.898477
817.187399	0.897415
817.506250	0.891228
817.825058	0.891488
818.143821	0.889854
818.462539	0.883721
818.781213	0.875792
819.099843	0.864980
819.418429	0.848347
819.736970	0.830850
820.055466	0.810822
820.373919	0.783942
820.692327	0.750823
821.010691	0.715318
821.329011	0.634656
821.647286	0.517759
821.965517	0.402590
822.283704	0.359400
822.601847	0.360138
822.919945	0.395902
823.237999	0.430553
823.556010	0.478861
823.873976	0.535037
824.191897	0.587336
824.509775	0.630536
824.827609	0.676267
825.145398	0.699658
825.463144	0.702373
825.780845	0.684488
826.098502	0.665769
826.416116	0.620041
826.733685	0.574120
827.051210	0.565617
827.368692	0.580600
827.686129	0.619106
828.003522	0.673443
828.320872	0.722632
828.638177	0.765857
828.955439	0.800280
829.272656	0.821717
829.589830	0.839838
829.906960	0.856175
830.224046	0.868665
830.541088	0.879010
830.858086	0.884055
831.175041	0.890882
831.491952	0.888145
831.808819	0.884656
832.125642	0.877786
832.442421	0.866047
832.759157	0.842021
833.075849	0.792964
833.392497	0.728940
833.709101	0.687282
834.025662	0.697144
834.342179	0.728649
834.658653	0.769537
834.975083	0.806644
835.291469	0.833397
835.607811	0.855817
835.924110	0.873479
836.240366	0.890335
836.556578	0.902872
836.872746	0.912845
837.188871	0.917981
837.504952	0.924060
837.820990	0.926713
838.136984	0.929498
838.452935	0.934235
838.768842	0.935857
839.084706	0.927773
839.400526	0.902500
839.716303	0.860209
840.032037	0.838755
840.347727	0.842197
840.663373	0.859129
840.978977	0.881208
841.294537	0.905918
841.610054	0.920964
841.925527	0.928602
842.240957	0.936381
842.556344	0.942826
842.871687	0.950292
843.186987	0.952583
843.502244	0.954212
843.817458	0.956076
844.132629	0.960929
844.447756	0.964645
844.762840	0.965265
845.077881	0.965267
845.392879	0.963379
845.707833	0.966109
846.022745	0.968910
846.337613	0.968674
846.652438	0.969410
846.967221	0.969952
847.281960	0.969811
847.596656	0.972367
847.911309	0.970591
848.225919	0.971749
848.540485	0.973266
848.855009	0.973140
849.169490	0.972976
849.483928	0.973277
849.798323	0.972892
850.112675	0.974614
850.426984	0.973595
850.741251	0.975287
851.055474	0.974028
851.369654	0.973290
851.683792	0.972232
851.997887	0.974683
852.311938	0.974992
852.625947	0.973935
852.939914	0.971194
853.253837	0.974015
853.567718	0.974200
853.881555	0.974853
854.195350	0.973508
854.509103	0.974690
854.822812	0.973260
855.136479	0.976270
855.450103	0.973467
855.763685	0.973824
856.077224	0.974872
856.390720	0.974979
856.704173	0.974998
857.017584	0.973092
857.330953	0.972127
857.644278	0.971843
857.957561	0.972051
858.270802	0.974619
858.584000	0.973171
858.897155	0.971250
859.210268	0.971257
859.523339	0.973894
859.836367	0.974457
860.149352	0.975377
860.462295	0.974874
860.775195	0.975895
861.088054	0.972773
861.400869	0.974967
861.713642	0.975119
862.026373	0.976402
862.339062	0.975433
862.651708	0.972979
862.964312	0.973590
863.276873	0.973412
863.589392	0.973165
863.901869	0.970011
864.214303	0.968108
864.526696	0.967129
864.839045	0.968097
865.151353	0.967242
865.463619	0.964085
865.775842	0.965887
866.088023	0.967340
866.400162	0.966725
866.712258	0.967174
867.024313	0.967639
867.336325	0.970196
867.648296	0.968013
867.960224	0.966477
868.272110	0.966104
868.583954	0.969136
868.895755	0.968059
869.207515	0.965479
869.519233	0.964511
869.830909	0.963485
870.142542	0.965679
870.454134	0.966497
870.765684	0.963220
871.077191	0.963422
871.388657	0.961350
871.700081	0.962254
872.011463	0.963427
872.322803	0.961893
872.634101	0.960433
872.945357	0.958395
873.256571	0.956385
873.567744	0.957061
873.878874	0.958552
874.189963	0.956439
874.501010	0.957555
874.812015	0.953628
875.122979	0.954261
875.433900	0.956808
875.744780	0.958688
876.055618	0.954523
876.366415	0.953592
876.677169	0.953750
876.987882	0.955300
877.298554	0.955403
877.609183	0.951057
877.919771	0.948114
878.230317	0.946972
878.540822	0.943519
878.851285	0.939418
879.161707	0.929802
879.472087	0.918182
879.782425	0.899771
880.092722	0.865564
880.402977	0.810048
880.713191	0.747638
881.023363	0.685877
881.333494	0.651656
881.643583	0.624479
881.953631	0.623724
882.263637	0.651751
882.573602	0.691938
882.883526	0.718566
883.193408	0.744500
883.503248	0.767644
883.813048	0.795553
884.122806	0.826053
884.432522	0.851287
884.742197	0.870220
885.051831	0.882053
885.361424	0.893682
885.670975	0.905912
885.980485	0.914994
886.289954	0.921555
886.599382	0.925731
886.908768	0.931222
887.218113	0.937014
887.527417	0.942364
887.836680	0.945205
888.145901	0.947023
888.455082	0.950734
888.764221	0.954358
889.073319	0.956287
889.382376	0.957113
889.691392	0.956058
890.000366	0.956246
890.309300	0.958307
890.618193	0.956134
890.927044	0.954724
891.235855	0.955362
891.544625	0.956443
891.853353	0.954604
892.162041	0.951572
892.470687	0.945613
892.779293	0.940746
893.087858	0.936443
893.396381	0.927136
893.704864	0.913769
894.013306	0.890003
894.321707	0.863454
894.630068	0.847757
894.938387	0.841395
895.246665	0.843204
895.554903	0.856783
895.863100	0.870257
896.171256	0.888715
896.479371	0.908265
896.787446	0.920298
897.095480	0.928199
897.403473	0.930569
897.711425	0.935006
898.019336	0.942402
898.327207	0.947642
898.635038	0.947257
898.942827	0.949085
899.250576	0.952461
899.558284	0.956883
899.865952	0.957101
900.173579	0.958663
900.481165	0.960155
900.788711	0.962470
901.096216	0.964744
901.403681	0.966528
901.711105	0.966726
902.018489	0.967262
902.325832	0.966535
902.633135	0.964889
902.940397	0.960132
903.247619	0.944969
903.554800	0.919977
903.861941	0.879577
904.169041	0.841554
904.476101	0.823061
904.783121	0.824039
905.090100	0.841345
905.397039	0.863543
905.703938	0.886359
906.010796	0.906204
906.317614	0.924850
906.624391	0.937285
906.931129	0.947833
907.237826	0.955876
907.544483	0.962286
907.851099	0.967481
908.157675	0.970790
908.464211	0.974105
908.770707	0.975503
909.077163	0.978487
909.383578	0.978938
909.689954	0.978601
909.996289	0.980556
910.302584	0.983025
910.608839	0.984449
910.915054	0.983491
911.221229	0.983687
911.527363	0.980436
911.833458	0.981830
912.139513	0.980932
912.445527	0.982154
912.751502	0.978408
913.057436	0.976859
913.363331	0.975931
913.669186	0.971141
913.975000	0.965265
914.280775	0.959707
914.586510	0.951710
914.892205	0.937371
915.197859	0.914363
915.503475	0.887175
915.809050	0.866099
916.114585	0.859415
916.420081	0.857231
916.725536	0.854227
917.030952	0.862478
917.336328	0.875836
917.641665	0.893030
917.946961	0.908472
918.252218	0.919395
918.557435	0.930325
918.862612	0.938090
919.167750	0.943914
919.472848	0.951373
919.777906	0.956719
920.082925	0.962508
920.387904	0.964653
920.692843	0.965880
920.997743	0.967471
921.302603	0.970985
921.607423	0.972909
921.912204	0.976179
922.216946	0.979069
922.521647	0.977579
922.826310	0.979221
923.130932	0.981304
923.435516	0.983695
923.740059	0.984302
924.044564	0.984256
924.349028	0.984833
924.653454	0.987624
924.957840	0.989011
925.262186	0.988363
925.566493	0.989410
925.870761	0.989547
926.174989	0.991522
926.479178	0.992801
926.783328	0.993472
927.087438	0.992438
927.391509	0.992126
927.695541	0.993397
927.999533	0.994089
928.303486	0.994539
928.607400	0.995040
928.911275	0.995762
929.215110	0.997170
929.518906	0.995433
929.822663	0.996797
930.126381	0.995924
930.430060	0.996194
930.733699	0.997054
931.037299	0.995901
931.340861	0.995388
931.644383	0.993658
931.947866	0.995310
932.251309	0.994850
932.554714	0.995956
932.858080	0.996688
933.161407	0.994630
933.464694	0.996368
933.767943	0.996794
934.071153	0.997157
934.374323	0.997354
934.677455	0.996321
934.980548	0.997155
935.283602	0.996459
935.586617	0.996228
935.889593	0.997514
936.192530	0.996829
936.495428	0.996695
936.798287	0.994006
937.101108	0.995605
937.403890	0.993991
937.706632	0.995037
938.009336	0.992172
938.312002	0.990520
938.614628	0.989590
938.917216	0.986748
939.219765	0.986295
939.522275	0.987737
939.824747	0.987067
940.127179	0.987282
940.429573	0.990091
940.731929	0.988467
941.034246	0.988833
941.336524	0.989258
941.638763	0.989583
941.940964	0.991070
942.243126	0.991761
942.545250	0.992799
942.847335	0.992937
943.149381	0.993661
943.451389	0.991324
943.753359	0.994853
944.055290	0.995429
944.357182	0.994742
944.659036	0.994717
944.960851	0.994307
945.262628	0.995422
945.564367	0.994660
945.866067	0.994447
946.167729	0.993928
946.469352	0.995358
946.770937	0.993880
947.072484	0.996097
947.373992	0.994255
947.675462	0.994956
947.976893	0.994610
948.278286	0.996515
948.579641	0.997020
948.880958	0.996466
949.182236	0.996708
949.483476	0.997046
949.784678	0.996226
950.085841	0.995457
950.386967	0.995972
950.688054	0.995768
950.989103	0.994619
951.290114	0.993561
951.591087	0.994099
951.892021	0.992852
952.192917	0.995883
952.493776	0.993434
952.794596	0.993150
953.095378	0.992805
953.396122	0.992119
953.696828	0.994535
953.997496	0.994336
954.298126	0.995517
954.598718	0.994700
954.899272	0.996329
955.199788	0.994624
955.500266	0.997850
955.800706	0.997506
956.101108	0.998044
956.401472	0.999221
956.701798	0.999433
957.002087	0.998923
957.302337	0.999801
957.602550	0.999550
957.902724	1.000142
958.202861	0.999601
958.502960	0.999355
958.803022	1.001003
959.103045	1.001207
959.403031	1.001221
959.702979	1.001648
960.002889	1.001968
960.302762	1.001103
960.602596	1.002018
960.902393	1.000886
961.202153	1.001686
961.501875	1.001914
961.801559	1.002654
962.101205	1.002297
962.400814	1.002480
962.700385	1.001856
962.999918	1.002875
963.299414	1.001155
963.598873	1.002429
963.898293	1.002162
964.197677	1.001553
964.497022	1.002491
964.796331	1.002966
965.095601	1.003417
965.394835	1.002709
965.694030	1.003035
965.993189	1.002145
966.292309	1.002606
966.591393	1.001789
966.890439	1.002873
967.189447	1.001707
967.488419	1.002076
967.787353	1.002782
968.086249	1.002991
968.385108	1.002910
968.683930	1.004875
968.982714	1.003079
969.281462	1.002499
969.580172	1.002579
969.878844	1.002285
970.177480	1.002266
970.476078	1.002556
970.774639	1.003186
971.073162	1.001433
971.371649	1.001872
971.670098	1.001568
971.968510	1.003008
972.266885	1.001118
972.565223	1.000963
972.863524	1.000448
973.161788	1.002115
973.460014	1.002357
973.758204	1.001689
974.056356	1.001190
974.354471	1.002088
974.652550	1.001905
974.950591	1.001043
975.248595	1.001432
975.546563	1.003167
975.844493	1.003064
976.142386	1.001156
976.440243	1.002685
976.738062	1.002538
977.035845	1.002951
977.333590	1.003377
977.631299	1.002219
977.928971	1.002266
978.226606	1.002304
978.524204	1.001918
978.821765	1.003704
979.119290	1.003302
979.416777	1.003687
979.714228	1.003109
980.011642	1.003185
980.309020	1.001855
980.606360	1.002699
980.903664	1.002012
981.200931	1.001335
981.498162	1.001544
981.795356	1.001092
982.092513	1.000038
982.389633	0.999610
982.686717	0.995981
982.983764	0.997353
983.280775	0.996305
983.577749	0.996973
983.874686	0.995853
984.171587	0.996784
984.468451	0.998829
984.765279	1.000209
985.062070	1.000362
985.358824	1.000210
985.655543	1.002826
985.952224	1.002899
986.248869	1.001983
986.545478	1.003135
986.842050	1.002999
987.138586	1.002087
987.435086	1.003054
987.731549	1.003592
988.027975	1.004866
988.324366	1.002735
988.620719	1.003856
988.917037	1.003487
989.213318	1.004810
989.509563	1.003895
989.805772	1.004090
990.101944	1.005221
990.398080	1.003474
990.694180	1.005524
990.990244	1.003488
991.286271	1.003675
991.582262	1.006227
991.878217	1.003363
992.174136	1.004360
992.470019	1.003902
992.765865	1.005131
993.061676	1.004749
993.357450	1.004987
993.653188	1.004340
993.948890	1.003605
994.244556	1.002345
994.540186	1.002527
994.835780	1.002708
995.131337	1.003436
995.426859	1.003829
995.722345	1.002876
996.017795	1.000114
996.313208	1.002574
996.608586	1.001748
996.903928	1.001994
997.199234	1.002281
997.494504	1.003187
997.789738	1.001611
998.084936	1.002619
998.380099	1.002125
998.675225	1.003581
998.970316	1.002893
999.265371	1.002963
999.560390	1.003747
999.855373	1.003737
1000.150320	1.003047
1000.445232	1.003483
1000.740108	1.004526
1001.034948	1.003776
1001.329752	1.004978
1001.624521	1.004280
1001.919254	1.003429
1002.213951	1.003722
1002.508613	1.004649
1002.803239	1.004245
1003.097829	1.005651
1003.392384	1.004438
1003.686903	1.005139
1003.981386	1.004501
1004.275834	1.005644
1004.570246	1.002573
1004.864623	1.005552
1005.158964	1.005147
1005.453270	1.004731
1005.747540	1.003719
1006.041775	1.004425
1006.335974	1.005481
1006.630138	1.004891
1006.924266	1.003308
1007.218359	1.003567
1007.512416	1.005003
1007.806438	1.004017
1008.100425	1.004635
1008.394376	1.004265
1008.688292	1.003594
1008.982172	1.003288
1009.276017	1.005103
1009.569827	1.004332
1009.863602	1.002582
1010.157341	1.005640
1010.451045	1.004241
1010.744714	1.005701
1011.038347	1.004241
1011.331945	1.003073
1011.625508	1.005122
1011.919036	1.003930
1012.212528	1.004914
1012.505986	1.002892
1012.799408	1.003775
1013.092795	1.003527
1013.386147	1.004105
1013.679464	1.005439
1013.972745	1.004234
1014.265992	1.005284
1014.559204	1.004230
1014.852380	1.005630
1015.145521	1.005136
1015.438628	1.004597
1015.731699	1.004595
1016.024736	1.006441
1016.317737	1.004392
1016.610703	1.006076
1016.903635	1.003831
1017.196531	1.003618
1017.489393	1.004636
1017.782219	1.004540
1018.075011	1.004204
1018.367768	1.004075
1018.660490	1.005090
1018.953177	1.005090
1019.245829	1.005090
