Dividing Wavelength (nm)	Counts (n)	Blue Motor Position (mm): 29.900000	Red Motor Position (mm): 0.000000	
326.493990	1.000008
326.888308	1.000008
327.282561	1.000008
327.676750	1.001131
328.070874	1.001867
328.464933	1.001067
328.858929	1.001181
329.252859	1.001274
329.646726	1.000513
330.040528	0.999519
330.434265	1.000475
330.827938	1.000555
331.221547	1.001342
331.615091	1.000748
332.008571	1.001427
332.401986	0.999920
332.795338	1.000297
333.188625	1.000993
333.581847	0.999532
333.975006	1.000218
334.368100	1.001909
334.761129	0.999927
335.154095	1.001760
335.546996	0.999968
335.939833	0.999348
336.332606	0.999950
336.725315	0.998844
337.117960	0.999502
337.510540	0.998280
337.903056	1.000059
338.295508	1.000703
338.687896	1.000176
339.080220	0.999283
339.472480	1.000082
339.864676	1.000476
340.256807	0.998268
340.648875	0.999468
341.040879	0.999699
341.432818	0.999414
341.824694	0.998763
342.216506	1.000254
342.608253	0.999628
342.999937	0.999609
343.391557	0.998549
343.783113	1.000280
344.174605	0.999836
344.566033	0.999446
344.957397	0.999784
345.348697	1.000434
345.739934	0.999322
346.131106	1.000001
346.522215	0.998214
346.913260	0.998592
347.304241	0.998062
347.695159	0.999196
348.086012	0.998173
348.476802	0.999430
348.867528	0.998503
349.258191	1.000062
349.648789	0.999631
350.039324	0.999212
350.429796	0.998495
350.820203	0.997390
351.210548	0.998390
351.600828	0.999160
351.991045	0.998914
352.381198	0.999648
352.771288	0.997851
353.161314	0.999481
353.551276	0.998858
353.941175	0.997788
354.331010	0.999651
354.720782	0.998782
355.110490	0.999110
355.500135	0.998239
355.889717	0.997476
356.279235	0.997805
356.668689	0.998614
357.058080	0.998195
357.447408	0.997697
357.836672	0.998527
358.225873	0.997610
358.615010	0.998242
359.004084	0.997333
359.393095	0.998336
359.782043	0.997754
360.170927	0.997884
360.559748	0.997709
360.948505	0.997548
361.337199	0.998166
361.725830	0.997426
362.114398	0.998290
362.502903	0.997410
362.891344	0.997547
363.279722	0.997431
363.668037	0.997908
364.056289	0.998047
364.444478	0.997893
364.832603	0.997663
365.220665	0.997546
365.608665	0.996512
365.996601	0.997434
366.384474	0.996714
366.772284	0.996541
367.160031	0.995384
367.547715	0.995038
367.935336	0.994463
368.322893	0.993928
368.710388	0.993792
369.097820	0.990628
369.485189	0.989156
369.872495	0.987096
370.259738	0.984878
370.646918	0.982271
371.034035	0.980016
371.421090	0.977302
371.808081	0.972291
372.195010	0.970026
372.581875	0.963747
372.968678	0.960679
373.355418	0.956949
373.742096	0.948452
374.128710	0.944092
374.515262	0.939894
374.901751	0.934373
375.288177	0.929258
375.674540	0.922199
376.060841	0.915932
376.447079	0.909761
376.833254	0.902770
377.219367	0.898034
377.605417	0.886159
377.991404	0.882692
378.377329	0.877129
378.763191	0.870046
379.148991	0.862109
379.534727	0.853472
379.920402	0.846119
380.306013	0.842246
380.691563	0.828937
381.077049	0.823557
381.462474	0.818862
381.847835	0.807895
382.233134	0.802558
382.618371	0.803227
383.003545	0.785359
383.388657	0.784306
383.773706	0.776028
384.158693	0.772008
384.543618	0.766036
384.928480	0.758399
385.313280	0.748038
385.698017	0.747857
386.082692	0.736069
386.467305	0.734261
386.851856	0.729470
387.236344	0.722799
387.620770	0.718415
388.005133	0.712355
388.389435	0.707375
388.773674	0.704515
389.157851	0.695719
389.541965	0.693386
389.926018	0.700540
390.310008	0.687093
390.693936	0.684203
391.077802	0.675411
391.461606	0.678067
391.845348	0.667184
392.229027	0.666226
392.612645	0.664161
392.996200	0.652130
393.379694	0.644393
393.763125	0.635649
394.146494	0.639477
394.529801	0.630644
394.913047	0.622601
395.296230	0.628582
395.679351	0.619390
396.062410	0.616165
396.445408	0.619376
396.828343	0.613889
397.211217	0.609056
397.594028	0.621913
397.976778	0.611798
398.359466	0.608924
398.742092	0.604147
399.124656	0.615541
399.507158	0.603974
399.889598	0.600862
400.271977	0.592613
400.654294	0.596801
401.036549	0.595084
401.418742	0.600079
401.800874	0.585630
402.182944	0.582144
402.564952	0.574175
402.946898	0.575846
403.328783	0.576232
403.710606	0.588148
404.092367	0.563646
404.474067	0.567968
404.855705	0.567038
405.237282	0.575717
405.618797	0.561621
406.000250	0.558400
406.381642	0.547607
406.762972	0.553018
407.144240	0.551445
407.525447	0.551418
407.906593	0.543987
408.287677	0.539771
408.668700	0.548518
409.049661	0.542656
409.430560	0.536986
409.811399	0.545796
410.192176	0.527764
410.572891	0.534890
410.953545	0.522627
411.334138	0.536009
411.714669	0.528835
412.095139	0.540998
412.475547	0.525471
412.855894	0.527229
413.236180	0.526182
413.616405	0.531767
413.996568	0.521710
414.376670	0.528161
414.756711	0.533013
415.136691	0.530336
415.516609	0.520700
415.896466	0.517582
416.276262	0.513754
416.655997	0.515613
417.035670	0.497346
417.415283	0.488864
417.794834	0.493975
418.174324	0.499109
418.553753	0.508320
418.933121	0.490849
419.312428	0.484502
419.691674	0.490312
420.070859	0.478659
420.449983	0.487192
420.829045	0.476172
421.208047	0.485399
421.586988	0.478176
421.965867	0.477476
422.344686	0.466314
422.723444	0.478604
423.102141	0.496080
423.480777	0.468953
423.859352	0.490406
424.237866	0.468041
424.616319	0.468985
424.994712	0.460595
425.373044	0.471441
425.751314	0.460620
426.129524	0.477393
426.507673	0.462463
426.885762	0.457113
427.263789	0.463806
427.641756	0.474044
428.019662	0.466249
428.397508	0.466723
428.775292	0.472822
429.153016	0.466810
429.530679	0.474427
429.908282	0.469655
430.285824	0.481343
430.663305	0.462419
431.040726	0.485935
431.418086	0.487331
431.795385	0.482733
432.172624	0.483946
432.549802	0.487345
432.926920	0.488989
433.303977	0.491701
433.680974	0.491758
434.057910	0.494536
434.434786	0.497254
434.811601	0.503469
435.188355	0.491107
435.565050	0.503728
435.941683	0.509175
436.318257	0.499360
436.694770	0.505028
437.071222	0.508740
437.447614	0.516944
437.823946	0.527772
438.200218	0.523156
438.576429	0.537201
438.952580	0.538007
439.328670	0.540830
439.704700	0.552119
440.080670	0.558527
440.456580	0.551142
440.832429	0.564050
441.208218	0.579483
441.583947	0.577197
441.959616	0.583525
442.335224	0.595333
442.710773	0.595621
443.086261	0.602331
443.461689	0.618597
443.837057	0.619393
444.212365	0.621230
444.587612	0.633644
444.962800	0.634490
445.337927	0.644280
445.712995	0.668612
446.088002	0.652877
446.462949	0.667469
446.837837	0.680248
447.212664	0.679578
447.587431	0.685672
447.962139	0.678804
448.336786	0.664938
448.711374	0.678657
449.085901	0.710758
449.460369	0.722485
449.834776	0.732128
450.209124	0.731126
450.583412	0.738222
450.957640	0.740323
451.331808	0.756193
451.705917	0.772247
452.079965	0.782256
452.453954	0.786935
452.827883	0.796242
453.201752	0.802823
453.575562	0.813447
453.949311	0.818229
454.323001	0.825679
454.696632	0.832002
455.070202	0.836842
455.443713	0.840790
455.817164	0.846688
456.190556	0.852507
456.563888	0.859041
456.937160	0.863929
457.310373	0.874137
457.683526	0.880483
458.056619	0.887643
458.429653	0.893366
458.802628	0.899846
459.175542	0.902971
459.548398	0.905717
459.921194	0.908988
460.293930	0.912571
460.666607	0.912921
461.039224	0.915092
461.411782	0.919630
461.784280	0.924685
462.156719	0.930535
462.529099	0.935801
462.901419	0.940802
463.273680	0.944494
463.645882	0.948880
464.018024	0.954609
464.390106	0.955219
464.762130	0.957267
465.134094	0.958042
465.505999	0.957171
465.877845	0.956666
466.249631	0.959390
466.621358	0.962855
466.993026	0.967952
467.364634	0.970582
467.736184	0.973064
468.107674	0.975402
468.479105	0.976672
468.850477	0.978206
469.221790	0.980617
469.593043	0.981793
469.964238	0.983058
470.335373	0.983759
470.706449	0.985104
471.077467	0.986527
471.448425	0.987216
471.819324	0.986880
472.190164	0.986992
472.560945	0.987610
472.931667	0.989006
473.302330	0.989691
473.672934	0.991150
474.043479	0.990978
474.413965	0.991852
474.784393	0.991539
475.154761	0.992069
475.525070	0.992520
475.895321	0.992457
476.265513	0.993459
476.635645	0.993526
477.005719	0.993151
477.375734	0.993364
477.745691	0.992832
478.115588	0.993458
478.485427	0.993410
478.855207	0.993343
479.224928	0.993430
479.594591	0.993301
479.964194	0.993321
480.333739	0.993940
480.703226	0.993114
481.072653	0.993906
481.442022	0.994439
481.811333	0.994389
482.180584	0.993987
482.549777	0.994520
482.918912	0.993987
483.287988	0.994232
483.657005	0.994615
484.025964	0.994263
484.394864	0.994077
484.763706	0.994140
485.132489	0.994581
485.501213	0.994772
485.869879	0.994011
486.238487	0.993982
486.607036	0.995048
486.975527	0.995258
487.343959	0.994716
487.712333	0.994810
488.080648	0.994704
488.448905	0.995480
488.817104	0.994974
489.185244	0.994849
489.553326	0.995409
489.921350	0.995603
490.289315	0.995180
490.657222	0.994393
491.025070	0.994712
491.392861	0.994720
491.760593	0.995305
492.128267	0.994961
492.495883	0.994097
492.863440	0.995508
493.230939	0.994760
493.598380	0.996041
493.965763	0.995359
494.333088	0.994565
494.700354	0.994186
495.067563	0.994753
495.434713	0.995633
495.801805	0.995713
496.168839	0.995332
496.535815	0.995501
496.902733	0.995391
497.269593	0.995576
497.636395	0.994608
498.003139	0.994385
498.369825	0.995850
498.736453	0.994858
499.103023	0.995845
499.469535	0.995707
499.835989	0.995200
500.202385	0.995315
500.568723	0.995252
500.935003	0.996390
501.301226	0.995868
501.667390	0.995010
502.033497	0.995730
502.399546	0.995616
502.765537	0.995827
503.131470	0.995482
503.497345	0.996040
503.863163	0.995786
504.228923	0.995180
504.594625	0.995778
504.960269	0.995678
505.325856	0.996649
505.691385	0.996002
506.056856	0.995886
506.422270	0.996203
506.787625	0.996154
507.152924	0.996411
507.518164	0.995255
507.883347	0.995649
508.248472	0.996018
508.613540	0.996256
508.978550	0.996144
509.343503	0.995899
509.708398	0.996710
510.073236	0.996344
510.438016	0.996153
510.802738	0.995571
511.167403	0.995138
511.532010	0.996728
511.896561	0.996569
512.261053	0.995513
512.625488	0.996338
512.989866	0.995401
513.354186	0.995621
513.718449	0.995212
514.082655	0.995330
514.446803	0.995450
514.810894	0.996160
515.174927	0.996345
515.538904	0.996090
515.902822	0.996205
516.266684	0.996292
516.630488	0.995929
516.994235	0.995930
517.357925	0.996403
517.721558	0.995908
518.085133	0.995873
518.448651	0.996050
518.812112	0.996591
519.175516	0.996246
519.538863	0.995413
519.902152	0.996362
520.265385	0.996008
520.628560	0.995675
520.991678	0.995681
521.354739	0.997001
521.717743	0.995810
522.080690	0.995255
522.443580	0.996366
522.806413	0.995930
523.169189	0.996553
523.531908	0.995273
523.894569	0.996024
524.257174	0.996128
524.619722	0.995856
524.982213	0.996193
525.344647	0.995960
525.707025	0.995177
526.069345	0.995678
526.431608	0.996158
526.793815	0.996005
527.155964	0.995872
527.518057	0.996265
527.880093	0.995794
528.242072	0.995784
528.603995	0.995071
528.965860	0.996278
529.327669	0.995848
529.689421	0.995785
530.051117	0.995284
530.412755	0.996273
530.774337	0.995265
531.135862	0.996571
531.497331	0.995446
531.858743	0.996677
532.220098	0.995901
532.581396	0.996306
532.942638	0.996208
533.303824	0.996609
533.664953	0.995121
534.026025	0.997042
534.387040	0.996505
534.747999	0.995671
535.108902	0.995545
535.469748	0.996395
535.830537	0.996307
536.191270	0.995957
536.551947	0.995288
536.912567	0.995542
537.273131	0.996322
537.633638	0.996111
537.994089	0.995938
538.354483	0.995918
538.714821	0.995901
539.075103	0.995999
539.435328	0.995988
539.795497	0.996307
540.155609	0.995689
540.515665	0.995715
540.875665	0.995949
541.235609	0.996436
541.595496	0.995260
541.955328	0.995941
542.315102	0.995994
542.674821	0.996520
543.034483	0.996263
543.394090	0.995505
543.753640	0.996117
544.113134	0.996236
544.472571	0.996376
544.831953	0.996415
545.191278	0.996033
545.550548	0.995327
545.909761	0.995531
546.268918	0.996525
546.628019	0.995744
546.987064	0.995484
547.346053	0.994936
547.704986	0.995794
548.063863	0.994964
548.422684	0.996024
548.781449	0.996391
549.140158	0.996106
549.498811	0.995298
549.857408	0.995409
550.215949	0.994973
550.574434	0.995572
550.932864	0.996185
551.291237	0.995641
551.649555	0.996576
552.007817	0.995449
552.366022	0.995756
552.724173	0.995880
553.082267	0.995730
553.440305	0.994951
553.798288	0.995053
554.156215	0.995479
554.514086	0.995415
554.871902	0.996014
555.229661	0.994983
555.587365	0.995536
555.945014	0.996220
556.302606	0.995209
556.660143	0.995526
557.017625	0.995992
557.375050	0.994861
557.732421	0.995409
558.089735	0.995250
558.446994	0.995164
558.804197	0.995330
559.161345	0.995428
559.518437	0.995113
559.875474	0.996151
560.232455	0.996376
560.589381	0.995856
560.946251	0.995284
561.303065	0.995619
561.659825	0.995123
562.016528	0.995708
562.373177	0.995876
562.729770	0.995853
563.086307	0.995216
563.442789	0.995646
563.799216	0.994976
564.155587	0.995685
564.511904	0.995550
564.868164	0.995110
565.224370	0.995689
565.580520	0.995511
565.936615	0.995846
566.292654	0.995420
566.648638	0.995945
567.004567	0.995646
567.360441	0.995966
567.716260	0.995697
568.072023	0.995592
568.427732	0.995722
568.783385	0.995271
569.138982	0.996114
569.494525	0.995135
569.850013	0.996217
570.205445	0.996231
570.560823	0.995453
570.916145	0.994891
571.271412	0.995530
571.626625	0.995359
571.981782	0.996050
572.336884	0.995572
572.691931	0.995481
573.046923	0.996375
573.401860	0.995187
573.756743	0.995520
574.111570	0.995451
574.466342	0.996074
574.821059	0.995407
575.175722	0.996114
575.530330	0.995481
575.884882	0.995381
576.239380	0.995190
576.593823	0.995596
576.948211	0.996253
577.302544	0.995455
577.656823	0.995826
578.011047	0.994730
578.365216	0.996123
578.719330	0.995837
579.073389	0.995186
579.427394	0.995282
579.781344	0.996192
580.135239	0.995184
580.489080	0.996024
580.842866	0.995643
581.196597	0.995604
581.550273	0.995569
581.903895	0.995430
582.257463	0.995316
582.610975	0.995288
582.964434	0.995644
583.317837	0.996173
583.671186	0.995294
584.024481	0.995343
584.377721	0.995234
584.730906	0.996506
585.084037	0.996124
585.437113	0.996498
585.790135	0.995316
586.143103	0.995578
586.496016	0.995140
586.848874	0.995218
587.201679	0.995990
587.554428	0.995747
587.907124	0.996100
588.259765	0.995776
588.612352	0.996293
588.964884	0.996122
589.317362	0.995924
589.669786	0.994814
590.022155	0.996042
590.374470	0.995641
590.726731	0.995198
591.078937	0.995553
591.431090	0.995426
591.783188	0.994250
592.135232	0.996458
592.487222	0.995604
592.839157	0.996034
593.191038	0.995725
593.542866	0.996322
593.894639	0.995138
594.246358	0.995743
594.598022	0.995922
594.949633	0.995642
595.301190	0.995247
595.652692	0.995148
596.004141	0.995362
596.355535	0.995867
596.706876	0.995907
597.058162	0.995752
597.409395	0.995475
597.760573	0.995735
598.111698	0.995791
598.462768	0.995011
598.813785	0.995223
599.164748	0.995265
599.515657	0.995076
599.866511	0.996053
600.217312	0.996541
600.568060	0.995105
600.918753	0.995446
601.269392	0.995997
601.619978	0.995343
601.970510	0.995098
602.320988	0.995332
602.671412	0.995192
603.021783	0.995768
603.372100	0.996047
603.722363	0.995848
604.072572	0.995977
604.422728	0.994772
604.772830	0.995442
605.122878	0.995924
605.472872	0.996202
605.822813	0.995423
606.172701	0.995890
606.522534	0.996688
606.872314	0.996303
607.222041	0.995912
607.571714	0.996276
607.921333	0.995427
608.270899	0.995467
608.620411	0.996060
608.969870	0.996738
609.319276	0.995095
609.668627	0.996015
610.017926	0.995440
610.367171	0.995524
610.716362	0.995169
611.065500	0.995978
611.414585	0.995384
611.763616	0.994705
612.112594	0.995427
612.461518	0.994838
612.810389	0.996046
613.159207	0.996141
613.507971	0.995126
613.856682	0.997428
614.205340	0.994626
614.553945	0.995997
614.902496	0.995826
615.250994	0.995614
615.599439	0.996131
615.947830	0.995176
616.296169	0.995612
616.644454	0.995315
616.992686	0.995977
617.340864	0.995297
617.688990	0.994955
618.037063	0.995890
618.385082	0.995434
618.733048	0.995105
619.080961	0.994715
619.428821	0.995343
619.776628	0.995625
620.124382	0.996328
620.472083	0.996005
620.819731	0.996251
621.167326	0.995982
621.514868	0.996612
621.862357	0.995866
622.209793	0.995599
622.557176	0.995587
622.904506	0.995593
623.251783	0.995783
623.599007	0.996091
623.946179	0.995346
624.293297	0.996403
624.640363	0.995585
624.987376	0.995798
625.334336	0.995675
625.681243	0.995818
626.028097	0.995927
626.374899	0.996085
626.721647	0.995611
627.068343	0.995684
627.414987	0.995956
627.761577	0.995472
628.108115	0.995819
628.454600	0.995515
628.801032	0.995710
629.147412	0.995771
629.493739	0.997382
629.840014	0.995781
630.186236	0.995886
630.532405	0.996175
630.878521	0.995296
631.224585	0.996008
631.570597	0.995611
631.916556	0.996053
632.262462	0.994537
632.608316	0.996336
632.954117	0.995051
633.299866	0.995631
633.645562	0.995573
633.991206	0.996749
634.336797	0.995781
634.682336	0.996171
635.027823	0.995569
635.373257	0.995425
635.718639	0.996279
636.063968	0.995468
636.409245	0.995598
636.754470	0.996137
637.099642	0.996283
637.444762	0.996219
637.789829	0.995929
638.134845	0.996324
638.479808	0.996114
638.824719	0.995694
639.169577	0.995694
639.514383	0.996559
639.859137	0.996183
640.203839	0.995520
640.548489	0.995860
640.893086	0.996051
641.237632	0.996851
641.582125	0.996132
641.926566	0.996799
642.270955	0.995902
642.615292	0.996211
642.959576	0.996214
643.303809	0.996390
643.647990	0.996410
643.992118	0.996182
644.336195	0.995882
644.680219	0.996436
645.024192	0.996361
645.368112	0.996342
645.711981	0.995761
646.055797	0.996480
646.399562	0.995805
646.743274	0.997018
647.086935	0.996118
647.430544	0.996049
647.774101	0.995396
648.117606	0.996680
648.461059	0.996255
648.804460	0.996532
649.147810	0.995182
649.491108	0.996097
649.834354	0.996288
650.177548	0.995888
650.520690	0.995686
650.863781	0.995860
651.206820	0.995807
651.549807	0.995877
651.892742	0.997243
652.235626	0.995776
652.578458	0.996736
652.921238	0.996233
653.263967	0.996436
653.606644	0.995972
653.949269	0.996454
654.291843	0.996250
654.634365	0.996879
654.976836	0.995374
655.319255	0.997287
655.661622	0.997047
656.003938	0.996502
656.346203	0.995915
656.688416	0.996810
657.030577	0.995922
657.372687	0.996331
657.714746	0.995799
658.056753	0.996238
658.398708	0.995813
658.740612	0.997213
659.082465	0.996462
659.424266	0.996655
659.766016	0.995932
660.107715	0.996403
660.449362	0.996339
660.790958	0.995321
661.132503	0.996536
661.473996	0.996630
661.815438	0.996661
662.156829	0.997338
662.498168	0.997732
662.839456	0.996421
663.180693	0.996448
663.521879	0.996430
663.863013	0.996427
664.204097	0.995776
664.545129	0.996081
664.886110	0.996305
665.227040	0.996740
665.567918	0.995913
665.908746	0.995502
666.249522	0.995087
666.590248	0.996100
666.930922	0.995991
667.271545	0.996588
667.612118	0.996736
667.952639	0.995651
668.293109	0.995172
668.633528	0.996048
668.973896	0.996067
669.314213	0.996229
669.654480	0.996608
669.994695	0.995533
670.334859	0.996432
670.674973	0.995219
671.015035	0.995793
671.355047	0.996494
671.695008	0.995504
672.034918	0.996030
672.374777	0.996614
672.714585	0.996136
673.054342	0.997003
673.394049	0.996088
673.733705	0.996308
674.073310	0.996456
674.412864	0.995858
674.752368	0.996418
675.091820	0.996713
675.431223	0.997024
675.770574	0.995495
676.109875	0.996180
676.449125	0.995577
676.788324	0.996380
677.127473	0.996843
677.466571	0.996822
677.805619	0.996267
678.144616	0.996826
678.483562	0.996448
678.822458	0.996634
679.161303	0.996485
679.500098	0.996428
679.838842	0.996753
680.177535	0.996081
680.516179	0.995778
680.854771	0.996960
681.193314	0.996322
681.531805	0.996342
681.870247	0.996930
682.208638	0.996031
682.546978	0.996282
682.885268	0.996436
683.223508	0.995675
683.561697	0.996497
683.899836	0.996553
684.237925	0.996208
684.575963	0.996310
684.913951	0.997015
685.251889	0.996313
685.589776	0.996045
685.927614	0.995829
686.265401	0.995860
686.603137	0.995421
686.940824	0.996130
687.278460	0.996651
687.616046	0.996516
687.953582	0.995377
688.291068	0.997068
688.628504	0.996587
688.965889	0.995642
689.303224	0.995057
689.640510	0.996223
689.977745	0.996040
690.314930	0.995192
690.652065	0.996128
690.989150	0.995545
691.326185	0.997099
691.663170	0.995658
692.000105	0.996279
692.336990	0.996452
692.673825	0.996009
693.010610	0.996502
693.347345	0.996676
693.684030	0.996324
694.020665	0.995972
694.357251	0.995939
694.693786	0.997406
695.030272	0.995345
695.366707	0.996470
695.703093	0.996579
696.039429	0.995783
696.375716	0.996726
696.711952	0.995784
697.048139	0.996743
697.384276	0.996503
697.720363	0.996598
698.056400	0.995789
698.392388	0.995539
698.728326	0.996406
699.064214	0.996856
699.400053	0.997450
699.735842	0.997242
700.071581	0.995987
700.407270	0.997128
700.742910	0.997572
701.078501	0.996346
701.414042	0.997047
701.749533	0.995585
702.084974	0.996833
702.420366	0.997010
702.755709	0.996713
703.091002	0.997175
703.426246	0.998023
703.761440	0.996884
704.096584	0.996059
704.431679	0.996538
704.766725	0.996232
705.101721	0.996535
705.436668	0.996827
705.771565	0.996418
706.106413	0.995399
706.441212	0.997683
706.775961	0.997732
707.110661	0.996415
707.445311	0.997132
707.779913	0.997651
708.114465	0.998103
708.448967	0.997631
708.783421	0.997757
709.117825	0.997051
709.452180	0.996761
709.786485	0.997279
710.120742	0.996835
710.454949	0.996357
710.789107	0.996479
711.123216	0.996473
711.457275	0.996846
711.791286	0.997400
712.125247	0.997625
712.459159	0.996829
712.793023	0.995857
713.126837	0.996731
713.460602	0.996730
713.794318	0.995988
714.127985	0.995552
714.461602	0.997069
714.795171	0.996185
715.128691	0.995930
715.462162	0.996655
715.795584	0.996643
716.128957	0.997341
716.462281	0.996644
716.795556	0.996411
717.128782	0.996134
717.461960	0.996469
717.795088	0.996918
718.128167	0.998081
718.461198	0.997179
718.794180	0.996960
719.127113	0.997184
719.459997	0.996529
719.792833	0.996348
720.125619	0.996196
720.458357	0.997132
720.791046	0.997818
721.123686	0.997112
721.456278	0.997070
721.788821	0.995906
722.121315	0.998186
722.453761	0.996760
722.786158	0.996734
723.118506	0.997314
723.450805	0.995657
723.783056	0.997568
724.115259	0.997087
724.447412	0.997532
724.779518	0.996461
725.111574	0.996998
725.443582	0.997261
725.775542	0.998247
726.107453	0.997895
726.439315	0.997870
726.771129	0.997119
727.102895	0.997422
727.434612	0.997549
727.766281	0.996851
728.097901	0.996342
728.429473	0.997603
728.760996	0.996300
729.092471	0.997166
729.423897	0.997742
729.755276	0.996626
730.086606	0.996162
730.417887	0.997517
730.749120	0.997463
731.080305	0.997969
731.411442	0.996133
731.742530	0.996998
732.073570	0.996913
732.404562	0.997627
732.735506	0.996902
733.066401	0.996304
733.397249	0.996509
733.728048	0.996131
734.058798	0.997119
734.389501	0.997625
734.720156	0.997025
735.050762	0.996785
735.381320	0.997579
735.711831	0.996251
736.042293	0.997170
736.372707	0.997400
736.703073	0.996131
737.033391	0.997727
737.363661	0.998045
737.693883	0.997611
738.024056	0.996887
738.354182	0.997636
738.684260	0.997316
739.014290	0.997292
739.344272	0.997169
739.674207	0.996894
740.004093	0.997254
740.333931	0.997366
740.663722	0.997911
740.993464	0.997583
741.323159	0.996468
741.652806	0.996406
741.982405	0.996942
742.311956	0.997563
742.641460	0.997352
742.970915	0.996601
743.300323	0.997006
743.629683	0.996601
743.958996	0.997944
744.288260	0.996147
744.617477	0.997460
744.946647	0.996966
745.275768	0.997253
745.604842	0.997222
745.933869	0.997196
746.262847	0.997797
746.591778	0.996645
746.920662	0.998236
747.249498	0.998105
747.578286	0.998993
747.907027	0.997225
748.235720	0.997273
748.564365	0.998105
748.892963	0.996891
749.221514	0.997746
749.550017	0.997013
749.878473	0.997326
750.206881	0.998096
750.535242	0.997046
750.863555	0.996282
751.191821	0.997169
751.520039	0.997553
751.848210	0.996107
752.176334	0.997240
752.504411	0.996893
752.832440	0.996934
753.160421	0.997452
753.488356	0.997730
753.816243	0.997086
754.144082	0.997386
754.471875	0.997947
754.799620	0.998256
755.127318	0.996843
755.454969	0.997206
755.782572	0.998603
756.110129	0.997065
756.437638	0.998680
756.765100	0.997481
757.092515	0.997370
757.419882	0.997921
757.747203	0.996825
758.074477	0.998277
758.401703	0.997511
758.728882	0.997393
759.056014	0.996854
759.383099	0.997081
759.710138	0.997137
760.037129	0.996851
760.364073	0.998706
760.690970	0.997024
761.017820	0.996333
761.344623	0.998045
761.671379	0.999413
761.998088	0.997368
762.324751	0.997897
762.651366	0.997002
762.977935	0.995867
763.304456	0.996460
763.630931	0.993895
763.957359	0.994137
764.283740	0.995207
764.610074	0.995798
764.936362	0.995808
765.262602	0.997482
765.588796	0.996952
765.914943	0.996866
766.241044	0.996777
766.567097	0.996455
766.893104	0.998303
767.219064	0.996321
767.544978	0.996907
767.870845	0.998890
768.196665	0.997394
768.522438	0.997675
768.848165	0.997796
769.173846	0.997175
769.499479	0.998432
769.825066	0.998809
770.150607	0.999088
770.476101	0.998486
770.801548	0.998909
771.126949	0.998357
771.452303	0.998042
771.777611	0.998103
772.102872	0.997876
772.428087	0.998392
772.753256	0.998372
773.078378	0.998000
773.403453	0.996959
773.728482	0.999399
774.053465	0.997595
774.378401	0.998715
774.703291	0.998912
775.028135	0.999237
775.352932	0.996524
775.677683	0.998692
776.002388	0.998783
776.327046	0.998563
776.651658	0.998389
776.976224	0.998014
777.300743	0.998035
777.625216	0.997531
777.949643	0.998905
778.274024	0.998051
778.598359	0.999206
778.922647	0.998200
779.246889	0.998565
779.571086	0.998623
779.895236	0.997421
780.219339	0.999328
780.543397	0.997465
780.867409	0.997877
781.191374	0.998039
781.515294	0.998357
781.839167	0.998728
782.162995	0.997926
782.486776	0.997771
782.810511	0.997987
783.134201	0.999058
783.457844	0.998687
783.781441	0.998353
784.104993	0.997529
784.428498	0.998141
784.751958	0.999484
785.075372	0.999429
785.398739	0.998140
785.722061	0.998398
786.045337	0.998078
786.368568	0.997617
786.691752	0.998371
787.014891	0.998372
787.337983	0.997647
787.661030	0.998006
787.984031	0.999278
788.306987	0.998655
788.629897	0.996748
788.952760	0.997832
789.275579	0.998118
789.598351	0.998436
789.921078	0.999374
790.243759	0.997434
790.566395	0.997475
790.888984	0.998792
791.211529	0.998459
791.534027	0.998873
791.856480	0.998180
792.178888	0.997997
792.501249	0.997337
792.823566	0.999762
793.145836	0.998163
793.468062	0.997993
793.790241	0.999811
794.112375	0.998178
794.434464	0.999043
794.756507	0.998199
795.078505	0.998901
795.400457	0.998812
795.722364	0.998614
796.044226	0.998008
796.366042	0.997494
796.687812	0.997391
797.009538	0.997512
797.331218	0.999454
797.652852	0.999037
797.974442	0.997368
798.295986	0.998844
798.617484	0.997832
798.938938	0.998412
799.260346	0.997835
799.581709	0.997559
799.903026	0.998670
800.224299	0.996995
800.545526	0.997846
800.866708	0.997579
801.187845	0.998239
801.508936	0.999490
801.829983	0.997652
802.150984	0.998680
802.471940	0.998368
802.792851	0.998451
803.113717	0.998821
803.434538	0.998453
803.755314	0.999455
804.076045	0.998040
804.396731	0.998184
804.717372	0.997338
805.037967	0.999813
805.358518	0.999692
805.679024	0.997561
805.999485	0.999200
806.319901	0.999182
806.640272	0.999477
806.960598	0.998287
807.280879	0.998700
807.601115	0.998252
807.921306	0.999650
808.241453	0.998208
808.561554	0.998957
808.881611	0.999291
809.201623	0.997810
809.521590	0.998531
809.841513	0.999514
810.161390	0.998154
810.481223	0.998306
810.801011	0.998696
811.120755	0.999616
811.440453	0.998582
811.760107	0.998432
812.079716	0.998680
812.399281	0.998889
812.718801	0.999342
813.038276	0.998500
813.357707	0.998360
813.677093	0.999456
813.996434	0.998508
814.315731	0.999711
814.634983	0.999333
814.954191	0.999203
815.273354	0.998485
815.592473	0.998377
815.911547	0.999211
816.230577	0.998441
816.549562	0.999033
816.868502	0.998025
817.187399	0.999419
817.506250	0.999051
817.825058	0.997134
818.143821	0.998620
818.462539	0.998315
818.781213	0.998266
819.099843	0.998156
819.418429	0.997180
819.736970	0.997274
820.055466	0.996189
820.373919	0.996384
820.692327	0.995608
821.010691	0.994977
821.329011	0.994191
821.647286	0.992466
821.965517	0.990127
822.283704	0.988686
822.601847	0.985734
822.919945	0.987395
823.237999	0.988427
823.556010	0.989214
823.873976	0.990089
824.191897	0.991731
824.509775	0.993745
824.827609	0.993968
825.145398	0.993768
825.463144	0.993462
825.780845	0.993599
826.098502	0.993428
826.416116	0.994766
826.733685	0.993135
827.051210	0.991183
827.368692	0.992041
827.686129	0.992097
828.003522	0.993963
828.320872	0.994063
828.638177	0.995315
828.955439	0.997214
829.272656	0.996270
829.589830	0.996728
829.906960	0.997893
830.224046	0.997113
830.541088	0.997022
830.858086	0.997363
831.175041	0.998924
831.491952	0.997453
831.808819	0.997390
832.125642	0.997985
832.442421	0.997527
832.759157	0.997652
833.075849	0.996407
833.392497	0.996301
833.709101	0.994368
834.025662	0.993957
834.342179	0.994842
834.658653	0.996352
834.975083	0.996168
835.291469	0.995783
835.607811	0.995991
835.924110	0.997112
836.240366	0.998142
836.556578	0.997804
836.872746	0.998366
837.188871	0.998438
837.504952	0.998637
837.820990	0.998212
838.136984	0.997873
838.452935	0.999153
838.768842	0.998652
839.084706	0.998054
839.400526	0.999507
839.716303	0.996689
840.032037	0.996788
840.347727	0.997155
840.663373	0.997063
840.978977	0.997386
841.294537	0.998730
841.610054	0.998912
841.925527	0.998706
842.240957	0.999341
842.556344	0.998514
842.871687	0.999172
843.186987	0.999093
843.502244	0.998691
843.817458	0.997411
844.132629	0.997953
844.447756	0.999148
844.762840	0.999383
845.077881	1.000753
845.392879	0.998312
845.707833	0.999229
846.022745	0.999832
846.337613	0.998622
846.652438	0.998771
846.967221	0.999379
847.281960	0.999827
847.596656	0.999019
847.911309	0.999150
848.225919	0.999528
848.540485	0.999281
848.855009	1.000713
849.169490	0.998877
849.483928	0.998604
849.798323	0.998660
850.112675	1.000649
850.426984	0.999664
850.741251	0.998480
851.055474	0.998972
851.369654	1.000420
851.683792	0.998126
851.997887	0.998739
852.311938	1.000341
852.625947	0.997899
852.939914	0.999553
853.253837	1.000554
853.567718	1.000690
853.881555	1.000191
854.195350	0.999723
854.509103	0.999862
854.822812	1.000115
855.136479	0.998937
855.450103	1.000044
855.763685	0.998955
856.077224	0.999687
856.390720	0.999119
856.704173	0.998746
857.017584	0.999209
857.330953	0.999050
857.644278	0.998950
857.957561	0.999555
858.270802	0.999245
858.584000	1.000903
858.897155	0.998956
859.210268	0.999387
859.523339	1.000277
859.836367	0.999453
860.149352	0.998939
860.462295	0.998373
860.775195	0.999744
861.088054	0.998188
861.400869	0.999013
861.713642	0.998163
862.026373	0.999752
862.339062	0.999234
862.651708	0.999725
862.964312	1.000212
863.276873	0.999211
863.589392	0.999442
863.901869	0.999032
864.214303	0.999873
864.526696	0.999747
864.839045	0.999676
865.151353	0.998801
865.463619	0.998638
865.775842	0.999166
866.088023	0.999783
866.400162	1.001078
866.712258	1.000924
867.024313	1.000091
867.336325	0.999473
867.648296	1.000063
867.960224	0.999472
868.272110	0.999567
868.583954	0.998991
868.895755	1.000207
869.207515	0.999651
869.519233	0.999826
869.830909	0.999332
870.142542	0.997973
870.454134	0.998632
870.765684	0.999571
871.077191	0.999159
871.388657	0.999619
871.700081	0.999870
872.011463	0.999360
872.322803	1.000372
872.634101	0.998309
872.945357	0.998814
873.256571	0.999509
873.567744	0.997990
873.878874	0.998671
874.189963	0.998514
874.501010	1.000020
874.812015	0.998739
875.122979	0.999581
875.433900	0.998562
875.744780	0.999960
876.055618	0.997157
876.366415	0.997854
876.677169	0.998065
876.987882	0.998870
877.298554	0.999669
877.609183	0.998123
877.919771	0.998780
878.230317	0.998271
878.540822	0.997855
878.851285	0.997724
879.161707	0.996833
879.472087	0.999161
879.782425	0.996143
880.092722	0.995397
880.402977	0.994548
880.713191	0.991863
881.023363	0.989070
881.333494	0.988215
881.643583	0.988647
881.953631	0.989158
882.263637	0.987661
882.573602	0.988522
882.883526	0.989691
883.193408	0.991174
883.503248	0.992381
883.813048	0.992525
884.122806	0.994068
884.432522	0.994270
884.742197	0.996425
885.051831	0.995470
885.361424	0.995700
885.670975	0.997782
885.980485	0.997222
886.289954	0.997633
886.599382	0.996363
886.908768	0.998262
887.218113	0.997492
887.527417	0.998251
887.836680	0.999137
888.145901	0.998996
888.455082	0.998911
888.764221	0.998378
889.073319	0.998212
889.382376	0.999545
889.691392	0.997894
890.000366	0.999359
890.309300	0.998903
890.618193	0.997846
890.927044	0.997266
891.235855	0.998498
891.544625	0.998378
891.853353	0.999452
892.162041	0.998387
892.470687	0.999634
892.779293	0.997368
893.087858	0.997116
893.396381	0.997113
893.704864	0.995988
894.013306	0.996092
894.321707	0.995207
894.630068	0.994761
894.938387	0.993549
895.246665	0.994409
895.554903	0.994256
895.863100	0.996027
896.171256	0.995160
896.479371	0.995625
896.787446	0.995135
897.095480	0.997103
897.403473	0.996981
897.711425	0.997245
898.019336	0.998442
898.327207	0.998286
898.635038	0.998095
898.942827	0.998837
899.250576	0.998527
899.558284	0.998744
899.865952	0.997894
900.173579	0.998611
900.481165	0.998292
900.788711	0.997873
901.096216	0.998817
901.403681	0.999118
901.711105	0.997738
902.018489	0.998723
902.325832	0.997886
902.633135	0.997147
902.940397	0.998766
903.247619	0.997289
903.554800	0.997705
903.861941	0.995445
904.169041	0.994084
904.476101	0.993000
904.783121	0.992475
905.090100	0.993326
905.397039	0.994366
905.703938	0.994786
906.010796	0.996374
906.317614	0.995797
906.624391	0.997173
906.931129	0.998445
907.237826	0.998167
907.544483	0.998631
907.851099	0.998007
908.157675	0.998156
908.464211	0.998409
908.770707	0.997720
909.077163	0.998948
909.383578	0.998909
909.689954	0.999383
909.996289	1.000393
910.302584	0.999853
910.608839	0.999788
910.915054	0.999078
911.221229	0.999575
911.527363	0.998959
911.833458	0.997833
912.139513	0.999313
912.445527	0.999863
912.751502	0.999680
913.057436	0.998395
913.363331	1.000035
913.669186	0.999578
913.975000	0.998628
914.280775	0.998623
914.586510	0.997277
914.892205	0.996372
915.197859	0.995867
915.503475	0.996239
915.809050	0.993593
916.114585	0.991319
916.420081	0.992951
916.725536	0.993497
917.030952	0.993139
917.336328	0.994262
917.641665	0.994889
917.946961	0.994908
918.252218	0.995903
918.557435	0.996470
918.862612	0.998076
919.167750	0.997678
919.472848	0.998817
919.777906	0.999027
920.082925	0.999866
920.387904	0.997791
920.692843	0.997776
920.997743	0.998645
921.302603	0.998199
921.607423	0.997209
921.912204	0.998668
922.216946	0.999353
922.521647	0.998585
922.826310	0.999137
923.130932	0.999821
923.435516	0.999626
923.740059	0.999043
924.044564	0.998757
924.349028	0.999004
924.653454	0.999723
924.957840	0.998982
925.262186	0.998573
925.566493	0.999022
925.870761	0.999295
926.174989	0.998368
926.479178	1.000970
926.783328	1.000106
927.087438	0.998660
927.391509	0.999424
927.695541	0.999574
927.999533	0.999863
928.303486	0.999745
928.607400	0.999789
928.911275	1.000101
929.215110	0.999549
929.518906	0.999850
929.822663	1.001636
930.126381	1.000473
930.430060	0.999759
930.733699	0.999810
931.037299	1.000512
931.340861	1.001025
931.644383	0.998537
931.947866	1.000246
932.251309	0.999443
932.554714	0.999402
932.858080	1.000020
933.161407	0.998439
933.464694	0.999049
933.767943	0.999800
934.071153	1.000393
934.374323	1.000829
934.677455	0.999711
934.980548	0.999594
935.283602	1.001042
935.586617	1.000354
935.889593	1.000419
936.192530	1.000646
936.495428	0.999514
936.798287	0.999828
937.101108	0.999195
937.403890	0.999501
937.706632	1.001899
938.009336	0.998896
938.312002	0.998509
938.614628	0.999934
938.917216	0.998834
939.219765	0.999692
939.522275	0.999890
939.824747	0.999680
940.127179	0.999088
940.429573	1.000855
940.731929	0.998586
941.034246	0.998446
941.336524	0.998678
941.638763	0.999485
941.940964	0.999727
942.243126	0.999024
942.545250	0.999627
942.847335	1.000510
943.149381	1.000021
943.451389	0.999774
943.753359	0.999019
944.055290	0.999490
944.357182	0.999271
944.659036	1.001024
944.960851	0.999710
945.262628	1.000250
945.564367	1.000305
945.866067	0.999513
946.167729	1.000358
946.469352	1.000464
946.770937	0.997780
947.072484	1.000692
947.373992	0.999159
947.675462	0.999192
947.976893	0.998883
948.278286	0.999517
948.579641	1.000052
948.880958	0.999913
949.182236	0.999416
949.483476	1.001088
949.784678	0.999922
950.085841	0.999683
950.386967	0.999500
950.688054	1.000756
950.989103	0.998195
951.290114	0.998230
951.591087	1.000559
951.892021	0.999694
952.192917	1.000104
952.493776	0.999291
952.794596	0.999726
953.095378	0.998645
953.396122	0.999723
953.696828	1.000427
953.997496	1.000353
954.298126	1.000247
954.598718	0.998880
954.899272	1.000142
955.199788	0.998985
955.500266	1.000713
955.800706	0.999785
956.101108	0.998927
956.401472	1.001899
956.701798	0.999549
957.002087	1.000329
957.302337	0.999189
957.602550	1.000502
957.902724	0.999619
958.202861	0.999381
958.502960	0.998986
958.803022	1.000882
959.103045	1.000344
959.403031	1.001146
959.702979	1.000052
960.002889	0.999889
960.302762	0.998909
960.602596	1.000308
960.902393	0.999539
961.202153	1.000792
961.501875	0.999857
961.801559	1.000357
962.101205	1.000076
962.400814	1.000434
962.700385	1.000579
962.999918	0.999839
963.299414	0.999746
963.598873	1.000976
963.898293	1.000364
964.197677	0.999662
964.497022	0.999789
964.796331	1.000401
965.095601	1.000789
965.394835	0.999828
965.694030	1.000489
965.993189	0.999293
966.292309	1.000739
966.591393	1.000450
966.890439	0.999894
967.189447	0.998123
967.488419	0.999078
967.787353	0.999523
968.086249	1.000914
968.385108	1.000013
968.683930	1.000950
968.982714	0.999890
969.281462	1.000757
969.580172	1.000178
969.878844	1.000568
970.177480	0.999868
970.476078	1.000686
970.774639	1.000874
971.073162	0.999770
971.371649	1.000143
971.670098	0.999161
971.968510	1.000343
972.266885	0.999761
972.565223	1.000304
972.863524	0.998744
973.161788	0.999922
973.460014	1.000842
973.758204	0.999306
974.056356	0.999320
974.354471	0.999906
974.652550	1.000473
974.950591	0.999924
975.248595	0.998985
975.546563	1.000029
975.844493	0.999389
976.142386	0.999583
976.440243	1.001682
976.738062	1.000935
977.035845	0.999781
977.333590	1.001011
977.631299	1.000216
977.928971	1.000686
978.226606	1.000022
978.524204	1.000476
978.821765	1.000807
979.119290	1.001878
979.416777	1.000822
979.714228	0.999385
980.011642	1.001596
980.309020	0.999862
980.606360	0.999919
980.903664	0.999168
981.200931	0.999485
981.498162	1.000044
981.795356	1.000448
982.092513	1.000130
982.389633	1.000579
982.686717	0.997749
982.983764	0.999803
983.280775	0.999159
983.577749	0.999724
983.874686	0.998684
984.171587	0.998923
984.468451	1.001381
984.765279	1.000370
985.062070	0.999689
985.358824	0.999060
985.655543	1.000014
985.952224	1.000465
986.248869	1.000323
986.545478	1.001360
986.842050	0.999584
987.138586	0.998755
987.435086	0.999161
987.731549	1.001971
988.027975	0.999954
988.324366	0.999845
988.620719	1.000494
988.917037	0.999926
989.213318	1.001382
989.509563	1.000084
989.805772	1.000277
990.101944	1.001432
990.398080	1.000384
990.694180	1.000376
990.990244	0.999250
991.286271	1.000380
991.582262	1.000892
991.878217	0.999352
992.174136	1.001054
992.470019	1.000082
992.765865	1.001183
993.061676	0.999838
993.357450	1.000519
993.653188	1.001040
993.948890	1.000203
994.244556	0.999465
994.540186	1.000258
994.835780	1.000999
995.131337	1.001387
995.426859	0.999895
995.722345	1.000319
996.017795	0.999638
996.313208	1.000354
996.608586	0.999324
996.903928	1.000473
997.199234	0.999801
997.494504	0.999877
997.789738	0.999643
998.084936	1.000080
998.380099	1.000486
998.675225	1.001169
998.970316	1.001033
999.265371	0.999656
999.560390	0.999737
999.855373	1.000756
1000.150320	1.000646
1000.445232	1.000304
1000.740108	1.001005
1001.034948	1.000033
1001.329752	0.999606
1001.624521	1.000312
1001.919254	0.999387
1002.213951	1.000032
1002.508613	0.999974
1002.803239	1.000854
1003.097829	1.000204
1003.392384	0.999648
1003.686903	1.000860
1003.981386	0.999967
1004.275834	1.001017
1004.570246	0.999000
1004.864623	1.001025
1005.158964	1.000573
1005.453270	1.000251
1005.747540	1.000041
1006.041775	1.000742
1006.335974	1.000847
1006.630138	1.000682
1006.924266	0.999120
1007.218359	0.999286
1007.512416	1.000666
1007.806438	1.000020
1008.100425	1.000518
1008.394376	1.000734
1008.688292	1.000200
1008.982172	0.998811
1009.276017	1.001661
1009.569827	1.001266
1009.863602	0.999278
1010.157341	1.001186
1010.451045	0.999943
1010.744714	1.000960
1011.038347	1.001600
1011.331945	0.999411
1011.625508	0.999437
1011.919036	1.000211
1012.212528	1.000721
1012.505986	1.000898
1012.799408	1.001399
1013.092795	1.000867
1013.386147	1.000624
1013.679464	1.000937
1013.972745	0.998997
1014.265992	1.001025
1014.559204	0.999896
1014.852380	1.000971
1015.145521	1.000796
1015.438628	0.999829
1015.731699	1.000851
1016.024736	1.001199
1016.317737	0.999486
1016.610703	1.001543
1016.903635	0.999319
1017.196531	1.001105
1017.489393	0.999665
1017.782219	1.000671
1018.075011	0.999431
1018.367768	1.000016
1018.660490	1.001048
1018.953177	1.001048
1019.245829	1.001048
