Dividing Wavelength (nm)	Counts (n)	Blue Motor Position (mm): 3.100000	Red Motor Position (mm): 0.000000	
326.493990	1.006764
326.888308	1.006764
327.282561	1.006764
327.676750	1.007586
328.070874	1.007898
328.464933	1.008152
328.858929	1.007487
329.252859	1.006574
329.646726	1.005299
330.040528	1.006253
330.434265	1.006407
330.827938	1.005755
331.221547	1.006589
331.615091	1.007117
332.008571	1.006178
332.401986	1.005708
332.795338	1.005878
333.188625	1.007551
333.581847	1.006194
333.975006	1.007053
334.368100	1.007060
334.761129	1.006319
335.154095	1.006458
335.546996	1.004883
335.939833	0.999521
336.332606	0.999819
336.725315	0.999607
337.117960	0.999945
337.510540	0.998492
337.903056	0.999501
338.295508	1.000368
338.687896	0.999648
339.080220	0.999739
339.472480	0.998859
339.864676	0.999790
340.256807	0.998908
340.648875	0.999749
341.040879	0.999755
341.432818	0.999344
341.824694	0.999812
342.216506	0.999731
342.608253	0.999291
342.999937	0.998703
343.391557	0.999527
343.783113	1.000797
344.174605	1.000087
344.566033	0.998801
344.957397	0.999764
345.348697	1.000753
345.739934	0.999355
346.131106	0.999106
346.522215	0.998520
346.913260	0.999362
347.304241	0.998510
347.695159	0.999789
348.086012	0.998853
348.476802	0.998689
348.867528	0.997847
349.258191	0.999427
349.648789	0.998894
350.039324	0.998454
350.429796	0.998809
350.820203	0.997764
351.210548	0.999329
351.600828	0.998942
351.991045	0.999247
352.381198	0.999349
352.771288	0.998863
353.161314	0.999448
353.551276	0.998178
353.941175	0.995797
354.331010	0.999407
354.720782	0.997381
355.110490	0.998107
355.500135	0.999092
355.889717	0.998813
356.279235	0.996982
356.668689	0.998943
357.058080	0.999029
357.447408	0.997461
357.836672	0.997785
358.225873	0.998204
358.615010	0.997831
359.004084	0.997477
359.393095	0.998255
359.782043	0.997741
360.170927	0.997922
360.559748	0.998000
360.948505	0.996998
361.337199	0.998735
361.725830	0.996974
362.114398	0.997725
362.502903	0.996134
362.891344	0.996092
363.279722	0.996717
363.668037	0.997964
364.056289	0.997803
364.444478	0.998515
364.832603	0.997236
365.220665	0.997308
365.608665	0.997259
365.996601	0.996946
366.384474	0.996098
366.772284	0.997080
367.160031	0.995341
367.547715	0.996716
367.935336	0.994638
368.322893	0.993189
368.710388	0.993703
369.097820	0.990538
369.485189	0.989118
369.872495	0.987723
370.259738	0.984356
370.646918	0.983199
371.034035	0.979449
371.421090	0.976990
371.808081	0.972029
372.195010	0.968388
372.581875	0.964457
372.968678	0.959313
373.355418	0.956875
373.742096	0.948015
374.128710	0.945307
374.515262	0.940913
374.901751	0.934358
375.288177	0.929004
375.674540	0.921649
376.060841	0.916756
376.447079	0.909298
376.833254	0.902758
377.219367	0.898327
377.605417	0.885651
377.991404	0.883329
378.377329	0.876551
378.763191	0.870416
379.148991	0.860411
379.534727	0.853943
379.920402	0.845459
380.306013	0.842849
380.691563	0.829097
381.077049	0.822409
381.462474	0.818508
381.847835	0.808170
382.233134	0.802332
382.618371	0.802424
383.003545	0.785788
383.388657	0.783522
383.773706	0.776282
384.158693	0.772443
384.543618	0.766308
384.928480	0.757398
385.313280	0.747781
385.698017	0.747554
386.082692	0.734888
386.467305	0.734189
386.851856	0.728754
387.236344	0.723531
387.620770	0.718028
388.005133	0.712528
388.389435	0.706762
388.773674	0.703795
389.157851	0.695301
389.541965	0.693379
389.926018	0.699921
390.310008	0.685978
390.693936	0.683438
391.077802	0.675356
391.461606	0.677478
391.845348	0.666795
392.229027	0.666169
392.612645	0.664310
392.996200	0.650980
393.379694	0.644307
393.763125	0.634870
394.146494	0.639316
394.529801	0.629917
394.913047	0.621922
395.296230	0.627632
395.679351	0.618829
396.062410	0.615767
396.445408	0.618237
396.828343	0.613612
397.211217	0.609430
397.594028	0.620448
397.976778	0.611115
398.359466	0.607329
398.742092	0.603243
399.124656	0.615487
399.507158	0.603932
399.889598	0.600126
400.271977	0.591830
400.654294	0.595584
401.036549	0.594763
401.418742	0.599126
401.800874	0.585022
402.182944	0.581313
402.564952	0.573216
402.946898	0.575087
403.328783	0.576112
403.710606	0.586895
404.092367	0.562278
404.474067	0.567257
404.855705	0.565777
405.237282	0.575307
405.618797	0.561307
406.000250	0.556752
406.381642	0.546787
406.762972	0.551566
407.144240	0.550376
407.525447	0.550576
407.906593	0.543599
408.287677	0.538934
408.668700	0.547595
409.049661	0.540961
409.430560	0.535923
409.811399	0.544854
410.192176	0.526865
410.572891	0.533585
410.953545	0.521645
411.334138	0.535626
411.714669	0.527172
412.095139	0.540375
412.475547	0.524058
412.855894	0.526188
413.236180	0.524811
413.616405	0.529663
413.996568	0.520275
414.376670	0.527208
414.756711	0.532042
415.136691	0.528774
415.516609	0.519873
415.896466	0.516181
416.276262	0.512765
416.655997	0.514014
417.035670	0.495509
417.415283	0.487416
417.794834	0.491707
418.174324	0.497470
418.553753	0.506711
418.933121	0.488980
419.312428	0.482941
419.691674	0.488734
420.070859	0.477132
420.449983	0.484882
420.829045	0.473717
421.208047	0.482694
421.586988	0.476194
421.965867	0.474365
422.344686	0.463317
422.723444	0.475892
423.102141	0.492893
423.480777	0.465620
423.859352	0.485915
424.237866	0.464019
424.616319	0.464538
424.994712	0.456058
425.373044	0.465904
425.751314	0.453604
426.129524	0.470323
426.507673	0.454106
426.885762	0.447510
427.263789	0.452953
427.641756	0.463199
428.019662	0.453179
428.397508	0.452074
428.775292	0.456589
429.153016	0.448183
429.530679	0.454313
429.908282	0.447846
430.285824	0.458145
430.663305	0.436737
431.040726	0.458137
431.418086	0.457516
431.795385	0.449317
432.172624	0.448438
432.549802	0.448506
432.926920	0.447663
433.303977	0.447130
433.680974	0.444073
434.057910	0.443154
434.434786	0.441935
434.811601	0.444438
435.188355	0.427024
435.565050	0.436648
435.941683	0.437288
436.318257	0.421585
436.694770	0.422952
437.071222	0.420152
437.447614	0.425136
437.823946	0.431377
438.200218	0.421012
438.576429	0.430734
438.952580	0.423278
439.328670	0.419929
439.704700	0.426814
440.080670	0.427842
440.456580	0.409334
440.832429	0.417382
441.208218	0.428625
441.583947	0.417799
441.959616	0.416601
442.335224	0.422409
442.710773	0.412715
443.086261	0.411129
443.461689	0.424873
443.837057	0.414472
444.212365	0.404912
444.587612	0.411716
444.962800	0.401316
445.337927	0.403417
445.712995	0.429452
446.088002	0.391346
446.462949	0.401659
446.837837	0.406761
447.212664	0.395338
447.587431	0.387117
447.962139	0.356824
448.336786	0.316374
448.711374	0.326566
449.085901	0.371188
449.460369	0.375011
449.834776	0.378580
450.209124	0.357841
450.583412	0.350748
450.957640	0.343618
451.331808	0.355122
451.705917	0.378424
452.079965	0.383303
452.453954	0.371024
452.827883	0.378066
453.201752	0.372832
453.575562	0.383951
453.949311	0.372608
454.323001	0.378612
454.696632	0.374650
455.070202	0.367424
455.443713	0.359333
455.817164	0.353887
456.190556	0.349614
456.563888	0.346352
456.937160	0.343859
457.310373	0.361132
457.683526	0.360268
458.056619	0.366017
458.429653	0.366357
458.802628	0.369998
459.175542	0.364324
459.548398	0.346806
459.921194	0.338841
460.293930	0.339638
460.666607	0.316806
461.039224	0.305024
461.411782	0.300420
461.784280	0.300014
462.156719	0.303756
462.529099	0.308358
462.901419	0.324477
463.273680	0.328557
463.645882	0.328358
464.018024	0.334299
464.390106	0.326763
464.762130	0.311451
465.134094	0.294405
465.505999	0.263382
465.877845	0.233824
466.249631	0.220729
466.621358	0.228189
466.993026	0.242172
467.364634	0.248514
467.736184	0.257301
468.107674	0.265713
468.479105	0.264959
468.850477	0.271908
469.221790	0.279011
469.593043	0.288926
469.964238	0.293664
470.335373	0.293123
470.706449	0.291008
471.077467	0.291674
471.448425	0.254014
471.819324	0.229320
472.190164	0.228689
472.560945	0.257837
472.931667	0.280212
473.302330	0.284277
473.672934	0.296206
474.043479	0.284192
474.413965	0.286138
474.784393	0.289518
475.154761	0.284817
475.525070	0.281665
475.895321	0.287422
476.265513	0.281909
476.635645	0.277394
477.005719	0.276750
477.375734	0.273424
477.745691	0.266781
478.115588	0.262948
478.485427	0.256507
478.855207	0.243387
479.224928	0.225781
479.594591	0.213776
479.964194	0.217543
480.333739	0.218568
480.703226	0.220116
481.072653	0.218339
481.442022	0.214024
481.811333	0.210600
482.180584	0.214425
482.549777	0.219731
482.918912	0.222975
483.287988	0.222380
483.657005	0.222175
484.025964	0.228743
484.394864	0.225982
484.763706	0.226652
485.132489	0.231543
485.501213	0.232350
485.869879	0.230636
486.238487	0.233922
486.607036	0.231595
486.975527	0.236450
487.343959	0.232286
487.712333	0.231256
488.080648	0.232338
488.448905	0.231964
488.817104	0.233217
489.185244	0.227750
489.553326	0.224299
489.921350	0.214690
490.289315	0.196783
490.657222	0.191676
491.025070	0.193167
491.392861	0.194981
491.760593	0.200909
492.128267	0.206405
492.495883	0.211895
492.863440	0.218425
493.230939	0.224548
493.598380	0.226049
493.965763	0.228464
494.333088	0.230415
494.700354	0.231934
495.067563	0.230886
495.434713	0.234679
495.801805	0.232055
496.168839	0.233954
496.535815	0.235371
496.902733	0.235133
497.269593	0.236611
497.636395	0.234370
498.003139	0.234583
498.369825	0.237734
498.736453	0.234090
499.103023	0.235617
499.469535	0.235320
499.835989	0.235094
500.202385	0.236149
500.568723	0.239414
500.935003	0.234629
501.301226	0.238570
501.667390	0.233279
502.033497	0.231113
502.399546	0.234011
502.765537	0.235947
503.131470	0.234606
503.497345	0.230958
503.863163	0.239503
504.228923	0.232559
504.594625	0.231467
504.960269	0.236302
505.325856	0.232118
505.691385	0.236358
506.056856	0.233166
506.422270	0.232599
506.787625	0.234918
507.152924	0.232028
507.518164	0.232511
507.883347	0.234419
508.248472	0.236074
508.613540	0.230950
508.978550	0.233586
509.343503	0.234128
509.708398	0.232055
510.073236	0.229336
510.438016	0.228987
510.802738	0.230149
511.167403	0.229084
511.532010	0.231315
511.896561	0.226772
512.261053	0.225181
512.625488	0.227451
512.989866	0.227765
513.354186	0.228111
513.718449	0.230113
514.082655	0.226235
514.446803	0.228379
514.810894	0.225910
515.174927	0.228882
515.538904	0.228524
515.902822	0.225418
516.266684	0.227638
516.630488	0.228772
516.994235	0.227652
517.357925	0.226370
517.721558	0.224777
518.085133	0.224291
518.448651	0.224194
518.812112	0.226575
519.175516	0.225927
519.538863	0.223449
519.902152	0.225680
520.265385	0.222432
520.628560	0.223796
520.991678	0.224511
521.354739	0.223386
521.717743	0.224426
522.080690	0.224857
522.443580	0.222421
522.806413	0.222822
523.169189	0.222660
523.531908	0.221266
523.894569	0.224924
524.257174	0.224867
524.619722	0.222591
524.982213	0.223696
525.344647	0.222423
525.707025	0.223498
526.069345	0.221419
526.431608	0.223441
526.793815	0.221147
527.155964	0.225483
527.518057	0.224436
527.880093	0.225432
528.242072	0.223438
528.603995	0.225978
528.965860	0.227310
529.327669	0.226456
529.689421	0.227504
530.051117	0.228096
530.412755	0.225682
530.774337	0.228215
531.135862	0.228782
531.497331	0.227814
531.858743	0.230680
532.220098	0.227445
532.581396	0.230147
532.942638	0.230300
533.303824	0.231859
533.664953	0.231295
534.026025	0.233130
534.387040	0.231028
534.747999	0.230666
535.108902	0.229650
535.469748	0.234820
535.830537	0.232566
536.191270	0.232922
536.551947	0.232556
536.912567	0.232653
537.273131	0.234190
537.633638	0.234632
537.994089	0.234762
538.354483	0.235994
538.714821	0.232719
539.075103	0.232556
539.435328	0.233442
539.795497	0.237118
540.155609	0.234093
540.515665	0.231956
540.875665	0.237704
541.235609	0.236333
541.595496	0.236151
541.955328	0.232736
542.315102	0.235432
542.674821	0.236443
543.034483	0.236750
543.394090	0.236098
543.753640	0.238153
544.113134	0.232861
544.472571	0.236473
544.831953	0.233500
545.191278	0.237244
545.550548	0.236906
545.909761	0.233655
546.268918	0.234688
546.628019	0.232769
546.987064	0.235507
547.346053	0.236933
547.704986	0.234985
548.063863	0.235230
548.422684	0.235463
548.781449	0.237449
549.140158	0.235197
549.498811	0.237536
549.857408	0.240863
550.215949	0.235578
550.574434	0.238822
550.932864	0.236869
551.291237	0.235279
551.649555	0.236941
552.007817	0.236586
552.366022	0.237508
552.724173	0.237302
553.082267	0.237777
553.440305	0.234537
553.798288	0.239134
554.156215	0.235869
554.514086	0.236302
554.871902	0.239606
555.229661	0.238784
555.587365	0.239658
555.945014	0.241863
556.302606	0.238929
556.660143	0.241312
557.017625	0.237938
557.375050	0.240270
557.732421	0.237133
558.089735	0.239298
558.446994	0.239062
558.804197	0.238330
559.161345	0.238188
559.518437	0.241728
559.875474	0.239662
560.232455	0.239106
560.589381	0.240203
560.946251	0.240329
561.303065	0.237957
561.659825	0.239074
562.016528	0.240824
562.373177	0.243643
562.729770	0.241140
563.086307	0.242649
563.442789	0.240875
563.799216	0.243531
564.155587	0.242160
564.511904	0.243635
564.868164	0.243495
565.224370	0.243157
565.580520	0.244984
565.936615	0.245122
566.292654	0.247943
566.648638	0.245135
567.004567	0.246230
567.360441	0.246407
567.716260	0.248746
568.072023	0.246174
568.427732	0.246862
568.783385	0.249396
569.138982	0.247408
569.494525	0.247132
569.850013	0.250288
570.205445	0.248497
570.560823	0.251283
570.916145	0.252861
571.271412	0.251613
571.626625	0.252902
571.981782	0.253099
572.336884	0.254193
572.691931	0.253767
573.046923	0.255166
573.401860	0.256449
573.756743	0.258079
574.111570	0.256846
574.466342	0.257745
574.821059	0.256270
575.175722	0.259611
575.530330	0.259150
575.884882	0.259231
576.239380	0.261231
576.593823	0.262232
576.948211	0.261696
577.302544	0.264867
577.656823	0.264283
578.011047	0.264077
578.365216	0.265043
578.719330	0.267049
579.073389	0.266538
579.427394	0.268246
579.781344	0.268959
580.135239	0.270275
580.489080	0.270208
580.842866	0.273141
581.196597	0.272828
581.550273	0.271400
581.903895	0.272741
582.257463	0.270492
582.610975	0.274211
582.964434	0.273655
583.317837	0.276359
583.671186	0.276383
584.024481	0.276347
584.377721	0.279114
584.730906	0.279745
585.084037	0.279240
585.437113	0.280947
585.790135	0.280275
586.143103	0.283494
586.496016	0.284446
586.848874	0.281498
587.201679	0.282133
587.554428	0.285998
587.907124	0.284319
588.259765	0.285511
588.612352	0.285514
588.964884	0.289700
589.317362	0.288631
589.669786	0.289023
590.022155	0.287413
590.374470	0.286966
590.726731	0.288896
591.078937	0.294077
591.431090	0.290116
591.783188	0.294145
592.135232	0.294844
592.487222	0.294684
592.839157	0.292983
593.191038	0.294982
593.542866	0.297136
593.894639	0.300274
594.246358	0.298638
594.598022	0.298098
594.949633	0.301909
595.301190	0.302524
595.652692	0.301847
596.004141	0.297333
596.355535	0.305866
596.706876	0.306293
597.058162	0.308925
597.409395	0.306036
597.760573	0.303611
598.111698	0.306983
598.462768	0.307363
598.813785	0.308859
599.164748	0.310031
599.515657	0.310395
599.866511	0.313850
600.217312	0.309314
600.568060	0.314517
600.918753	0.310610
601.269392	0.311745
601.619978	0.315293
601.970510	0.312713
602.320988	0.312740
602.671412	0.310256
603.021783	0.312809
603.372100	0.314132
603.722363	0.313935
604.072572	0.314981
604.422728	0.314358
604.772830	0.316810
605.122878	0.316684
605.472872	0.316866
605.822813	0.315317
606.172701	0.317974
606.522534	0.315031
606.872314	0.315630
607.222041	0.316160
607.571714	0.314281
607.921333	0.315668
608.270899	0.315272
608.620411	0.312178
608.969870	0.316300
609.319276	0.316428
609.668627	0.316322
610.017926	0.314912
610.367171	0.313136
610.716362	0.313909
611.065500	0.314402
611.414585	0.312930
611.763616	0.313268
612.112594	0.314186
612.461518	0.313366
612.810389	0.310978
613.159207	0.313370
613.507971	0.314821
613.856682	0.311325
614.205340	0.312003
614.553945	0.309534
614.902496	0.312819
615.250994	0.311257
615.599439	0.311827
615.947830	0.310957
616.296169	0.312307
616.644454	0.311725
616.992686	0.311706
617.340864	0.309917
617.688990	0.313596
618.037063	0.309640
618.385082	0.311736
618.733048	0.308669
619.080961	0.310728
619.428821	0.310111
619.776628	0.310215
620.124382	0.312276
620.472083	0.312717
620.819731	0.311602
621.167326	0.315539
621.514868	0.315317
621.862357	0.319975
622.209793	0.318870
622.557176	0.321819
622.904506	0.322642
623.251783	0.325155
623.599007	0.327326
623.946179	0.326555
624.293297	0.328961
624.640363	0.332801
624.987376	0.333368
625.334336	0.335672
625.681243	0.337806
626.028097	0.338760
626.374899	0.339724
626.721647	0.340299
627.068343	0.343180
627.414987	0.344473
627.761577	0.346206
628.108115	0.344815
628.454600	0.349834
628.801032	0.347539
629.147412	0.349106
629.493739	0.350056
629.840014	0.352677
630.186236	0.349935
630.532405	0.355640
630.878521	0.353094
631.224585	0.355517
631.570597	0.358816
631.916556	0.356932
632.262462	0.357471
632.608316	0.359567
632.954117	0.360470
633.299866	0.361376
633.645562	0.361664
633.991206	0.366259
634.336797	0.368996
634.682336	0.371497
635.027823	0.372951
635.373257	0.373344
635.718639	0.377321
636.063968	0.376871
636.409245	0.382056
636.754470	0.382436
637.099642	0.384975
637.444762	0.388401
637.789829	0.387449
638.134845	0.390960
638.479808	0.391782
638.824719	0.391815
639.169577	0.396015
639.514383	0.395098
639.859137	0.399680
640.203839	0.398902
640.548489	0.399821
640.893086	0.400255
641.237632	0.402858
641.582125	0.401162
641.926566	0.403257
642.270955	0.402481
642.615292	0.403013
642.959576	0.402182
643.303809	0.402856
643.647990	0.402266
643.992118	0.402910
644.336195	0.405821
644.680219	0.404894
645.024192	0.405189
645.368112	0.398499
645.711981	0.397827
646.055797	0.393458
646.399562	0.395343
646.743274	0.388166
647.086935	0.384982
647.430544	0.384984
647.774101	0.383664
648.117606	0.383994
648.461059	0.384281
648.804460	0.386540
649.147810	0.391849
649.491108	0.393409
649.834354	0.394896
650.177548	0.400362
650.520690	0.405882
650.863781	0.407239
651.206820	0.406514
651.549807	0.411171
651.892742	0.414912
652.235626	0.414458
652.578458	0.415053
652.921238	0.421932
653.263967	0.419591
653.606644	0.423305
653.949269	0.423632
654.291843	0.426739
654.634365	0.424126
654.976836	0.427012
655.319255	0.427304
655.661622	0.428752
656.003938	0.428563
656.346203	0.431623
656.688416	0.429878
657.030577	0.432675
657.372687	0.434947
657.714746	0.436349
658.056753	0.432964
658.398708	0.436188
658.740612	0.438601
659.082465	0.433529
659.424266	0.434564
659.766016	0.434580
660.107715	0.437309
660.449362	0.435444
660.790958	0.436221
661.132503	0.437730
661.473996	0.434035
661.815438	0.435817
662.156829	0.435795
662.498168	0.436676
662.839456	0.437511
663.180693	0.435616
663.521879	0.435455
663.863013	0.436613
664.204097	0.434317
664.545129	0.431833
664.886110	0.432153
665.227040	0.429661
665.567918	0.431810
665.908746	0.429638
666.249522	0.429545
666.590248	0.430776
666.930922	0.428741
667.271545	0.427581
667.612118	0.427375
667.952639	0.429331
668.293109	0.427851
668.633528	0.430638
668.973896	0.431179
669.314213	0.431496
669.654480	0.433133
669.994695	0.432945
670.334859	0.433986
670.674973	0.434356
671.015035	0.434056
671.355047	0.434161
671.695008	0.435571
672.034918	0.436933
672.374777	0.436420
672.714585	0.437503
673.054342	0.437418
673.394049	0.436846
673.733705	0.434877
674.073310	0.436481
674.412864	0.439614
674.752368	0.440150
675.091820	0.439698
675.431223	0.444730
675.770574	0.444045
676.109875	0.447531
676.449125	0.447162
676.788324	0.450053
677.127473	0.455376
677.466571	0.455006
677.805619	0.456517
678.144616	0.457754
678.483562	0.459815
678.822458	0.462513
679.161303	0.462695
679.500098	0.463455
679.838842	0.465240
680.177535	0.464400
680.516179	0.462862
680.854771	0.461578
681.193314	0.455808
681.531805	0.446833
681.870247	0.435528
682.208638	0.427943
682.546978	0.426983
682.885268	0.428524
683.223508	0.434939
683.561697	0.438564
683.899836	0.441215
684.237925	0.444492
684.575963	0.447574
684.913951	0.450851
685.251889	0.445964
685.589776	0.448247
685.927614	0.450392
686.265401	0.444356
686.603137	0.445822
686.940824	0.439868
687.278460	0.438785
687.616046	0.437583
687.953582	0.432643
688.291068	0.434067
688.628504	0.428967
688.965889	0.431903
689.303224	0.435745
689.640510	0.439706
689.977745	0.445507
690.314930	0.453121
690.652065	0.458214
690.989150	0.465340
691.326185	0.472166
691.663170	0.476958
692.000105	0.484258
692.336990	0.491174
692.673825	0.493537
693.010610	0.500096
693.347345	0.506620
693.684030	0.507718
694.020665	0.511370
694.357251	0.520701
694.693786	0.521052
695.030272	0.523835
695.366707	0.528508
695.703093	0.531726
696.039429	0.529006
696.375716	0.532206
696.711952	0.533551
697.048139	0.535937
697.384276	0.538389
697.720363	0.536464
698.056400	0.535097
698.392388	0.541153
698.728326	0.544122
699.064214	0.546768
699.400053	0.547327
699.735842	0.551282
700.071581	0.553716
700.407270	0.557050
700.742910	0.559463
701.078501	0.566035
701.414042	0.566616
701.749533	0.569040
702.084974	0.578828
702.420366	0.570941
702.755709	0.578661
703.091002	0.585905
703.426246	0.580532
703.761440	0.584708
704.096584	0.590180
704.431679	0.586672
704.766725	0.589872
705.101721	0.591349
705.436668	0.587242
705.771565	0.594651
706.106413	0.590015
706.441212	0.585879
706.775961	0.585715
707.110661	0.587544
707.445311	0.584184
707.779913	0.581615
708.114465	0.579655
708.448967	0.576537
708.783421	0.568502
709.117825	0.563081
709.452180	0.562707
709.786485	0.557095
710.120742	0.546876
710.454949	0.548371
710.789107	0.540936
711.123216	0.531321
711.457275	0.532296
711.791286	0.523915
712.125247	0.523370
712.459159	0.534138
712.793023	0.525511
713.126837	0.530561
713.460602	0.531107
713.794318	0.539428
714.127985	0.538288
714.461602	0.549045
714.795171	0.553026
715.128691	0.560526
715.462162	0.568169
715.795584	0.573158
716.128957	0.576712
716.462281	0.582886
716.795556	0.586166
717.128782	0.591316
717.461960	0.601819
717.795088	0.599102
718.128167	0.606238
718.461198	0.614401
718.794180	0.615809
719.127113	0.618106
719.459997	0.621372
719.792833	0.627256
720.125619	0.628859
720.458357	0.634496
720.791046	0.634573
721.123686	0.638300
721.456278	0.645087
721.788821	0.641932
722.121315	0.647576
722.453761	0.650604
722.786158	0.648336
723.118506	0.644967
723.450805	0.652873
723.783056	0.649421
724.115259	0.646427
724.447412	0.646421
724.779518	0.647155
725.111574	0.645821
725.443582	0.641071
725.775542	0.643759
726.107453	0.636528
726.439315	0.636651
726.771129	0.634275
727.102895	0.628608
727.434612	0.620834
727.766281	0.618848
728.097901	0.617734
728.429473	0.617755
728.760996	0.616306
729.092471	0.615718
729.423897	0.619801
729.755276	0.618527
730.086606	0.619135
730.417887	0.613379
730.749120	0.604273
731.080305	0.594822
731.411442	0.591024
731.742530	0.594582
732.073570	0.594739
732.404562	0.586861
732.735506	0.588328
733.066401	0.593038
733.397249	0.602240
733.728048	0.613970
734.058798	0.626793
734.389501	0.637491
734.720156	0.648086
735.050762	0.655367
735.381320	0.655627
735.711831	0.664890
736.042293	0.669484
736.372707	0.666153
736.703073	0.670429
737.033391	0.673496
737.363661	0.669497
737.693883	0.664879
738.024056	0.663972
738.354182	0.664369
738.684260	0.653603
739.014290	0.650048
739.344272	0.650734
739.674207	0.643424
740.004093	0.643739
740.333931	0.643537
740.663722	0.644135
740.993464	0.645196
741.323159	0.647402
741.652806	0.652417
741.982405	0.657702
742.311956	0.663973
742.641460	0.665286
742.970915	0.668996
743.300323	0.676125
743.629683	0.681920
743.958996	0.684765
744.288260	0.688010
744.617477	0.695325
744.946647	0.696953
745.275768	0.702572
745.604842	0.701853
745.933869	0.711665
746.262847	0.713814
746.591778	0.706439
746.920662	0.711324
747.249498	0.719631
747.578286	0.710333
747.907027	0.705471
748.235720	0.706562
748.564365	0.702244
748.892963	0.700847
749.221514	0.704952
749.550017	0.709205
749.878473	0.710277
750.206881	0.716409
750.535242	0.716836
750.863555	0.715597
751.191821	0.716630
751.520039	0.720284
751.848210	0.724112
752.176334	0.718484
752.504411	0.717470
752.832440	0.724483
753.160421	0.728959
753.488356	0.726704
753.816243	0.724607
754.144082	0.733767
754.471875	0.736617
754.799620	0.732723
755.127318	0.733954
755.454969	0.733751
755.782572	0.733980
756.110129	0.737969
756.437638	0.741554
756.765100	0.737733
757.092515	0.734949
757.419882	0.734291
757.747203	0.739594
758.074477	0.739704
758.401703	0.735500
758.728882	0.731640
759.056014	0.730389
759.383099	0.729490
759.710138	0.729297
760.037129	0.726461
760.364073	0.720809
760.690970	0.722646
761.017820	0.727507
761.344623	0.724849
761.671379	0.715291
761.998088	0.704285
762.324751	0.679922
762.651366	0.637163
762.977935	0.570203
763.304456	0.517324
763.630931	0.508141
763.957359	0.547428
764.283740	0.591038
764.610074	0.619842
764.936362	0.651303
765.262602	0.679440
765.588796	0.699907
765.914943	0.717755
766.241044	0.735379
766.567097	0.741310
766.893104	0.752942
767.219064	0.759066
767.544978	0.766192
767.870845	0.778677
768.196665	0.782930
768.522438	0.781631
768.848165	0.782500
769.173846	0.791488
769.499479	0.796146
769.825066	0.799568
770.150607	0.804146
770.476101	0.799764
770.801548	0.801955
771.126949	0.813067
771.452303	0.817930
771.777611	0.815483
772.102872	0.813963
772.428087	0.820193
772.753256	0.823269
773.078378	0.825683
773.403453	0.833942
773.728482	0.839572
774.053465	0.832069
774.378401	0.835648
774.703291	0.845308
775.028135	0.844635
775.352932	0.844338
775.677683	0.849261
776.002388	0.849853
776.327046	0.849253
776.651658	0.853164
776.976224	0.856154
777.300743	0.854928
777.625216	0.859170
777.949643	0.860225
778.274024	0.859252
778.598359	0.860648
778.922647	0.859772
779.246889	0.860936
779.571086	0.863775
779.895236	0.866689
780.219339	0.865187
780.543397	0.860190
780.867409	0.858450
781.191374	0.860959
781.515294	0.863059
781.839167	0.862414
782.162995	0.864819
782.486776	0.862596
782.810511	0.863078
783.134201	0.866868
783.457844	0.865164
783.781441	0.867679
784.104993	0.873235
784.428498	0.873159
784.751958	0.870281
785.075372	0.871433
785.398739	0.875060
785.722061	0.869937
786.045337	0.867654
786.368568	0.871470
786.691752	0.875059
787.014891	0.860623
787.337983	0.850815
787.661030	0.843631
787.984031	0.825427
788.306987	0.813970
788.629897	0.812679
788.952760	0.819888
789.275579	0.823026
789.598351	0.839531
789.921078	0.851439
790.243759	0.855026
790.566395	0.858451
790.888984	0.866867
791.211529	0.871006
791.534027	0.875000
791.856480	0.876406
792.178888	0.882125
792.501249	0.882953
792.823566	0.886811
793.145836	0.886173
793.468062	0.887263
793.790241	0.888310
794.112375	0.886483
794.434464	0.882896
794.756507	0.881188
795.078505	0.879394
795.400457	0.875025
795.722364	0.862957
796.044226	0.856770
796.366042	0.854382
796.687812	0.857427
797.009538	0.852993
797.331218	0.857910
797.652852	0.861878
797.974442	0.866502
798.295986	0.867396
798.617484	0.869011
798.938938	0.873732
799.260346	0.877987
799.581709	0.879810
799.903026	0.883705
800.224299	0.883185
800.545526	0.886607
800.866708	0.891952
801.187845	0.894971
801.508936	0.894877
801.829983	0.892448
802.150984	0.896482
802.471940	0.901183
802.792851	0.900592
803.113717	0.900769
803.434538	0.898388
803.755314	0.902662
804.076045	0.903514
804.396731	0.903607
804.717372	0.901806
805.037967	0.906102
805.358518	0.903137
805.679024	0.898929
805.999485	0.900147
806.319901	0.899310
806.640272	0.901916
806.960598	0.900677
807.280879	0.895792
807.601115	0.894721
807.921306	0.899333
808.241453	0.899352
808.561554	0.897665
808.881611	0.897730
809.201623	0.899250
809.521590	0.899356
809.841513	0.900383
810.161390	0.898786
810.481223	0.900625
810.801011	0.904960
811.120755	0.907165
811.440453	0.904823
811.760107	0.905767
812.079716	0.903790
812.399281	0.906521
812.718801	0.909183
813.038276	0.909599
813.357707	0.910202
813.677093	0.908307
813.996434	0.910126
814.315731	0.912389
814.634983	0.912384
814.954191	0.912535
815.273354	0.907711
815.592473	0.904639
815.911547	0.904080
816.230577	0.902403
816.549562	0.899091
816.868502	0.898010
817.187399	0.895603
817.506250	0.890964
817.825058	0.892586
818.143821	0.889144
818.462539	0.884408
818.781213	0.875604
819.099843	0.864389
819.418429	0.847627
819.736970	0.830824
820.055466	0.809939
820.373919	0.783836
820.692327	0.751317
821.010691	0.715315
821.329011	0.634220
821.647286	0.516943
821.965517	0.402313
822.283704	0.359357
822.601847	0.360055
822.919945	0.395769
823.237999	0.430725
823.556010	0.478841
823.873976	0.535391
824.191897	0.587123
824.509775	0.630347
824.827609	0.676594
825.145398	0.700587
825.463144	0.702021
825.780845	0.684610
826.098502	0.666026
826.416116	0.619957
826.733685	0.574467
827.051210	0.564870
827.368692	0.581164
827.686129	0.618767
828.003522	0.673678
828.320872	0.722476
828.638177	0.765916
828.955439	0.799709
829.272656	0.821650
829.589830	0.838833
829.906960	0.856084
830.224046	0.868708
830.541088	0.879216
830.858086	0.883581
831.175041	0.891657
831.491952	0.889138
831.808819	0.885842
832.125642	0.877521
832.442421	0.864342
832.759157	0.841764
833.075849	0.792683
833.392497	0.728662
833.709101	0.687612
834.025662	0.696943
834.342179	0.729280
834.658653	0.769630
834.975083	0.806544
835.291469	0.833263
835.607811	0.856793
835.924110	0.873530
836.240366	0.890265
836.556578	0.902810
836.872746	0.910885
837.188871	0.917543
837.504952	0.923023
837.820990	0.927405
838.136984	0.930006
838.452935	0.934588
838.768842	0.935366
839.084706	0.928933
839.400526	0.901276
839.716303	0.859041
840.032037	0.837921
840.347727	0.841683
840.663373	0.860189
840.978977	0.882665
841.294537	0.906327
841.610054	0.920810
841.925527	0.928674
842.240957	0.936660
842.556344	0.943733
842.871687	0.949274
843.186987	0.953379
843.502244	0.954644
843.817458	0.956537
844.132629	0.960204
844.447756	0.963455
844.762840	0.965481
845.077881	0.964551
845.392879	0.963321
845.707833	0.965786
846.022745	0.968221
846.337613	0.968901
846.652438	0.969445
846.967221	0.969478
847.281960	0.969706
847.596656	0.970996
847.911309	0.971021
848.225919	0.971210
848.540485	0.972798
848.855009	0.974979
849.169490	0.973281
849.483928	0.973276
849.798323	0.972067
850.112675	0.975393
850.426984	0.974368
850.741251	0.975643
851.055474	0.974353
851.369654	0.973496
851.683792	0.972210
851.997887	0.974599
852.311938	0.975604
852.625947	0.973367
852.939914	0.972215
853.253837	0.974148
853.567718	0.974829
853.881555	0.974686
854.195350	0.974092
854.509103	0.973823
854.822812	0.975776
855.136479	0.975849
855.450103	0.975057
855.763685	0.973184
856.077224	0.974117
856.390720	0.975330
856.704173	0.975145
857.017584	0.972916
857.330953	0.971942
857.644278	0.971241
857.957561	0.972802
858.270802	0.973555
858.584000	0.972674
858.897155	0.971636
859.210268	0.971877
859.523339	0.974193
859.836367	0.974957
860.149352	0.974006
860.462295	0.974172
860.775195	0.974783
861.088054	0.973000
861.400869	0.974657
861.713642	0.975090
862.026373	0.976677
862.339062	0.975078
862.651708	0.973914
862.964312	0.973811
863.276873	0.974637
863.589392	0.973124
863.901869	0.970570
864.214303	0.969487
864.526696	0.966584
864.839045	0.967986
865.151353	0.966642
865.463619	0.965889
865.775842	0.966908
866.088023	0.967863
866.400162	0.966419
866.712258	0.966381
867.024313	0.966612
867.336325	0.969411
867.648296	0.967988
867.960224	0.966275
868.272110	0.967997
868.583954	0.968576
868.895755	0.968867
869.207515	0.966926
869.519233	0.965155
869.830909	0.963949
870.142542	0.967315
870.454134	0.965681
870.765684	0.963998
871.077191	0.963458
871.388657	0.962542
871.700081	0.964156
872.011463	0.964179
872.322803	0.962286
872.634101	0.960590
872.945357	0.958665
873.256571	0.956834
873.567744	0.957026
873.878874	0.958528
874.189963	0.957510
874.501010	0.957449
874.812015	0.954722
875.122979	0.954590
875.433900	0.956321
875.744780	0.957949
876.055618	0.954809
876.366415	0.952244
876.677169	0.953457
876.987882	0.955018
877.298554	0.955455
877.609183	0.952491
877.919771	0.948927
878.230317	0.946228
878.540822	0.943525
878.851285	0.938034
879.161707	0.929889
879.472087	0.918127
879.782425	0.900024
880.092722	0.863840
880.402977	0.810481
880.713191	0.747190
881.023363	0.685786
881.333494	0.651046
881.643583	0.623779
881.953631	0.624172
882.263637	0.651808
882.573602	0.691906
882.883526	0.718755
883.193408	0.744721
883.503248	0.767389
883.813048	0.795638
884.122806	0.827449
884.432522	0.850367
884.742197	0.871390
885.051831	0.881294
885.361424	0.893357
885.670975	0.905190
885.980485	0.915934
886.289954	0.921434
886.599382	0.925687
886.908768	0.931198
887.218113	0.936717
887.527417	0.942216
887.836680	0.945818
888.145901	0.947716
888.455082	0.950734
888.764221	0.954503
889.073319	0.955553
889.382376	0.957067
889.691392	0.955295
890.000366	0.956764
890.309300	0.957600
890.618193	0.956463
890.927044	0.954421
891.235855	0.955011
891.544625	0.955280
891.853353	0.955930
892.162041	0.952080
892.470687	0.947314
892.779293	0.940571
893.087858	0.936581
893.396381	0.928826
893.704864	0.914817
894.013306	0.890086
894.321707	0.863801
894.630068	0.847733
894.938387	0.841655
895.246665	0.843965
895.554903	0.856437
895.863100	0.869862
896.171256	0.887669
896.479371	0.908206
896.787446	0.921733
897.095480	0.927516
897.403473	0.930677
897.711425	0.935208
898.019336	0.942798
898.327207	0.947864
898.635038	0.946785
898.942827	0.948780
899.250576	0.952532
899.558284	0.956605
899.865952	0.957179
900.173579	0.960011
900.481165	0.960302
900.788711	0.962130
901.096216	0.965309
901.403681	0.967212
901.711105	0.966308
902.018489	0.967470
902.325832	0.966253
902.633135	0.965339
902.940397	0.959374
903.247619	0.945736
903.554800	0.920545
903.861941	0.879504
904.169041	0.841038
904.476101	0.822654
904.783121	0.824032
905.090100	0.841207
905.397039	0.863202
905.703938	0.885380
906.010796	0.907273
906.317614	0.923668
906.624391	0.937694
906.931129	0.947518
907.237826	0.955307
907.544483	0.962920
907.851099	0.968320
908.157675	0.970258
908.464211	0.973806
908.770707	0.975866
909.077163	0.979334
909.383578	0.980284
909.689954	0.978744
909.996289	0.980389
910.302584	0.982588
910.608839	0.984598
910.915054	0.983418
911.221229	0.983438
911.527363	0.981956
911.833458	0.982208
912.139513	0.982085
912.445527	0.981041
912.751502	0.979351
913.057436	0.975353
913.363331	0.974876
913.669186	0.971613
913.975000	0.966067
914.280775	0.958664
914.586510	0.950506
914.892205	0.936974
915.197859	0.915214
915.503475	0.885832
915.809050	0.866212
916.114585	0.859867
916.420081	0.856591
916.725536	0.854011
917.030952	0.862991
917.336328	0.875587
917.641665	0.892418
917.946961	0.908952
918.252218	0.918946
918.557435	0.928563
918.862612	0.937961
919.167750	0.943593
919.472848	0.950791
919.777906	0.956646
920.082925	0.962196
920.387904	0.965886
920.692843	0.967231
920.997743	0.967699
921.302603	0.971201
921.607423	0.973026
921.912204	0.975780
922.216946	0.978371
922.521647	0.978935
922.826310	0.979044
923.130932	0.981355
923.435516	0.984174
923.740059	0.983980
924.044564	0.984888
924.349028	0.985594
924.653454	0.987690
924.957840	0.987475
925.262186	0.988620
925.566493	0.988411
925.870761	0.989639
926.174989	0.990291
926.479178	0.992764
926.783328	0.992965
927.087438	0.992974
927.391509	0.994410
927.695541	0.994568
927.999533	0.995469
928.303486	0.994467
928.607400	0.995550
928.911275	0.995251
929.215110	0.996461
929.518906	0.995656
929.822663	0.996040
930.126381	0.995453
930.430060	0.994382
930.733699	0.995349
931.037299	0.995549
931.340861	0.995569
931.644383	0.994018
931.947866	0.995308
932.251309	0.995882
932.554714	0.995092
932.858080	0.995367
933.161407	0.993823
933.464694	0.995349
933.767943	0.995546
934.071153	0.995970
934.374323	0.996873
934.677455	0.996900
934.980548	0.995991
935.283602	0.996979
935.586617	0.996037
935.889593	0.996874
936.192530	0.998244
936.495428	0.996476
936.798287	0.995886
937.101108	0.994029
937.403890	0.994067
937.706632	0.995222
938.009336	0.992176
938.312002	0.989808
938.614628	0.988793
938.917216	0.987966
939.219765	0.987724
939.522275	0.987321
939.824747	0.987790
940.127179	0.988092
940.429573	0.990448
940.731929	0.988755
941.034246	0.988594
941.336524	0.989851
941.638763	0.991592
941.940964	0.990945
942.243126	0.991825
942.545250	0.993214
942.847335	0.992043
943.149381	0.993513
943.451389	0.993182
943.753359	0.994670
944.055290	0.995963
944.357182	0.995093
944.659036	0.994956
944.960851	0.995052
945.262628	0.995583
945.564367	0.994644
945.866067	0.994830
946.167729	0.994968
946.469352	0.994239
946.770937	0.992509
947.072484	0.995983
947.373992	0.995780
947.675462	0.993948
947.976893	0.994389
948.278286	0.996237
948.579641	0.996300
948.880958	0.996947
949.182236	0.996397
949.483476	0.997014
949.784678	0.996369
950.085841	0.994751
950.386967	0.996214
950.688054	0.996337
950.989103	0.995364
951.290114	0.993535
951.591087	0.994815
951.892021	0.993743
952.192917	0.994502
952.493776	0.992771
952.794596	0.992892
953.095378	0.992052
953.396122	0.992047
953.696828	0.993706
953.997496	0.995045
954.298126	0.996191
954.598718	0.995001
954.899272	0.995015
955.199788	0.996006
955.500266	0.997825
955.800706	0.996345
956.101108	0.997127
956.401472	0.999704
956.701798	0.998172
957.002087	0.999099
957.302337	0.998881
957.602550	0.999437
957.902724	1.000020
958.202861	1.000462
958.502960	0.999786
958.803022	1.002298
959.103045	0.999781
959.403031	1.001512
959.702979	1.002237
960.002889	1.000404
960.302762	1.001222
960.602596	1.001561
960.902393	1.001807
961.202153	1.001524
961.501875	1.002671
961.801559	1.003294
962.101205	1.000885
962.400814	1.002442
962.700385	1.002604
962.999918	1.003480
963.299414	1.000861
963.598873	1.003190
963.898293	1.003837
964.197677	1.001581
964.497022	1.002361
964.796331	1.001897
965.095601	1.002810
965.394835	1.002460
965.694030	1.003302
965.993189	1.003140
966.292309	1.002049
966.591393	1.001256
966.890439	1.003061
967.189447	1.002432
967.488419	1.002342
967.787353	1.002961
968.086249	1.002827
968.385108	1.001592
968.683930	1.003000
968.982714	1.002896
969.281462	1.002259
969.580172	1.001627
969.878844	1.003238
970.177480	1.002813
970.476078	1.003788
970.774639	1.000936
971.073162	1.001003
971.371649	1.002076
971.670098	1.002021
971.968510	1.001916
972.266885	1.001415
972.565223	1.002094
972.863524	1.000977
973.161788	1.001736
973.460014	1.002064
973.758204	1.000488
974.056356	1.002658
974.354471	1.001969
974.652550	1.002160
974.950591	1.001227
975.248595	1.001352
975.546563	1.003045
975.844493	1.002094
976.142386	1.001400
976.440243	1.003491
976.738062	1.003362
977.035845	1.001846
977.333590	1.003479
977.631299	1.002281
977.928971	1.002810
978.226606	1.002449
978.524204	1.002138
978.821765	1.003317
979.119290	1.003416
979.416777	1.003946
979.714228	1.002450
980.011642	1.002250
980.309020	1.002183
980.606360	1.002267
980.903664	1.001804
981.200931	1.001382
981.498162	1.001427
981.795356	1.000798
982.092513	0.999859
982.389633	1.000084
982.686717	0.996488
982.983764	0.996841
983.280775	0.995424
983.577749	0.996788
983.874686	0.997235
984.171587	0.997470
984.468451	0.998198
984.765279	0.999982
985.062070	1.000134
985.358824	1.000585
985.655543	1.001508
985.952224	1.002081
986.248869	1.002050
986.545478	1.004121
986.842050	1.002067
987.138586	1.002690
987.435086	1.003254
987.731549	1.004058
988.027975	1.004455
988.324366	1.002928
988.620719	1.004519
988.917037	1.003500
989.213318	1.003916
989.509563	1.004408
989.805772	1.003870
990.101944	1.004056
990.398080	1.004288
990.694180	1.003965
990.990244	1.003121
991.286271	1.003865
991.582262	1.004711
991.878217	1.004191
992.174136	1.004464
992.470019	1.004182
992.765865	1.005161
993.061676	1.004072
993.357450	1.004651
993.653188	1.004045
993.948890	1.003613
994.244556	1.003590
994.540186	1.003519
994.835780	1.003109
995.131337	1.003623
995.426859	1.002017
995.722345	1.003248
996.017795	1.002326
996.313208	1.001412
996.608586	1.002374
996.903928	1.002372
997.199234	1.002248
997.494504	1.003444
997.789738	1.000477
998.084936	1.001438
998.380099	1.002655
998.675225	1.003719
998.970316	1.003356
999.265371	1.003478
999.560390	1.003855
999.855373	1.002313
1000.150320	1.003262
1000.445232	1.003827
1000.740108	1.004033
1001.034948	1.002414
1001.329752	1.004636
1001.624521	1.004445
1001.919254	1.003610
1002.213951	1.004614
1002.508613	1.003441
1002.803239	1.004058
1003.097829	1.004154
1003.392384	1.003613
1003.686903	1.004702
1003.981386	1.003768
1004.275834	1.006357
1004.570246	1.003006
1004.864623	1.004836
1005.158964	1.005223
1005.453270	1.003778
1005.747540	1.003461
1006.041775	1.004024
1006.335974	1.004168
1006.630138	1.005652
1006.924266	1.003948
1007.218359	1.003686
1007.512416	1.006973
1007.806438	1.004217
1008.100425	1.005625
1008.394376	1.004773
1008.688292	1.004130
1008.982172	1.003271
1009.276017	1.005036
1009.569827	1.005978
1009.863602	1.003393
1010.157341	1.004834
1010.451045	1.004420
1010.744714	1.005969
1011.038347	1.006487
1011.331945	1.003954
1011.625508	1.003902
1011.919036	1.004703
1012.212528	1.005808
1012.505986	1.004371
1012.799408	1.005153
1013.092795	1.005489
1013.386147	1.005355
1013.679464	1.006529
1013.972745	1.004544
1014.265992	1.005084
1014.559204	1.004184
1014.852380	1.004880
1015.145521	1.004549
1015.438628	1.003472
1015.731699	1.004457
1016.024736	1.005786
1016.317737	1.003823
1016.610703	1.004614
1016.903635	1.004430
1017.196531	1.004320
1017.489393	1.004419
1017.782219	1.003957
1018.075011	1.002635
1018.367768	1.004318
1018.660490	1.004464
1018.953177	1.004464
1019.245829	1.004464
