Dividing Wavelength (nm)	Counts (n)	Blue Motor Position (mm): 8.800000	Red Motor Position (mm): 0.000000	
326.493990	1.004936
326.888308	1.004936
327.282561	1.004936
327.676750	1.005938
328.070874	1.006072
328.464933	1.005364
328.858929	1.006755
329.252859	1.004081
329.646726	1.004523
330.040528	1.004307
330.434265	1.004690
330.827938	1.004199
331.221547	1.005440
331.615091	1.006215
332.008571	1.005339
332.401986	1.004464
332.795338	1.003791
333.188625	1.006164
333.581847	1.004392
333.975006	1.005015
334.368100	1.005882
334.761129	1.003487
335.154095	1.004998
335.546996	1.003876
335.939833	0.998713
336.332606	0.998346
336.725315	0.997010
337.117960	0.999803
337.510540	0.998015
337.903056	1.000294
338.295508	0.999450
338.687896	0.999245
339.080220	0.999682
339.472480	1.000545
339.864676	0.999113
340.256807	0.999631
340.648875	0.998378
341.040879	0.998903
341.432818	0.998988
341.824694	0.998684
342.216506	1.000113
342.608253	0.998795
342.999937	0.997836
343.391557	0.998236
343.783113	0.999115
344.174605	0.998901
344.566033	0.997860
344.957397	1.000273
345.348697	1.000624
345.739934	0.999599
346.131106	0.999180
346.522215	0.998185
346.913260	0.998469
347.304241	0.997832
347.695159	0.999511
348.086012	0.999242
348.476802	0.999463
348.867528	0.997776
349.258191	0.998424
349.648789	0.998355
350.039324	0.998626
350.429796	0.997549
350.820203	0.996821
351.210548	0.999508
351.600828	0.998284
351.991045	0.999240
352.381198	0.997809
352.771288	0.997790
353.161314	0.998951
353.551276	0.997889
353.941175	0.997030
354.331010	0.998907
354.720782	0.998855
355.110490	0.997800
355.500135	0.999056
355.889717	0.996621
356.279235	0.996758
356.668689	0.998613
357.058080	0.998790
357.447408	0.997226
357.836672	0.999006
358.225873	0.998124
358.615010	0.998189
359.004084	0.996110
359.393095	0.998027
359.782043	0.995776
360.170927	0.997311
360.559748	0.997666
360.948505	0.996545
361.337199	0.996432
361.725830	0.997376
362.114398	0.996861
362.502903	0.996373
362.891344	0.996335
363.279722	0.996858
363.668037	0.997073
364.056289	0.996936
364.444478	0.997400
364.832603	0.997482
365.220665	0.996494
365.608665	0.996754
365.996601	0.997152
366.384474	0.995291
366.772284	0.995964
367.160031	0.993955
367.547715	0.994952
367.935336	0.994097
368.322893	0.993337
368.710388	0.991486
369.097820	0.991193
369.485189	0.986606
369.872495	0.986884
370.259738	0.984954
370.646918	0.981259
371.034035	0.979500
371.421090	0.975453
371.808081	0.971073
372.195010	0.969909
372.581875	0.964532
372.968678	0.960165
373.355418	0.956230
373.742096	0.948515
374.128710	0.944037
374.515262	0.939815
374.901751	0.933805
375.288177	0.928665
375.674540	0.921859
376.060841	0.915821
376.447079	0.908606
376.833254	0.902860
377.219367	0.897273
377.605417	0.887091
377.991404	0.882069
378.377329	0.877132
378.763191	0.870387
379.148991	0.861097
379.534727	0.852844
379.920402	0.844937
380.306013	0.841941
380.691563	0.828915
381.077049	0.821879
381.462474	0.818519
381.847835	0.806972
382.233134	0.801836
382.618371	0.802549
383.003545	0.784731
383.388657	0.782823
383.773706	0.775080
384.158693	0.771516
384.543618	0.766924
384.928480	0.758045
385.313280	0.747029
385.698017	0.746489
386.082692	0.736256
386.467305	0.733839
386.851856	0.728543
387.236344	0.722532
387.620770	0.717918
388.005133	0.711962
388.389435	0.706330
388.773674	0.703452
389.157851	0.695199
389.541965	0.693239
389.926018	0.699410
390.310008	0.685915
390.693936	0.684207
391.077802	0.675576
391.461606	0.677223
391.845348	0.666130
392.229027	0.665918
392.612645	0.663240
392.996200	0.651144
393.379694	0.643475
393.763125	0.633993
394.146494	0.638611
394.529801	0.629324
394.913047	0.621761
395.296230	0.627385
395.679351	0.618488
396.062410	0.615648
396.445408	0.617537
396.828343	0.613490
397.211217	0.607581
397.594028	0.620548
397.976778	0.611209
398.359466	0.607383
398.742092	0.602209
399.124656	0.614585
399.507158	0.602608
399.889598	0.600527
400.271977	0.590890
400.654294	0.595308
401.036549	0.594926
401.418742	0.598691
401.800874	0.584798
402.182944	0.581523
402.564952	0.572809
402.946898	0.575297
403.328783	0.574873
403.710606	0.587246
404.092367	0.561730
404.474067	0.566731
404.855705	0.565468
405.237282	0.575154
405.618797	0.560759
406.000250	0.556350
406.381642	0.546685
406.762972	0.551999
407.144240	0.550999
407.525447	0.549594
407.906593	0.543062
408.287677	0.538447
408.668700	0.546233
409.049661	0.541154
409.430560	0.535568
409.811399	0.544584
410.192176	0.525823
410.572891	0.533373
410.953545	0.521086
411.334138	0.534774
411.714669	0.527307
412.095139	0.540091
412.475547	0.523372
412.855894	0.525820
413.236180	0.524521
413.616405	0.530504
413.996568	0.520338
414.376670	0.526807
414.756711	0.531011
415.136691	0.528054
415.516609	0.519764
415.896466	0.516159
416.276262	0.512193
416.655997	0.514598
417.035670	0.495083
417.415283	0.486784
417.794834	0.491937
418.174324	0.497716
418.553753	0.506055
418.933121	0.488652
419.312428	0.482072
419.691674	0.487906
420.070859	0.476234
420.449983	0.484466
420.829045	0.473877
421.208047	0.482471
421.586988	0.476011
421.965867	0.474142
422.344686	0.463650
422.723444	0.476078
423.102141	0.493106
423.480777	0.465555
423.859352	0.485563
424.237866	0.463514
424.616319	0.464476
424.994712	0.455379
425.373044	0.465830
425.751314	0.453972
426.129524	0.470453
426.507673	0.453912
426.885762	0.447416
427.263789	0.453021
427.641756	0.462461
428.019662	0.452992
428.397508	0.451943
428.775292	0.456730
429.153016	0.448212
429.530679	0.454303
429.908282	0.447596
430.285824	0.457354
430.663305	0.436514
431.040726	0.457193
431.418086	0.457419
431.795385	0.448639
432.172624	0.448461
432.549802	0.448207
432.926920	0.447234
433.303977	0.446840
433.680974	0.443871
434.057910	0.442261
434.434786	0.441603
434.811601	0.444574
435.188355	0.427067
435.565050	0.436484
435.941683	0.437746
436.318257	0.421233
436.694770	0.422144
437.071222	0.420271
437.447614	0.424719
437.823946	0.431039
438.200218	0.420178
438.576429	0.430213
438.952580	0.423264
439.328670	0.420071
439.704700	0.425832
440.080670	0.427758
440.456580	0.408944
440.832429	0.417127
441.208218	0.428449
441.583947	0.417184
441.959616	0.416189
442.335224	0.421849
442.710773	0.412427
443.086261	0.411042
443.461689	0.424953
443.837057	0.414338
444.212365	0.404188
444.587612	0.411612
444.962800	0.401494
445.337927	0.402377
445.712995	0.428696
446.088002	0.390859
446.462949	0.401461
446.837837	0.406528
447.212664	0.394732
447.587431	0.386401
447.962139	0.356648
448.336786	0.316058
448.711374	0.326388
449.085901	0.370664
449.460369	0.374938
449.834776	0.378621
450.209124	0.357265
450.583412	0.350775
450.957640	0.343430
451.331808	0.354821
451.705917	0.378480
452.079965	0.382812
452.453954	0.370744
452.827883	0.377980
453.201752	0.372518
453.575562	0.383867
453.949311	0.372950
454.323001	0.378870
454.696632	0.374326
455.070202	0.366982
455.443713	0.358862
455.817164	0.353768
456.190556	0.349879
456.563888	0.346171
456.937160	0.343788
457.310373	0.361031
457.683526	0.359991
458.056619	0.365812
458.429653	0.365949
458.802628	0.369743
459.175542	0.364204
459.548398	0.346421
459.921194	0.339059
460.293930	0.339066
460.666607	0.316606
461.039224	0.304991
461.411782	0.300283
461.784280	0.299684
462.156719	0.303752
462.529099	0.308354
462.901419	0.324479
463.273680	0.328263
463.645882	0.328074
464.018024	0.334146
464.390106	0.326934
464.762130	0.311158
465.134094	0.294533
465.505999	0.263397
465.877845	0.233852
466.249631	0.220608
466.621358	0.227916
466.993026	0.242021
467.364634	0.248272
467.736184	0.256912
468.107674	0.265898
468.479105	0.264387
468.850477	0.271604
469.221790	0.278719
469.593043	0.288976
469.964238	0.293786
470.335373	0.292942
470.706449	0.291051
471.077467	0.291756
471.448425	0.253709
471.819324	0.229082
472.190164	0.228556
472.560945	0.257850
472.931667	0.280234
473.302330	0.284285
473.672934	0.296122
474.043479	0.284162
474.413965	0.286347
474.784393	0.289371
475.154761	0.284166
475.525070	0.281665
475.895321	0.287332
476.265513	0.281453
476.635645	0.277088
477.005719	0.276720
477.375734	0.273560
477.745691	0.266298
478.115588	0.263183
478.485427	0.256401
478.855207	0.243520
479.224928	0.225710
479.594591	0.213785
479.964194	0.217398
480.333739	0.218449
480.703226	0.219985
481.072653	0.218129
481.442022	0.213853
481.811333	0.210519
482.180584	0.213791
482.549777	0.219324
482.918912	0.222905
483.287988	0.222390
483.657005	0.222185
484.025964	0.228344
484.394864	0.225934
484.763706	0.226563
485.132489	0.231531
485.501213	0.232314
485.869879	0.230718
486.238487	0.233780
486.607036	0.231608
486.975527	0.236290
487.343959	0.232191
487.712333	0.231217
488.080648	0.232496
488.448905	0.231745
488.817104	0.233089
489.185244	0.227505
489.553326	0.224444
489.921350	0.214252
490.289315	0.196710
490.657222	0.191655
491.025070	0.193095
491.392861	0.194818
491.760593	0.200594
492.128267	0.206263
492.495883	0.211680
492.863440	0.218389
493.230939	0.224621
493.598380	0.225815
493.965763	0.228274
494.333088	0.230499
494.700354	0.232198
495.067563	0.230941
495.434713	0.234335
495.801805	0.232018
496.168839	0.233740
496.535815	0.234874
496.902733	0.234758
497.269593	0.236499
497.636395	0.234100
498.003139	0.234534
498.369825	0.237677
498.736453	0.234299
499.103023	0.235548
499.469535	0.235008
499.835989	0.235257
500.202385	0.236057
500.568723	0.239230
500.935003	0.234591
501.301226	0.238779
501.667390	0.233219
502.033497	0.231146
502.399546	0.233851
502.765537	0.236229
503.131470	0.234431
503.497345	0.231036
503.863163	0.239521
504.228923	0.232356
504.594625	0.230992
504.960269	0.236642
505.325856	0.232021
505.691385	0.236170
506.056856	0.233181
506.422270	0.232253
506.787625	0.234863
507.152924	0.232359
507.518164	0.232622
507.883347	0.234307
508.248472	0.236167
508.613540	0.231005
508.978550	0.233679
509.343503	0.234192
509.708398	0.231682
510.073236	0.229332
510.438016	0.228972
510.802738	0.230208
511.167403	0.229168
511.532010	0.231573
511.896561	0.226617
512.261053	0.225153
512.625488	0.227481
512.989866	0.227630
513.354186	0.228052
513.718449	0.229822
514.082655	0.226161
514.446803	0.228440
514.810894	0.226002
515.174927	0.228835
515.538904	0.228021
515.902822	0.225261
516.266684	0.227530
516.630488	0.228847
516.994235	0.227611
517.357925	0.226292
517.721558	0.224709
518.085133	0.224041
518.448651	0.224199
518.812112	0.226287
519.175516	0.226040
519.538863	0.223826
519.902152	0.225346
520.265385	0.222378
520.628560	0.223619
520.991678	0.224523
521.354739	0.223231
521.717743	0.224233
522.080690	0.224748
522.443580	0.222396
522.806413	0.223099
523.169189	0.222433
523.531908	0.221281
523.894569	0.224864
524.257174	0.224730
524.619722	0.222353
524.982213	0.223588
525.344647	0.222435
525.707025	0.223291
526.069345	0.221272
526.431608	0.223382
526.793815	0.221039
527.155964	0.225305
527.518057	0.224551
527.880093	0.225489
528.242072	0.224001
528.603995	0.225859
528.965860	0.227535
529.327669	0.226181
529.689421	0.227178
530.051117	0.227913
530.412755	0.226036
530.774337	0.228230
531.135862	0.228852
531.497331	0.227894
531.858743	0.230880
532.220098	0.227743
532.581396	0.230266
532.942638	0.230526
533.303824	0.231511
533.664953	0.231232
534.026025	0.233080
534.387040	0.231043
534.747999	0.230773
535.108902	0.229685
535.469748	0.235033
535.830537	0.232723
536.191270	0.233103
536.551947	0.232663
536.912567	0.232808
537.273131	0.234405
537.633638	0.234956
537.994089	0.234994
538.354483	0.236145
538.714821	0.233193
539.075103	0.232997
539.435328	0.233405
539.795497	0.237508
540.155609	0.234310
540.515665	0.232413
540.875665	0.237875
541.235609	0.236396
541.595496	0.236509
541.955328	0.233065
542.315102	0.235853
542.674821	0.236805
543.034483	0.237036
543.394090	0.236512
543.753640	0.238334
544.113134	0.233397
544.472571	0.236830
544.831953	0.233907
545.191278	0.237811
545.550548	0.237257
545.909761	0.234207
546.268918	0.235004
546.628019	0.233308
546.987064	0.235938
547.346053	0.237510
547.704986	0.235547
548.063863	0.235970
548.422684	0.235895
548.781449	0.237788
549.140158	0.235692
549.498811	0.238145
549.857408	0.241517
550.215949	0.235973
550.574434	0.239326
550.932864	0.237444
551.291237	0.235726
551.649555	0.237613
552.007817	0.237188
552.366022	0.238031
552.724173	0.238340
553.082267	0.238230
553.440305	0.235211
553.798288	0.239954
554.156215	0.236478
554.514086	0.237123
554.871902	0.240467
555.229661	0.239438
555.587365	0.240180
555.945014	0.242539
556.302606	0.239695
556.660143	0.242080
557.017625	0.238843
557.375050	0.240886
557.732421	0.237652
558.089735	0.239779
558.446994	0.239860
558.804197	0.238982
559.161345	0.238954
559.518437	0.242388
559.875474	0.240041
560.232455	0.239914
560.589381	0.240780
560.946251	0.241146
561.303065	0.238456
561.659825	0.239980
562.016528	0.241442
562.373177	0.244077
562.729770	0.241696
563.086307	0.243397
563.442789	0.241380
563.799216	0.244212
564.155587	0.243232
564.511904	0.244207
564.868164	0.244405
565.224370	0.243786
565.580520	0.245809
565.936615	0.245736
566.292654	0.248852
566.648638	0.245623
567.004567	0.246566
567.360441	0.247083
567.716260	0.248986
568.072023	0.246822
568.427732	0.247568
568.783385	0.249839
569.138982	0.248355
569.494525	0.248176
569.850013	0.250799
570.205445	0.249284
570.560823	0.251907
570.916145	0.253791
571.271412	0.251958
571.626625	0.253566
571.981782	0.253932
572.336884	0.254579
572.691931	0.254395
573.046923	0.256041
573.401860	0.256725
573.756743	0.258745
574.111570	0.257472
574.466342	0.258168
574.821059	0.256931
575.175722	0.259886
575.530330	0.259681
575.884882	0.260046
576.239380	0.261790
576.593823	0.262528
576.948211	0.261738
577.302544	0.264902
577.656823	0.264899
578.011047	0.264836
578.365216	0.265575
578.719330	0.267539
579.073389	0.266921
579.427394	0.268369
579.781344	0.269468
580.135239	0.270877
580.489080	0.270764
580.842866	0.273704
581.196597	0.273657
581.550273	0.271903
581.903895	0.273216
582.257463	0.271241
582.610975	0.274437
582.964434	0.273831
583.317837	0.276301
583.671186	0.276887
584.024481	0.276862
584.377721	0.278948
584.730906	0.280127
585.084037	0.279299
585.437113	0.281170
585.790135	0.280484
586.143103	0.283626
586.496016	0.284244
586.848874	0.282268
587.201679	0.282658
587.554428	0.285863
587.907124	0.285147
588.259765	0.285568
588.612352	0.286037
588.964884	0.290000
589.317362	0.289448
589.669786	0.289236
590.022155	0.287683
590.374470	0.286974
590.726731	0.289268
591.078937	0.294193
591.431090	0.290173
591.783188	0.294584
592.135232	0.295107
592.487222	0.295203
592.839157	0.293539
593.191038	0.295156
593.542866	0.297299
593.894639	0.300883
594.246358	0.299024
594.598022	0.298435
594.949633	0.302147
595.301190	0.302427
595.652692	0.301678
596.004141	0.297929
596.355535	0.306042
596.706876	0.306581
597.058162	0.308799
597.409395	0.306165
597.760573	0.303915
598.111698	0.307498
598.462768	0.307779
598.813785	0.309082
599.164748	0.309899
599.515657	0.310224
599.866511	0.314662
600.217312	0.309732
600.568060	0.314721
600.918753	0.311104
601.269392	0.311841
601.619978	0.315603
601.970510	0.313021
602.320988	0.312984
602.671412	0.310975
603.021783	0.313311
603.372100	0.314505
603.722363	0.314237
604.072572	0.315121
604.422728	0.314645
604.772830	0.316937
605.122878	0.316883
605.472872	0.317313
605.822813	0.315733
606.172701	0.318234
606.522534	0.315731
606.872314	0.315570
607.222041	0.316769
607.571714	0.314625
607.921333	0.316311
608.270899	0.315746
608.620411	0.312709
608.969870	0.316717
609.319276	0.317047
609.668627	0.316552
610.017926	0.315254
610.367171	0.313616
610.716362	0.314627
611.065500	0.314520
611.414585	0.313639
611.763616	0.313782
612.112594	0.314758
612.461518	0.313610
612.810389	0.311372
613.159207	0.313754
613.507971	0.315689
613.856682	0.311220
614.205340	0.312923
614.553945	0.309742
614.902496	0.313711
615.250994	0.312077
615.599439	0.312614
615.947830	0.311918
616.296169	0.312639
616.644454	0.312205
616.992686	0.312255
617.340864	0.310063
617.688990	0.313703
618.037063	0.310632
618.385082	0.312046
618.733048	0.309354
619.080961	0.311638
619.428821	0.311297
619.776628	0.310703
620.124382	0.313135
620.472083	0.313527
620.819731	0.312688
621.167326	0.316610
621.514868	0.316423
621.862357	0.320373
622.209793	0.319701
622.557176	0.322577
622.904506	0.323674
623.251783	0.325814
623.599007	0.328139
623.946179	0.327153
624.293297	0.329607
624.640363	0.333668
624.987376	0.334174
625.334336	0.336514
625.681243	0.338855
626.028097	0.339204
626.374899	0.340488
626.721647	0.340777
627.068343	0.343832
627.414987	0.345136
627.761577	0.347023
628.108115	0.345517
628.454600	0.351072
628.801032	0.348211
629.147412	0.349973
629.493739	0.350961
629.840014	0.354060
630.186236	0.351056
630.532405	0.356683
630.878521	0.354128
631.224585	0.356618
631.570597	0.360291
631.916556	0.358836
632.262462	0.357989
632.608316	0.360762
632.954117	0.361722
633.299866	0.362458
633.645562	0.363011
633.991206	0.367406
634.336797	0.370068
634.682336	0.372692
635.027823	0.374363
635.373257	0.375035
635.718639	0.379133
636.063968	0.377886
636.409245	0.383361
636.754470	0.384193
637.099642	0.386310
637.444762	0.389933
637.789829	0.388887
638.134845	0.392989
638.479808	0.393842
638.824719	0.393615
639.169577	0.398045
639.514383	0.396793
639.859137	0.401376
640.203839	0.400882
640.548489	0.400981
640.893086	0.402820
641.237632	0.404285
641.582125	0.403252
641.926566	0.404966
642.270955	0.404935
642.615292	0.404805
642.959576	0.404338
643.303809	0.405068
643.647990	0.404586
643.992118	0.405211
644.336195	0.408549
644.680219	0.406894
645.024192	0.407860
645.368112	0.401567
645.711981	0.400644
646.055797	0.396224
646.399562	0.398690
646.743274	0.391588
647.086935	0.388494
647.430544	0.388953
647.774101	0.387737
648.117606	0.388201
648.461059	0.388280
648.804460	0.390699
649.147810	0.396075
649.491108	0.397556
649.834354	0.399161
650.177548	0.404214
650.520690	0.409760
650.863781	0.411432
651.206820	0.410504
651.549807	0.415759
651.892742	0.419775
652.235626	0.419136
652.578458	0.420623
652.921238	0.426832
653.263967	0.424037
653.606644	0.427899
653.949269	0.428522
654.291843	0.432060
654.634365	0.429740
654.976836	0.432571
655.319255	0.433156
655.661622	0.434850
656.003938	0.435052
656.346203	0.437782
656.688416	0.436147
657.030577	0.439352
657.372687	0.441766
657.714746	0.443117
658.056753	0.439667
658.398708	0.443672
658.740612	0.444938
659.082465	0.441798
659.424266	0.442077
659.766016	0.442135
660.107715	0.445247
660.449362	0.444163
660.790958	0.444380
661.132503	0.445998
661.473996	0.443554
661.815438	0.445075
662.156829	0.445292
662.498168	0.446370
662.839456	0.448099
663.180693	0.445866
663.521879	0.446035
663.863013	0.446993
664.204097	0.445885
664.545129	0.442824
664.886110	0.444040
665.227040	0.441800
665.567918	0.444220
665.908746	0.442948
666.249522	0.442582
666.590248	0.443856
666.930922	0.442111
667.271545	0.442053
667.612118	0.441980
667.952639	0.443894
668.293109	0.443168
668.633528	0.446249
668.973896	0.445978
669.314213	0.446549
669.654480	0.449047
669.994695	0.448810
670.334859	0.449834
670.674973	0.450878
671.015035	0.451085
671.355047	0.451502
671.695008	0.453343
672.034918	0.454797
672.374777	0.454922
672.714585	0.456450
673.054342	0.456553
673.394049	0.457142
673.733705	0.455788
674.073310	0.456901
674.412864	0.459347
674.752368	0.461327
675.091820	0.461679
675.431223	0.465960
675.770574	0.465953
676.109875	0.469894
676.449125	0.469518
676.788324	0.472559
677.127473	0.478220
677.466571	0.478226
677.805619	0.480408
678.144616	0.482173
678.483562	0.483922
678.822458	0.486650
679.161303	0.487344
679.500098	0.488683
679.838842	0.490450
680.177535	0.490434
680.516179	0.489204
680.854771	0.489100
681.193314	0.483594
681.531805	0.475080
681.870247	0.466152
682.208638	0.459689
682.546978	0.458394
682.885268	0.460156
683.223508	0.467635
683.561697	0.471500
683.899836	0.474090
684.237925	0.477521
684.575963	0.481260
684.913951	0.484571
685.251889	0.481506
685.589776	0.483390
685.927614	0.486007
686.265401	0.481986
686.603137	0.483648
686.940824	0.479231
687.278460	0.478205
687.616046	0.479000
687.953582	0.474286
688.291068	0.476609
688.628504	0.473769
688.965889	0.475814
689.303224	0.479560
689.640510	0.484034
689.977745	0.489754
690.314930	0.497405
690.652065	0.501546
690.989150	0.508273
691.326185	0.515499
691.663170	0.520410
692.000105	0.527523
692.336990	0.533678
692.673825	0.536555
693.010610	0.542953
693.347345	0.547601
693.684030	0.551436
694.020665	0.554883
694.357251	0.563068
694.693786	0.563849
695.030272	0.567365
695.366707	0.571804
695.703093	0.575024
696.039429	0.574106
696.375716	0.577196
696.711952	0.579128
697.048139	0.581353
697.384276	0.583545
697.720363	0.583686
698.056400	0.583371
698.392388	0.588778
698.728326	0.590784
699.064214	0.593245
699.400053	0.595264
699.735842	0.600695
700.071581	0.602280
700.407270	0.605511
700.742910	0.608486
701.078501	0.613498
701.414042	0.616457
701.749533	0.618785
702.084974	0.626352
702.420366	0.620708
702.755709	0.627348
703.091002	0.635225
703.426246	0.631303
703.761440	0.633702
704.096584	0.638381
704.431679	0.637558
704.766725	0.640235
705.101721	0.643285
705.436668	0.640325
705.771565	0.644799
706.106413	0.641678
706.441212	0.640817
706.775961	0.640968
707.110661	0.641432
707.445311	0.638474
707.779913	0.639318
708.114465	0.638521
708.448967	0.634053
708.783421	0.628654
709.117825	0.625491
709.452180	0.625528
709.786485	0.620571
710.120742	0.613214
710.454949	0.614023
710.789107	0.608756
711.123216	0.601104
711.457275	0.602647
711.791286	0.597854
712.125247	0.598761
712.459159	0.604248
712.793023	0.596484
713.126837	0.606673
713.460602	0.606970
713.794318	0.610846
714.127985	0.612584
714.461602	0.623318
714.795171	0.623812
715.128691	0.631274
715.462162	0.639389
715.795584	0.645197
716.128957	0.648349
716.462281	0.652289
716.795556	0.655423
717.128782	0.662834
717.461960	0.670603
717.795088	0.670021
718.128167	0.676299
718.461198	0.680786
718.794180	0.682248
719.127113	0.686859
719.459997	0.690864
719.792833	0.694455
720.125619	0.695265
720.458357	0.701758
720.791046	0.703839
721.123686	0.705865
721.456278	0.710782
721.788821	0.710238
722.121315	0.714185
722.453761	0.716413
722.786158	0.717584
723.118506	0.714688
723.450805	0.718450
723.783056	0.716416
724.115259	0.717508
724.447412	0.717910
724.779518	0.716835
725.111574	0.717319
725.443582	0.714146
725.775542	0.716420
726.107453	0.711747
726.439315	0.712573
726.771129	0.709648
727.102895	0.704276
727.434612	0.701820
727.766281	0.699594
728.097901	0.697446
728.429473	0.698567
728.760996	0.698191
729.092471	0.697346
729.423897	0.702390
729.755276	0.703283
730.086606	0.701867
730.417887	0.696559
730.749120	0.690727
731.080305	0.687162
731.411442	0.683781
731.742530	0.685041
732.073570	0.685290
732.404562	0.681352
732.735506	0.683365
733.066401	0.686941
733.397249	0.693605
733.728048	0.703146
734.058798	0.716450
734.389501	0.725064
734.720156	0.730108
735.050762	0.737933
735.381320	0.741599
735.711831	0.745639
736.042293	0.749539
736.372707	0.750207
736.703073	0.751647
737.033391	0.752288
737.363661	0.751187
737.693883	0.749555
738.024056	0.747991
738.354182	0.747323
738.684260	0.741424
739.014290	0.738733
739.344272	0.738370
739.674207	0.734518
740.004093	0.734095
740.333931	0.733876
740.663722	0.736706
740.993464	0.738132
741.323159	0.738829
741.652806	0.744214
741.982405	0.749029
742.311956	0.754081
742.641460	0.755045
742.970915	0.758811
743.300323	0.763601
743.629683	0.768062
743.958996	0.771852
744.288260	0.774911
744.617477	0.780349
744.946647	0.781011
745.275768	0.786690
745.604842	0.787826
745.933869	0.793061
746.262847	0.794479
746.591778	0.791832
746.920662	0.796189
747.249498	0.799824
747.578286	0.796688
747.907027	0.792963
748.235720	0.790455
748.564365	0.789833
748.892963	0.791876
749.221514	0.793322
749.550017	0.794541
749.878473	0.796905
750.206881	0.802795
750.535242	0.802971
750.863555	0.802202
751.191821	0.804248
751.520039	0.805166
751.848210	0.806628
752.176334	0.806000
752.504411	0.806566
752.832440	0.810673
753.160421	0.812307
753.488356	0.812681
753.816243	0.814141
754.144082	0.816852
754.471875	0.819044
754.799620	0.818988
755.127318	0.817583
755.454969	0.819071
755.782572	0.820368
756.110129	0.820633
756.437638	0.823394
756.765100	0.822799
757.092515	0.822226
757.419882	0.821840
757.747203	0.824364
758.074477	0.824169
758.401703	0.822849
758.728882	0.820661
759.056014	0.820763
759.383099	0.819204
759.710138	0.817907
760.037129	0.815606
760.364073	0.814706
760.690970	0.817032
761.017820	0.817365
761.344623	0.816860
761.671379	0.812208
761.998088	0.806077
762.324751	0.790150
762.651366	0.759164
762.977935	0.709532
763.304456	0.676862
763.630931	0.675273
763.957359	0.701170
764.283740	0.732743
764.610074	0.754504
764.936362	0.777535
765.262602	0.793520
765.588796	0.808049
765.914943	0.820113
766.241044	0.830411
766.567097	0.836470
766.893104	0.842993
767.219064	0.846082
767.544978	0.851516
767.870845	0.859363
768.196665	0.861564
768.522438	0.863234
768.848165	0.865443
769.173846	0.868863
769.499479	0.872662
769.825066	0.874645
770.150607	0.878822
770.476101	0.877085
770.801548	0.879826
771.126949	0.883639
771.452303	0.886024
771.777611	0.887682
772.102872	0.887342
772.428087	0.891167
772.753256	0.894000
773.078378	0.896126
773.403453	0.899194
773.728482	0.902521
774.053465	0.900443
774.378401	0.902483
774.703291	0.907189
775.028135	0.907461
775.352932	0.906926
775.677683	0.910465
776.002388	0.911575
776.327046	0.911048
776.651658	0.914646
776.976224	0.916354
777.300743	0.916349
777.625216	0.916484
777.949643	0.918236
778.274024	0.917256
778.598359	0.919483
778.922647	0.919159
779.246889	0.921038
779.571086	0.920986
779.895236	0.923009
780.219339	0.921918
780.543397	0.919822
780.867409	0.921359
781.191374	0.920266
781.515294	0.922244
781.839167	0.922122
782.162995	0.922434
782.486776	0.921318
782.810511	0.922967
783.134201	0.925763
783.457844	0.925936
783.781441	0.926048
784.104993	0.927174
784.428498	0.929045
784.751958	0.928967
785.075372	0.929484
785.398739	0.930458
785.722061	0.928818
786.045337	0.928593
786.368568	0.927712
786.691752	0.930378
787.014891	0.924599
787.337983	0.917957
787.661030	0.910696
787.984031	0.900926
788.306987	0.895957
788.629897	0.893591
788.952760	0.898471
789.275579	0.904524
789.598351	0.912361
789.921078	0.919019
790.243759	0.921891
790.566395	0.926051
790.888984	0.930115
791.211529	0.931403
791.534027	0.933812
791.856480	0.935651
792.178888	0.938582
792.501249	0.938699
792.823566	0.941962
793.145836	0.941053
793.468062	0.942747
793.790241	0.942712
794.112375	0.940247
794.434464	0.939732
794.756507	0.937909
795.078505	0.936676
795.400457	0.934406
795.722364	0.928252
796.044226	0.923041
796.366042	0.921409
796.687812	0.923365
797.009538	0.922363
797.331218	0.926651
797.652852	0.929994
797.974442	0.931131
798.295986	0.932339
798.617484	0.933250
798.938938	0.937261
799.260346	0.937830
799.581709	0.939170
799.903026	0.942543
800.224299	0.941664
800.545526	0.943012
800.866708	0.945082
801.187845	0.946584
801.508936	0.947590
801.829983	0.947592
802.150984	0.949402
802.471940	0.950864
802.792851	0.949958
803.113717	0.952986
803.434538	0.952164
803.755314	0.953038
804.076045	0.952407
804.396731	0.952364
804.717372	0.950973
805.037967	0.954175
805.358518	0.952429
805.679024	0.950401
805.999485	0.951315
806.319901	0.950444
806.640272	0.951121
806.960598	0.951014
807.280879	0.950013
807.601115	0.949572
807.921306	0.952351
808.241453	0.951431
808.561554	0.951260
808.881611	0.950606
809.201623	0.951527
809.521590	0.951873
809.841513	0.952799
810.161390	0.952866
810.481223	0.953808
810.801011	0.955564
811.120755	0.956044
811.440453	0.956073
811.760107	0.957710
812.079716	0.957352
812.399281	0.958192
812.718801	0.958327
813.038276	0.959451
813.357707	0.960263
813.677093	0.960333
813.996434	0.961923
814.315731	0.962095
814.634983	0.962265
814.954191	0.961868
815.273354	0.960007
815.592473	0.960031
815.911547	0.958975
816.230577	0.957549
816.549562	0.955966
816.868502	0.956443
817.187399	0.955657
817.506250	0.955295
817.825058	0.953241
818.143821	0.952872
818.462539	0.950752
818.781213	0.947363
819.099843	0.942697
819.418429	0.933372
819.736970	0.924807
820.055466	0.915248
820.373919	0.906300
820.692327	0.893263
821.010691	0.875178
821.329011	0.826723
821.647286	0.747999
821.965517	0.672507
822.283704	0.643891
822.601847	0.648979
822.919945	0.682321
823.237999	0.720435
823.556010	0.754934
823.873976	0.787570
824.191897	0.815657
824.509775	0.839265
824.827609	0.859504
825.145398	0.870943
825.463144	0.871808
825.780845	0.864552
826.098502	0.854514
826.416116	0.828017
826.733685	0.801606
827.051210	0.796261
827.368692	0.809855
827.686129	0.835625
828.003522	0.863062
828.320872	0.884445
828.638177	0.903605
828.955439	0.918830
829.272656	0.928819
829.589830	0.936536
829.906960	0.943490
830.224046	0.948570
830.541088	0.952365
830.858086	0.955099
831.175041	0.958439
831.491952	0.958208
831.808819	0.957331
832.125642	0.954808
832.442421	0.949994
832.759157	0.938652
833.075849	0.915111
833.392497	0.888375
833.709101	0.870656
834.025662	0.874734
834.342179	0.890480
834.658653	0.910075
834.975083	0.925963
835.291469	0.938353
835.607811	0.947657
835.924110	0.953972
836.240366	0.961471
836.556578	0.965056
836.872746	0.968441
837.188871	0.970671
837.504952	0.972244
837.820990	0.975105
838.136984	0.975744
838.452935	0.976396
838.768842	0.977018
839.084706	0.974186
839.400526	0.963770
839.716303	0.944366
840.032037	0.935528
840.347727	0.937832
840.663373	0.947720
840.978977	0.957788
841.294537	0.967988
841.610054	0.973417
841.925527	0.976289
842.240957	0.978864
842.556344	0.980870
842.871687	0.983342
843.186987	0.984260
843.502244	0.985768
843.817458	0.985771
844.132629	0.987104
844.447756	0.988235
844.762840	0.988189
845.077881	0.989821
845.392879	0.988589
845.707833	0.989419
846.022745	0.989250
846.337613	0.990625
846.652438	0.990610
846.967221	0.990337
847.281960	0.991188
847.596656	0.991705
847.911309	0.990885
848.225919	0.990113
848.540485	0.991885
848.855009	0.992295
849.169490	0.992303
849.483928	0.991029
849.798323	0.989856
850.112675	0.992946
850.426984	0.993425
850.741251	0.992656
851.055474	0.992541
851.369654	0.993558
851.683792	0.991513
851.997887	0.992763
852.311938	0.992856
852.625947	0.991783
852.939914	0.991302
853.253837	0.992556
853.567718	0.993265
853.881555	0.993291
854.195350	0.992115
854.509103	0.992225
854.822812	0.992887
855.136479	0.993591
855.450103	0.991873
855.763685	0.992634
856.077224	0.992512
856.390720	0.992614
856.704173	0.993647
857.017584	0.992940
857.330953	0.992643
857.644278	0.991340
857.957561	0.991141
858.270802	0.992339
858.584000	0.992108
858.897155	0.991377
859.210268	0.991427
859.523339	0.993076
859.836367	0.993162
860.149352	0.992589
860.462295	0.992740
860.775195	0.993528
861.088054	0.991759
861.400869	0.992747
861.713642	0.992685
862.026373	0.992786
862.339062	0.993348
862.651708	0.992419
862.964312	0.992608
863.276873	0.991416
863.589392	0.990868
863.901869	0.990186
864.214303	0.990446
864.526696	0.990415
864.839045	0.991046
865.151353	0.991086
865.463619	0.989929
865.775842	0.991434
866.088023	0.990961
866.400162	0.990835
866.712258	0.990891
867.024313	0.991309
867.336325	0.992641
867.648296	0.991824
867.960224	0.990893
868.272110	0.991357
868.583954	0.991121
868.895755	0.991628
869.207515	0.991642
869.519233	0.991861
869.830909	0.990225
870.142542	0.990817
870.454134	0.990526
870.765684	0.990714
871.077191	0.990430
871.388657	0.990742
871.700081	0.989653
872.011463	0.990186
872.322803	0.988583
872.634101	0.988193
872.945357	0.988263
873.256571	0.988101
873.567744	0.988462
873.878874	0.988346
874.189963	0.986670
874.501010	0.989397
874.812015	0.986933
875.122979	0.987758
875.433900	0.987277
875.744780	0.988803
876.055618	0.986382
876.366415	0.987279
876.677169	0.987504
876.987882	0.986851
877.298554	0.987815
877.609183	0.986746
877.919771	0.987995
878.230317	0.986812
878.540822	0.984284
878.851285	0.983298
879.161707	0.982324
879.472087	0.979767
879.782425	0.971858
880.092722	0.962162
880.402977	0.941259
880.713191	0.910443
881.023363	0.872959
881.333494	0.852422
881.643583	0.847302
881.953631	0.853662
882.263637	0.868516
882.573602	0.886540
882.883526	0.901065
883.193408	0.914812
883.503248	0.925425
883.813048	0.934147
884.122806	0.945528
884.432522	0.953711
884.742197	0.961677
885.051831	0.965600
885.361424	0.969825
885.670975	0.974223
885.980485	0.976314
886.289954	0.977650
886.599382	0.978910
886.908768	0.981442
887.218113	0.982428
887.527417	0.984598
887.836680	0.986025
888.145901	0.986652
888.455082	0.987475
888.764221	0.989265
889.073319	0.988263
889.382376	0.990429
889.691392	0.988434
890.000366	0.989259
890.309300	0.989349
890.618193	0.989144
890.927044	0.988975
891.235855	0.988410
891.544625	0.988718
891.853353	0.988967
892.162041	0.987122
892.470687	0.986542
892.779293	0.984667
893.087858	0.981770
893.396381	0.979684
893.704864	0.974365
894.013306	0.967673
894.321707	0.958928
894.630068	0.950983
894.938387	0.949051
895.246665	0.952665
895.554903	0.956833
895.863100	0.963834
896.171256	0.967362
896.479371	0.973066
896.787446	0.976440
897.095480	0.979676
897.403473	0.982139
897.711425	0.982654
898.019336	0.985022
898.327207	0.986280
898.635038	0.984971
898.942827	0.987339
899.250576	0.987496
899.558284	0.988741
899.865952	0.988369
900.173579	0.990257
900.481165	0.989669
900.788711	0.989852
901.096216	0.991188
901.403681	0.993050
901.711105	0.991462
902.018489	0.992084
902.325832	0.990686
902.633135	0.989820
902.940397	0.990217
903.247619	0.986220
903.554800	0.977689
903.861941	0.962787
904.169041	0.948466
904.476101	0.943053
904.783121	0.943087
905.090100	0.949682
905.397039	0.958988
905.703938	0.965787
906.010796	0.973186
906.317614	0.977995
906.624391	0.982733
906.931129	0.986219
907.237826	0.987385
907.544483	0.989995
907.851099	0.991200
908.157675	0.991197
908.464211	0.994016
908.770707	0.992816
909.077163	0.994334
909.383578	0.995538
909.689954	0.994472
909.996289	0.995445
910.302584	0.995491
910.608839	0.995788
910.915054	0.994846
911.221229	0.995769
911.527363	0.994468
911.833458	0.995882
912.139513	0.994561
912.445527	0.996605
912.751502	0.994733
913.057436	0.993765
913.363331	0.994127
913.669186	0.993363
913.975000	0.990699
914.280775	0.989227
914.586510	0.985761
914.892205	0.981364
915.197859	0.974606
915.503475	0.966393
915.809050	0.958174
916.114585	0.955327
916.420081	0.953877
916.725536	0.955045
917.030952	0.958167
917.336328	0.963180
917.641665	0.967055
917.946961	0.971225
918.252218	0.975167
918.557435	0.978989
918.862612	0.981815
919.167750	0.983974
919.472848	0.986439
919.777906	0.988795
920.082925	0.989568
920.387904	0.991000
920.692843	0.990483
920.997743	0.990544
921.302603	0.992260
921.607423	0.992227
921.912204	0.993175
922.216946	0.995781
922.521647	0.995026
922.826310	0.995116
923.130932	0.995349
923.435516	0.996272
923.740059	0.996029
924.044564	0.995343
924.349028	0.996491
924.653454	0.997769
924.957840	0.996477
925.262186	0.997195
925.566493	0.998000
925.870761	0.997495
926.174989	0.998326
926.479178	0.999199
926.783328	0.998878
927.087438	0.999446
927.391509	0.997475
927.695541	0.998371
927.999533	0.999081
928.303486	0.999623
928.607400	0.998898
928.911275	0.999476
929.215110	1.001211
929.518906	1.000456
929.822663	0.999924
930.126381	1.000677
930.430060	0.999601
930.733699	1.000464
931.037299	0.999844
931.340861	1.000174
931.644383	0.997996
931.947866	0.999755
932.251309	0.999470
932.554714	0.999355
932.858080	0.999203
933.161407	0.998920
933.464694	0.999224
933.767943	0.999788
934.071153	0.999305
934.374323	1.000651
934.677455	0.999763
934.980548	0.999289
935.283602	0.999974
935.586617	0.999159
935.889593	1.000711
936.192530	0.999571
936.495428	0.999214
936.798287	0.999601
937.101108	0.999119
937.403890	0.998898
937.706632	0.999990
938.009336	0.998568
938.312002	0.996888
938.614628	0.997514
938.917216	0.997922
939.219765	0.996504
939.522275	0.996463
939.824747	0.997215
940.127179	0.997510
940.429573	0.999787
940.731929	0.996384
941.034246	0.997836
941.336524	0.997473
941.638763	0.997670
941.940964	0.997881
942.243126	0.997615
942.545250	1.000688
942.847335	0.998446
943.149381	0.999110
943.451389	0.998268
943.753359	0.998181
944.055290	1.000007
944.357182	0.999751
944.659036	1.000357
944.960851	0.999666
945.262628	0.999323
945.564367	0.998671
945.866067	0.999434
946.167729	0.999781
946.469352	0.999328
946.770937	0.997614
947.072484	1.000390
947.373992	0.999557
947.675462	0.998292
947.976893	0.999819
948.278286	1.000451
948.579641	1.001113
948.880958	0.999885
949.182236	1.000385
949.483476	0.999960
949.784678	1.000000
950.085841	0.999148
950.386967	0.999541
950.688054	0.999507
950.989103	0.998957
951.290114	0.999591
951.591087	0.999166
951.892021	0.998853
952.192917	0.999766
952.493776	0.999390
952.794596	0.999988
953.095378	0.998509
953.396122	0.999039
953.696828	1.000227
953.997496	0.999400
954.298126	1.001488
954.598718	0.999768
954.899272	1.000925
955.199788	0.999473
955.500266	1.000282
955.800706	0.999782
956.101108	0.999372
956.401472	1.001651
956.701798	1.000259
957.002087	0.999945
957.302337	1.000181
957.602550	1.001790
957.902724	1.000129
958.202861	1.001087
958.502960	0.999936
958.803022	1.002465
959.103045	1.002130
959.403031	1.002925
959.702979	1.001632
960.002889	1.001055
960.302762	1.001159
960.602596	1.001889
960.902393	1.001976
961.202153	1.002143
961.501875	1.001535
961.801559	1.001625
962.101205	1.000556
962.400814	1.002264
962.700385	1.001886
962.999918	1.001299
963.299414	1.000598
963.598873	1.002543
963.898293	1.002088
964.197677	1.001533
964.497022	1.001240
964.796331	1.002171
965.095601	1.002490
965.394835	1.002841
965.694030	1.002466
965.993189	1.001620
966.292309	1.002675
966.591393	1.001341
966.890439	1.002810
967.189447	1.001888
967.488419	1.001491
967.787353	1.002051
968.086249	1.001448
968.385108	1.001677
968.683930	1.002776
968.982714	1.002504
969.281462	1.002416
969.580172	1.002523
969.878844	1.001925
970.177480	1.002068
970.476078	1.002693
970.774639	1.002728
971.073162	1.002040
971.371649	1.001445
971.670098	1.003472
971.968510	1.002298
972.266885	1.001941
972.565223	1.002306
972.863524	1.001350
973.161788	1.002232
973.460014	1.002968
973.758204	1.001824
974.056356	1.002328
974.354471	1.001638
974.652550	1.002663
974.950591	1.000937
975.248595	1.001499
975.546563	1.003627
975.844493	1.002816
976.142386	1.002309
976.440243	1.002774
976.738062	1.002659
977.035845	1.002167
977.333590	1.004030
977.631299	1.002364
977.928971	1.002180
978.226606	1.001762
978.524204	1.001465
978.821765	1.002562
979.119290	1.003052
979.416777	1.003893
979.714228	1.002070
980.011642	1.002681
980.309020	1.001701
980.606360	1.001968
980.903664	1.001819
981.200931	1.001698
981.498162	1.002157
981.795356	1.001786
982.092513	1.002021
982.389633	1.002276
982.686717	0.999882
982.983764	0.999882
983.280775	1.001425
983.577749	1.000654
983.874686	1.000462
984.171587	1.000832
984.468451	1.000673
984.765279	1.002558
985.062070	1.003010
985.358824	1.001484
985.655543	1.001729
985.952224	1.002259
986.248869	1.001628
986.545478	1.003424
986.842050	1.002600
987.138586	1.002028
987.435086	1.000932
987.731549	1.003674
988.027975	1.004226
988.324366	1.002109
988.620719	1.003562
988.917037	1.002064
989.213318	1.004100
989.509563	1.003233
989.805772	1.003302
990.101944	1.003452
990.398080	1.003988
990.694180	1.004202
990.990244	1.002367
991.286271	1.003671
991.582262	1.004054
991.878217	1.002648
992.174136	1.003976
992.470019	1.004077
992.765865	1.003251
993.061676	1.003907
993.357450	1.003408
993.653188	1.003712
993.948890	1.002004
994.244556	1.000856
994.540186	1.003348
994.835780	1.002647
995.131337	1.004004
995.426859	1.003456
995.722345	1.003540
996.017795	1.002504
996.313208	1.001632
996.608586	1.002134
996.903928	1.002351
997.199234	1.001674
997.494504	1.003304
997.789738	1.000936
998.084936	1.004037
998.380099	1.001810
998.675225	1.003213
998.970316	1.002257
999.265371	1.003239
999.560390	1.002105
999.855373	1.002636
1000.150320	1.003013
1000.445232	1.003945
1000.740108	1.003175
1001.034948	1.001584
1001.329752	1.003339
1001.624521	1.002986
1001.919254	1.002800
1002.213951	1.003386
1002.508613	1.002920
1002.803239	1.002309
1003.097829	1.004141
1003.392384	1.003732
1003.686903	1.003440
1003.981386	1.001920
1004.275834	1.004373
1004.570246	1.002517
1004.864623	1.004287
1005.158964	1.004486
1005.453270	1.003068
1005.747540	1.003073
1006.041775	1.003559
1006.335974	1.003886
1006.630138	1.003389
1006.924266	1.002409
1007.218359	1.001297
1007.512416	1.002970
1007.806438	1.003271
1008.100425	1.003029
1008.394376	1.004637
1008.688292	1.002615
1008.982172	1.001878
1009.276017	1.004918
1009.569827	1.004059
1009.863602	1.002065
1010.157341	1.004247
1010.451045	1.004061
1010.744714	1.004271
1011.038347	1.003640
1011.331945	1.002979
1011.625508	1.002632
1011.919036	1.002895
1012.212528	1.004211
1012.505986	1.003796
1012.799408	1.003946
1013.092795	1.004450
1013.386147	1.003091
1013.679464	1.004704
1013.972745	1.003937
1014.265992	1.003840
1014.559204	1.003419
1014.852380	1.003587
1015.145521	1.003705
1015.438628	1.003624
1015.731699	1.002088
1016.024736	1.004684
1016.317737	1.003462
1016.610703	1.002727
1016.903635	1.004111
1017.196531	1.002469
1017.489393	1.003985
1017.782219	1.003113
1018.075011	1.004416
1018.367768	1.002599
1018.660490	1.003343
1018.953177	1.003343
1019.245829	1.003343
