Dividing Wavelength (nm)	Counts (n)	Blue Motor Position (mm): 46.100000	Red Motor Position (mm): 0.000000	
326.493990	0.999864
326.888308	0.999864
327.282561	0.999864
327.676750	1.000037
328.070874	1.000833
328.464933	1.001666
328.858929	1.000985
329.252859	1.000373
329.646726	1.000051
330.040528	1.001094
330.434265	0.999535
330.827938	0.999533
331.221547	1.000165
331.615091	1.001166
332.008571	1.002015
332.401986	0.999745
332.795338	1.000342
333.188625	1.000877
333.581847	0.999865
333.975006	1.000791
334.368100	1.000854
334.761129	0.999808
335.154095	1.000182
335.546996	0.999635
335.939833	0.999832
336.332606	0.999603
336.725315	0.998574
337.117960	1.001124
337.510540	0.999151
337.903056	1.000907
338.295508	1.002420
338.687896	1.000853
339.080220	0.999452
339.472480	0.999811
339.864676	1.000730
340.256807	0.998847
340.648875	0.999678
341.040879	0.999786
341.432818	1.000682
341.824694	0.999399
342.216506	1.000849
342.608253	0.999603
342.999937	1.000596
343.391557	1.000410
343.783113	1.000809
344.174605	1.000061
344.566033	0.999330
344.957397	1.001209
345.348697	1.000909
345.739934	1.000513
346.131106	1.000567
346.522215	0.999608
346.913260	1.000216
347.304241	1.000000
347.695159	1.000199
348.086012	1.000477
348.476802	0.999320
348.867528	0.999842
349.258191	1.000817
349.648789	0.999450
350.039324	0.999770
350.429796	1.000426
350.820203	0.997692
351.210548	1.000747
351.600828	0.999277
351.991045	1.000786
352.381198	0.999820
352.771288	0.999628
353.161314	0.999477
353.551276	0.998817
353.941175	0.998431
354.331010	1.000187
354.720782	1.000423
355.110490	0.999187
355.500135	0.999821
355.889717	1.000001
356.279235	0.999145
356.668689	1.000035
357.058080	1.000751
357.447408	0.998596
357.836672	0.999898
358.225873	0.999518
358.615010	1.000255
359.004084	0.998952
359.393095	0.999974
359.782043	1.000440
360.170927	1.000636
360.559748	0.999594
360.948505	1.000383
361.337199	1.000103
361.725830	1.000060
362.114398	0.999185
362.502903	0.998319
362.891344	0.998827
363.279722	0.999819
363.668037	1.000588
364.056289	0.998637
364.444478	1.000878
364.832603	0.999163
365.220665	1.000395
365.608665	0.998261
365.996601	0.999379
366.384474	0.998069
366.772284	1.000334
367.160031	0.998299
367.547715	0.998410
367.935336	0.997944
368.322893	0.997485
368.710388	0.995849
369.097820	0.994308
369.485189	0.990542
369.872495	0.989653
370.259738	0.987457
370.646918	0.985520
371.034035	0.984200
371.421090	0.981131
371.808081	0.975298
372.195010	0.974013
372.581875	0.970507
372.968678	0.964901
373.355418	0.964659
373.742096	0.956206
374.128710	0.953623
374.515262	0.952134
374.901751	0.948542
375.288177	0.945743
375.674540	0.942838
376.060841	0.939084
376.447079	0.936705
376.833254	0.933417
377.219367	0.932942
377.605417	0.926739
377.991404	0.928183
378.377329	0.925362
378.763191	0.924736
379.148991	0.922860
379.534727	0.920955
379.920402	0.918519
380.306013	0.919301
380.691563	0.918189
381.077049	0.917659
381.462474	0.919712
381.847835	0.918593
382.233134	0.921669
382.618371	0.924872
383.003545	0.922468
383.388657	0.926716
383.773706	0.928056
384.158693	0.931043
384.543618	0.934733
384.928480	0.935882
385.313280	0.937600
385.698017	0.940865
386.082692	0.943153
386.467305	0.946121
386.851856	0.951563
387.236344	0.952725
387.620770	0.957694
388.005133	0.959461
388.389435	0.961557
388.773674	0.965760
389.157851	0.968377
389.541965	0.971352
389.926018	0.975344
390.310008	0.976147
390.693936	0.979400
391.077802	0.980902
391.461606	0.982127
391.845348	0.984109
392.229027	0.985907
392.612645	0.988605
392.996200	0.988969
393.379694	0.989641
393.763125	0.991393
394.146494	0.991619
394.529801	0.993910
394.913047	0.993389
395.296230	0.994886
395.679351	0.995696
396.062410	0.996471
396.445408	0.996655
396.828343	0.997419
397.211217	0.998127
397.594028	0.997357
397.976778	0.998085
398.359466	0.997620
398.742092	0.998676
399.124656	0.998101
399.507158	0.998317
399.889598	0.999418
400.271977	0.999007
400.654294	0.998385
401.036549	0.999584
401.418742	0.998247
401.800874	0.999032
402.182944	0.998215
402.564952	0.999335
402.946898	0.999393
403.328783	1.000546
403.710606	0.999339
404.092367	1.000189
404.474067	0.999712
404.855705	0.999636
405.237282	0.999557
405.618797	1.000136
406.000250	0.999309
406.381642	0.998851
406.762972	1.000811
407.144240	0.999702
407.525447	0.998646
407.906593	0.999089
408.287677	0.999848
408.668700	0.999249
409.049661	0.999811
409.430560	0.998226
409.811399	0.999083
410.192176	0.999516
410.572891	1.000014
410.953545	0.999013
411.334138	0.999364
411.714669	0.998991
412.095139	0.999203
412.475547	0.999928
412.855894	0.999441
413.236180	0.998948
413.616405	0.999118
413.996568	0.998910
414.376670	0.998791
414.756711	0.998623
415.136691	0.999241
415.516609	0.998843
415.896466	0.999661
416.276262	0.999185
416.655997	0.999561
417.035670	0.999847
417.415283	0.999173
417.794834	0.999569
418.174324	1.000207
418.553753	0.999407
418.933121	0.999320
419.312428	0.999828
419.691674	0.999948
420.070859	0.999921
420.449983	1.000144
420.829045	0.998976
421.208047	1.000532
421.586988	0.999624
421.965867	0.998762
422.344686	0.999221
422.723444	0.999530
423.102141	0.999369
423.480777	0.998897
423.859352	0.999507
424.237866	0.998924
424.616319	0.999970
424.994712	0.998906
425.373044	1.000397
425.751314	0.999377
426.129524	1.000205
426.507673	0.998525
426.885762	0.999818
427.263789	1.000032
427.641756	0.998977
428.019662	1.000297
428.397508	0.999240
428.775292	0.999329
429.153016	0.998956
429.530679	0.999598
429.908282	0.999798
430.285824	1.000160
430.663305	1.000020
431.040726	0.999537
431.418086	0.998929
431.795385	1.000515
432.172624	1.000082
432.549802	0.999746
432.926920	0.999552
433.303977	0.999365
433.680974	0.999632
434.057910	0.998915
434.434786	0.999028
434.811601	0.999049
435.188355	1.000110
435.565050	0.999832
435.941683	0.999705
436.318257	0.998815
436.694770	0.999945
437.071222	0.999934
437.447614	0.999258
437.823946	0.999534
438.200218	0.999313
438.576429	0.999335
438.952580	0.999912
439.328670	0.998000
439.704700	0.998897
440.080670	0.999582
440.456580	0.999890
440.832429	0.999447
441.208218	0.999617
441.583947	0.999760
441.959616	0.998568
442.335224	1.000048
442.710773	1.000457
443.086261	0.999202
443.461689	0.999219
443.837057	0.999223
444.212365	0.999916
444.587612	0.999805
444.962800	0.999775
445.337927	1.000165
445.712995	0.999477
446.088002	0.999524
446.462949	0.999022
446.837837	1.001284
447.212664	0.998591
447.587431	1.000050
447.962139	0.999465
448.336786	0.998707
448.711374	0.999638
449.085901	0.999833
449.460369	0.999132
449.834776	0.998936
450.209124	0.999470
450.583412	0.999834
450.957640	0.999523
451.331808	0.999946
451.705917	0.999008
452.079965	0.999885
452.453954	1.000245
452.827883	0.999458
453.201752	0.999629
453.575562	0.999926
453.949311	0.999502
454.323001	0.999570
454.696632	0.999303
455.070202	0.999114
455.443713	0.999399
455.817164	0.999630
456.190556	0.998892
456.563888	1.000843
456.937160	1.000044
457.310373	0.999416
457.683526	1.000080
458.056619	0.999638
458.429653	0.999979
458.802628	0.999603
459.175542	1.000122
459.548398	0.999408
459.921194	1.000057
460.293930	1.000647
460.666607	1.000068
461.039224	0.999963
461.411782	1.000164
461.784280	0.999217
462.156719	1.000532
462.529099	0.999777
462.901419	0.999653
463.273680	0.998570
463.645882	0.998963
464.018024	1.000046
464.390106	0.999925
464.762130	0.999291
465.134094	0.999700
465.505999	0.999831
465.877845	0.999856
466.249631	0.999736
466.621358	0.999432
466.993026	0.999066
467.364634	0.999330
467.736184	0.999732
468.107674	0.999200
468.479105	0.999460
468.850477	0.999506
469.221790	1.000329
469.593043	0.999617
469.964238	0.999327
470.335373	0.999799
470.706449	0.999676
471.077467	0.999725
471.448425	1.000211
471.819324	0.999890
472.190164	0.999797
472.560945	1.000054
472.931667	1.000155
473.302330	0.999299
473.672934	0.999904
474.043479	0.999067
474.413965	0.999326
474.784393	0.999371
475.154761	0.999432
475.525070	0.999916
475.895321	0.999712
476.265513	0.999805
476.635645	1.000174
477.005719	0.999827
477.375734	0.999783
477.745691	0.999426
478.115588	0.998675
478.485427	0.999580
478.855207	0.999614
479.224928	0.999780
479.594591	0.999890
479.964194	0.999312
480.333739	1.000155
480.703226	0.999303
481.072653	0.999385
481.442022	0.999597
481.811333	0.999440
482.180584	0.999221
482.549777	0.999531
482.918912	1.000120
483.287988	0.999423
483.657005	0.999669
484.025964	0.999505
484.394864	0.999075
484.763706	0.999123
485.132489	0.999660
485.501213	0.999652
485.869879	0.999386
486.238487	0.998642
486.607036	0.999886
486.975527	0.999649
487.343959	0.998791
487.712333	0.999410
488.080648	0.999154
488.448905	0.999732
488.817104	0.999853
489.185244	1.000016
489.553326	0.999691
489.921350	0.999868
490.289315	0.999638
490.657222	0.998551
491.025070	0.999833
491.392861	0.999875
491.760593	0.999580
492.128267	0.999156
492.495883	0.998796
492.863440	0.999306
493.230939	0.999081
493.598380	0.999947
493.965763	0.999403
494.333088	0.998759
494.700354	0.999123
495.067563	0.998943
495.434713	1.000022
495.801805	0.999652
496.168839	0.999658
496.535815	0.999377
496.902733	0.999118
497.269593	0.999112
497.636395	0.998685
498.003139	0.998365
498.369825	0.999961
498.736453	0.999038
499.103023	0.999783
499.469535	0.999629
499.835989	1.000016
500.202385	0.999562
500.568723	0.999223
500.935003	0.999588
501.301226	0.999386
501.667390	0.999049
502.033497	0.998920
502.399546	0.998901
502.765537	0.999908
503.131470	0.999482
503.497345	0.999850
503.863163	0.999142
504.228923	0.999128
504.594625	0.999021
504.960269	0.999695
505.325856	0.999889
505.691385	0.999977
506.056856	0.999877
506.422270	0.999792
506.787625	0.999629
507.152924	0.999915
507.518164	0.999309
507.883347	0.999127
508.248472	0.999561
508.613540	0.999011
508.978550	1.000624
509.343503	0.999420
509.708398	1.000527
510.073236	0.999927
510.438016	0.998918
510.802738	0.999077
511.167403	0.999203
511.532010	0.999867
511.896561	0.999793
512.261053	0.999289
512.625488	0.999061
512.989866	0.999353
513.354186	0.998977
513.718449	0.999040
514.082655	0.999520
514.446803	0.999624
514.810894	0.999527
515.174927	0.999280
515.538904	0.999653
515.902822	0.999642
516.266684	0.999963
516.630488	0.999957
516.994235	1.000126
517.357925	1.000083
517.721558	0.999705
518.085133	0.999615
518.448651	0.998998
518.812112	1.000109
519.175516	0.999238
519.538863	0.999077
519.902152	1.000242
520.265385	0.999315
520.628560	0.998947
520.991678	0.999674
521.354739	1.000028
521.717743	0.999784
522.080690	0.999384
522.443580	0.999354
522.806413	0.999531
523.169189	0.999954
523.531908	0.998871
523.894569	0.999848
524.257174	0.999927
524.619722	0.999048
524.982213	1.000024
525.344647	0.999517
525.707025	0.998974
526.069345	0.999242
526.431608	1.000218
526.793815	0.999270
527.155964	0.999856
527.518057	1.000159
527.880093	0.999470
528.242072	0.999518
528.603995	0.999559
528.965860	0.999529
529.327669	0.999722
529.689421	0.998836
530.051117	1.000371
530.412755	0.999705
530.774337	0.999047
531.135862	1.000241
531.497331	0.998958
531.858743	0.999518
532.220098	0.999153
532.581396	0.999647
532.942638	0.999504
533.303824	0.999796
533.664953	0.999251
534.026025	1.000572
534.387040	1.000021
534.747999	0.999069
535.108902	0.999281
535.469748	0.999613
535.830537	0.999847
536.191270	0.999932
536.551947	0.999333
536.912567	0.999386
537.273131	0.999864
537.633638	0.999315
537.994089	0.999805
538.354483	0.999625
538.714821	0.999620
539.075103	0.999712
539.435328	1.000133
539.795497	0.999820
540.155609	1.000026
540.515665	1.000570
540.875665	0.999591
541.235609	1.000289
541.595496	0.998988
541.955328	0.999731
542.315102	0.999628
542.674821	0.999873
543.034483	1.000313
543.394090	0.998930
543.753640	0.999937
544.113134	0.999743
544.472571	0.999785
544.831953	0.999954
545.191278	0.999742
545.550548	0.998995
545.909761	0.999169
546.268918	1.000146
546.628019	1.000367
546.987064	0.999752
547.346053	0.999173
547.704986	0.999319
548.063863	0.999201
548.422684	0.999787
548.781449	0.999945
549.140158	1.000031
549.498811	0.999632
549.857408	0.998864
550.215949	0.999156
550.574434	0.999312
550.932864	0.999760
551.291237	0.999424
551.649555	1.000132
552.007817	0.999600
552.366022	1.000059
552.724173	1.000167
553.082267	0.999593
553.440305	0.999671
553.798288	0.998872
554.156215	0.999023
554.514086	0.999888
554.871902	0.999638
555.229661	0.998673
555.587365	0.999526
555.945014	0.999821
556.302606	0.998908
556.660143	0.999358
557.017625	0.999535
557.375050	0.998737
557.732421	0.999452
558.089735	0.999002
558.446994	0.999544
558.804197	0.999417
559.161345	0.999242
559.518437	0.999453
559.875474	1.000015
560.232455	0.999581
560.589381	0.999683
560.946251	0.999764
561.303065	0.999818
561.659825	0.998829
562.016528	0.999892
562.373177	0.999273
562.729770	0.999227
563.086307	0.998764
563.442789	0.999700
563.799216	0.998571
564.155587	0.999668
564.511904	0.999547
564.868164	0.998735
565.224370	0.999092
565.580520	0.999708
565.936615	0.999595
566.292654	0.999297
566.648638	1.000634
567.004567	0.999376
567.360441	1.000143
567.716260	0.999654
568.072023	0.998873
568.427732	0.999571
568.783385	0.999551
569.138982	0.999953
569.494525	0.999441
569.850013	1.000600
570.205445	0.999552
570.560823	0.999423
570.916145	0.999500
571.271412	0.999590
571.626625	0.998962
571.981782	0.999439
572.336884	1.000002
572.691931	1.000252
573.046923	0.999964
573.401860	0.999111
573.756743	0.999796
574.111570	0.999010
574.466342	0.999929
574.821059	0.999636
575.175722	1.000133
575.530330	0.999168
575.884882	0.999233
576.239380	0.999756
576.593823	0.999560
576.948211	0.999952
577.302544	0.998863
577.656823	0.999476
578.011047	0.998932
578.365216	1.000470
578.719330	1.000440
579.073389	0.998416
579.427394	0.999969
579.781344	0.999558
580.135239	0.998614
580.489080	0.999763
580.842866	1.000138
581.196597	0.999815
581.550273	0.999310
581.903895	1.000371
582.257463	0.999172
582.610975	0.999387
582.964434	0.999370
583.317837	0.999813
583.671186	0.999594
584.024481	0.999122
584.377721	0.998111
584.730906	0.999828
585.084037	1.001245
585.437113	0.999837
585.790135	1.000034
586.143103	0.999300
586.496016	0.999045
586.848874	1.000018
587.201679	0.999455
587.554428	0.999019
587.907124	0.999558
588.259765	1.000035
588.612352	0.999827
588.964884	0.999632
589.317362	0.999159
589.669786	0.999399
590.022155	0.999641
590.374470	0.999807
590.726731	0.998826
591.078937	0.999774
591.431090	0.999661
591.783188	0.998814
592.135232	1.000277
592.487222	0.999547
592.839157	0.998901
593.191038	0.999247
593.542866	0.999348
593.894639	0.998509
594.246358	0.999848
594.598022	0.999423
594.949633	0.999796
595.301190	0.998990
595.652692	0.999254
596.004141	0.998658
596.355535	0.999346
596.706876	0.999834
597.058162	0.999062
597.409395	0.999452
597.760573	0.998757
598.111698	0.999259
598.462768	0.999089
598.813785	0.999266
599.164748	0.999085
599.515657	0.999262
599.866511	0.999948
600.217312	0.999938
600.568060	0.998955
600.918753	0.999887
601.269392	0.999260
601.619978	0.999144
601.970510	0.998978
602.320988	0.999455
602.671412	0.998976
603.021783	1.000039
603.372100	1.000034
603.722363	1.000028
604.072572	0.998881
604.422728	0.999363
604.772830	0.999289
605.122878	0.999673
605.472872	1.000042
605.822813	0.999604
606.172701	0.999096
606.522534	0.999283
606.872314	1.000213
607.222041	0.998908
607.571714	0.999731
607.921333	0.999205
608.270899	0.999181
608.620411	0.999113
608.969870	0.999998
609.319276	0.999086
609.668627	1.000329
610.017926	0.999167
610.367171	0.999332
610.716362	0.998843
611.065500	0.998582
611.414585	1.000133
611.763616	0.998620
612.112594	0.999108
612.461518	0.998722
612.810389	0.999561
613.159207	0.999424
613.507971	0.999135
613.856682	0.999867
614.205340	0.998547
614.553945	0.999545
614.902496	0.999058
615.250994	0.999767
615.599439	0.999855
615.947830	0.999299
616.296169	0.999788
616.644454	1.000118
616.992686	0.999809
617.340864	0.999800
617.688990	0.999453
618.037063	0.999825
618.385082	0.999061
618.733048	0.998926
619.080961	0.999167
619.428821	0.999856
619.776628	0.998226
620.124382	1.000117
620.472083	0.999482
620.819731	1.000570
621.167326	0.999935
621.514868	0.999308
621.862357	0.999912
622.209793	0.999036
622.557176	0.999212
622.904506	0.998718
623.251783	0.999394
623.599007	0.999742
623.946179	0.998632
624.293297	0.999843
624.640363	0.999868
624.987376	0.999009
625.334336	0.999339
625.681243	0.999677
626.028097	0.999742
626.374899	0.998997
626.721647	0.999979
627.068343	0.999034
627.414987	0.999794
627.761577	0.998760
628.108115	0.998134
628.454600	0.999829
628.801032	0.999133
629.147412	0.999282
629.493739	1.000057
629.840014	0.999163
630.186236	0.998872
630.532405	0.999368
630.878521	0.998761
631.224585	0.999479
631.570597	0.998890
631.916556	0.999452
632.262462	0.998340
632.608316	0.999724
632.954117	0.998523
633.299866	0.999175
633.645562	0.999453
633.991206	0.999519
634.336797	0.998725
634.682336	0.999646
635.027823	0.999050
635.373257	0.999631
635.718639	0.999917
636.063968	0.999534
636.409245	0.999586
636.754470	0.999437
637.099642	0.999516
637.444762	0.999701
637.789829	0.999323
638.134845	0.999916
638.479808	0.998919
638.824719	0.999667
639.169577	0.998978
639.514383	0.999947
639.859137	0.999457
640.203839	0.999785
640.548489	0.998807
640.893086	0.998805
641.237632	0.999467
641.582125	0.998815
641.926566	1.000245
642.270955	0.999494
642.615292	0.998687
642.959576	1.000539
643.303809	0.999935
643.647990	0.999768
643.992118	0.999291
644.336195	0.998337
644.680219	1.000113
645.024192	0.999872
645.368112	0.998525
645.711981	0.998907
646.055797	0.999010
646.399562	0.997936
646.743274	0.999038
647.086935	0.998891
647.430544	0.999431
647.774101	0.998831
648.117606	0.999561
648.461059	0.999921
648.804460	0.999401
649.147810	0.999792
649.491108	0.999289
649.834354	0.999401
650.177548	0.999387
650.520690	0.999549
650.863781	0.998755
651.206820	0.999380
651.549807	0.999180
651.892742	1.000107
652.235626	0.999756
652.578458	0.999505
652.921238	1.000700
653.263967	1.000397
653.606644	0.998928
653.949269	1.000060
654.291843	0.998625
654.634365	1.000916
654.976836	0.998701
655.319255	0.999626
655.661622	0.998887
656.003938	1.000088
656.346203	0.998524
656.688416	1.000368
657.030577	0.998885
657.372687	0.999965
657.714746	0.998807
658.056753	0.998162
658.398708	0.999495
658.740612	1.000740
659.082465	0.999119
659.424266	0.999649
659.766016	0.999577
660.107715	1.000467
660.449362	0.999462
660.790958	0.999197
661.132503	0.998837
661.473996	0.998443
661.815438	1.000249
662.156829	0.999790
662.498168	0.999227
662.839456	0.998949
663.180693	0.999696
663.521879	0.998462
663.863013	1.000068
664.204097	0.998850
664.545129	0.999041
664.886110	0.998933
665.227040	0.999202
665.567918	0.998879
665.908746	0.998524
666.249522	0.999348
666.590248	0.999312
666.930922	0.999161
667.271545	0.999498
667.612118	0.998937
667.952639	0.999121
668.293109	0.999705
668.633528	0.998501
668.973896	0.999238
669.314213	0.998430
669.654480	0.998957
669.994695	0.998275
670.334859	0.998738
670.674973	0.999112
671.015035	0.999152
671.355047	0.999723
671.695008	0.998778
672.034918	0.998074
672.374777	0.998518
672.714585	0.999588
673.054342	0.999476
673.394049	0.999087
673.733705	0.998551
674.073310	0.999278
674.412864	0.999483
674.752368	0.999031
675.091820	0.999555
675.431223	0.999678
675.770574	0.998536
676.109875	0.998910
676.449125	0.998993
676.788324	0.999188
677.127473	0.999167
677.466571	0.999543
677.805619	0.999483
678.144616	0.999107
678.483562	0.999067
678.822458	0.999690
679.161303	0.999149
679.500098	0.999671
679.838842	0.999254
680.177535	0.999017
680.516179	0.998337
680.854771	0.998654
681.193314	0.998724
681.531805	0.998408
681.870247	0.999629
682.208638	0.998682
682.546978	0.997984
682.885268	0.998978
683.223508	0.998487
683.561697	0.999190
683.899836	0.998907
684.237925	0.998928
684.575963	0.999145
684.913951	0.998943
685.251889	0.998250
685.589776	0.998308
685.927614	0.999069
686.265401	0.998550
686.603137	0.998486
686.940824	0.999031
687.278460	0.999935
687.616046	0.998238
687.953582	0.999221
688.291068	0.998453
688.628504	0.999041
688.965889	0.998433
689.303224	0.997903
689.640510	0.998713
689.977745	0.998357
690.314930	0.998279
690.652065	0.998675
690.989150	0.997980
691.326185	0.998598
691.663170	0.999482
692.000105	0.999542
692.336990	0.998634
692.673825	0.999178
693.010610	0.998841
693.347345	0.998990
693.684030	0.999447
694.020665	0.998932
694.357251	0.998446
694.693786	0.999683
695.030272	0.997988
695.366707	0.998697
695.703093	0.999064
696.039429	0.998063
696.375716	0.998974
696.711952	0.997789
697.048139	0.999377
697.384276	0.999012
697.720363	0.998882
698.056400	0.997191
698.392388	0.998786
698.728326	0.999084
699.064214	0.999129
699.400053	0.999246
699.735842	0.999503
700.071581	0.998414
700.407270	0.997815
700.742910	0.999372
701.078501	0.999144
701.414042	0.999248
701.749533	0.997638
702.084974	0.999342
702.420366	0.999515
702.755709	0.999072
703.091002	0.999640
703.426246	0.999294
703.761440	0.998227
704.096584	0.998744
704.431679	0.998236
704.766725	0.998370
705.101721	0.998466
705.436668	0.999096
705.771565	0.999268
706.106413	0.998701
706.441212	0.998570
706.775961	0.999747
707.110661	0.998780
707.445311	0.999130
707.779913	0.999679
708.114465	0.999674
708.448967	1.000163
708.783421	0.998993
709.117825	0.997793
709.452180	0.998826
709.786485	0.999068
710.120742	0.998778
710.454949	0.997871
710.789107	0.997840
711.123216	0.997631
711.457275	0.997389
711.791286	0.999138
712.125247	1.000413
712.459159	0.998377
712.793023	0.999033
713.126837	0.999308
713.460602	0.998408
713.794318	0.997994
714.127985	0.997555
714.461602	0.999123
714.795171	0.998394
715.128691	0.998106
715.462162	0.999409
715.795584	0.998111
716.128957	0.998706
716.462281	0.999650
716.795556	0.998090
717.128782	0.999153
717.461960	0.998757
717.795088	0.998362
718.128167	0.999163
718.461198	0.999168
718.794180	0.998687
719.127113	0.998238
719.459997	0.998773
719.792833	0.998557
720.125619	0.998561
720.458357	0.999517
720.791046	0.999346
721.123686	0.999029
721.456278	0.998660
721.788821	0.998164
722.121315	0.999685
722.453761	0.999867
722.786158	0.998764
723.118506	0.998712
723.450805	0.998190
723.783056	1.000076
724.115259	0.998659
724.447412	0.999650
724.779518	0.999062
725.111574	0.998420
725.443582	0.999309
725.775542	0.999087
726.107453	0.999889
726.439315	0.999953
726.771129	0.999458
727.102895	0.999414
727.434612	0.998824
727.766281	0.998788
728.097901	0.997974
728.429473	0.999390
728.760996	0.997592
729.092471	0.999160
729.423897	0.999249
729.755276	0.998822
730.086606	0.998807
730.417887	0.998966
730.749120	0.998637
731.080305	0.999011
731.411442	0.998352
731.742530	0.998560
732.073570	0.998433
732.404562	0.998251
732.735506	0.998678
733.066401	0.998939
733.397249	0.999615
733.728048	0.998818
734.058798	0.999443
734.389501	0.999553
734.720156	0.999316
735.050762	1.000142
735.381320	0.998981
735.711831	0.998066
736.042293	0.998656
736.372707	0.999537
736.703073	0.997913
737.033391	0.999454
737.363661	0.999214
737.693883	0.998942
738.024056	0.997268
738.354182	0.999582
738.684260	0.998218
739.014290	0.998778
739.344272	0.999402
739.674207	0.997988
740.004093	0.998180
740.333931	0.999257
740.663722	0.998949
740.993464	0.998244
741.323159	0.998680
741.652806	0.998638
741.982405	0.999657
742.311956	0.998568
742.641460	0.999865
742.970915	0.999096
743.300323	0.998671
743.629683	0.998402
743.958996	1.000032
744.288260	0.998421
744.617477	0.999417
744.946647	0.998884
745.275768	0.999858
745.604842	0.998214
745.933869	0.998637
746.262847	0.999071
746.591778	0.997494
746.920662	0.999303
747.249498	0.999269
747.578286	1.000678
747.907027	0.998860
748.235720	0.998776
748.564365	1.000680
748.892963	0.998113
749.221514	0.999481
749.550017	0.998013
749.878473	0.999284
750.206881	1.000059
750.535242	0.998953
750.863555	0.998801
751.191821	0.998399
751.520039	0.997912
751.848210	0.998015
752.176334	0.998810
752.504411	0.997891
752.832440	0.998899
753.160421	0.999056
753.488356	0.998542
753.816243	0.997732
754.144082	0.998100
754.471875	0.998918
754.799620	0.998966
755.127318	0.998882
755.454969	0.998216
755.782572	1.000260
756.110129	0.999098
756.437638	1.000929
756.765100	0.999364
757.092515	0.998444
757.419882	1.000047
757.747203	0.998969
758.074477	1.000372
758.401703	0.999453
758.728882	0.998742
759.056014	0.998854
759.383099	0.999239
759.710138	0.998645
760.037129	0.998044
760.364073	0.999513
760.690970	0.998791
761.017820	0.998145
761.344623	0.999671
761.671379	0.999887
761.998088	0.999357
762.324751	0.999414
762.651366	0.997586
762.977935	0.998118
763.304456	0.999592
763.630931	0.997746
763.957359	0.997521
764.283740	0.996837
764.610074	0.998188
764.936362	0.999112
765.262602	0.998886
765.588796	0.998898
765.914943	0.998509
766.241044	0.998978
766.567097	0.998611
766.893104	0.999869
767.219064	0.998439
767.544978	0.999087
767.870845	0.999208
768.196665	0.999736
768.522438	0.999777
768.848165	0.999075
769.173846	0.999681
769.499479	1.000737
769.825066	1.000031
770.150607	1.000290
770.476101	0.998844
770.801548	1.000040
771.126949	1.000155
771.452303	1.000077
771.777611	0.999639
772.102872	0.999035
772.428087	0.998934
772.753256	0.999570
773.078378	0.999793
773.403453	0.998692
773.728482	1.000381
774.053465	0.998923
774.378401	0.999829
774.703291	1.000189
775.028135	1.000388
775.352932	0.997613
775.677683	0.999979
776.002388	0.999141
776.327046	0.999206
776.651658	1.001082
776.976224	0.999826
777.300743	0.999593
777.625216	0.998918
777.949643	0.999506
778.274024	0.999077
778.598359	0.999222
778.922647	0.999166
779.246889	0.999048
779.571086	1.000160
779.895236	1.000413
780.219339	1.000121
780.543397	0.999497
780.867409	0.999430
781.191374	0.999095
781.515294	1.000240
781.839167	0.999967
782.162995	0.999287
782.486776	0.999594
782.810511	0.999472
783.134201	1.000156
783.457844	0.999532
783.781441	0.999554
784.104993	0.998338
784.428498	0.998837
784.751958	1.001119
785.075372	0.999769
785.398739	1.000045
785.722061	0.998848
786.045337	0.999152
786.368568	0.998629
786.691752	0.998417
787.014891	0.999264
787.337983	0.998577
787.661030	0.998906
787.984031	0.999808
788.306987	0.999408
788.629897	0.998520
788.952760	0.999370
789.275579	0.999062
789.598351	0.998857
789.921078	1.000784
790.243759	0.999236
790.566395	0.998888
790.888984	0.999637
791.211529	0.999099
791.534027	0.999381
791.856480	0.999880
792.178888	0.999166
792.501249	1.000116
792.823566	1.000704
793.145836	0.999985
793.468062	1.000381
793.790241	1.001113
794.112375	0.999085
794.434464	0.998925
794.756507	1.000049
795.078505	1.000297
795.400457	1.000129
795.722364	0.999853
796.044226	0.999107
796.366042	0.999592
796.687812	0.998835
797.009538	0.998940
797.331218	1.000955
797.652852	1.000292
797.974442	0.999542
798.295986	0.998593
798.617484	0.998697
798.938938	0.999825
799.260346	0.998909
799.581709	0.998296
799.903026	0.999599
800.224299	0.998160
800.545526	0.998656
800.866708	0.999779
801.187845	0.999977
801.508936	0.999481
801.829983	0.999769
802.150984	0.999510
802.471940	1.000130
802.792851	0.999888
803.113717	1.000191
803.434538	1.000711
803.755314	0.999788
804.076045	0.999926
804.396731	0.999398
804.717372	0.998109
805.037967	1.000182
805.358518	0.999265
805.679024	0.998343
805.999485	0.999972
806.319901	0.998706
806.640272	0.999870
806.960598	0.999660
807.280879	0.999228
807.601115	1.000715
807.921306	1.000388
808.241453	0.999735
808.561554	1.000778
808.881611	1.000409
809.201623	1.000004
809.521590	0.999668
809.841513	1.000590
810.161390	0.998141
810.481223	0.998771
810.801011	1.000859
811.120755	1.001141
811.440453	0.999804
811.760107	0.999943
812.079716	0.999375
812.399281	0.999765
812.718801	0.999043
813.038276	0.999185
813.357707	0.999640
813.677093	1.000563
813.996434	0.999827
814.315731	1.000956
814.634983	0.999872
814.954191	0.999489
815.273354	0.999316
815.592473	0.998622
815.911547	0.999793
816.230577	0.999909
816.549562	0.999119
816.868502	0.998901
817.187399	1.000099
817.506250	1.000120
817.825058	0.998636
818.143821	0.999238
818.462539	0.998667
818.781213	0.999499
819.099843	0.999660
819.418429	0.998672
819.736970	0.999848
820.055466	0.998606
820.373919	0.998819
820.692327	0.998189
821.010691	0.998441
821.329011	0.997486
821.647286	0.996891
821.965517	0.997324
822.283704	0.997685
822.601847	0.996833
822.919945	0.995937
823.237999	0.996803
823.556010	0.996818
823.873976	0.996872
824.191897	0.998244
824.509775	0.998678
824.827609	0.997833
825.145398	0.999002
825.463144	0.997066
825.780845	0.996774
826.098502	0.998544
826.416116	0.998462
826.733685	0.998532
827.051210	0.996937
827.368692	0.997669
827.686129	0.998291
828.003522	0.998962
828.320872	0.998386
828.638177	0.998717
828.955439	0.999971
829.272656	0.999297
829.589830	0.998233
829.906960	1.000546
830.224046	0.999060
830.541088	0.998364
830.858086	0.999635
831.175041	1.000899
831.491952	0.999467
831.808819	0.999022
832.125642	0.998691
832.442421	1.000059
832.759157	1.000537
833.075849	0.999089
833.392497	0.999125
833.709101	0.998119
834.025662	0.998162
834.342179	0.998678
834.658653	1.000465
834.975083	0.999225
835.291469	0.999920
835.607811	0.999453
835.924110	0.999503
836.240366	1.000735
836.556578	0.999274
836.872746	1.000099
837.188871	0.999935
837.504952	0.998207
837.820990	0.999879
838.136984	0.999255
838.452935	0.999559
838.768842	0.999985
839.084706	0.999782
839.400526	1.000880
839.716303	0.998987
840.032037	0.999952
840.347727	0.998978
840.663373	0.999952
840.978977	0.998922
841.294537	1.000865
841.610054	1.000294
841.925527	0.999638
842.240957	0.999464
842.556344	0.999425
842.871687	0.999505
843.186987	0.999118
843.502244	1.000620
843.817458	0.999365
844.132629	0.999321
844.447756	0.999956
844.762840	1.000625
845.077881	1.000625
845.392879	0.999319
845.707833	0.999485
846.022745	1.000021
846.337613	1.000175
846.652438	0.999894
846.967221	1.000214
847.281960	1.000330
847.596656	1.000588
847.911309	1.000087
848.225919	0.998648
848.540485	1.000041
848.855009	1.001501
849.169490	1.000602
849.483928	0.999645
849.798323	0.998060
850.112675	1.001466
850.426984	0.999200
850.741251	1.000915
851.055474	0.999078
851.369654	1.000102
851.683792	0.998228
851.997887	1.001295
852.311938	1.000177
852.625947	0.999035
852.939914	0.998605
853.253837	1.000612
853.567718	0.999876
853.881555	0.999607
854.195350	0.999534
854.509103	1.000613
854.822812	0.999444
855.136479	1.000278
855.450103	1.000840
855.763685	1.000725
856.077224	0.999299
856.390720	0.999396
856.704173	1.000855
857.017584	1.000800
857.330953	0.999705
857.644278	1.000178
857.957561	1.000397
858.270802	1.000040
858.584000	0.999727
858.897155	1.000012
859.210268	1.000811
859.523339	1.001381
859.836367	0.999738
860.149352	0.999936
860.462295	0.999433
860.775195	1.001030
861.088054	0.999098
861.400869	1.000039
861.713642	0.998416
862.026373	0.999764
862.339062	1.000785
862.651708	0.999836
862.964312	1.000982
863.276873	0.998795
863.589392	0.999214
863.901869	1.000426
864.214303	1.000534
864.526696	0.999961
864.839045	0.999516
865.151353	0.999559
865.463619	1.000082
865.775842	1.000136
866.088023	1.000926
866.400162	1.000199
866.712258	1.000988
867.024313	1.000125
867.336325	1.000655
867.648296	0.999693
867.960224	0.999511
868.272110	1.000561
868.583954	0.999215
868.895755	1.000996
869.207515	0.999986
869.519233	1.000047
869.830909	0.998723
870.142542	0.999147
870.454134	0.999887
870.765684	1.000040
871.077191	1.000032
871.388657	1.001035
871.700081	1.000427
872.011463	1.000410
872.322803	1.000283
872.634101	0.997928
872.945357	1.000406
873.256571	0.999322
873.567744	1.000237
873.878874	1.000531
874.189963	1.000024
874.501010	1.001076
874.812015	0.999921
875.122979	1.000625
875.433900	0.999496
875.744780	1.000618
876.055618	0.998937
876.366415	1.000595
876.677169	1.000461
876.987882	0.998576
877.298554	1.000272
877.609183	0.998855
877.919771	0.999979
878.230317	1.001003
878.540822	0.999225
878.851285	1.000006
879.161707	1.000127
879.472087	1.001317
879.782425	0.998683
880.092722	1.000290
880.402977	0.999604
880.713191	0.998824
881.023363	0.998231
881.333494	0.998023
881.643583	0.998373
881.953631	0.998947
882.263637	0.997658
882.573602	0.998360
882.883526	0.998853
883.193408	0.998835
883.503248	0.999600
883.813048	0.998414
884.122806	0.999975
884.432522	0.999021
884.742197	1.000092
885.051831	0.999516
885.361424	0.998715
885.670975	1.000892
885.980485	1.000220
886.289954	0.998499
886.599382	0.998630
886.908768	1.000230
887.218113	0.998086
887.527417	0.999731
887.836680	1.000399
888.145901	1.000661
888.455082	1.001601
888.764221	1.000674
889.073319	0.999405
889.382376	1.000594
889.691392	0.999167
890.000366	1.001055
890.309300	1.001029
890.618193	0.999494
890.927044	0.999579
891.235855	1.000943
891.544625	1.000682
891.853353	0.999540
892.162041	0.999651
892.470687	0.999995
892.779293	0.998754
893.087858	0.999054
893.396381	0.999291
893.704864	0.998916
894.013306	0.998835
894.321707	0.999195
894.630068	0.998890
894.938387	0.999121
895.246665	0.998959
895.554903	0.998215
895.863100	0.999596
896.171256	0.999835
896.479371	0.999913
896.787446	0.999744
897.095480	0.999554
897.403473	1.000501
897.711425	0.999149
898.019336	1.000441
898.327207	0.999954
898.635038	0.999673
898.942827	0.999176
899.250576	0.999348
899.558284	1.000594
899.865952	0.999429
900.173579	0.999129
900.481165	1.000290
900.788711	0.999384
901.096216	0.999417
901.403681	1.000223
901.711105	1.000601
902.018489	0.999198
902.325832	0.999514
902.633135	0.999818
902.940397	0.999985
903.247619	0.999002
903.554800	0.999686
903.861941	0.999486
904.169041	0.999931
904.476101	0.999978
904.783121	0.999393
905.090100	0.998953
905.397039	1.000119
905.703938	0.999554
906.010796	0.998920
906.317614	0.999475
906.624391	1.000690
906.931129	1.000605
907.237826	1.000265
907.544483	0.999488
907.851099	0.999815
908.157675	0.999264
908.464211	0.999202
908.770707	0.999077
909.077163	1.000244
909.383578	0.999833
909.689954	1.000095
909.996289	1.000975
910.302584	1.000453
910.608839	1.001913
910.915054	0.999565
911.221229	1.001359
911.527363	0.999741
911.833458	0.999391
912.139513	1.000121
912.445527	1.000672
912.751502	1.000399
913.057436	0.998883
913.363331	1.000675
913.669186	1.000848
913.975000	1.000044
914.280775	1.000279
914.586510	1.000160
914.892205	0.999634
915.197859	0.999227
915.503475	0.999207
915.809050	0.998629
916.114585	0.998832
916.420081	1.000494
916.725536	1.000986
917.030952	1.000169
917.336328	0.998622
917.641665	0.999167
917.946961	0.999643
918.252218	0.999584
918.557435	0.998689
918.862612	0.999995
919.167750	1.000339
919.472848	0.999962
919.777906	0.999578
920.082925	1.000537
920.387904	0.999895
920.692843	0.999260
920.997743	0.999029
921.302603	1.000146
921.607423	0.998897
921.912204	1.000106
922.216946	1.000710
922.521647	0.998680
922.826310	0.999906
923.130932	1.000652
923.435516	1.000530
923.740059	0.998754
924.044564	1.000138
924.349028	0.998998
924.653454	1.000469
924.957840	0.999580
925.262186	0.999667
925.566493	1.000843
925.870761	0.999759
926.174989	0.999016
926.479178	0.999744
926.783328	0.999912
927.087438	0.999969
927.391509	0.998419
927.695541	1.000548
927.999533	0.999700
928.303486	0.999520
928.607400	1.000520
928.911275	1.001119
929.215110	1.000473
929.518906	1.000275
929.822663	1.001326
930.126381	1.001464
930.430060	0.999659
930.733699	1.001955
931.037299	1.000945
931.340861	1.000747
931.644383	0.998883
931.947866	1.000024
932.251309	1.000322
932.554714	1.000018
932.858080	1.000577
933.161407	0.999442
933.464694	1.000001
933.767943	0.999902
934.071153	1.000470
934.374323	1.001479
934.677455	0.999870
934.980548	0.999920
935.283602	1.000812
935.586617	0.999813
935.889593	1.001864
936.192530	1.001427
936.495428	1.000540
936.798287	0.999570
937.101108	0.999303
937.403890	0.999217
937.706632	1.002124
938.009336	0.999933
938.312002	0.999337
938.614628	1.001129
938.917216	1.000754
939.219765	1.000724
939.522275	1.000977
939.824747	0.999618
940.127179	0.999282
940.429573	1.001727
940.731929	0.999763
941.034246	0.999543
941.336524	0.997757
941.638763	1.000662
941.940964	1.001251
942.243126	0.999526
942.545250	1.000581
942.847335	1.000043
943.149381	1.000908
943.451389	1.000441
943.753359	1.000050
944.055290	1.001081
944.357182	1.000514
944.659036	1.000904
944.960851	1.000981
945.262628	0.999914
945.564367	1.000732
945.866067	0.999571
946.167729	1.000600
946.469352	1.000499
946.770937	0.998664
947.072484	1.000234
947.373992	0.999609
947.675462	0.998836
947.976893	0.998593
948.278286	1.000926
948.579641	1.001137
948.880958	0.999889
949.182236	0.999945
949.483476	1.000935
949.784678	0.999904
950.085841	0.999393
950.386967	0.999857
950.688054	0.999425
950.989103	0.999788
951.290114	0.999044
951.591087	1.000001
951.892021	1.000211
952.192917	1.001460
952.493776	0.999781
952.794596	0.999138
953.095378	0.999314
953.396122	0.999576
953.696828	1.001038
953.997496	1.000371
954.298126	1.001221
954.598718	0.999939
954.899272	0.999759
955.199788	0.999966
955.500266	1.000752
955.800706	1.000408
956.101108	1.000246
956.401472	1.001052
956.701798	0.999575
957.002087	0.999057
957.302337	1.000009
957.602550	1.000351
957.902724	0.999791
958.202861	0.999464
958.502960	0.998766
958.803022	1.001079
959.103045	1.001374
959.403031	1.000169
959.702979	1.000827
960.002889	1.000769
960.302762	0.999540
960.602596	1.001338
960.902393	1.000705
961.202153	1.000236
961.501875	1.000146
961.801559	1.001107
962.101205	0.999773
962.400814	0.999788
962.700385	0.999978
962.999918	1.000892
963.299414	0.998692
963.598873	1.000246
963.898293	1.000489
964.197677	0.998589
964.497022	0.999494
964.796331	1.000016
965.095601	1.000216
965.394835	1.000658
965.694030	1.000034
965.993189	0.999743
966.292309	1.000440
966.591393	0.998696
966.890439	1.001895
967.189447	0.999536
967.488419	1.000548
967.787353	0.999048
968.086249	0.999254
968.385108	0.999592
968.683930	1.000838
968.982714	1.000221
969.281462	0.999745
969.580172	1.000299
969.878844	1.001138
970.177480	0.999028
970.476078	1.000390
970.774639	1.000295
971.073162	0.999967
971.371649	1.000179
971.670098	1.000153
971.968510	1.000022
972.266885	0.999399
972.565223	0.999930
972.863524	0.999288
973.161788	0.999682
973.460014	1.000975
973.758204	1.000236
974.056356	0.999266
974.354471	0.999657
974.652550	1.000248
974.950591	0.998432
975.248595	0.999529
975.546563	1.001339
975.844493	1.000382
976.142386	0.999748
976.440243	0.999188
976.738062	1.000571
977.035845	0.999564
977.333590	1.000489
977.631299	0.999812
977.928971	0.999853
978.226606	1.000160
978.524204	1.000255
978.821765	1.000493
979.119290	1.001194
979.416777	0.999264
979.714228	0.999259
980.011642	1.000798
980.309020	1.000397
980.606360	1.000684
980.903664	0.998942
981.200931	0.999301
981.498162	1.000579
981.795356	0.999810
982.092513	0.999512
982.389633	1.000937
982.686717	0.999361
982.983764	1.000482
983.280775	1.000445
983.577749	1.001977
983.874686	1.000114
984.171587	0.998842
984.468451	0.999261
984.765279	1.000598
985.062070	1.000413
985.358824	1.000649
985.655543	1.000120
985.952224	1.001422
986.248869	1.000379
986.545478	1.001576
986.842050	1.000541
987.138586	0.999454
987.435086	1.000575
987.731549	1.000614
988.027975	1.001268
988.324366	0.999793
988.620719	1.001032
988.917037	1.000383
989.213318	1.001224
989.509563	0.999971
989.805772	1.000037
990.101944	1.000838
990.398080	0.999913
990.694180	1.000682
990.990244	0.998970
991.286271	0.999580
991.582262	0.999399
991.878217	0.999784
992.174136	1.001545
992.470019	0.999704
992.765865	1.001620
993.061676	1.000020
993.357450	1.001044
993.653188	0.999386
993.948890	0.999323
994.244556	0.999521
994.540186	0.999259
994.835780	0.999467
995.131337	1.001070
995.426859	1.000693
995.722345	0.999779
996.017795	0.999954
996.313208	0.999374
996.608586	0.999583
996.903928	1.000197
997.199234	1.000322
997.494504	1.001515
997.789738	0.999038
998.084936	1.001311
998.380099	0.999401
998.675225	1.000689
998.970316	1.000795
999.265371	1.000254
999.560390	1.000446
999.855373	0.999821
1000.150320	1.001506
1000.445232	1.000761
1000.740108	1.000724
1001.034948	1.000117
1001.329752	1.000924
1001.624521	1.000152
1001.919254	0.999203
1002.213951	1.000716
1002.508613	0.999756
1002.803239	0.999280
1003.097829	0.999854
1003.392384	1.000394
1003.686903	1.001175
1003.981386	0.999588
1004.275834	1.000310
1004.570246	0.998639
1004.864623	1.001211
1005.158964	1.000844
1005.453270	1.000076
1005.747540	0.998991
1006.041775	1.000602
1006.335974	1.000634
1006.630138	1.000679
1006.924266	0.999060
1007.218359	0.999265
1007.512416	1.001217
1007.806438	1.000219
1008.100425	1.000910
1008.394376	1.000590
1008.688292	0.999292
1008.982172	0.999311
1009.276017	1.000121
1009.569827	1.001124
1009.863602	0.999116
1010.157341	1.001205
1010.451045	0.999598
1010.744714	1.002187
1011.038347	1.000437
1011.331945	0.999581
1011.625508	0.999444
1011.919036	0.999397
1012.212528	1.000404
1012.505986	1.000619
1012.799408	1.001089
1013.092795	1.000837
1013.386147	0.999708
1013.679464	1.001234
1013.972745	1.000105
1014.265992	1.000668
1014.559204	0.998948
1014.852380	1.001085
1015.145521	1.000577
1015.438628	0.998996
1015.731699	0.999935
1016.024736	1.002391
1016.317737	0.999702
1016.610703	1.000540
1016.903635	0.999769
1017.196531	0.999629
1017.489393	1.000315
1017.782219	0.999632
1018.075011	1.000083
1018.367768	0.999275
1018.660490	1.000058
1018.953177	1.000058
1019.245829	1.000058
