Dividing Wavelength (nm)	Counts (n)	Blue Motor Position (mm): 31.900000	Red Motor Position (mm): 0.000000	
326.493990	1.000080
326.888308	1.000080
327.282561	1.000080
327.676750	1.000025
328.070874	1.001242
328.464933	1.001594
328.858929	1.000965
329.252859	1.000962
329.646726	1.000763
330.040528	1.001018
330.434265	1.002313
330.827938	1.000558
331.221547	1.001667
331.615091	1.001135
332.008571	1.000623
332.401986	0.999449
332.795338	1.000458
333.188625	1.001832
333.581847	1.000075
333.975006	1.001138
334.368100	1.000611
334.761129	1.000170
335.154095	1.000994
335.546996	1.000175
335.939833	0.998837
336.332606	1.000226
336.725315	1.000360
337.117960	1.000311
337.510540	0.998811
337.903056	1.000564
338.295508	1.000333
338.687896	1.000556
339.080220	0.999907
339.472480	0.999297
339.864676	1.000807
340.256807	0.998789
340.648875	0.999652
341.040879	0.999596
341.432818	1.000238
341.824694	0.999029
342.216506	1.000111
342.608253	0.999668
342.999937	0.999612
343.391557	0.999745
343.783113	1.000749
344.174605	1.000298
344.566033	0.998300
344.957397	0.999724
345.348697	1.000570
345.739934	1.000896
346.131106	0.999833
346.522215	0.999054
346.913260	0.999946
347.304241	0.998549
347.695159	0.998921
348.086012	0.998365
348.476802	0.999512
348.867528	0.998642
349.258191	1.000448
349.648789	0.999537
350.039324	1.000259
350.429796	0.999391
350.820203	0.998132
351.210548	0.999738
351.600828	1.000372
351.991045	0.998182
352.381198	0.998162
352.771288	0.999196
353.161314	0.999145
353.551276	0.998552
353.941175	0.997603
354.331010	1.000181
354.720782	0.998776
355.110490	0.999050
355.500135	0.999857
355.889717	0.998432
356.279235	0.998279
356.668689	1.000199
357.058080	0.999035
357.447408	0.998688
357.836672	0.999138
358.225873	0.997828
358.615010	0.998911
359.004084	0.998591
359.393095	0.999488
359.782043	0.998397
360.170927	0.999291
360.559748	0.999170
360.948505	0.997970
361.337199	0.999057
361.725830	0.999167
362.114398	0.997838
362.502903	0.996694
362.891344	0.997190
363.279722	0.997617
363.668037	0.998932
364.056289	0.996740
364.444478	0.999627
364.832603	0.997976
365.220665	0.997360
365.608665	0.997032
365.996601	0.997405
366.384474	0.996315
366.772284	0.998750
367.160031	0.996223
367.547715	0.996623
367.935336	0.994919
368.322893	0.994575
368.710388	0.993381
369.097820	0.991553
369.485189	0.988987
369.872495	0.987670
370.259738	0.985996
370.646918	0.982762
371.034035	0.980639
371.421090	0.977945
371.808081	0.972951
372.195010	0.969937
372.581875	0.965084
372.968678	0.959844
373.355418	0.956692
373.742096	0.949358
374.128710	0.945626
374.515262	0.939704
374.901751	0.935486
375.288177	0.929864
375.674540	0.923109
376.060841	0.916510
376.447079	0.910389
376.833254	0.904176
377.219367	0.899719
377.605417	0.887329
377.991404	0.883351
378.377329	0.877848
378.763191	0.870624
379.148991	0.861563
379.534727	0.854331
379.920402	0.847142
380.306013	0.843058
380.691563	0.829877
381.077049	0.823532
381.462474	0.819058
381.847835	0.807700
382.233134	0.802832
382.618371	0.803984
383.003545	0.786687
383.388657	0.784523
383.773706	0.775729
384.158693	0.773079
384.543618	0.766853
384.928480	0.758429
385.313280	0.748498
385.698017	0.748393
386.082692	0.736205
386.467305	0.735356
386.851856	0.729384
387.236344	0.724500
387.620770	0.718524
388.005133	0.713364
388.389435	0.707467
388.773674	0.704717
389.157851	0.696922
389.541965	0.693697
389.926018	0.701265
390.310008	0.687710
390.693936	0.684851
391.077802	0.676686
391.461606	0.678111
391.845348	0.667584
392.229027	0.667715
392.612645	0.665235
392.996200	0.652212
393.379694	0.645380
393.763125	0.636167
394.146494	0.639745
394.529801	0.631368
394.913047	0.622224
395.296230	0.628735
395.679351	0.620750
396.062410	0.617516
396.445408	0.620058
396.828343	0.615637
397.211217	0.609510
397.594028	0.621925
397.976778	0.613348
398.359466	0.608922
398.742092	0.604315
399.124656	0.616623
399.507158	0.604632
399.889598	0.601664
400.271977	0.592700
400.654294	0.597261
401.036549	0.596725
401.418742	0.600315
401.800874	0.586605
402.182944	0.583200
402.564952	0.574158
402.946898	0.576769
403.328783	0.577900
403.710606	0.588975
404.092367	0.564405
404.474067	0.569141
404.855705	0.567342
405.237282	0.576870
405.618797	0.563045
406.000250	0.558616
406.381642	0.548242
406.762972	0.554124
407.144240	0.552447
407.525447	0.552570
407.906593	0.545128
408.287677	0.541339
408.668700	0.548800
409.049661	0.543497
409.430560	0.537800
409.811399	0.546702
410.192176	0.528836
410.572891	0.535493
410.953545	0.524124
411.334138	0.537518
411.714669	0.530192
412.095139	0.542429
412.475547	0.526971
412.855894	0.528858
413.236180	0.527819
413.616405	0.533302
413.996568	0.524260
414.376670	0.530714
414.756711	0.535721
415.136691	0.533109
415.516609	0.525126
415.896466	0.521979
416.276262	0.519268
416.655997	0.521562
417.035670	0.503719
417.415283	0.497465
417.794834	0.502968
418.174324	0.509917
418.553753	0.519919
418.933121	0.504016
419.312428	0.499592
419.691674	0.507465
420.070859	0.498418
420.449983	0.508292
420.829045	0.500257
421.208047	0.510714
421.586988	0.507499
421.965867	0.509159
422.344686	0.501822
422.723444	0.516686
423.102141	0.535791
423.480777	0.513195
423.859352	0.535813
424.237866	0.519172
424.616319	0.523641
424.994712	0.519342
425.373044	0.533673
425.751314	0.527303
426.129524	0.547121
426.507673	0.537594
426.885762	0.536396
427.263789	0.547459
427.641756	0.560622
428.019662	0.558190
428.397508	0.563846
428.775292	0.574591
429.153016	0.573877
429.530679	0.585527
429.908282	0.587000
430.285824	0.601025
430.663305	0.592471
431.040726	0.616189
431.418086	0.622471
431.795385	0.624431
432.172624	0.631414
432.549802	0.638940
432.926920	0.646336
433.303977	0.653805
433.680974	0.660789
434.057910	0.669005
434.434786	0.676610
434.811601	0.686164
435.188355	0.684012
435.565050	0.698262
435.941683	0.707160
436.318257	0.707167
436.694770	0.717784
437.071222	0.725628
437.447614	0.736561
437.823946	0.747553
438.200218	0.751776
438.576429	0.764766
438.952580	0.770494
439.328670	0.777463
439.704700	0.787813
440.080670	0.795974
440.456580	0.798690
440.832429	0.809232
441.208218	0.821005
441.583947	0.824652
441.959616	0.831207
442.335224	0.841869
442.710773	0.846185
443.086261	0.853782
443.461689	0.862424
443.837057	0.867936
444.212365	0.872691
444.587612	0.880480
444.962800	0.884407
445.337927	0.891948
445.712995	0.902392
446.088002	0.900577
446.462949	0.908004
446.837837	0.915503
447.212664	0.916589
447.587431	0.921971
447.962139	0.921961
448.336786	0.919070
448.711374	0.926185
449.085901	0.937949
449.460369	0.943069
449.834776	0.947222
450.209124	0.948445
450.583412	0.952338
450.957640	0.953797
451.331808	0.958733
451.705917	0.963500
452.079965	0.966653
452.453954	0.969364
452.827883	0.972088
453.201752	0.974731
453.575562	0.975621
453.949311	0.978023
454.323001	0.979558
454.696632	0.981396
455.070202	0.982262
455.443713	0.983683
455.817164	0.985384
456.190556	0.985818
456.563888	0.987757
456.937160	0.988090
457.310373	0.989552
457.683526	0.990702
458.056619	0.991915
458.429653	0.991639
458.802628	0.992722
459.175542	0.994252
459.548398	0.994206
459.921194	0.993897
460.293930	0.995583
460.666607	0.994619
461.039224	0.994880
461.411782	0.995140
461.784280	0.995482
462.156719	0.996387
462.529099	0.996062
462.901419	0.996119
463.273680	0.996418
463.645882	0.996483
464.018024	0.997459
464.390106	0.997191
464.762130	0.997201
465.134094	0.997076
465.505999	0.997267
465.877845	0.996850
466.249631	0.996281
466.621358	0.996265
466.993026	0.997480
467.364634	0.997561
467.736184	0.997426
468.107674	0.997843
468.479105	0.997547
468.850477	0.998119
469.221790	0.997935
469.593043	0.997817
469.964238	0.998023
470.335373	0.997623
470.706449	0.998569
471.077467	0.998316
471.448425	0.998064
471.819324	0.997720
472.190164	0.997502
472.560945	0.998055
472.931667	0.997918
473.302330	0.998444
473.672934	0.998479
474.043479	0.998364
474.413965	0.998925
474.784393	0.998453
475.154761	0.998052
475.525070	0.998367
475.895321	0.998601
476.265513	0.998717
476.635645	0.998592
477.005719	0.998127
477.375734	0.997732
477.745691	0.997690
478.115588	0.997474
478.485427	0.997762
478.855207	0.998330
479.224928	0.997472
479.594591	0.997960
479.964194	0.997320
480.333739	0.997802
480.703226	0.996849
481.072653	0.997724
481.442022	0.997834
481.811333	0.998090
482.180584	0.998267
482.549777	0.997382
482.918912	0.997751
483.287988	0.997715
483.657005	0.997163
484.025964	0.997635
484.394864	0.997829
484.763706	0.997672
485.132489	0.998649
485.501213	0.997939
485.869879	0.997873
486.238487	0.997587
486.607036	0.998370
486.975527	0.997976
487.343959	0.997165
487.712333	0.997849
488.080648	0.997193
488.448905	0.998412
488.817104	0.997933
489.185244	0.998429
489.553326	0.998340
489.921350	0.998186
490.289315	0.997756
490.657222	0.996769
491.025070	0.997967
491.392861	0.998100
491.760593	0.997939
492.128267	0.997818
492.495883	0.997376
492.863440	0.997835
493.230939	0.998145
493.598380	0.998996
493.965763	0.997800
494.333088	0.997926
494.700354	0.997753
495.067563	0.998045
495.434713	0.998372
495.801805	0.998286
496.168839	0.997717
496.535815	0.997957
496.902733	0.997500
497.269593	0.997653
497.636395	0.997723
498.003139	0.997813
498.369825	0.998271
498.736453	0.998183
499.103023	0.998249
499.469535	0.998185
499.835989	0.998182
500.202385	0.997952
500.568723	0.998008
500.935003	0.998599
501.301226	0.998624
501.667390	0.998138
502.033497	0.998396
502.399546	0.998194
502.765537	0.998602
503.131470	0.998574
503.497345	0.998223
503.863163	0.998563
504.228923	0.998630
504.594625	0.998090
504.960269	0.998423
505.325856	0.998868
505.691385	0.998340
506.056856	0.998644
506.422270	0.998695
506.787625	0.998429
507.152924	0.998559
507.518164	0.997870
507.883347	0.997639
508.248472	0.998626
508.613540	0.998455
508.978550	0.998492
509.343503	0.998084
509.708398	0.998658
510.073236	0.998541
510.438016	0.998565
510.802738	0.997997
511.167403	0.998356
511.532010	0.998479
511.896561	0.998314
512.261053	0.998459
512.625488	0.998233
512.989866	0.998489
513.354186	0.997963
513.718449	0.998341
514.082655	0.998285
514.446803	0.998023
514.810894	0.998494
515.174927	0.998515
515.538904	0.998554
515.902822	0.998061
516.266684	0.997886
516.630488	0.998996
516.994235	0.998825
517.357925	0.998571
517.721558	0.998729
518.085133	0.998178
518.448651	0.998487
518.812112	0.998605
519.175516	0.998289
519.538863	0.998021
519.902152	0.999087
520.265385	0.998382
520.628560	0.997787
520.991678	0.998269
521.354739	0.998877
521.717743	0.998003
522.080690	0.997872
522.443580	0.998067
522.806413	0.997902
523.169189	0.998862
523.531908	0.997240
523.894569	0.998286
524.257174	0.997887
524.619722	0.998425
524.982213	0.998192
525.344647	0.998066
525.707025	0.997760
526.069345	0.998001
526.431608	0.998397
526.793815	0.998899
527.155964	0.998471
527.518057	0.998968
527.880093	0.997404
528.242072	0.997914
528.603995	0.997836
528.965860	0.998646
529.327669	0.998687
529.689421	0.997779
530.051117	0.998192
530.412755	0.998470
530.774337	0.998293
531.135862	0.998087
531.497331	0.998296
531.858743	0.998473
532.220098	0.997814
532.581396	0.998393
532.942638	0.998398
533.303824	0.999198
533.664953	0.998318
534.026025	0.998880
534.387040	0.998797
534.747999	0.997779
535.108902	0.998395
535.469748	0.998616
535.830537	0.998640
536.191270	0.998169
536.551947	0.997931
536.912567	0.997955
537.273131	0.998572
537.633638	0.998189
537.994089	0.998353
538.354483	0.998662
538.714821	0.998581
539.075103	0.998165
539.435328	0.998510
539.795497	0.998050
540.155609	0.998197
540.515665	0.998344
540.875665	0.997829
541.235609	0.998202
541.595496	0.998176
541.955328	0.998561
542.315102	0.998515
542.674821	0.998696
543.034483	0.998421
543.394090	0.998112
543.753640	0.999051
544.113134	0.997921
544.472571	0.998799
544.831953	0.997793
545.191278	0.998616
545.550548	0.997842
545.909761	0.997240
546.268918	0.998784
546.628019	0.998436
546.987064	0.998427
547.346053	0.997428
547.704986	0.997900
548.063863	0.998126
548.422684	0.998894
548.781449	0.998457
549.140158	0.998263
549.498811	0.998172
549.857408	0.997450
550.215949	0.997182
550.574434	0.997655
550.932864	0.998458
551.291237	0.997942
551.649555	0.998772
552.007817	0.998280
552.366022	0.998696
552.724173	0.998201
553.082267	0.997997
553.440305	0.997347
553.798288	0.997143
554.156215	0.997551
554.514086	0.998038
554.871902	0.997978
555.229661	0.996972
555.587365	0.998217
555.945014	0.998222
556.302606	0.998138
556.660143	0.998341
557.017625	0.998319
557.375050	0.998235
557.732421	0.998090
558.089735	0.997694
558.446994	0.998335
558.804197	0.998545
559.161345	0.997684
559.518437	0.997984
559.875474	0.998642
560.232455	0.998585
560.589381	0.998633
560.946251	0.997681
561.303065	0.998269
561.659825	0.998058
562.016528	0.998174
562.373177	0.998210
562.729770	0.997949
563.086307	0.997770
563.442789	0.998270
563.799216	0.997555
564.155587	0.998392
564.511904	0.998394
564.868164	0.997232
565.224370	0.997810
565.580520	0.998171
565.936615	0.997893
566.292654	0.997998
566.648638	0.998359
567.004567	0.997711
567.360441	0.998665
567.716260	0.997760
568.072023	0.997803
568.427732	0.997670
568.783385	0.998131
569.138982	0.997821
569.494525	0.997711
569.850013	0.998256
570.205445	0.998602
570.560823	0.997879
570.916145	0.998309
571.271412	0.998416
571.626625	0.997746
571.981782	0.997897
572.336884	0.998511
572.691931	0.997887
573.046923	0.998661
573.401860	0.997795
573.756743	0.998968
574.111570	0.998540
574.466342	0.998915
574.821059	0.998021
575.175722	0.998654
575.530330	0.997930
575.884882	0.998180
576.239380	0.998868
576.593823	0.997869
576.948211	0.998483
577.302544	0.998156
577.656823	0.998298
578.011047	0.997582
578.365216	0.998593
578.719330	0.998921
579.073389	0.997649
579.427394	0.997582
579.781344	0.998101
580.135239	0.997773
580.489080	0.998198
580.842866	0.998427
581.196597	0.997470
581.550273	0.997107
581.903895	0.998501
582.257463	0.997443
582.610975	0.997750
582.964434	0.998253
583.317837	0.998325
583.671186	0.998366
584.024481	0.997880
584.377721	0.997071
584.730906	0.997791
585.084037	0.998734
585.437113	0.998678
585.790135	0.997990
586.143103	0.997832
586.496016	0.998241
586.848874	0.998684
587.201679	0.998376
587.554428	0.997690
587.907124	0.998494
588.259765	0.998854
588.612352	0.998770
588.964884	0.998906
589.317362	0.997654
589.669786	0.998184
590.022155	0.997647
590.374470	0.997410
590.726731	0.997280
591.078937	0.998131
591.431090	0.997679
591.783188	0.997808
592.135232	0.998714
592.487222	0.998649
592.839157	0.998089
593.191038	0.998460
593.542866	0.998017
593.894639	0.997240
594.246358	0.998060
594.598022	0.998473
594.949633	0.997616
595.301190	0.997793
595.652692	0.997577
596.004141	0.997503
596.355535	0.998080
596.706876	0.999174
597.058162	0.998068
597.409395	0.998062
597.760573	0.998001
598.111698	0.998216
598.462768	0.997982
598.813785	0.997376
599.164748	0.997694
599.515657	0.998351
599.866511	0.998348
600.217312	0.998192
600.568060	0.997636
600.918753	0.998012
601.269392	0.998126
601.619978	0.998451
601.970510	0.998105
602.320988	0.998123
602.671412	0.997944
603.021783	0.998665
603.372100	0.998662
603.722363	0.998547
604.072572	0.997777
604.422728	0.997161
604.772830	0.997990
605.122878	0.998232
605.472872	0.998020
605.822813	0.997909
606.172701	0.997911
606.522534	0.997887
606.872314	0.998668
607.222041	0.997572
607.571714	0.998072
607.921333	0.997781
608.270899	0.997903
608.620411	0.998386
608.969870	0.998319
609.319276	0.998006
609.668627	0.998439
610.017926	0.998103
610.367171	0.998285
610.716362	0.998751
611.065500	0.997581
611.414585	0.998246
611.763616	0.997057
612.112594	0.997575
612.461518	0.997515
612.810389	0.997670
613.159207	0.997550
613.507971	0.997282
613.856682	0.998671
614.205340	0.997164
614.553945	0.997606
614.902496	0.997997
615.250994	0.998080
615.599439	0.998248
615.947830	0.997311
616.296169	0.997672
616.644454	0.998158
616.992686	0.998280
617.340864	0.998513
617.688990	0.998150
618.037063	0.997505
618.385082	0.997451
618.733048	0.996860
619.080961	0.996995
619.428821	0.998217
619.776628	0.997283
620.124382	0.997974
620.472083	0.998089
620.819731	0.998888
621.167326	0.998424
621.514868	0.998536
621.862357	0.998340
622.209793	0.997980
622.557176	0.998051
622.904506	0.997915
623.251783	0.998906
623.599007	0.998362
623.946179	0.997505
624.293297	0.998741
624.640363	0.997813
624.987376	0.998025
625.334336	0.997602
625.681243	0.997762
626.028097	0.997727
626.374899	0.998034
626.721647	0.998327
627.068343	0.997651
627.414987	0.997489
627.761577	0.997442
628.108115	0.997883
628.454600	0.998567
628.801032	0.997913
629.147412	0.998226
629.493739	0.999153
629.840014	0.997515
630.186236	0.997763
630.532405	0.997771
630.878521	0.997550
631.224585	0.998293
631.570597	0.997944
631.916556	0.998443
632.262462	0.997160
632.608316	0.998449
632.954117	0.997835
633.299866	0.997423
633.645562	0.997489
633.991206	0.998322
634.336797	0.997939
634.682336	0.998773
635.027823	0.997671
635.373257	0.997971
635.718639	0.998257
636.063968	0.997777
636.409245	0.997352
636.754470	0.997807
637.099642	0.998359
637.444762	0.998079
637.789829	0.997966
638.134845	0.998354
638.479808	0.998089
638.824719	0.997766
639.169577	0.997354
639.514383	0.998578
639.859137	0.997804
640.203839	0.998037
640.548489	0.997126
640.893086	0.997607
641.237632	0.997815
641.582125	0.998359
641.926566	0.998784
642.270955	0.998207
642.615292	0.997332
642.959576	0.998184
643.303809	0.998916
643.647990	0.998270
643.992118	0.998677
644.336195	0.997368
644.680219	0.998148
645.024192	0.997530
645.368112	0.997780
645.711981	0.997759
646.055797	0.997764
646.399562	0.996340
646.743274	0.998378
647.086935	0.997707
647.430544	0.997474
647.774101	0.998019
648.117606	0.997939
648.461059	0.998328
648.804460	0.997893
649.147810	0.997604
649.491108	0.998206
649.834354	0.997760
650.177548	0.997724
650.520690	0.997675
650.863781	0.997660
651.206820	0.998278
651.549807	0.997575
651.892742	0.998011
652.235626	0.997883
652.578458	0.997642
652.921238	0.998414
653.263967	0.997620
653.606644	0.997548
653.949269	0.998589
654.291843	0.996700
654.634365	0.997694
654.976836	0.997258
655.319255	0.999513
655.661622	0.997886
656.003938	0.997264
656.346203	0.997912
656.688416	0.997712
657.030577	0.997475
657.372687	0.998426
657.714746	0.997779
658.056753	0.997622
658.398708	0.997661
658.740612	0.998046
659.082465	0.997631
659.424266	0.997904
659.766016	0.997662
660.107715	0.997986
660.449362	0.998118
660.790958	0.997723
661.132503	0.998452
661.473996	0.997576
661.815438	0.998302
662.156829	0.998170
662.498168	0.997520
662.839456	0.997698
663.180693	0.997787
663.521879	0.997646
663.863013	0.998313
664.204097	0.997278
664.545129	0.997318
664.886110	0.997183
665.227040	0.997766
665.567918	0.997323
665.908746	0.996893
666.249522	0.997103
666.590248	0.998177
666.930922	0.997582
667.271545	0.996769
667.612118	0.997706
667.952639	0.997819
668.293109	0.997935
668.633528	0.996802
668.973896	0.997924
669.314213	0.997542
669.654480	0.997466
669.994695	0.997441
670.334859	0.997876
670.674973	0.997496
671.015035	0.997467
671.355047	0.997650
671.695008	0.997591
672.034918	0.996866
672.374777	0.997842
672.714585	0.997682
673.054342	0.998422
673.394049	0.997288
673.733705	0.997197
674.073310	0.998129
674.412864	0.997048
674.752368	0.996869
675.091820	0.998097
675.431223	0.997580
675.770574	0.996691
676.109875	0.997684
676.449125	0.996800
676.788324	0.996515
677.127473	0.998111
677.466571	0.997771
677.805619	0.997297
678.144616	0.998097
678.483562	0.997337
678.822458	0.997754
679.161303	0.997234
679.500098	0.998520
679.838842	0.997765
680.177535	0.996915
680.516179	0.996435
680.854771	0.997171
681.193314	0.998007
681.531805	0.997075
681.870247	0.997212
682.208638	0.997936
682.546978	0.996971
682.885268	0.996997
683.223508	0.997492
683.561697	0.997459
683.899836	0.996911
684.237925	0.997060
684.575963	0.997027
684.913951	0.997077
685.251889	0.995815
685.589776	0.997381
685.927614	0.996873
686.265401	0.996605
686.603137	0.996577
686.940824	0.996583
687.278460	0.997765
687.616046	0.996869
687.953582	0.997186
688.291068	0.997623
688.628504	0.997229
688.965889	0.996874
689.303224	0.995634
689.640510	0.997038
689.977745	0.996141
690.314930	0.996374
690.652065	0.997462
690.989150	0.996654
691.326185	0.998115
691.663170	0.997017
692.000105	0.997150
692.336990	0.997251
692.673825	0.997072
693.010610	0.997560
693.347345	0.997701
693.684030	0.996832
694.020665	0.997115
694.357251	0.996794
694.693786	0.997966
695.030272	0.995289
695.366707	0.996520
695.703093	0.997844
696.039429	0.997087
696.375716	0.997412
696.711952	0.996815
697.048139	0.997483
697.384276	0.997645
697.720363	0.997525
698.056400	0.995602
698.392388	0.996445
698.728326	0.998115
699.064214	0.997737
699.400053	0.996886
699.735842	0.997919
700.071581	0.997355
700.407270	0.997483
700.742910	0.997318
701.078501	0.997412
701.414042	0.997575
701.749533	0.996372
702.084974	0.997675
702.420366	0.997735
702.755709	0.997130
703.091002	0.997876
703.426246	0.997808
703.761440	0.997459
704.096584	0.997730
704.431679	0.997670
704.766725	0.997889
705.101721	0.997834
705.436668	0.996875
705.771565	0.996493
706.106413	0.996343
706.441212	0.997428
706.775961	0.997579
707.110661	0.996826
707.445311	0.997384
707.779913	0.997563
708.114465	0.997449
708.448967	0.997130
708.783421	0.998320
709.117825	0.997129
709.452180	0.997595
709.786485	0.997162
710.120742	0.997715
710.454949	0.995151
710.789107	0.997529
711.123216	0.996583
711.457275	0.996229
711.791286	0.997011
712.125247	0.998109
712.459159	0.996537
712.793023	0.996053
713.126837	0.997190
713.460602	0.995743
713.794318	0.995496
714.127985	0.995828
714.461602	0.997161
714.795171	0.996194
715.128691	0.996356
715.462162	0.997347
715.795584	0.996640
716.128957	0.996821
716.462281	0.996348
716.795556	0.996780
717.128782	0.998179
717.461960	0.997533
717.795088	0.996787
718.128167	0.999016
718.461198	0.997600
718.794180	0.997722
719.127113	0.997551
719.459997	0.996736
719.792833	0.996796
720.125619	0.996365
720.458357	0.997038
720.791046	0.997507
721.123686	0.996242
721.456278	0.997221
721.788821	0.997110
722.121315	0.998454
722.453761	0.997666
722.786158	0.996757
723.118506	0.997153
723.450805	0.996843
723.783056	0.997529
724.115259	0.995996
724.447412	0.998107
724.779518	0.997429
725.111574	0.997242
725.443582	0.996117
725.775542	0.997477
726.107453	0.998052
726.439315	0.997406
726.771129	0.996290
727.102895	0.996791
727.434612	0.996827
727.766281	0.997227
728.097901	0.995462
728.429473	0.996765
728.760996	0.995490
729.092471	0.996447
729.423897	0.997423
729.755276	0.996628
730.086606	0.996773
730.417887	0.996353
730.749120	0.997114
731.080305	0.997318
731.411442	0.996918
731.742530	0.995807
732.073570	0.996598
732.404562	0.996759
732.735506	0.997022
733.066401	0.996700
733.397249	0.996970
733.728048	0.996364
734.058798	0.996845
734.389501	0.997836
734.720156	0.997155
735.050762	0.997469
735.381320	0.996837
735.711831	0.996546
736.042293	0.997737
736.372707	0.997843
736.703073	0.995705
737.033391	0.996623
737.363661	0.997673
737.693883	0.996546
738.024056	0.996674
738.354182	0.996959
738.684260	0.997122
739.014290	0.996044
739.344272	0.996436
739.674207	0.996870
740.004093	0.997450
740.333931	0.997831
740.663722	0.997388
740.993464	0.997352
741.323159	0.997138
741.652806	0.996726
741.982405	0.997449
742.311956	0.997288
742.641460	0.997658
742.970915	0.996819
743.300323	0.996211
743.629683	0.997262
743.958996	0.998656
744.288260	0.996920
744.617477	0.996570
744.946647	0.996293
745.275768	0.997469
745.604842	0.997374
745.933869	0.997154
746.262847	0.997107
746.591778	0.996446
746.920662	0.997852
747.249498	0.998936
747.578286	0.998787
747.907027	0.997493
748.235720	0.998203
748.564365	0.997699
748.892963	0.996743
749.221514	0.997132
749.550017	0.997018
749.878473	0.997211
750.206881	0.998783
750.535242	0.997356
750.863555	0.997595
751.191821	0.997112
751.520039	0.996530
751.848210	0.995948
752.176334	0.997179
752.504411	0.996967
752.832440	0.996882
753.160421	0.996719
753.488356	0.997899
753.816243	0.996545
754.144082	0.996951
754.471875	0.997231
754.799620	0.998005
755.127318	0.997553
755.454969	0.997080
755.782572	0.997892
756.110129	0.996650
756.437638	0.998580
756.765100	0.998650
757.092515	0.997384
757.419882	0.998420
757.747203	0.997562
758.074477	0.998891
758.401703	0.996898
758.728882	0.997299
759.056014	0.997873
759.383099	0.997507
759.710138	0.998093
760.037129	0.997761
760.364073	0.997464
760.690970	0.997244
761.017820	0.997375
761.344623	0.997433
761.671379	0.997844
761.998088	0.997144
762.324751	0.996830
762.651366	0.996696
762.977935	0.995184
763.304456	0.995175
763.630931	0.994336
763.957359	0.993903
764.283740	0.994749
764.610074	0.995603
764.936362	0.996257
765.262602	0.996942
765.588796	0.997691
765.914943	0.997401
766.241044	0.996740
766.567097	0.997294
766.893104	0.997404
767.219064	0.997134
767.544978	0.997629
767.870845	0.998373
768.196665	0.998204
768.522438	0.997385
768.848165	0.998249
769.173846	0.998774
769.499479	0.998405
769.825066	0.997926
770.150607	0.999242
770.476101	0.997835
770.801548	0.998791
771.126949	0.998250
771.452303	0.998162
771.777611	0.998855
772.102872	0.998075
772.428087	0.997521
772.753256	0.998397
773.078378	0.998907
773.403453	0.997094
773.728482	0.999525
774.053465	0.996855
774.378401	0.997407
774.703291	0.999095
775.028135	0.999307
775.352932	0.996338
775.677683	0.999551
776.002388	0.998048
776.327046	0.998380
776.651658	1.000095
776.976224	0.998854
777.300743	0.996850
777.625216	0.998489
777.949643	0.998431
778.274024	0.997752
778.598359	0.997978
778.922647	0.998634
779.246889	0.999213
779.571086	0.999418
779.895236	0.998387
780.219339	0.998593
780.543397	0.997706
780.867409	0.998471
781.191374	0.997982
781.515294	0.999467
781.839167	0.998967
782.162995	0.998312
782.486776	0.997697
782.810511	0.998106
783.134201	0.999170
783.457844	0.998928
783.781441	0.998580
784.104993	0.996956
784.428498	0.998261
784.751958	0.998641
785.075372	0.999601
785.398739	0.998074
785.722061	0.997535
786.045337	0.999281
786.368568	0.998423
786.691752	0.999135
787.014891	0.997918
787.337983	0.997588
787.661030	0.998180
787.984031	0.997409
788.306987	0.998939
788.629897	0.996141
788.952760	0.997654
789.275579	0.998745
789.598351	0.998237
789.921078	0.999695
790.243759	0.998724
790.566395	0.997386
790.888984	0.998070
791.211529	0.999250
791.534027	0.997716
791.856480	0.999047
792.178888	0.998229
792.501249	0.998346
792.823566	0.999152
793.145836	0.999167
793.468062	0.998052
793.790241	0.999649
794.112375	0.997143
794.434464	0.998846
794.756507	0.999014
795.078505	0.999278
795.400457	0.998780
795.722364	0.998690
796.044226	0.997847
796.366042	0.997883
796.687812	0.996611
797.009538	0.998078
797.331218	0.999424
797.652852	0.999338
797.974442	0.997441
798.295986	0.998494
798.617484	0.998291
798.938938	0.998106
799.260346	0.999079
799.581709	0.998636
799.903026	0.999228
800.224299	0.998090
800.545526	0.998052
800.866708	0.997250
801.187845	0.998395
801.508936	0.998626
801.829983	0.997752
802.150984	0.999379
802.471940	0.998736
802.792851	0.997806
803.113717	0.999991
803.434538	0.998953
803.755314	0.999446
804.076045	0.998601
804.396731	0.998152
804.717372	0.997825
805.037967	0.999564
805.358518	0.999665
805.679024	0.998078
805.999485	0.998885
806.319901	0.998710
806.640272	0.998957
806.960598	0.998342
807.280879	0.998949
807.601115	0.999872
807.921306	1.000337
808.241453	0.997543
808.561554	0.998941
808.881611	0.997937
809.201623	0.997823
809.521590	0.998070
809.841513	0.999130
810.161390	0.997892
810.481223	0.997354
810.801011	0.998820
811.120755	0.999233
811.440453	0.999175
811.760107	0.998538
812.079716	0.999306
812.399281	0.998632
812.718801	0.998539
813.038276	0.997513
813.357707	0.998251
813.677093	0.999139
813.996434	0.999223
814.315731	1.000002
814.634983	0.999028
814.954191	0.998702
815.273354	0.999460
815.592473	0.998304
815.911547	0.997886
816.230577	0.997760
816.549562	0.998337
816.868502	0.996767
817.187399	0.999343
817.506250	0.999351
817.825058	0.997179
818.143821	0.999342
818.462539	0.997386
818.781213	0.998562
819.099843	0.998888
819.418429	0.997732
819.736970	0.997666
820.055466	0.995501
820.373919	0.996916
820.692327	0.994740
821.010691	0.995875
821.329011	0.992335
821.647286	0.990506
821.965517	0.988371
822.283704	0.986652
822.601847	0.986305
822.919945	0.986329
823.237999	0.987961
823.556010	0.989253
823.873976	0.989585
824.191897	0.992160
824.509775	0.992983
824.827609	0.993718
825.145398	0.993939
825.463144	0.993099
825.780845	0.993900
826.098502	0.993177
826.416116	0.993457
826.733685	0.991581
827.051210	0.990532
827.368692	0.991539
827.686129	0.991656
828.003522	0.993689
828.320872	0.994233
828.638177	0.994731
828.955439	0.996010
829.272656	0.996395
829.589830	0.997118
829.906960	0.997835
830.224046	0.997560
830.541088	0.997166
830.858086	0.997918
831.175041	0.998348
831.491952	0.997293
831.808819	0.997832
832.125642	0.997503
832.442421	0.998086
832.759157	0.997649
833.075849	0.996060
833.392497	0.994645
833.709101	0.993145
834.025662	0.994460
834.342179	0.994509
834.658653	0.996176
834.975083	0.996641
835.291469	0.996731
835.607811	0.997063
835.924110	0.997124
836.240366	0.999048
836.556578	0.998183
836.872746	0.998617
837.188871	0.998134
837.504952	0.998559
837.820990	0.998510
838.136984	0.998437
838.452935	0.998014
838.768842	0.999084
839.084706	0.998502
839.400526	0.998924
839.716303	0.996126
840.032037	0.997771
840.347727	0.997256
840.663373	0.997051
840.978977	0.997483
841.294537	0.998007
841.610054	0.998859
841.925527	0.999348
842.240957	0.997571
842.556344	0.999134
842.871687	0.998666
843.186987	0.999291
843.502244	0.998573
843.817458	0.997994
844.132629	0.998512
844.447756	0.999778
844.762840	0.998558
845.077881	1.000726
845.392879	0.997953
845.707833	0.999489
846.022745	1.000159
846.337613	0.998838
846.652438	1.000468
846.967221	0.999895
847.281960	0.999941
847.596656	1.000106
847.911309	0.999692
848.225919	0.999350
848.540485	0.999590
848.855009	1.000799
849.169490	0.999426
849.483928	0.999970
849.798323	0.999177
850.112675	0.999917
850.426984	1.000097
850.741251	0.999536
851.055474	0.998956
851.369654	1.000319
851.683792	0.998799
851.997887	0.999299
852.311938	0.999706
852.625947	0.998983
852.939914	0.998906
853.253837	0.999909
853.567718	1.001378
853.881555	0.999283
854.195350	0.999579
854.509103	0.999472
854.822812	0.999636
855.136479	0.999294
855.450103	0.999655
855.763685	0.999367
856.077224	0.999288
856.390720	0.999563
856.704173	1.000482
857.017584	1.000657
857.330953	1.000795
857.644278	0.999323
857.957561	0.999777
858.270802	0.999861
858.584000	0.999698
858.897155	0.998993
859.210268	0.999640
859.523339	1.001075
859.836367	1.000338
860.149352	0.998578
860.462295	0.999826
860.775195	0.999983
861.088054	0.999175
861.400869	0.998671
861.713642	0.998220
862.026373	1.000199
862.339062	1.000133
862.651708	1.000478
862.964312	1.001088
863.276873	0.998623
863.589392	1.000646
863.901869	0.999491
864.214303	1.000360
864.526696	0.999383
864.839045	0.999594
865.151353	0.999910
865.463619	0.999667
865.775842	0.999894
866.088023	1.000138
866.400162	0.999942
866.712258	1.000675
867.024313	0.999476
867.336325	1.001390
867.648296	1.000552
867.960224	0.999669
868.272110	0.999587
868.583954	0.999519
868.895755	1.001633
869.207515	0.999419
869.519233	1.000498
869.830909	0.998131
870.142542	0.999190
870.454134	1.000123
870.765684	0.998522
871.077191	1.000177
871.388657	0.999220
871.700081	1.000046
872.011463	1.000259
872.322803	0.999520
872.634101	0.998339
872.945357	0.999393
873.256571	0.998529
873.567744	0.998976
873.878874	0.998637
874.189963	0.999011
874.501010	1.000611
874.812015	0.999408
875.122979	0.998599
875.433900	0.999058
875.744780	0.999060
876.055618	0.998004
876.366415	0.998796
876.677169	0.998261
876.987882	0.998338
877.298554	0.999851
877.609183	0.998452
877.919771	0.999519
878.230317	0.999246
878.540822	0.997759
878.851285	0.997673
879.161707	0.997177
879.472087	0.999608
879.782425	0.996378
880.092722	0.995743
880.402977	0.994063
880.713191	0.990843
881.023363	0.988946
881.333494	0.986858
881.643583	0.987854
881.953631	0.988742
882.263637	0.987586
882.573602	0.988612
882.883526	0.990203
883.193408	0.991220
883.503248	0.991557
883.813048	0.992261
884.122806	0.993597
884.432522	0.993711
884.742197	0.995563
885.051831	0.995972
885.361424	0.997172
885.670975	0.997268
885.980485	0.996862
886.289954	0.997097
886.599382	0.995908
886.908768	0.998261
887.218113	0.997162
887.527417	0.998554
887.836680	0.998624
888.145901	0.999734
888.455082	0.999436
888.764221	0.999926
889.073319	0.998123
889.382376	0.999221
889.691392	0.998189
890.000366	0.999144
890.309300	0.999093
890.618193	0.999466
890.927044	0.998340
891.235855	0.998949
891.544625	0.998580
891.853353	0.999211
892.162041	0.997641
892.470687	0.999586
892.779293	0.997997
893.087858	0.996722
893.396381	0.997712
893.704864	0.996326
894.013306	0.996038
894.321707	0.995722
894.630068	0.994387
894.938387	0.994559
895.246665	0.994224
895.554903	0.993208
895.863100	0.995675
896.171256	0.995609
896.479371	0.996476
896.787446	0.996000
897.095480	0.996611
897.403473	0.997181
897.711425	0.997326
898.019336	0.998695
898.327207	0.997794
898.635038	0.998165
898.942827	0.999169
899.250576	0.998891
899.558284	0.998501
899.865952	0.997251
900.173579	0.998716
900.481165	0.999330
900.788711	0.998928
901.096216	0.998788
901.403681	0.998494
901.711105	0.998349
902.018489	0.998385
902.325832	0.999384
902.633135	0.997629
902.940397	0.998748
903.247619	0.998886
903.554800	0.996434
903.861941	0.995347
904.169041	0.993358
904.476101	0.992377
904.783121	0.992777
905.090100	0.993518
905.397039	0.994751
905.703938	0.995113
906.010796	0.995628
906.317614	0.997239
906.624391	0.996875
906.931129	0.998001
907.237826	0.997934
907.544483	0.999746
907.851099	0.998736
908.157675	0.998523
908.464211	1.000184
908.770707	0.998499
909.077163	0.998961
909.383578	1.000124
909.689954	0.999570
909.996289	0.999648
910.302584	1.000437
910.608839	0.999932
910.915054	0.999768
911.221229	1.000988
911.527363	0.999148
911.833458	0.999075
912.139513	0.998693
912.445527	1.000207
912.751502	0.998366
913.057436	0.998770
913.363331	1.000744
913.669186	0.999355
913.975000	0.999530
914.280775	0.999076
914.586510	0.997736
914.892205	0.996229
915.197859	0.996899
915.503475	0.996042
915.809050	0.992971
916.114585	0.992500
916.420081	0.992972
916.725536	0.993662
917.030952	0.993594
917.336328	0.993718
917.641665	0.993880
917.946961	0.994232
918.252218	0.995801
918.557435	0.996257
918.862612	0.997118
919.167750	0.998201
919.472848	0.998396
919.777906	0.999052
920.082925	0.999490
920.387904	0.998352
920.692843	0.998717
920.997743	0.997846
921.302603	0.998919
921.607423	0.997987
921.912204	0.999897
922.216946	1.000680
922.521647	0.999361
922.826310	0.999470
923.130932	0.999354
923.435516	0.999084
923.740059	0.999016
924.044564	0.999514
924.349028	0.998897
924.653454	0.999173
924.957840	0.999054
925.262186	0.999456
925.566493	0.999705
925.870761	0.999374
926.174989	0.998837
926.479178	1.000456
926.783328	1.000862
927.087438	0.999864
927.391509	0.998913
927.695541	1.001004
927.999533	0.999722
928.303486	0.999554
928.607400	1.000075
928.911275	0.999793
929.215110	1.001055
929.518906	1.000523
929.822663	1.001033
930.126381	1.000898
930.430060	0.999731
930.733699	1.000286
931.037299	1.000758
931.340861	1.000320
931.644383	1.000088
931.947866	0.999852
932.251309	0.999822
932.554714	1.000326
932.858080	0.999984
933.161407	0.999475
933.464694	1.000720
933.767943	1.000074
934.071153	0.999465
934.374323	1.000096
934.677455	0.999824
934.980548	0.999460
935.283602	1.000263
935.586617	0.999582
935.889593	1.001508
936.192530	1.000950
936.495428	0.999565
936.798287	0.998673
937.101108	1.000577
937.403890	0.998524
937.706632	1.001159
938.009336	0.999256
938.312002	0.999211
938.614628	0.999817
938.917216	0.999465
939.219765	0.998885
939.522275	0.999486
939.824747	0.999014
940.127179	0.999238
940.429573	0.999767
940.731929	0.998379
941.034246	0.999683
941.336524	0.998059
941.638763	0.999599
941.940964	0.999893
942.243126	0.999079
942.545250	1.000231
942.847335	1.000409
943.149381	1.000200
943.451389	0.999163
943.753359	0.999412
944.055290	1.001598
944.357182	0.999793
944.659036	1.001167
944.960851	1.000351
945.262628	1.000862
945.564367	0.999631
945.866067	1.000437
946.167729	0.999995
946.469352	1.001009
946.770937	0.998561
947.072484	1.000753
947.373992	1.000460
947.675462	1.000554
947.976893	0.999345
948.278286	1.001456
948.579641	1.001225
948.880958	1.000121
949.182236	1.000049
949.483476	1.000811
949.784678	1.000185
950.085841	1.000649
950.386967	1.000182
950.688054	1.000615
950.989103	0.998178
951.290114	0.998919
951.591087	1.000120
951.892021	0.999110
952.192917	1.000607
952.493776	0.998831
952.794596	0.999045
953.095378	0.999708
953.396122	0.999550
953.696828	0.998933
953.997496	1.000065
954.298126	1.000670
954.598718	1.000267
954.899272	0.999590
955.199788	1.000055
955.500266	1.001572
955.800706	1.001195
956.101108	0.998920
956.401472	1.001969
956.701798	1.001191
957.002087	1.000273
957.302337	0.999531
957.602550	1.000304
957.902724	0.999530
958.202861	0.999890
958.502960	1.000409
958.803022	1.001245
959.103045	1.000618
959.403031	1.002133
959.702979	1.001520
960.002889	1.000433
960.302762	0.999874
960.602596	1.001300
960.902393	1.000813
961.202153	1.000347
961.501875	1.002095
961.801559	1.001159
962.101205	0.999853
962.400814	1.001935
962.700385	1.001340
962.999918	1.000370
963.299414	0.999004
963.598873	1.000925
963.898293	1.000457
964.197677	1.001661
964.497022	1.000527
964.796331	1.000144
965.095601	1.001400
965.394835	1.000845
965.694030	1.000893
965.993189	0.999075
966.292309	1.002265
966.591393	0.999287
966.890439	1.000668
967.189447	1.000483
967.488419	1.000535
967.787353	1.000968
968.086249	0.999986
968.385108	1.000397
968.683930	1.001769
968.982714	1.000441
969.281462	0.999903
969.580172	1.000543
969.878844	1.001299
970.177480	1.000517
970.476078	1.002415
970.774639	1.000585
971.073162	0.999826
971.371649	1.000923
971.670098	1.000681
971.968510	1.001134
972.266885	0.999154
972.565223	1.000508
972.863524	0.999924
973.161788	0.999764
973.460014	1.001419
973.758204	1.000022
974.056356	1.000361
974.354471	0.999897
974.652550	1.000560
974.950591	1.000220
975.248595	0.999322
975.546563	1.001558
975.844493	1.001433
976.142386	1.000097
976.440243	1.000154
976.738062	0.999768
977.035845	0.999329
977.333590	1.001716
977.631299	0.999562
977.928971	0.999527
978.226606	1.000300
978.524204	0.999803
978.821765	1.001100
979.119290	1.001752
979.416777	1.001000
979.714228	0.999294
980.011642	1.000666
980.309020	0.999233
980.606360	1.000978
980.903664	0.999909
981.200931	0.999925
981.498162	1.000761
981.795356	1.001021
982.092513	1.000040
982.389633	1.001215
982.686717	0.999426
982.983764	0.999906
983.280775	0.999962
983.577749	1.001344
983.874686	0.999158
984.171587	0.998791
984.468451	1.000853
984.765279	1.001233
985.062070	1.000231
985.358824	1.001135
985.655543	1.000426
985.952224	1.000391
986.248869	1.000073
986.545478	1.001597
986.842050	1.000520
987.138586	0.999046
987.435086	0.999560
987.731549	1.001684
988.027975	1.001453
988.324366	0.999186
988.620719	1.001941
988.917037	1.000635
989.213318	1.002510
989.509563	0.999131
989.805772	1.000886
990.101944	1.000933
990.398080	1.000693
990.694180	1.002919
990.990244	1.000471
991.286271	1.000317
991.582262	1.000104
991.878217	0.999779
992.174136	1.002301
992.470019	0.999969
992.765865	1.001866
993.061676	1.001710
993.357450	1.000252
993.653188	1.002438
993.948890	1.000268
994.244556	0.999815
994.540186	0.999510
994.835780	0.999402
995.131337	1.001943
995.426859	1.000364
995.722345	1.000446
996.017795	1.000118
996.313208	1.001257
996.608586	1.000071
996.903928	1.000846
997.199234	1.000983
997.494504	1.001333
997.789738	0.999054
998.084936	1.000846
998.380099	1.000213
998.675225	1.000519
998.970316	1.001955
999.265371	1.000552
999.560390	1.001441
999.855373	1.000145
1000.150320	1.000956
1000.445232	1.001074
1000.740108	1.000300
1001.034948	1.000606
1001.329752	1.002863
1001.624521	1.000343
1001.919254	1.001382
1002.213951	1.000931
1002.508613	0.999115
1002.803239	1.000823
1003.097829	1.001567
1003.392384	1.001081
1003.686903	1.000342
1003.981386	1.000074
1004.275834	1.001126
1004.570246	0.999173
1004.864623	0.999770
1005.158964	1.001700
1005.453270	1.000556
1005.747540	1.000795
1006.041775	1.002069
1006.335974	1.001148
1006.630138	1.000530
1006.924266	1.000020
1007.218359	0.999933
1007.512416	1.001160
1007.806438	1.001582
1008.100425	1.000833
1008.394376	1.002667
1008.688292	1.000402
1008.982172	0.999497
1009.276017	1.000710
1009.569827	1.001735
1009.863602	0.999332
1010.157341	1.001699
1010.451045	1.000329
1010.744714	1.001331
1011.038347	1.001059
1011.331945	0.999794
1011.625508	1.000431
1011.919036	1.001191
1012.212528	1.001180
1012.505986	1.001094
1012.799408	1.001579
1013.092795	1.001211
1013.386147	1.001222
1013.679464	1.002191
1013.972745	1.001169
1014.265992	1.000027
1014.559204	1.000554
1014.852380	1.001641
1015.145521	1.000415
1015.438628	0.999710
1015.731699	1.000347
1016.024736	1.000752
1016.317737	1.000521
1016.610703	1.000825
1016.903635	1.001155
1017.196531	0.999727
1017.489393	1.000319
1017.782219	0.999179
1018.075011	0.999726
1018.367768	0.999885
1018.660490	1.000874
1018.953177	1.000874
1019.245829	1.000874
