Dividing Wavelength (nm)	Counts (n)	Blue Motor Position (mm): 31.400000	Red Motor Position (mm): 0.000000	
326.493990	1.001058
326.888308	1.001058
327.282561	1.001058
327.676750	1.000131
328.070874	1.002677
328.464933	1.001732
328.858929	1.002128
329.252859	1.000921
329.646726	1.000462
330.040528	0.999760
330.434265	1.001109
330.827938	1.000930
331.221547	1.001106
331.615091	1.001069
332.008571	1.001433
332.401986	1.001321
332.795338	1.000122
333.188625	1.001435
333.581847	1.000189
333.975006	1.000333
334.368100	1.001047
334.761129	0.999541
335.154095	1.000614
335.546996	1.000723
335.939833	1.000269
336.332606	0.999570
336.725315	0.999153
337.117960	1.000513
337.510540	0.999493
337.903056	1.000023
338.295508	1.001548
338.687896	1.000335
339.080220	1.000149
339.472480	0.999404
339.864676	1.000628
340.256807	0.998823
340.648875	0.999582
341.040879	1.000005
341.432818	1.000296
341.824694	0.999518
342.216506	1.000655
342.608253	0.999921
342.999937	1.000079
343.391557	0.999690
343.783113	1.000888
344.174605	0.999859
344.566033	0.998952
344.957397	1.000850
345.348697	1.000451
345.739934	0.999848
346.131106	0.999857
346.522215	0.999576
346.913260	0.999184
347.304241	0.998429
347.695159	0.999511
348.086012	1.000031
348.476802	0.999850
348.867528	0.999199
349.258191	1.000421
349.648789	1.000111
350.039324	0.999872
350.429796	0.998334
350.820203	0.999465
351.210548	0.999859
351.600828	0.998983
351.991045	0.999004
352.381198	0.998625
352.771288	0.998499
353.161314	0.999574
353.551276	0.998386
353.941175	0.998312
354.331010	0.999551
354.720782	0.999693
355.110490	0.998946
355.500135	0.999956
355.889717	0.997196
356.279235	0.998834
356.668689	0.998621
357.058080	0.999869
357.447408	0.997553
357.836672	0.998444
358.225873	0.999507
358.615010	0.998360
359.004084	0.996619
359.393095	0.998606
359.782043	0.997857
360.170927	0.999886
360.559748	0.999821
360.948505	0.997827
361.337199	0.996921
361.725830	0.998849
362.114398	0.997956
362.502903	0.997754
362.891344	0.997827
363.279722	0.998595
363.668037	0.998721
364.056289	0.998582
364.444478	0.997989
364.832603	0.999095
365.220665	0.997625
365.608665	0.996518
365.996601	0.998209
366.384474	0.995966
366.772284	0.997692
367.160031	0.995466
367.547715	0.996097
367.935336	0.995172
368.322893	0.994401
368.710388	0.992997
369.097820	0.991044
369.485189	0.989309
369.872495	0.987517
370.259738	0.986221
370.646918	0.983592
371.034035	0.980498
371.421090	0.978624
371.808081	0.973563
372.195010	0.970377
372.581875	0.965095
372.968678	0.960787
373.355418	0.957313
373.742096	0.949779
374.128710	0.945014
374.515262	0.940697
374.901751	0.934546
375.288177	0.930464
375.674540	0.923016
376.060841	0.915955
376.447079	0.910005
376.833254	0.903487
377.219367	0.899125
377.605417	0.887393
377.991404	0.883691
378.377329	0.877912
378.763191	0.871563
379.148991	0.862670
379.534727	0.854408
379.920402	0.846390
380.306013	0.842321
380.691563	0.831666
381.077049	0.822806
381.462474	0.818994
381.847835	0.808381
382.233134	0.802479
382.618371	0.803523
383.003545	0.785505
383.388657	0.784365
383.773706	0.776505
384.158693	0.772812
384.543618	0.766730
384.928480	0.758860
385.313280	0.748709
385.698017	0.747912
386.082692	0.736487
386.467305	0.734519
386.851856	0.729331
387.236344	0.724632
387.620770	0.718288
388.005133	0.713789
388.389435	0.707608
388.773674	0.704940
389.157851	0.697472
389.541965	0.693812
389.926018	0.701122
390.310008	0.686720
390.693936	0.685125
391.077802	0.676391
391.461606	0.678671
391.845348	0.667954
392.229027	0.666687
392.612645	0.665406
392.996200	0.652309
393.379694	0.645319
393.763125	0.635863
394.146494	0.640034
394.529801	0.630783
394.913047	0.622467
395.296230	0.628678
395.679351	0.619760
396.062410	0.617230
396.445408	0.619633
396.828343	0.615610
397.211217	0.609737
397.594028	0.621756
397.976778	0.612076
398.359466	0.609666
398.742092	0.604378
399.124656	0.617045
399.507158	0.604205
399.889598	0.601667
400.271977	0.593096
400.654294	0.597276
401.036549	0.595777
401.418742	0.600268
401.800874	0.586301
402.182944	0.582577
402.564952	0.574918
402.946898	0.576552
403.328783	0.578045
403.710606	0.588175
404.092367	0.563820
404.474067	0.568865
404.855705	0.567688
405.237282	0.576398
405.618797	0.562806
406.000250	0.558331
406.381642	0.548517
406.762972	0.554118
407.144240	0.552738
407.525447	0.552449
407.906593	0.544755
408.287677	0.540742
408.668700	0.549083
409.049661	0.543374
409.430560	0.537931
409.811399	0.546338
410.192176	0.528050
410.572891	0.535952
410.953545	0.524068
411.334138	0.537174
411.714669	0.529979
412.095139	0.542110
412.475547	0.525775
412.855894	0.528196
413.236180	0.527543
413.616405	0.532628
413.996568	0.523525
414.376670	0.529579
414.756711	0.534153
415.136691	0.531468
415.516609	0.521965
415.896466	0.519624
416.276262	0.516276
416.655997	0.518241
417.035670	0.500042
417.415283	0.491740
417.794834	0.496998
418.174324	0.503213
418.553753	0.513233
418.933121	0.496800
419.312428	0.491491
419.691674	0.498319
420.070859	0.487932
420.449983	0.496888
420.829045	0.487702
421.208047	0.497872
421.586988	0.493738
421.965867	0.493956
422.344686	0.485331
422.723444	0.499495
423.102141	0.517824
423.480777	0.493814
423.859352	0.517057
424.237866	0.497325
424.616319	0.500897
424.994712	0.495129
425.373044	0.508345
425.751314	0.501176
426.129524	0.519675
426.507673	0.507569
426.885762	0.504927
427.263789	0.515059
427.641756	0.527985
428.019662	0.523246
428.397508	0.526920
428.775292	0.536363
429.153016	0.533688
429.530679	0.544140
429.908282	0.543929
430.285824	0.557388
430.663305	0.545778
431.040726	0.569707
431.418086	0.574680
431.795385	0.575180
432.172624	0.580353
432.549802	0.587162
432.926920	0.593752
433.303977	0.600154
433.680974	0.605099
434.057910	0.611800
434.434786	0.618431
434.811601	0.627974
435.188355	0.623423
435.565050	0.637399
435.941683	0.645935
436.318257	0.643791
436.694770	0.653566
437.071222	0.661825
437.447614	0.671713
437.823946	0.683760
438.200218	0.685704
438.576429	0.700397
438.952580	0.705645
439.328670	0.711756
439.704700	0.723719
440.080670	0.732363
440.456580	0.732840
440.832429	0.745563
441.208218	0.759610
441.583947	0.761701
441.959616	0.769561
442.335224	0.781284
442.710773	0.785917
443.086261	0.793778
443.461689	0.805657
443.837057	0.810537
444.212365	0.815479
444.587612	0.824663
444.962800	0.829042
445.337927	0.837935
445.712995	0.851772
446.088002	0.848119
446.462949	0.858397
446.837837	0.867354
447.212664	0.869623
447.587431	0.875188
447.962139	0.874760
448.336786	0.870031
448.711374	0.879181
449.085901	0.895369
449.460369	0.903331
449.834776	0.908075
450.209124	0.911027
450.583412	0.915948
450.957640	0.917831
451.331808	0.925634
451.705917	0.932715
452.079965	0.937618
452.453954	0.941402
452.827883	0.945352
453.201752	0.948675
453.575562	0.952589
453.949311	0.955402
454.323001	0.958153
454.696632	0.960650
455.070202	0.963338
455.443713	0.965274
455.817164	0.967279
456.190556	0.970045
456.563888	0.972830
456.937160	0.974060
457.310373	0.976377
457.683526	0.978740
458.056619	0.980551
458.429653	0.982217
458.802628	0.983761
459.175542	0.984670
459.548398	0.985486
459.921194	0.986399
460.293930	0.987267
460.666607	0.987635
461.039224	0.988427
461.411782	0.988680
461.784280	0.989657
462.156719	0.991281
462.529099	0.991694
462.901419	0.992045
463.273680	0.992275
463.645882	0.992094
464.018024	0.993471
464.390106	0.993517
464.762130	0.993095
465.134094	0.993901
465.505999	0.993707
465.877845	0.993723
466.249631	0.993807
466.621358	0.993612
466.993026	0.994325
467.364634	0.994758
467.736184	0.994641
468.107674	0.995080
468.479105	0.994548
468.850477	0.995184
469.221790	0.996121
469.593043	0.994843
469.964238	0.995941
470.335373	0.995366
470.706449	0.994921
471.077467	0.995734
471.448425	0.996062
471.819324	0.996364
472.190164	0.995595
472.560945	0.996219
472.931667	0.996258
473.302330	0.996417
473.672934	0.996433
474.043479	0.995800
474.413965	0.996115
474.784393	0.996035
475.154761	0.996059
475.525070	0.996251
475.895321	0.996039
476.265513	0.996613
476.635645	0.996440
477.005719	0.996551
477.375734	0.995937
477.745691	0.995585
478.115588	0.996267
478.485427	0.996489
478.855207	0.996382
479.224928	0.995890
479.594591	0.996356
479.964194	0.995676
480.333739	0.996218
480.703226	0.995384
481.072653	0.995983
481.442022	0.996538
481.811333	0.996303
482.180584	0.996081
482.549777	0.996332
482.918912	0.996466
483.287988	0.995952
483.657005	0.996201
484.025964	0.996215
484.394864	0.996122
484.763706	0.995592
485.132489	0.995994
485.501213	0.996357
485.869879	0.995940
486.238487	0.995323
486.607036	0.997339
486.975527	0.996145
487.343959	0.995418
487.712333	0.996040
488.080648	0.995607
488.448905	0.996347
488.817104	0.996170
489.185244	0.996329
489.553326	0.996622
489.921350	0.996234
490.289315	0.995878
490.657222	0.995388
491.025070	0.996396
491.392861	0.996511
491.760593	0.996221
492.128267	0.995394
492.495883	0.995494
492.863440	0.996737
493.230939	0.995932
493.598380	0.997123
493.965763	0.996241
494.333088	0.995505
494.700354	0.996365
495.067563	0.995805
495.434713	0.996734
495.801805	0.996656
496.168839	0.997163
496.535815	0.997358
496.902733	0.996333
497.269593	0.996342
497.636395	0.995758
498.003139	0.995589
498.369825	0.996817
498.736453	0.996830
499.103023	0.996357
499.469535	0.996845
499.835989	0.997166
500.202385	0.995963
500.568723	0.996524
500.935003	0.996039
501.301226	0.996905
501.667390	0.995949
502.033497	0.996805
502.399546	0.996477
502.765537	0.996773
503.131470	0.996608
503.497345	0.996796
503.863163	0.996986
504.228923	0.996089
504.594625	0.996701
504.960269	0.996882
505.325856	0.997528
505.691385	0.997212
506.056856	0.997350
506.422270	0.996811
506.787625	0.996920
507.152924	0.997073
507.518164	0.996502
507.883347	0.996582
508.248472	0.996850
508.613540	0.996241
508.978550	0.997167
509.343503	0.996882
509.708398	0.997442
510.073236	0.996855
510.438016	0.996012
510.802738	0.996488
511.167403	0.996078
511.532010	0.996787
511.896561	0.997260
512.261053	0.996681
512.625488	0.996730
512.989866	0.996318
513.354186	0.996091
513.718449	0.996914
514.082655	0.996580
514.446803	0.996529
514.810894	0.996632
515.174927	0.997169
515.538904	0.997073
515.902822	0.996588
516.266684	0.996560
516.630488	0.997701
516.994235	0.996839
517.357925	0.997001
517.721558	0.996259
518.085133	0.996424
518.448651	0.996967
518.812112	0.997143
519.175516	0.996638
519.538863	0.996431
519.902152	0.997132
520.265385	0.996698
520.628560	0.995661
520.991678	0.996307
521.354739	0.996946
521.717743	0.996977
522.080690	0.996083
522.443580	0.996948
522.806413	0.996307
523.169189	0.997293
523.531908	0.995764
523.894569	0.996683
524.257174	0.996224
524.619722	0.996472
524.982213	0.996171
525.344647	0.996226
525.707025	0.995840
526.069345	0.995315
526.431608	0.997072
526.793815	0.996595
527.155964	0.997002
527.518057	0.996794
527.880093	0.996244
528.242072	0.996742
528.603995	0.996601
528.965860	0.997144
529.327669	0.996266
529.689421	0.996309
530.051117	0.996911
530.412755	0.996558
530.774337	0.996453
531.135862	0.997244
531.497331	0.996224
531.858743	0.996738
532.220098	0.996226
532.581396	0.996930
532.942638	0.996733
533.303824	0.996946
533.664953	0.996167
534.026025	0.997756
534.387040	0.996297
534.747999	0.995755
535.108902	0.997139
535.469748	0.996861
535.830537	0.996793
536.191270	0.996817
536.551947	0.996178
536.912567	0.996286
537.273131	0.996892
537.633638	0.996145
537.994089	0.997329
538.354483	0.996561
538.714821	0.996610
539.075103	0.996419
539.435328	0.997044
539.795497	0.996847
540.155609	0.996755
540.515665	0.997152
540.875665	0.996102
541.235609	0.996940
541.595496	0.995952
541.955328	0.996542
542.315102	0.997077
542.674821	0.996558
543.034483	0.997275
543.394090	0.996220
543.753640	0.996708
544.113134	0.996536
544.472571	0.996956
544.831953	0.996696
545.191278	0.996112
545.550548	0.996182
545.909761	0.996341
546.268918	0.997535
546.628019	0.997313
546.987064	0.996725
547.346053	0.996275
547.704986	0.996155
548.063863	0.996278
548.422684	0.996683
548.781449	0.996891
549.140158	0.996904
549.498811	0.996119
549.857408	0.996189
550.215949	0.995712
550.574434	0.996020
550.932864	0.996411
551.291237	0.996310
551.649555	0.997160
552.007817	0.996627
552.366022	0.996876
552.724173	0.996663
553.082267	0.996816
553.440305	0.996494
553.798288	0.995723
554.156215	0.996144
554.514086	0.996645
554.871902	0.996904
555.229661	0.996473
555.587365	0.996645
555.945014	0.997046
556.302606	0.995817
556.660143	0.997185
557.017625	0.997110
557.375050	0.995709
557.732421	0.996356
558.089735	0.996199
558.446994	0.996282
558.804197	0.996929
559.161345	0.995812
559.518437	0.995825
559.875474	0.996726
560.232455	0.997122
560.589381	0.996113
560.946251	0.996565
561.303065	0.996647
561.659825	0.995917
562.016528	0.996791
562.373177	0.996519
562.729770	0.996599
563.086307	0.995777
563.442789	0.996980
563.799216	0.996300
564.155587	0.996814
564.511904	0.997269
564.868164	0.995566
565.224370	0.995899
565.580520	0.997063
565.936615	0.996630
566.292654	0.996418
566.648638	0.996470
567.004567	0.996157
567.360441	0.996878
567.716260	0.996661
568.072023	0.996566
568.427732	0.997372
568.783385	0.996037
569.138982	0.996760
569.494525	0.996612
569.850013	0.996773
570.205445	0.996585
570.560823	0.995945
570.916145	0.996254
571.271412	0.996436
571.626625	0.996816
571.981782	0.996892
572.336884	0.997386
572.691931	0.996224
573.046923	0.996213
573.401860	0.996550
573.756743	0.996320
574.111570	0.996363
574.466342	0.997445
574.821059	0.996339
575.175722	0.996775
575.530330	0.996215
575.884882	0.996275
576.239380	0.996484
576.593823	0.996843
576.948211	0.996273
577.302544	0.996656
577.656823	0.996649
578.011047	0.996281
578.365216	0.996804
578.719330	0.996381
579.073389	0.995437
579.427394	0.996373
579.781344	0.996766
580.135239	0.995629
580.489080	0.996544
580.842866	0.996526
581.196597	0.996356
581.550273	0.995843
581.903895	0.996461
582.257463	0.996325
582.610975	0.996118
582.964434	0.996854
583.317837	0.996795
583.671186	0.997163
584.024481	0.996400
584.377721	0.995905
584.730906	0.996969
585.084037	0.997159
585.437113	0.996507
585.790135	0.996283
586.143103	0.996162
586.496016	0.996616
586.848874	0.996442
587.201679	0.996542
587.554428	0.996383
587.907124	0.996384
588.259765	0.996738
588.612352	0.997324
588.964884	0.997097
589.317362	0.996769
589.669786	0.996351
590.022155	0.996005
590.374470	0.996340
590.726731	0.995819
591.078937	0.996699
591.431090	0.996668
591.783188	0.995989
592.135232	0.997722
592.487222	0.996993
592.839157	0.996518
593.191038	0.995837
593.542866	0.997160
593.894639	0.996369
594.246358	0.996817
594.598022	0.996898
594.949633	0.996959
595.301190	0.996226
595.652692	0.996492
596.004141	0.996179
596.355535	0.996412
596.706876	0.996692
597.058162	0.996989
597.409395	0.996559
597.760573	0.996349
598.111698	0.996445
598.462768	0.995644
598.813785	0.995391
599.164748	0.996957
599.515657	0.996187
599.866511	0.996407
600.217312	0.997687
600.568060	0.996617
600.918753	0.997137
601.269392	0.996552
601.619978	0.995934
601.970510	0.996225
602.320988	0.996988
602.671412	0.996575
603.021783	0.996780
603.372100	0.997054
603.722363	0.996868
604.072572	0.996337
604.422728	0.996463
604.772830	0.996322
605.122878	0.996421
605.472872	0.997037
605.822813	0.996464
606.172701	0.996229
606.522534	0.996926
606.872314	0.997573
607.222041	0.996665
607.571714	0.996969
607.921333	0.996898
608.270899	0.996366
608.620411	0.996425
608.969870	0.996829
609.319276	0.996574
609.668627	0.997178
610.017926	0.997470
610.367171	0.996539
610.716362	0.996142
611.065500	0.996602
611.414585	0.995821
611.763616	0.995890
612.112594	0.996712
612.461518	0.996095
612.810389	0.996361
613.159207	0.996249
613.507971	0.995783
613.856682	0.996888
614.205340	0.996547
614.553945	0.996970
614.902496	0.996593
615.250994	0.996836
615.599439	0.996230
615.947830	0.996408
616.296169	0.995751
616.644454	0.996649
616.992686	0.997174
617.340864	0.996453
617.688990	0.995717
618.037063	0.996347
618.385082	0.995870
618.733048	0.996475
619.080961	0.996410
619.428821	0.997133
619.776628	0.995920
620.124382	0.997050
620.472083	0.996683
620.819731	0.997738
621.167326	0.996747
621.514868	0.996935
621.862357	0.996826
622.209793	0.996315
622.557176	0.996257
622.904506	0.996302
623.251783	0.996035
623.599007	0.996790
623.946179	0.996407
624.293297	0.996106
624.640363	0.997285
624.987376	0.996563
625.334336	0.995848
625.681243	0.997113
626.028097	0.997510
626.374899	0.996378
626.721647	0.996598
627.068343	0.996854
627.414987	0.996749
627.761577	0.996733
628.108115	0.995908
628.454600	0.996912
628.801032	0.996792
629.147412	0.996320
629.493739	0.997699
629.840014	0.996034
630.186236	0.996531
630.532405	0.996690
630.878521	0.995770
631.224585	0.996998
631.570597	0.995971
631.916556	0.995958
632.262462	0.994903
632.608316	0.996977
632.954117	0.996518
633.299866	0.995956
633.645562	0.996166
633.991206	0.997266
634.336797	0.996562
634.682336	0.996780
635.027823	0.996159
635.373257	0.997439
635.718639	0.997467
636.063968	0.996833
636.409245	0.995922
636.754470	0.996892
637.099642	0.996888
637.444762	0.996877
637.789829	0.995999
638.134845	0.996385
638.479808	0.996403
638.824719	0.997302
639.169577	0.996422
639.514383	0.996893
639.859137	0.996597
640.203839	0.995821
640.548489	0.997093
640.893086	0.996281
641.237632	0.997320
641.582125	0.995377
641.926566	0.997229
642.270955	0.996920
642.615292	0.996097
642.959576	0.997401
643.303809	0.996641
643.647990	0.997251
643.992118	0.997141
644.336195	0.996765
644.680219	0.997265
645.024192	0.996203
645.368112	0.995882
645.711981	0.996558
646.055797	0.996455
646.399562	0.995193
646.743274	0.997704
647.086935	0.996349
647.430544	0.996636
647.774101	0.996749
648.117606	0.996983
648.461059	0.996970
648.804460	0.995840
649.147810	0.996493
649.491108	0.996659
649.834354	0.996594
650.177548	0.996462
650.520690	0.997243
650.863781	0.996791
651.206820	0.996287
651.549807	0.996575
651.892742	0.997384
652.235626	0.996711
652.578458	0.996432
652.921238	0.996981
653.263967	0.996699
653.606644	0.995763
653.949269	0.996820
654.291843	0.995488
654.634365	0.996606
654.976836	0.996028
655.319255	0.996610
655.661622	0.996204
656.003938	0.996117
656.346203	0.996005
656.688416	0.997298
657.030577	0.995839
657.372687	0.997268
657.714746	0.996051
658.056753	0.996120
658.398708	0.996066
658.740612	0.997356
659.082465	0.996635
659.424266	0.996668
659.766016	0.995574
660.107715	0.996603
660.449362	0.996166
660.790958	0.996673
661.132503	0.996898
661.473996	0.996238
661.815438	0.996395
662.156829	0.996377
662.498168	0.996932
662.839456	0.996325
663.180693	0.996434
663.521879	0.996679
663.863013	0.997043
664.204097	0.995989
664.545129	0.995632
664.886110	0.996475
665.227040	0.996408
665.567918	0.995911
665.908746	0.995635
666.249522	0.996586
666.590248	0.996146
666.930922	0.995854
667.271545	0.996765
667.612118	0.995692
667.952639	0.996262
668.293109	0.996065
668.633528	0.996149
668.973896	0.997053
669.314213	0.995828
669.654480	0.996123
669.994695	0.995675
670.334859	0.996056
670.674973	0.996523
671.015035	0.996235
671.355047	0.996485
671.695008	0.995636
672.034918	0.995801
672.374777	0.996521
672.714585	0.996630
673.054342	0.996401
673.394049	0.996156
673.733705	0.996339
674.073310	0.995895
674.412864	0.996042
674.752368	0.995501
675.091820	0.997507
675.431223	0.997034
675.770574	0.995648
676.109875	0.996297
676.449125	0.995927
676.788324	0.995585
677.127473	0.997152
677.466571	0.996491
677.805619	0.996140
678.144616	0.996590
678.483562	0.996323
678.822458	0.996134
679.161303	0.996344
679.500098	0.996413
679.838842	0.997233
680.177535	0.995790
680.516179	0.995836
680.854771	0.996439
681.193314	0.996528
681.531805	0.996064
681.870247	0.995394
682.208638	0.996720
682.546978	0.995749
682.885268	0.996830
683.223508	0.996177
683.561697	0.996140
683.899836	0.996341
684.237925	0.995955
684.575963	0.996338
684.913951	0.996173
685.251889	0.996250
685.589776	0.996462
685.927614	0.995990
686.265401	0.995851
686.603137	0.995446
686.940824	0.995763
687.278460	0.996713
687.616046	0.995745
687.953582	0.996031
688.291068	0.996737
688.628504	0.995256
688.965889	0.995987
689.303224	0.994416
689.640510	0.996272
689.977745	0.995751
690.314930	0.996429
690.652065	0.995560
690.989150	0.995094
691.326185	0.995866
691.663170	0.995748
692.000105	0.996157
692.336990	0.995876
692.673825	0.995754
693.010610	0.996182
693.347345	0.996120
693.684030	0.996823
694.020665	0.995330
694.357251	0.994903
694.693786	0.996630
695.030272	0.995048
695.366707	0.995577
695.703093	0.995702
696.039429	0.995277
696.375716	0.996334
696.711952	0.995636
697.048139	0.997082
697.384276	0.995963
697.720363	0.996844
698.056400	0.995490
698.392388	0.995494
698.728326	0.995642
699.064214	0.997103
699.400053	0.996459
699.735842	0.997669
700.071581	0.996911
700.407270	0.996051
700.742910	0.997302
701.078501	0.995344
701.414042	0.996285
701.749533	0.995332
702.084974	0.996785
702.420366	0.995946
702.755709	0.996452
703.091002	0.997352
703.426246	0.997418
703.761440	0.995810
704.096584	0.996357
704.431679	0.996096
704.766725	0.997011
705.101721	0.996735
705.436668	0.996728
705.771565	0.996209
706.106413	0.995488
706.441212	0.996622
706.775961	0.996623
707.110661	0.996479
707.445311	0.996657
707.779913	0.997128
708.114465	0.997315
708.448967	0.997159
708.783421	0.996668
709.117825	0.997097
709.452180	0.996940
709.786485	0.996595
710.120742	0.996348
710.454949	0.994768
710.789107	0.996677
711.123216	0.994846
711.457275	0.995099
711.791286	0.996594
712.125247	0.997307
712.459159	0.995658
712.793023	0.996006
713.126837	0.996154
713.460602	0.995627
713.794318	0.995696
714.127985	0.995920
714.461602	0.996034
714.795171	0.995544
715.128691	0.995946
715.462162	0.995839
715.795584	0.996541
716.128957	0.996891
716.462281	0.997350
716.795556	0.995866
717.128782	0.996689
717.461960	0.995691
717.795088	0.996665
718.128167	0.997709
718.461198	0.996335
718.794180	0.997533
719.127113	0.995975
719.459997	0.995737
719.792833	0.997214
720.125619	0.995969
720.458357	0.996626
720.791046	0.997561
721.123686	0.996942
721.456278	0.996548
721.788821	0.995997
722.121315	0.997319
722.453761	0.996187
722.786158	0.996100
723.118506	0.996973
723.450805	0.995783
723.783056	0.997016
724.115259	0.995733
724.447412	0.997152
724.779518	0.996925
725.111574	0.995950
725.443582	0.997227
725.775542	0.996774
726.107453	0.997833
726.439315	0.997782
726.771129	0.997334
727.102895	0.996421
727.434612	0.996779
727.766281	0.996909
728.097901	0.997003
728.429473	0.996705
728.760996	0.995677
729.092471	0.996710
729.423897	0.995524
729.755276	0.996617
730.086606	0.996886
730.417887	0.996546
730.749120	0.997577
731.080305	0.995933
731.411442	0.996390
731.742530	0.995693
732.073570	0.995523
732.404562	0.996615
732.735506	0.996243
733.066401	0.995956
733.397249	0.996679
733.728048	0.996780
734.058798	0.996470
734.389501	0.997031
734.720156	0.996293
735.050762	0.997331
735.381320	0.997028
735.711831	0.997003
736.042293	0.995900
736.372707	0.996966
736.703073	0.996392
737.033391	0.996870
737.363661	0.996577
737.693883	0.996255
738.024056	0.996224
738.354182	0.996756
738.684260	0.996777
739.014290	0.996996
739.344272	0.996965
739.674207	0.996073
740.004093	0.996787
740.333931	0.997036
740.663722	0.996619
740.993464	0.997829
741.323159	0.995955
741.652806	0.996806
741.982405	0.996428
742.311956	0.996946
742.641460	0.997350
742.970915	0.996577
743.300323	0.995730
743.629683	0.996681
743.958996	0.996945
744.288260	0.996687
744.617477	0.996348
744.946647	0.996426
745.275768	0.997162
745.604842	0.996547
745.933869	0.996599
746.262847	0.996933
746.591778	0.996414
746.920662	0.997524
747.249498	0.997764
747.578286	0.996847
747.907027	0.997301
748.235720	0.997886
748.564365	0.997680
748.892963	0.997263
749.221514	0.997314
749.550017	0.996494
749.878473	0.997668
750.206881	0.998302
750.535242	0.997100
750.863555	0.996361
751.191821	0.997430
751.520039	0.997134
751.848210	0.995823
752.176334	0.996919
752.504411	0.996670
752.832440	0.996690
753.160421	0.997480
753.488356	0.996563
753.816243	0.996887
754.144082	0.996717
754.471875	0.997302
754.799620	0.996490
755.127318	0.996899
755.454969	0.997444
755.782572	0.998902
756.110129	0.996669
756.437638	0.998807
756.765100	0.997216
757.092515	0.997128
757.419882	0.997113
757.747203	0.995839
758.074477	0.998688
758.401703	0.997313
758.728882	0.997185
759.056014	0.997329
759.383099	0.996871
759.710138	0.996691
760.037129	0.996428
760.364073	0.997825
760.690970	0.997179
761.017820	0.996216
761.344623	0.997730
761.671379	0.997404
761.998088	0.996937
762.324751	0.996607
762.651366	0.995731
762.977935	0.996176
763.304456	0.995740
763.630931	0.993632
763.957359	0.993637
764.283740	0.994774
764.610074	0.995581
764.936362	0.995673
765.262602	0.997095
765.588796	0.996560
765.914943	0.996474
766.241044	0.996668
766.567097	0.997570
766.893104	0.997073
767.219064	0.995931
767.544978	0.996444
767.870845	0.997416
768.196665	0.996768
768.522438	0.998365
768.848165	0.997001
769.173846	0.998166
769.499479	0.998090
769.825066	0.998261
770.150607	0.998374
770.476101	0.997562
770.801548	0.998367
771.126949	0.999807
771.452303	0.998503
771.777611	0.997322
772.102872	0.997621
772.428087	0.998204
772.753256	0.998185
773.078378	0.997501
773.403453	0.997358
773.728482	0.998925
774.053465	0.998550
774.378401	0.997621
774.703291	0.998207
775.028135	0.999658
775.352932	0.997375
775.677683	0.999211
776.002388	0.997770
776.327046	0.998373
776.651658	0.998654
776.976224	0.998302
777.300743	0.997533
777.625216	0.998192
777.949643	0.998413
778.274024	0.997477
778.598359	0.999318
778.922647	0.997743
779.246889	0.999212
779.571086	0.998242
779.895236	0.998155
780.219339	0.998716
780.543397	0.998105
780.867409	0.998935
781.191374	0.998078
781.515294	0.999086
781.839167	0.998924
782.162995	0.998185
782.486776	0.998198
782.810511	0.998758
783.134201	0.999469
783.457844	0.999137
783.781441	0.998327
784.104993	0.997920
784.428498	0.997676
784.751958	0.998752
785.075372	0.998800
785.398739	0.998250
785.722061	0.998336
786.045337	0.999322
786.368568	0.998467
786.691752	0.997410
787.014891	0.998302
787.337983	0.997505
787.661030	0.998665
787.984031	0.998002
788.306987	0.998326
788.629897	0.997128
788.952760	0.997678
789.275579	0.999092
789.598351	0.998022
789.921078	0.999201
790.243759	0.997846
790.566395	0.998303
790.888984	0.998111
791.211529	0.999290
791.534027	0.997835
791.856480	0.999362
792.178888	0.997570
792.501249	0.999164
792.823566	0.998851
793.145836	0.998701
793.468062	0.999129
793.790241	0.999022
794.112375	0.997074
794.434464	0.998984
794.756507	0.999457
795.078505	0.998155
795.400457	0.998205
795.722364	0.998854
796.044226	0.998747
796.366042	0.997949
796.687812	0.997149
797.009538	0.998007
797.331218	0.999612
797.652852	0.998174
797.974442	0.997963
798.295986	0.998130
798.617484	0.997863
798.938938	0.998931
799.260346	0.998533
799.581709	0.997762
799.903026	0.998863
800.224299	0.997645
800.545526	0.998274
800.866708	0.998515
801.187845	0.998783
801.508936	0.999159
801.829983	0.998699
802.150984	0.997843
802.471940	0.999099
802.792851	0.998741
803.113717	0.999359
803.434538	0.999742
803.755314	1.000747
804.076045	0.998001
804.396731	0.998575
804.717372	0.997095
805.037967	0.999638
805.358518	0.999508
805.679024	0.998304
805.999485	0.998699
806.319901	0.999466
806.640272	0.999939
806.960598	0.998938
807.280879	0.998132
807.601115	0.999508
807.921306	0.998913
808.241453	0.998806
808.561554	0.998698
808.881611	0.998889
809.201623	0.997752
809.521590	0.998702
809.841513	0.999178
810.161390	0.997791
810.481223	0.997093
810.801011	0.999237
811.120755	0.999671
811.440453	0.998426
811.760107	0.998184
812.079716	0.999740
812.399281	0.997702
812.718801	0.998203
813.038276	0.998695
813.357707	0.998631
813.677093	1.000201
813.996434	0.998493
814.315731	0.999916
814.634983	0.998692
814.954191	0.998784
815.273354	0.998228
815.592473	0.999551
815.911547	0.999137
816.230577	0.999120
816.549562	0.998363
816.868502	0.997501
817.187399	0.998769
817.506250	0.999254
817.825058	0.997682
818.143821	0.998238
818.462539	0.998439
818.781213	0.999187
819.099843	0.998984
819.418429	0.997357
819.736970	0.997680
820.055466	0.996651
820.373919	0.996066
820.692327	0.995670
821.010691	0.995360
821.329011	0.993037
821.647286	0.991969
821.965517	0.990163
822.283704	0.988897
822.601847	0.987696
822.919945	0.987468
823.237999	0.988570
823.556010	0.989718
823.873976	0.990720
824.191897	0.991679
824.509775	0.993086
824.827609	0.993575
825.145398	0.993531
825.463144	0.992406
825.780845	0.993589
826.098502	0.994730
826.416116	0.993252
826.733685	0.991922
827.051210	0.990823
827.368692	0.991431
827.686129	0.992443
828.003522	0.993870
828.320872	0.994412
828.638177	0.994739
828.955439	0.996185
829.272656	0.997023
829.589830	0.996653
829.906960	0.998511
830.224046	0.996690
830.541088	0.997325
830.858086	0.997725
831.175041	0.999249
831.491952	0.998109
831.808819	0.997811
832.125642	0.997758
832.442421	0.998133
832.759157	0.998113
833.075849	0.996251
833.392497	0.995413
833.709101	0.993918
834.025662	0.994275
834.342179	0.994802
834.658653	0.996830
834.975083	0.997162
835.291469	0.996953
835.607811	0.997561
835.924110	0.997676
836.240366	0.999394
836.556578	0.998241
836.872746	0.998787
837.188871	0.998799
837.504952	0.997552
837.820990	0.998893
838.136984	0.997900
838.452935	0.999130
838.768842	0.999234
839.084706	0.998584
839.400526	0.998445
839.716303	0.996327
840.032037	0.998142
840.347727	0.997020
840.663373	0.997304
840.978977	0.997396
841.294537	0.998524
841.610054	0.999037
841.925527	0.999243
842.240957	0.999448
842.556344	0.998901
842.871687	0.999179
843.186987	0.998985
843.502244	0.999542
843.817458	0.998999
844.132629	0.998814
844.447756	0.998698
844.762840	0.999955
845.077881	0.999897
845.392879	0.997691
845.707833	0.998929
846.022745	0.999624
846.337613	1.000636
846.652438	0.999558
846.967221	0.999226
847.281960	0.999453
847.596656	1.000672
847.911309	0.999208
848.225919	0.998973
848.540485	0.999911
848.855009	1.000842
849.169490	0.999914
849.483928	1.000024
849.798323	0.997829
850.112675	1.000170
850.426984	0.999645
850.741251	1.000315
851.055474	0.998958
851.369654	0.999971
851.683792	0.998998
851.997887	1.000658
852.311938	1.000526
852.625947	0.998482
852.939914	0.999755
853.253837	1.000136
853.567718	1.000172
853.881555	0.999685
854.195350	0.999538
854.509103	0.999678
854.822812	1.000484
855.136479	0.999364
855.450103	1.000244
855.763685	0.999889
856.077224	0.999860
856.390720	0.998362
856.704173	1.000249
857.017584	1.000361
857.330953	0.999420
857.644278	0.999784
857.957561	1.000342
858.270802	0.999815
858.584000	0.998755
858.897155	0.998581
859.210268	1.000316
859.523339	0.999473
859.836367	0.998590
860.149352	0.999628
860.462295	0.999356
860.775195	1.000835
861.088054	0.998278
861.400869	0.999376
861.713642	0.999243
862.026373	1.000894
862.339062	1.001450
862.651708	0.999977
862.964312	0.998753
863.276873	0.999765
863.589392	0.999414
863.901869	0.999516
864.214303	0.999806
864.526696	0.999574
864.839045	1.000526
865.151353	1.000242
865.463619	0.999509
865.775842	0.999376
866.088023	1.000470
866.400162	0.999594
866.712258	1.000558
867.024313	0.999798
867.336325	1.000517
867.648296	0.999588
867.960224	0.999879
868.272110	1.000377
868.583954	0.999685
868.895755	1.000163
869.207515	0.999691
869.519233	1.000133
869.830909	0.998796
870.142542	0.998255
870.454134	0.999125
870.765684	0.999225
871.077191	1.000357
871.388657	0.999657
871.700081	0.999654
872.011463	1.000383
872.322803	0.998972
872.634101	0.998337
872.945357	0.999160
873.256571	0.998972
873.567744	0.999495
873.878874	0.999805
874.189963	0.999863
874.501010	1.000492
874.812015	0.999246
875.122979	0.999336
875.433900	0.999551
875.744780	1.000672
876.055618	0.998636
876.366415	0.998153
876.677169	0.999318
876.987882	0.998731
877.298554	1.000493
877.609183	0.999036
877.919771	0.999155
878.230317	0.998945
878.540822	0.997634
878.851285	0.998153
879.161707	0.997810
879.472087	0.999902
879.782425	0.996781
880.092722	0.996128
880.402977	0.994042
880.713191	0.992191
881.023363	0.989448
881.333494	0.987882
881.643583	0.990105
881.953631	0.990214
882.263637	0.988641
882.573602	0.989418
882.883526	0.989704
883.193408	0.992605
883.503248	0.992276
883.813048	0.991827
884.122806	0.993515
884.432522	0.994403
884.742197	0.996503
885.051831	0.995721
885.361424	0.996361
885.670975	0.997795
885.980485	0.996504
886.289954	0.996985
886.599382	0.998011
886.908768	0.998461
887.218113	0.996865
887.527417	0.998981
887.836680	0.999809
888.145901	0.999096
888.455082	0.998742
888.764221	1.000404
889.073319	0.999158
889.382376	1.000018
889.691392	0.998357
890.000366	0.999342
890.309300	0.999298
890.618193	1.000137
890.927044	0.998882
891.235855	0.998313
891.544625	0.998965
891.853353	0.999720
892.162041	0.998634
892.470687	0.998657
892.779293	0.998504
893.087858	0.997147
893.396381	0.998207
893.704864	0.997684
894.013306	0.997592
894.321707	0.995377
894.630068	0.994265
894.938387	0.994387
895.246665	0.995025
895.554903	0.995155
895.863100	0.996534
896.171256	0.996157
896.479371	0.996403
896.787446	0.996855
897.095480	0.997635
897.403473	0.997740
897.711425	0.998130
898.019336	0.999264
898.327207	0.998807
898.635038	0.997973
898.942827	0.999337
899.250576	0.997769
899.558284	0.999599
899.865952	0.998423
900.173579	0.999198
900.481165	0.999277
900.788711	0.998058
901.096216	0.997977
901.403681	0.999541
901.711105	0.999429
902.018489	0.999050
902.325832	0.999601
902.633135	0.998788
902.940397	0.998856
903.247619	0.998652
903.554800	0.997316
903.861941	0.996339
904.169041	0.994583
904.476101	0.993645
904.783121	0.992401
905.090100	0.993572
905.397039	0.994931
905.703938	0.996097
906.010796	0.995912
906.317614	0.996858
906.624391	0.998482
906.931129	0.998437
907.237826	0.999582
907.544483	0.998208
907.851099	0.998328
908.157675	0.998655
908.464211	0.998955
908.770707	0.998394
909.077163	0.998763
909.383578	0.999961
909.689954	0.998765
909.996289	0.999756
910.302584	1.000700
910.608839	1.001103
910.915054	0.999283
911.221229	1.000745
911.527363	0.999167
911.833458	0.999120
912.139513	1.000884
912.445527	0.999520
912.751502	0.999653
913.057436	0.999231
913.363331	1.000162
913.669186	0.999640
913.975000	0.999068
914.280775	1.000317
914.586510	0.999035
914.892205	0.996974
915.197859	0.996164
915.503475	0.996152
915.809050	0.995406
916.114585	0.993660
916.420081	0.993075
916.725536	0.993901
917.030952	0.994328
917.336328	0.994612
917.641665	0.994707
917.946961	0.994972
918.252218	0.995801
918.557435	0.996805
918.862612	0.997834
919.167750	0.997000
919.472848	0.998292
919.777906	0.998897
920.082925	0.999207
920.387904	0.999227
920.692843	0.999024
920.997743	0.997730
921.302603	0.999111
921.607423	0.998666
921.912204	0.999604
922.216946	0.999565
922.521647	0.999556
922.826310	0.998961
923.130932	0.999067
923.435516	1.000912
923.740059	0.998496
924.044564	0.997904
924.349028	0.999453
924.653454	0.999981
924.957840	0.999459
925.262186	0.999379
925.566493	0.998779
925.870761	0.999492
926.174989	0.998407
926.479178	1.000000
926.783328	1.000903
927.087438	0.999272
927.391509	0.998997
927.695541	1.000384
927.999533	1.000039
928.303486	1.000106
928.607400	0.999996
928.911275	1.000591
929.215110	0.999924
929.518906	0.999873
929.822663	1.000358
930.126381	1.000917
930.430060	1.000326
930.733699	1.000521
931.037299	1.001423
931.340861	1.000883
931.644383	0.998758
931.947866	1.000461
932.251309	0.999798
932.554714	1.000107
932.858080	0.999914
933.161407	0.999691
933.464694	1.000380
933.767943	1.000195
934.071153	0.999285
934.374323	1.000794
934.677455	0.999743
934.980548	0.999955
935.283602	1.000569
935.586617	0.999906
935.889593	1.000499
936.192530	1.000991
936.495428	0.999635
936.798287	1.000359
937.101108	1.000221
937.403890	0.999446
937.706632	1.002440
938.009336	0.999835
938.312002	0.999435
938.614628	0.999668
938.917216	0.998772
939.219765	0.999631
939.522275	1.000089
939.824747	0.998401
940.127179	0.999912
940.429573	1.001046
940.731929	0.999392
941.034246	0.999204
941.336524	0.997951
941.638763	0.999470
941.940964	0.999021
942.243126	0.999431
942.545250	0.999012
942.847335	0.999637
943.149381	1.000058
943.451389	1.000095
943.753359	0.999233
944.055290	1.001094
944.357182	1.000562
944.659036	0.999182
944.960851	1.000522
945.262628	1.000240
945.564367	0.999763
945.866067	1.000626
946.167729	1.000371
946.469352	0.999380
946.770937	0.997895
947.072484	1.000945
947.373992	0.999471
947.675462	0.999652
947.976893	0.998743
948.278286	1.001810
948.579641	1.000985
948.880958	0.999632
949.182236	1.000725
949.483476	1.001876
949.784678	0.998875
950.085841	1.000225
950.386967	0.999000
950.688054	1.000752
950.989103	0.999100
951.290114	0.998986
951.591087	1.000175
951.892021	1.000673
952.192917	0.999797
952.493776	1.000175
952.794596	0.999830
953.095378	0.999257
953.396122	1.000606
953.696828	1.000437
953.997496	0.999921
954.298126	1.001350
954.598718	0.999733
954.899272	1.000337
955.199788	1.000004
955.500266	1.000777
955.800706	1.000873
956.101108	0.999077
956.401472	1.002464
956.701798	0.999414
957.002087	1.001525
957.302337	1.000360
957.602550	0.999910
957.902724	1.000124
958.202861	1.000636
958.502960	1.000279
958.803022	1.001237
959.103045	1.000690
959.403031	1.000665
959.702979	1.001228
960.002889	1.000060
960.302762	0.999644
960.602596	1.000958
960.902393	1.000594
961.202153	1.001026
961.501875	1.000013
961.801559	1.000788
962.101205	1.000398
962.400814	1.001645
962.700385	1.001912
962.999918	1.000003
963.299414	0.999254
963.598873	1.001153
963.898293	0.999947
964.197677	1.000619
964.497022	1.000407
964.796331	1.000234
965.095601	1.000934
965.394835	0.999363
965.694030	1.001502
965.993189	0.999412
966.292309	1.000889
966.591393	0.999950
966.890439	1.001983
967.189447	1.000240
967.488419	1.000920
967.787353	1.000260
968.086249	1.000368
968.385108	1.000036
968.683930	1.000650
968.982714	1.000498
969.281462	1.000652
969.580172	0.999998
969.878844	1.001068
970.177480	1.000182
970.476078	1.001746
970.774639	0.999736
971.073162	1.000851
971.371649	1.000715
971.670098	0.999914
971.968510	1.000837
972.266885	0.999781
972.565223	1.000916
972.863524	0.999573
973.161788	1.000538
973.460014	1.001609
973.758204	0.999688
974.056356	1.000639
974.354471	1.000430
974.652550	1.001093
974.950591	1.000198
975.248595	1.000744
975.546563	1.000267
975.844493	1.001793
976.142386	1.000006
976.440243	1.002402
976.738062	1.001058
977.035845	1.000814
977.333590	1.001680
977.631299	0.999253
977.928971	1.000285
978.226606	1.000540
978.524204	0.999411
978.821765	1.001341
979.119290	1.001972
979.416777	1.000682
979.714228	1.000103
980.011642	1.000595
980.309020	1.000991
980.606360	1.000789
980.903664	1.000747
981.200931	1.000359
981.498162	1.000334
981.795356	1.000634
982.092513	0.999739
982.389633	1.001455
982.686717	0.998854
982.983764	1.000261
983.280775	1.001249
983.577749	1.001500
983.874686	0.998998
984.171587	0.999390
984.468451	1.000290
984.765279	1.000804
985.062070	0.999979
985.358824	1.001069
985.655543	1.000982
985.952224	1.001237
986.248869	0.999558
986.545478	1.002354
986.842050	0.999793
987.138586	1.001041
987.435086	1.001124
987.731549	1.000618
988.027975	1.001331
988.324366	1.000807
988.620719	1.001805
988.917037	1.000505
989.213318	1.000618
989.509563	1.000956
989.805772	1.000636
990.101944	1.001854
990.398080	1.000154
990.694180	1.001183
990.990244	1.000560
991.286271	1.000927
991.582262	1.000542
991.878217	1.000457
992.174136	1.000962
992.470019	1.000943
992.765865	1.001214
993.061676	1.001058
993.357450	1.002441
993.653188	1.002316
993.948890	1.000619
994.244556	0.998819
994.540186	1.000308
994.835780	0.999476
995.131337	1.001460
995.426859	0.999688
995.722345	1.001052
996.017795	1.000093
996.313208	1.000603
996.608586	1.001737
996.903928	1.000370
997.199234	1.001197
997.494504	1.001626
997.789738	0.999455
998.084936	1.000740
998.380099	0.999201
998.675225	1.000505
998.970316	1.000336
999.265371	1.001870
999.560390	1.000870
999.855373	0.999929
1000.150320	1.001111
1000.445232	1.001959
1000.740108	1.000023
1001.034948	0.999746
1001.329752	1.001314
1001.624521	1.000930
1001.919254	1.000221
1002.213951	1.000182
1002.508613	1.000673
1002.803239	1.000095
1003.097829	1.000985
1003.392384	1.000878
1003.686903	1.000444
1003.981386	1.001557
1004.275834	1.003145
1004.570246	1.000759
1004.864623	1.001135
1005.158964	1.000081
1005.453270	0.999950
1005.747540	0.999524
1006.041775	1.001192
1006.335974	1.001664
1006.630138	1.001867
1006.924266	0.999558
1007.218359	1.000024
1007.512416	1.001323
1007.806438	1.001320
1008.100425	1.002612
1008.394376	1.002052
1008.688292	1.000645
1008.982172	0.999968
1009.276017	1.001127
1009.569827	1.001850
1009.863602	1.001029
1010.157341	1.002054
1010.451045	1.000282
1010.744714	1.002850
1011.038347	1.001950
1011.331945	0.999440
1011.625508	1.000848
1011.919036	1.001069
1012.212528	1.001318
1012.505986	1.000962
1012.799408	1.001332
1013.092795	1.001391
1013.386147	0.999445
1013.679464	1.001921
1013.972745	1.001425
1014.265992	1.000765
1014.559204	1.000336
1014.852380	1.001401
1015.145521	1.001436
1015.438628	1.000709
1015.731699	1.000645
1016.024736	1.000706
1016.317737	1.001473
1016.610703	1.001227
1016.903635	1.000803
1017.196531	0.999055
1017.489393	1.000429
1017.782219	1.000056
1018.075011	1.000196
1018.367768	1.000462
1018.660490	1.000781
1018.953177	1.000781
1019.245829	1.000781
