Dividing Wavelength (nm)	Counts (n)	Blue Motor Position (mm): 15.400000	Red Motor Position (mm): 0.000000	
326.493990	1.002033
326.888308	1.002033
327.282561	1.002033
327.676750	1.003870
328.070874	1.004346
328.464933	1.003292
328.858929	1.004123
329.252859	1.002446
329.646726	1.001096
330.040528	1.002797
330.434265	1.003325
330.827938	1.001870
331.221547	1.003214
331.615091	1.004406
332.008571	1.003795
332.401986	1.002320
332.795338	1.002587
333.188625	1.002817
333.581847	1.002607
333.975006	1.003339
334.368100	1.003537
334.761129	1.001350
335.154095	1.003025
335.546996	1.001583
335.939833	0.998534
336.332606	0.999523
336.725315	0.998061
337.117960	0.999857
337.510540	0.997322
337.903056	0.998195
338.295508	1.000533
338.687896	0.999413
339.080220	0.999193
339.472480	0.998353
339.864676	0.998014
340.256807	0.997539
340.648875	0.998754
341.040879	0.999126
341.432818	0.999758
341.824694	0.998866
342.216506	0.999641
342.608253	0.998307
342.999937	0.999162
343.391557	0.998187
343.783113	1.001130
344.174605	0.999076
344.566033	0.998046
344.957397	1.000331
345.348697	0.998882
345.739934	0.999537
346.131106	0.998076
346.522215	0.998759
346.913260	0.998904
347.304241	0.996458
347.695159	0.998851
348.086012	0.997843
348.476802	0.998733
348.867528	0.998317
349.258191	0.998934
349.648789	0.998179
350.039324	0.999113
350.429796	0.998097
350.820203	0.997504
351.210548	0.998578
351.600828	0.998142
351.991045	0.998641
352.381198	0.998781
352.771288	0.997625
353.161314	0.998289
353.551276	0.997979
353.941175	0.997051
354.331010	0.998563
354.720782	0.998681
355.110490	0.997456
355.500135	0.998388
355.889717	0.997864
356.279235	0.996911
356.668689	0.998265
357.058080	0.997741
357.447408	0.996718
357.836672	0.996623
358.225873	0.998034
358.615010	0.998227
359.004084	0.997007
359.393095	0.997264
359.782043	0.997796
360.170927	0.996687
360.559748	0.996763
360.948505	0.996767
361.337199	0.996271
361.725830	0.997760
362.114398	0.997452
362.502903	0.996507
362.891344	0.995822
363.279722	0.995893
363.668037	0.996850
364.056289	0.995897
364.444478	0.997892
364.832603	0.996807
365.220665	0.996892
365.608665	0.996230
365.996601	0.995549
366.384474	0.994951
366.772284	0.995842
367.160031	0.995010
367.547715	0.995257
367.935336	0.994012
368.322893	0.993128
368.710388	0.992514
369.097820	0.990517
369.485189	0.987998
369.872495	0.987006
370.259738	0.983631
370.646918	0.980837
371.034035	0.979405
371.421090	0.975360
371.808081	0.971654
372.195010	0.968403
372.581875	0.963664
372.968678	0.958297
373.355418	0.955084
373.742096	0.948498
374.128710	0.944281
374.515262	0.939542
374.901751	0.933031
375.288177	0.929055
375.674540	0.921688
376.060841	0.915873
376.447079	0.908571
376.833254	0.902411
377.219367	0.897437
377.605417	0.885290
377.991404	0.882754
378.377329	0.876031
378.763191	0.870301
379.148991	0.860889
379.534727	0.852612
379.920402	0.845125
380.306013	0.841319
380.691563	0.829747
381.077049	0.821953
381.462474	0.817535
381.847835	0.806233
382.233134	0.802164
382.618371	0.802272
383.003545	0.784760
383.388657	0.783124
383.773706	0.775833
384.158693	0.771016
384.543618	0.766486
384.928480	0.756781
385.313280	0.746985
385.698017	0.747267
386.082692	0.735779
386.467305	0.733506
386.851856	0.728950
387.236344	0.722256
387.620770	0.717801
388.005133	0.711463
388.389435	0.705372
388.773674	0.702957
389.157851	0.694733
389.541965	0.693058
389.926018	0.699510
390.310008	0.686247
390.693936	0.683425
391.077802	0.674917
391.461606	0.676756
391.845348	0.665817
392.229027	0.665343
392.612645	0.663794
392.996200	0.650966
393.379694	0.643928
393.763125	0.634307
394.146494	0.639549
394.529801	0.628785
394.913047	0.620724
395.296230	0.627082
395.679351	0.618602
396.062410	0.615817
396.445408	0.618162
396.828343	0.613337
397.211217	0.608144
397.594028	0.620364
397.976778	0.611503
398.359466	0.607467
398.742092	0.602143
399.124656	0.614515
399.507158	0.602396
399.889598	0.599998
400.271977	0.590893
400.654294	0.595149
401.036549	0.594237
401.418742	0.598814
401.800874	0.584477
402.182944	0.581556
402.564952	0.573048
402.946898	0.575047
403.328783	0.575257
403.710606	0.586785
404.092367	0.561569
404.474067	0.566830
404.855705	0.565713
405.237282	0.574524
405.618797	0.561291
406.000250	0.556796
406.381642	0.545962
406.762972	0.551402
407.144240	0.550074
407.525447	0.549352
407.906593	0.543289
408.287677	0.537497
408.668700	0.546760
409.049661	0.540394
409.430560	0.535687
409.811399	0.544501
410.192176	0.526170
410.572891	0.533522
410.953545	0.521327
411.334138	0.535153
411.714669	0.527365
412.095139	0.539174
412.475547	0.523528
412.855894	0.525590
413.236180	0.524253
413.616405	0.529803
413.996568	0.520392
414.376670	0.526695
414.756711	0.531230
415.136691	0.528166
415.516609	0.519591
415.896466	0.516088
416.276262	0.512404
416.655997	0.513695
417.035670	0.495726
417.415283	0.487432
417.794834	0.491598
418.174324	0.497439
418.553753	0.506647
418.933121	0.488631
419.312428	0.482937
419.691674	0.487782
420.070859	0.476282
420.449983	0.484209
420.829045	0.473397
421.208047	0.481930
421.586988	0.475546
421.965867	0.474296
422.344686	0.463192
422.723444	0.475727
423.102141	0.492917
423.480777	0.465268
423.859352	0.486292
424.237866	0.463803
424.616319	0.464803
424.994712	0.455134
425.373044	0.465906
425.751314	0.453369
426.129524	0.470373
426.507673	0.453712
426.885762	0.446827
427.263789	0.452861
427.641756	0.462519
428.019662	0.452569
428.397508	0.452191
428.775292	0.456117
429.153016	0.448256
429.530679	0.454846
429.908282	0.447388
430.285824	0.457852
430.663305	0.436482
431.040726	0.457270
431.418086	0.457559
431.795385	0.449213
432.172624	0.447931
432.549802	0.448378
432.926920	0.447092
433.303977	0.446444
433.680974	0.444020
434.057910	0.442444
434.434786	0.441501
434.811601	0.443980
435.188355	0.426908
435.565050	0.436095
435.941683	0.437268
436.318257	0.421065
436.694770	0.422142
437.071222	0.420327
437.447614	0.424682
437.823946	0.431336
438.200218	0.420789
438.576429	0.430448
438.952580	0.423573
439.328670	0.419892
439.704700	0.426501
440.080670	0.427946
440.456580	0.409414
440.832429	0.417566
441.208218	0.427626
441.583947	0.417454
441.959616	0.416344
442.335224	0.422226
442.710773	0.412810
443.086261	0.411081
443.461689	0.424280
443.837057	0.414643
444.212365	0.404357
444.587612	0.411250
444.962800	0.401090
445.337927	0.402818
445.712995	0.429331
446.088002	0.391029
446.462949	0.401014
446.837837	0.406555
447.212664	0.395128
447.587431	0.386724
447.962139	0.356811
448.336786	0.315958
448.711374	0.326167
449.085901	0.370969
449.460369	0.375014
449.834776	0.378679
450.209124	0.357522
450.583412	0.350461
450.957640	0.343343
451.331808	0.355334
451.705917	0.378346
452.079965	0.382741
452.453954	0.370890
452.827883	0.378247
453.201752	0.372374
453.575562	0.384065
453.949311	0.372011
454.323001	0.378651
454.696632	0.374661
455.070202	0.367149
455.443713	0.358932
455.817164	0.353541
456.190556	0.349427
456.563888	0.346288
456.937160	0.344027
457.310373	0.361133
457.683526	0.359686
458.056619	0.365568
458.429653	0.366340
458.802628	0.369269
459.175542	0.363948
459.548398	0.346286
459.921194	0.339367
460.293930	0.339299
460.666607	0.316757
461.039224	0.304922
461.411782	0.300532
461.784280	0.299821
462.156719	0.303995
462.529099	0.308088
462.901419	0.324526
463.273680	0.328789
463.645882	0.328258
464.018024	0.334449
464.390106	0.326876
464.762130	0.311584
465.134094	0.294690
465.505999	0.263450
465.877845	0.233696
466.249631	0.220670
466.621358	0.228061
466.993026	0.242123
467.364634	0.248367
467.736184	0.257243
468.107674	0.266134
468.479105	0.265058
468.850477	0.271931
469.221790	0.278750
469.593043	0.288977
469.964238	0.293558
470.335373	0.293173
470.706449	0.291193
471.077467	0.291862
471.448425	0.254104
471.819324	0.229324
472.190164	0.228948
472.560945	0.257638
472.931667	0.280060
473.302330	0.284301
473.672934	0.296250
474.043479	0.283917
474.413965	0.285958
474.784393	0.289720
475.154761	0.284804
475.525070	0.281864
475.895321	0.287639
476.265513	0.281701
476.635645	0.277097
477.005719	0.277103
477.375734	0.273565
477.745691	0.266536
478.115588	0.263138
478.485427	0.256668
478.855207	0.243475
479.224928	0.225943
479.594591	0.214071
479.964194	0.217445
480.333739	0.218597
480.703226	0.220079
481.072653	0.218363
481.442022	0.214285
481.811333	0.210771
482.180584	0.214497
482.549777	0.219833
482.918912	0.223103
483.287988	0.222868
483.657005	0.222378
484.025964	0.229092
484.394864	0.225967
484.763706	0.226610
485.132489	0.231705
485.501213	0.232361
485.869879	0.230900
486.238487	0.234268
486.607036	0.232040
486.975527	0.236582
487.343959	0.232458
487.712333	0.231479
488.080648	0.232750
488.448905	0.232044
488.817104	0.233525
489.185244	0.227836
489.553326	0.224844
489.921350	0.214675
490.289315	0.196915
490.657222	0.191848
491.025070	0.193393
491.392861	0.195316
491.760593	0.200992
492.128267	0.207009
492.495883	0.212294
492.863440	0.218602
493.230939	0.224983
493.598380	0.226362
493.965763	0.228738
494.333088	0.230651
494.700354	0.232304
495.067563	0.231331
495.434713	0.234703
495.801805	0.232268
496.168839	0.234084
496.535815	0.235496
496.902733	0.235293
497.269593	0.237168
497.636395	0.234372
498.003139	0.235022
498.369825	0.237722
498.736453	0.234645
499.103023	0.236036
499.469535	0.235465
499.835989	0.235682
500.202385	0.236500
500.568723	0.239811
500.935003	0.235044
501.301226	0.239361
501.667390	0.233674
502.033497	0.231488
502.399546	0.234272
502.765537	0.236412
503.131470	0.235007
503.497345	0.231241
503.863163	0.239737
504.228923	0.233153
504.594625	0.231497
504.960269	0.237195
505.325856	0.232518
505.691385	0.236627
506.056856	0.233623
506.422270	0.232950
506.787625	0.235519
507.152924	0.232912
507.518164	0.233237
507.883347	0.234933
508.248472	0.236800
508.613540	0.231734
508.978550	0.234410
509.343503	0.234907
509.708398	0.232589
510.073236	0.230061
510.438016	0.229892
510.802738	0.230986
511.167403	0.230016
511.532010	0.232047
511.896561	0.227588
512.261053	0.225788
512.625488	0.228408
512.989866	0.228693
513.354186	0.228750
513.718449	0.230890
514.082655	0.227129
514.446803	0.229440
514.810894	0.227335
515.174927	0.229920
515.538904	0.229288
515.902822	0.226612
516.266684	0.228752
516.630488	0.230095
516.994235	0.228740
517.357925	0.227801
517.721558	0.226036
518.085133	0.225402
518.448651	0.225442
518.812112	0.227828
519.175516	0.227521
519.538863	0.225184
519.902152	0.226909
520.265385	0.223819
520.628560	0.225490
520.991678	0.225839
521.354739	0.224714
521.717743	0.226103
522.080690	0.226259
522.443580	0.223790
522.806413	0.224709
523.169189	0.224523
523.531908	0.223183
523.894569	0.226596
524.257174	0.226642
524.619722	0.224494
524.982213	0.225635
525.344647	0.224510
525.707025	0.225580
526.069345	0.223506
526.431608	0.225561
526.793815	0.223272
527.155964	0.227588
527.518057	0.226660
527.880093	0.227621
528.242072	0.226350
528.603995	0.228264
528.965860	0.229902
529.327669	0.229101
529.689421	0.229848
530.051117	0.230751
530.412755	0.228735
530.774337	0.230992
531.135862	0.231526
531.497331	0.231012
531.858743	0.233970
532.220098	0.230733
532.581396	0.233433
532.942638	0.233807
533.303824	0.235191
533.664953	0.234959
534.026025	0.236846
534.387040	0.235089
534.747999	0.235116
535.108902	0.233975
535.469748	0.239355
535.830537	0.237142
536.191270	0.237709
536.551947	0.237606
536.912567	0.237629
537.273131	0.239665
537.633638	0.239927
537.994089	0.240501
538.354483	0.241691
538.714821	0.239045
539.075103	0.238775
539.435328	0.239999
539.795497	0.243943
540.155609	0.241110
540.515665	0.239063
540.875665	0.245144
541.235609	0.244233
541.595496	0.244099
541.955328	0.241404
542.315102	0.244267
542.674821	0.245779
543.034483	0.246165
543.394090	0.246016
543.753640	0.248391
544.113134	0.243697
544.472571	0.247276
544.831953	0.244521
545.191278	0.249239
545.550548	0.249079
545.909761	0.246426
546.268918	0.247542
546.628019	0.246543
546.987064	0.249603
547.346053	0.251345
547.704986	0.250200
548.063863	0.250844
548.422684	0.251854
548.781449	0.254132
549.140158	0.252576
549.498811	0.255730
549.857408	0.259601
550.215949	0.255125
550.574434	0.258982
550.932864	0.257905
551.291237	0.256930
551.649555	0.259644
552.007817	0.259486
552.366022	0.260998
552.724173	0.262346
553.082267	0.263122
553.440305	0.261235
553.798288	0.266164
554.156215	0.264152
554.514086	0.265723
554.871902	0.269818
555.229661	0.270194
555.587365	0.271572
555.945014	0.274947
556.302606	0.273504
556.660143	0.276779
557.017625	0.274970
557.375050	0.278112
557.732421	0.276438
558.089735	0.279642
558.446994	0.280691
558.804197	0.281402
559.161345	0.282709
559.518437	0.286805
559.875474	0.287104
560.232455	0.287709
560.589381	0.290043
560.946251	0.292727
561.303065	0.290426
561.659825	0.293856
562.016528	0.296767
562.373177	0.300245
562.729770	0.300005
563.086307	0.302683
563.442789	0.303044
563.799216	0.307994
564.155587	0.308412
564.511904	0.311337
564.868164	0.312617
565.224370	0.313949
565.580520	0.318622
565.936615	0.319046
566.292654	0.325002
566.648638	0.323469
567.004567	0.326904
567.360441	0.329187
567.716260	0.333430
568.072023	0.332626
568.427732	0.336726
568.783385	0.340252
569.138982	0.341699
569.494525	0.343098
569.850013	0.347957
570.205445	0.349556
570.560823	0.353428
570.916145	0.358106
571.271412	0.359292
571.626625	0.362806
571.981782	0.364956
572.336884	0.368865
572.691931	0.369851
573.046923	0.375132
573.401860	0.377797
573.756743	0.382678
574.111570	0.384065
574.466342	0.386715
574.821059	0.388872
575.175722	0.394216
575.530330	0.397095
575.884882	0.399226
576.239380	0.404510
576.593823	0.406824
576.948211	0.410230
577.302544	0.413922
577.656823	0.418368
578.011047	0.419888
578.365216	0.424306
578.719330	0.428777
579.073389	0.431425
579.427394	0.434693
579.781344	0.438903
580.135239	0.442593
580.489080	0.445354
580.842866	0.451375
581.196597	0.454567
581.550273	0.456333
581.903895	0.461417
582.257463	0.461637
582.610975	0.469207
582.964434	0.470655
583.317837	0.476596
583.671186	0.479096
584.024481	0.482672
584.377721	0.487434
584.730906	0.491050
585.084037	0.493988
585.437113	0.497867
585.790135	0.500864
586.143103	0.506166
586.496016	0.509412
586.848874	0.511882
587.201679	0.515160
587.554428	0.520802
587.907124	0.523802
588.259765	0.527099
588.612352	0.531854
588.964884	0.536406
589.317362	0.540014
589.669786	0.542523
590.022155	0.544596
590.374470	0.548495
590.726731	0.552090
591.078937	0.559642
591.431090	0.561087
591.783188	0.566163
592.135232	0.570702
592.487222	0.572422
592.839157	0.575165
593.191038	0.579912
593.542866	0.584300
593.894639	0.589371
594.246358	0.591470
594.598022	0.595049
594.949633	0.600689
595.301190	0.604134
595.652692	0.606837
596.004141	0.608941
596.355535	0.615715
596.706876	0.619706
597.058162	0.624818
597.409395	0.626084
597.760573	0.628242
598.111698	0.632809
598.462768	0.636230
598.813785	0.639564
599.164748	0.644611
599.515657	0.647350
599.866511	0.653635
600.217312	0.653175
600.568060	0.659346
600.918753	0.660622
601.269392	0.664635
601.619978	0.669555
601.970510	0.671545
602.320988	0.674048
602.671412	0.676819
603.021783	0.680485
603.372100	0.684502
603.722363	0.688535
604.072572	0.691333
604.422728	0.693953
604.772830	0.698983
605.122878	0.702363
605.472872	0.704677
605.822813	0.707113
606.172701	0.711169
606.522534	0.713882
606.872314	0.715889
607.222041	0.719468
607.571714	0.721900
607.921333	0.725560
608.270899	0.728442
608.620411	0.730039
608.969870	0.734522
609.319276	0.736526
609.668627	0.740336
610.017926	0.741343
610.367171	0.744728
610.716362	0.747129
611.065500	0.750235
611.414585	0.753005
611.763616	0.754792
612.112594	0.759224
612.461518	0.761154
612.810389	0.763719
613.159207	0.767490
613.507971	0.769586
613.856682	0.772719
614.205340	0.774204
614.553945	0.776449
614.902496	0.780942
615.250994	0.782370
615.599439	0.784983
615.947830	0.787455
616.296169	0.790078
616.644454	0.793275
616.992686	0.794997
617.340864	0.796675
617.688990	0.799850
618.037063	0.800751
618.385082	0.803300
618.733048	0.805389
619.080961	0.807885
619.428821	0.810224
619.776628	0.812592
620.124382	0.815929
620.472083	0.818506
620.819731	0.821131
621.167326	0.823750
621.514868	0.826175
621.862357	0.830030
622.209793	0.832382
622.557176	0.835715
622.904506	0.838585
623.251783	0.841893
623.599007	0.844500
623.946179	0.846343
624.293297	0.850460
624.640363	0.852462
624.987376	0.854841
625.334336	0.857433
625.681243	0.860877
626.028097	0.862979
626.374899	0.864145
626.721647	0.868337
627.068343	0.869532
627.414987	0.871769
627.761577	0.873762
628.108115	0.875057
628.454600	0.878672
628.801032	0.880161
629.147412	0.881307
629.493739	0.884160
629.840014	0.886055
630.186236	0.886216
630.532405	0.889369
630.878521	0.889352
631.224585	0.891897
631.570597	0.893349
631.916556	0.895650
632.262462	0.896098
632.608316	0.899090
632.954117	0.900351
633.299866	0.901510
633.645562	0.904193
633.991206	0.906178
634.336797	0.908232
634.682336	0.910918
635.027823	0.911696
635.373257	0.913297
635.718639	0.916228
636.063968	0.916947
636.409245	0.918524
636.754470	0.921178
637.099642	0.922308
637.444762	0.924326
637.789829	0.924801
638.134845	0.926920
638.479808	0.928587
638.824719	0.930053
639.169577	0.930661
639.514383	0.932885
639.859137	0.933935
640.203839	0.934844
640.548489	0.936224
640.893086	0.936397
641.237632	0.939321
641.582125	0.938446
641.926566	0.941615
642.270955	0.942257
642.615292	0.942127
642.959576	0.944103
643.303809	0.944608
643.647990	0.945652
643.992118	0.946895
644.336195	0.946822
644.680219	0.948607
645.024192	0.949213
645.368112	0.948987
645.711981	0.949713
646.055797	0.950534
646.399562	0.950443
646.743274	0.950686
647.086935	0.950552
647.430544	0.951459
647.774101	0.951616
648.117606	0.953267
648.461059	0.954761
648.804460	0.954679
649.147810	0.955269
649.491108	0.956784
649.834354	0.957537
650.177548	0.958955
650.520690	0.959451
650.863781	0.960401
651.206820	0.961321
651.549807	0.961415
651.892742	0.962935
652.235626	0.963667
652.578458	0.964611
652.921238	0.965576
653.263967	0.966354
653.606644	0.965586
653.949269	0.967096
654.291843	0.967072
654.634365	0.968524
654.976836	0.968228
655.319255	0.969659
655.661622	0.970548
656.003938	0.970560
656.346203	0.970963
656.688416	0.972579
657.030577	0.971508
657.372687	0.973007
657.714746	0.973472
658.056753	0.973275
658.398708	0.973429
658.740612	0.975497
659.082465	0.975010
659.424266	0.975102
659.766016	0.975031
660.107715	0.976612
660.449362	0.976304
660.790958	0.977106
661.132503	0.977579
661.473996	0.976300
661.815438	0.978695
662.156829	0.977765
662.498168	0.979563
662.839456	0.977754
663.180693	0.979633
663.521879	0.979876
663.863013	0.979890
664.204097	0.979548
664.545129	0.979822
664.886110	0.981066
665.227040	0.979636
665.567918	0.980138
665.908746	0.980307
666.249522	0.980719
666.590248	0.980821
666.930922	0.981147
667.271545	0.982114
667.612118	0.982103
667.952639	0.982128
668.293109	0.982730
668.633528	0.981480
668.973896	0.982485
669.314213	0.982419
669.654480	0.983379
669.994695	0.982422
670.334859	0.984338
670.674973	0.983791
671.015035	0.983926
671.355047	0.983942
671.695008	0.984010
672.034918	0.984735
672.374777	0.985086
672.714585	0.985215
673.054342	0.985535
673.394049	0.984430
673.733705	0.984599
674.073310	0.985702
674.412864	0.986024
674.752368	0.984909
675.091820	0.986332
675.431223	0.987387
675.770574	0.985648
676.109875	0.986475
676.449125	0.985779
676.788324	0.986290
677.127473	0.987860
677.466571	0.986970
677.805619	0.987086
678.144616	0.988487
678.483562	0.987816
678.822458	0.988489
679.161303	0.987563
679.500098	0.987532
679.838842	0.988522
680.177535	0.988037
680.516179	0.988533
680.854771	0.988314
681.193314	0.988451
681.531805	0.988179
681.870247	0.988699
682.208638	0.988066
682.546978	0.987574
682.885268	0.987618
683.223508	0.988089
683.561697	0.988230
683.899836	0.988944
684.237925	0.988721
684.575963	0.988908
684.913951	0.988786
685.251889	0.989634
685.589776	0.989094
685.927614	0.989136
686.265401	0.988472
686.603137	0.988401
686.940824	0.988640
687.278460	0.988926
687.616046	0.988457
687.953582	0.989025
688.291068	0.988852
688.628504	0.988307
688.965889	0.988059
689.303224	0.987170
689.640510	0.988453
689.977745	0.988780
690.314930	0.988857
690.652065	0.989010
690.989150	0.989668
691.326185	0.989908
691.663170	0.989940
692.000105	0.989876
692.336990	0.990890
692.673825	0.989739
693.010610	0.989829
693.347345	0.991392
693.684030	0.990700
694.020665	0.990244
694.357251	0.990360
694.693786	0.990766
695.030272	0.989663
695.366707	0.990684
695.703093	0.990562
696.039429	0.991018
696.375716	0.991824
696.711952	0.991217
697.048139	0.991497
697.384276	0.991736
697.720363	0.991499
698.056400	0.989112
698.392388	0.990520
698.728326	0.991720
699.064214	0.991565
699.400053	0.990854
699.735842	0.991992
700.071581	0.991216
700.407270	0.991444
700.742910	0.991926
701.078501	0.991595
701.414042	0.992331
701.749533	0.990011
702.084974	0.992008
702.420366	0.992287
702.755709	0.991614
703.091002	0.992644
703.426246	0.993832
703.761440	0.992061
704.096584	0.991184
704.431679	0.990895
704.766725	0.991961
705.101721	0.992500
705.436668	0.993024
705.771565	0.993155
706.106413	0.991467
706.441212	0.992163
706.775961	0.992481
707.110661	0.991530
707.445311	0.992101
707.779913	0.993699
708.114465	0.993088
708.448967	0.992360
708.783421	0.992448
709.117825	0.992927
709.452180	0.992396
709.786485	0.992066
710.120742	0.991625
710.454949	0.991039
710.789107	0.991465
711.123216	0.990778
711.457275	0.990239
711.791286	0.991416
712.125247	0.992824
712.459159	0.991730
712.793023	0.991803
713.126837	0.991828
713.460602	0.990436
713.794318	0.990119
714.127985	0.990031
714.461602	0.991778
714.795171	0.991828
715.128691	0.991484
715.462162	0.991216
715.795584	0.991722
716.128957	0.992852
716.462281	0.991655
716.795556	0.991759
717.128782	0.992479
717.461960	0.991828
717.795088	0.992710
718.128167	0.993150
718.461198	0.992139
718.794180	0.993702
719.127113	0.993680
719.459997	0.991993
719.792833	0.992180
720.125619	0.991924
720.458357	0.992751
720.791046	0.993315
721.123686	0.992484
721.456278	0.991834
721.788821	0.993030
722.121315	0.994174
722.453761	0.992690
722.786158	0.991834
723.118506	0.993680
723.450805	0.991585
723.783056	0.992866
724.115259	0.991446
724.447412	0.993678
724.779518	0.993316
725.111574	0.992384
725.443582	0.992527
725.775542	0.993057
726.107453	0.992106
726.439315	0.993413
726.771129	0.993197
727.102895	0.992507
727.434612	0.992677
727.766281	0.992101
728.097901	0.991527
728.429473	0.991613
728.760996	0.991386
729.092471	0.991702
729.423897	0.993673
729.755276	0.992377
730.086606	0.992508
730.417887	0.992044
730.749120	0.992561
731.080305	0.992121
731.411442	0.990761
731.742530	0.990759
732.073570	0.991846
732.404562	0.992150
732.735506	0.991187
733.066401	0.992009
733.397249	0.990924
733.728048	0.991890
734.058798	0.992238
734.389501	0.992769
734.720156	0.992799
735.050762	0.993829
735.381320	0.992568
735.711831	0.991462
736.042293	0.992972
736.372707	0.993430
736.703073	0.991611
737.033391	0.992769
737.363661	0.993125
737.693883	0.993255
738.024056	0.992489
738.354182	0.992502
738.684260	0.992560
739.014290	0.992848
739.344272	0.992416
739.674207	0.992404
740.004093	0.992513
740.333931	0.992665
740.663722	0.993729
740.993464	0.992632
741.323159	0.992384
741.652806	0.992618
741.982405	0.992042
742.311956	0.993111
742.641460	0.992487
742.970915	0.992521
743.300323	0.992277
743.629683	0.991176
743.958996	0.994157
744.288260	0.992345
744.617477	0.993666
744.946647	0.992580
745.275768	0.993866
745.604842	0.992524
745.933869	0.992986
746.262847	0.993594
746.591778	0.992810
746.920662	0.993880
747.249498	0.994843
747.578286	0.994204
747.907027	0.993589
748.235720	0.993207
748.564365	0.993708
748.892963	0.992707
749.221514	0.993502
749.550017	0.992865
749.878473	0.993905
750.206881	0.995632
750.535242	0.992714
750.863555	0.993753
751.191821	0.992833
751.520039	0.992226
751.848210	0.992656
752.176334	0.992976
752.504411	0.993106
752.832440	0.992260
753.160421	0.993974
753.488356	0.994466
753.816243	0.993503
754.144082	0.993959
754.471875	0.993772
754.799620	0.994710
755.127318	0.994148
755.454969	0.994539
755.782572	0.994571
756.110129	0.993225
756.437638	0.994425
756.765100	0.994336
757.092515	0.992343
757.419882	0.994092
757.747203	0.993570
758.074477	0.994121
758.401703	0.993701
758.728882	0.994229
759.056014	0.993855
759.383099	0.993528
759.710138	0.992779
760.037129	0.992677
760.364073	0.993173
760.690970	0.993159
761.017820	0.992047
761.344623	0.993695
761.671379	0.994096
761.998088	0.993347
762.324751	0.992725
762.651366	0.992583
762.977935	0.990119
763.304456	0.989369
763.630931	0.987345
763.957359	0.986705
764.283740	0.988378
764.610074	0.989182
764.936362	0.991527
765.262602	0.991784
765.588796	0.991985
765.914943	0.992439
766.241044	0.993818
766.567097	0.993365
766.893104	0.993904
767.219064	0.992742
767.544978	0.993954
767.870845	0.994082
768.196665	0.994127
768.522438	0.994886
768.848165	0.995299
769.173846	0.994771
769.499479	0.994933
769.825066	0.995920
770.150607	0.996711
770.476101	0.995366
770.801548	0.996236
771.126949	0.995849
771.452303	0.994953
771.777611	0.995815
772.102872	0.996160
772.428087	0.995868
772.753256	0.995692
773.078378	0.995689
773.403453	0.994132
773.728482	0.997602
774.053465	0.995852
774.378401	0.995332
774.703291	0.996135
775.028135	0.996947
775.352932	0.994417
775.677683	0.996589
776.002388	0.995560
776.327046	0.995788
776.651658	0.997735
776.976224	0.996135
777.300743	0.995856
777.625216	0.995511
777.949643	0.995840
778.274024	0.995541
778.598359	0.996366
778.922647	0.996588
779.246889	0.996856
779.571086	0.995021
779.895236	0.996301
780.219339	0.996688
780.543397	0.995591
780.867409	0.996082
781.191374	0.995582
781.515294	0.997109
781.839167	0.996283
782.162995	0.995632
782.486776	0.995971
782.810511	0.995755
783.134201	0.996766
783.457844	0.997582
783.781441	0.996678
784.104993	0.995689
784.428498	0.997207
784.751958	0.997208
785.075372	0.997500
785.398739	0.995817
785.722061	0.994918
786.045337	0.996679
786.368568	0.995375
786.691752	0.995617
787.014891	0.996170
787.337983	0.995316
787.661030	0.995321
787.984031	0.996197
788.306987	0.995467
788.629897	0.993778
788.952760	0.995318
789.275579	0.994660
789.598351	0.994863
789.921078	0.996748
790.243759	0.995104
790.566395	0.996140
790.888984	0.996534
791.211529	0.997532
791.534027	0.996211
791.856480	0.996630
792.178888	0.995548
792.501249	0.996168
792.823566	0.998329
793.145836	0.996141
793.468062	0.996592
793.790241	0.996609
794.112375	0.996021
794.434464	0.997513
794.756507	0.996605
795.078505	0.996496
795.400457	0.996042
795.722364	0.995886
796.044226	0.995569
796.366042	0.995140
796.687812	0.994470
797.009538	0.994338
797.331218	0.996545
797.652852	0.996636
797.974442	0.995576
798.295986	0.995889
798.617484	0.995148
798.938938	0.997235
799.260346	0.994975
799.581709	0.995571
799.903026	0.997138
800.224299	0.995877
800.545526	0.997376
800.866708	0.996555
801.187845	0.996438
801.508936	0.996684
801.829983	0.996643
802.150984	0.997210
802.471940	0.996792
802.792851	0.996991
803.113717	0.997713
803.434538	0.997220
803.755314	0.998986
804.076045	0.997113
804.396731	0.995772
804.717372	0.995639
805.037967	0.997391
805.358518	0.998024
805.679024	0.996779
805.999485	0.996936
806.319901	0.996917
806.640272	0.996963
806.960598	0.996974
807.280879	0.996539
807.601115	0.997167
807.921306	0.998155
808.241453	0.996023
808.561554	0.997433
808.881611	0.996880
809.201623	0.996234
809.521590	0.996787
809.841513	0.996716
810.161390	0.995886
810.481223	0.995768
810.801011	0.997129
811.120755	0.998193
811.440453	0.996526
811.760107	0.996904
812.079716	0.997394
812.399281	0.997382
812.718801	0.996333
813.038276	0.996538
813.357707	0.997108
813.677093	0.997973
813.996434	0.997030
814.315731	0.997757
814.634983	0.997799
814.954191	0.996807
815.273354	0.996472
815.592473	0.996959
815.911547	0.997119
816.230577	0.997278
816.549562	0.997311
816.868502	0.995309
817.187399	0.997254
817.506250	0.996450
817.825058	0.994210
818.143821	0.996368
818.462539	0.996035
818.781213	0.995575
819.099843	0.995338
819.418429	0.994737
819.736970	0.994246
820.055466	0.992349
820.373919	0.991341
820.692327	0.990837
821.010691	0.988968
821.329011	0.985424
821.647286	0.981148
821.965517	0.977106
822.283704	0.972709
822.601847	0.970435
822.919945	0.971247
823.237999	0.973996
823.556010	0.975817
823.873976	0.978601
824.191897	0.980019
824.509775	0.983264
824.827609	0.984619
825.145398	0.986558
825.463144	0.985509
825.780845	0.985539
826.098502	0.985559
826.416116	0.985886
826.733685	0.982417
827.051210	0.980081
827.368692	0.979643
827.686129	0.981171
828.003522	0.985509
828.320872	0.985724
828.638177	0.988518
828.955439	0.991637
829.272656	0.991304
829.589830	0.992230
829.906960	0.992842
830.224046	0.994052
830.541088	0.994201
830.858086	0.994610
831.175041	0.996132
831.491952	0.994298
831.808819	0.994432
832.125642	0.994097
832.442421	0.994246
832.759157	0.994673
833.075849	0.991619
833.392497	0.989230
833.709101	0.986727
834.025662	0.986359
834.342179	0.986877
834.658653	0.990379
834.975083	0.990107
835.291469	0.992762
835.607811	0.992996
835.924110	0.993278
836.240366	0.995125
836.556578	0.994912
836.872746	0.995153
837.188871	0.995714
837.504952	0.996830
837.820990	0.996909
838.136984	0.996925
838.452935	0.997939
838.768842	0.999088
839.084706	0.996681
839.400526	0.996736
839.716303	0.993368
840.032037	0.992765
840.347727	0.992003
840.663373	0.993956
840.978977	0.994831
841.294537	0.996404
841.610054	0.996763
841.925527	0.998401
842.240957	0.997350
842.556344	0.997859
842.871687	0.997604
843.186987	0.998017
843.502244	0.997426
843.817458	0.997571
844.132629	0.998239
844.447756	0.999340
844.762840	0.998885
845.077881	0.999778
845.392879	0.997425
845.707833	0.998717
846.022745	0.999684
846.337613	0.999488
846.652438	0.998010
846.967221	0.999799
847.281960	0.998798
847.596656	0.999457
847.911309	0.998893
848.225919	0.997903
848.540485	0.999177
848.855009	0.999506
849.169490	0.998747
849.483928	0.998818
849.798323	0.998168
850.112675	0.999711
850.426984	0.999020
850.741251	0.999691
851.055474	0.999620
851.369654	1.000002
851.683792	0.999051
851.997887	0.999110
852.311938	1.000360
852.625947	0.998988
852.939914	0.999166
853.253837	1.000119
853.567718	1.000415
853.881555	0.999770
854.195350	0.999477
854.509103	0.998923
854.822812	0.998543
855.136479	0.999431
855.450103	0.999016
855.763685	0.998694
856.077224	0.999496
856.390720	0.999385
856.704173	0.999335
857.017584	0.999585
857.330953	0.999489
857.644278	0.998676
857.957561	0.999110
858.270802	0.999996
858.584000	1.000017
858.897155	0.998203
859.210268	0.999441
859.523339	0.998631
859.836367	0.998452
860.149352	0.997985
860.462295	0.998949
860.775195	0.999196
861.088054	0.997235
861.400869	0.999165
861.713642	0.998672
862.026373	0.999469
862.339062	0.998787
862.651708	0.999128
862.964312	1.000113
863.276873	0.998456
863.589392	0.998496
863.901869	0.998259
864.214303	0.999891
864.526696	0.999036
864.839045	0.999103
865.151353	0.999287
865.463619	0.997949
865.775842	0.998920
866.088023	0.999194
866.400162	0.998196
866.712258	0.999277
867.024313	0.998668
867.336325	0.999622
867.648296	0.999428
867.960224	0.998921
868.272110	0.998010
868.583954	1.000095
868.895755	0.999209
869.207515	0.997671
869.519233	0.999012
869.830909	0.997042
870.142542	0.997835
870.454134	0.999337
870.765684	0.998331
871.077191	0.998571
871.388657	0.998550
871.700081	0.998751
872.011463	0.999137
872.322803	0.997172
872.634101	0.997251
872.945357	0.997454
873.256571	0.996356
873.567744	0.997953
873.878874	0.997521
874.189963	0.997215
874.501010	0.998621
874.812015	0.997555
875.122979	0.997531
875.433900	0.998052
875.744780	0.998277
876.055618	0.996634
876.366415	0.996078
876.677169	0.995702
876.987882	0.997008
877.298554	0.997363
877.609183	0.997074
877.919771	0.997246
878.230317	0.997999
878.540822	0.995590
878.851285	0.996520
879.161707	0.995448
879.472087	0.996356
879.782425	0.992135
880.092722	0.990554
880.402977	0.987331
880.713191	0.982839
881.023363	0.976320
881.333494	0.974517
881.643583	0.974758
881.953631	0.974504
882.263637	0.974327
882.573602	0.975945
882.883526	0.977671
883.193408	0.981471
883.503248	0.982499
883.813048	0.983833
884.122806	0.987272
884.432522	0.987351
884.742197	0.990321
885.051831	0.990593
885.361424	0.990964
885.670975	0.993929
885.980485	0.993519
886.289954	0.993636
886.599382	0.993787
886.908768	0.995305
887.218113	0.995223
887.527417	0.995160
887.836680	0.996879
888.145901	0.997410
888.455082	0.998031
888.764221	0.997270
889.073319	0.996789
889.382376	0.997583
889.691392	0.996822
890.000366	0.997921
890.309300	0.997297
890.618193	0.997188
890.927044	0.996710
891.235855	0.995996
891.544625	0.997297
891.853353	0.996525
892.162041	0.996885
892.470687	0.996740
892.779293	0.994963
893.087858	0.995173
893.396381	0.995677
893.704864	0.993825
894.013306	0.991614
894.321707	0.989834
894.630068	0.986864
894.938387	0.986428
895.246665	0.986732
895.554903	0.987859
895.863100	0.990283
896.171256	0.991001
896.479371	0.991604
896.787446	0.992261
897.095480	0.993961
897.403473	0.995625
897.711425	0.995258
898.019336	0.995275
898.327207	0.996520
898.635038	0.996012
898.942827	0.996356
899.250576	0.995934
899.558284	0.996700
899.865952	0.996074
900.173579	0.996674
900.481165	0.996412
900.788711	0.996969
901.096216	0.997512
901.403681	0.997807
901.711105	0.996323
902.018489	0.995924
902.325832	0.998026
902.633135	0.997606
902.940397	0.996755
903.247619	0.996645
903.554800	0.992938
903.861941	0.989692
904.169041	0.986401
904.476101	0.984063
904.783121	0.983691
905.090100	0.985177
905.397039	0.986761
905.703938	0.989216
906.010796	0.992357
906.317614	0.993327
906.624391	0.994047
906.931129	0.995575
907.237826	0.996773
907.544483	0.996768
907.851099	0.996744
908.157675	0.996815
908.464211	0.997324
908.770707	0.998226
909.077163	0.997148
909.383578	0.998600
909.689954	0.998389
909.996289	0.999160
910.302584	0.997863
910.608839	0.999328
910.915054	0.998868
911.221229	1.000067
911.527363	0.998988
911.833458	0.999231
912.139513	0.997632
912.445527	0.998772
912.751502	0.997983
913.057436	0.997859
913.363331	0.998222
913.669186	0.998093
913.975000	0.997628
914.280775	0.997262
914.586510	0.995224
914.892205	0.993153
915.197859	0.991973
915.503475	0.989369
915.809050	0.987008
916.114585	0.984477
916.420081	0.984486
916.725536	0.985479
917.030952	0.985189
917.336328	0.986967
917.641665	0.988004
917.946961	0.989496
918.252218	0.990690
918.557435	0.992303
918.862612	0.993508
919.167750	0.994693
919.472848	0.996231
919.777906	0.996713
920.082925	0.997340
920.387904	0.996534
920.692843	0.996612
920.997743	0.996133
921.302603	0.997343
921.607423	0.996418
921.912204	0.998383
922.216946	0.998212
922.521647	0.998110
922.826310	0.998058
923.130932	0.998079
923.435516	0.999292
923.740059	0.998866
924.044564	0.998140
924.349028	0.998642
924.653454	0.999818
924.957840	0.998212
925.262186	0.998653
925.566493	0.999259
925.870761	0.999986
926.174989	0.999016
926.479178	1.001069
926.783328	1.000131
927.087438	0.999834
927.391509	0.999238
927.695541	0.999939
927.999533	1.001159
928.303486	0.998818
928.607400	0.999536
928.911275	1.000036
929.215110	1.001823
929.518906	1.000262
929.822663	1.001541
930.126381	1.001365
930.430060	0.999644
930.733699	1.000318
931.037299	1.000434
931.340861	1.000582
931.644383	1.000076
931.947866	1.001472
932.251309	1.001124
932.554714	1.000131
932.858080	1.000017
933.161407	0.999185
933.464694	0.999326
933.767943	1.001443
934.071153	1.000446
934.374323	1.001386
934.677455	1.001242
934.980548	1.000249
935.283602	1.001409
935.586617	1.000496
935.889593	1.000754
936.192530	1.001256
936.495428	0.999681
936.798287	0.999176
937.101108	0.998942
937.403890	0.998866
937.706632	1.001372
938.009336	0.999753
938.312002	0.998456
938.614628	0.999791
938.917216	0.998801
939.219765	0.997961
939.522275	0.999345
939.824747	0.999338
940.127179	0.998530
940.429573	1.001026
940.731929	0.998021
941.034246	0.997875
941.336524	0.998485
941.638763	0.999119
941.940964	0.997914
942.243126	1.000139
942.545250	1.000345
942.847335	1.000797
943.149381	0.999587
943.451389	0.999488
943.753359	0.999517
944.055290	1.000999
944.357182	0.999456
944.659036	0.999876
944.960851	0.999658
945.262628	0.999710
945.564367	0.999967
945.866067	1.000257
946.167729	1.000196
946.469352	0.999624
946.770937	0.997759
947.072484	1.001369
947.373992	0.999570
947.675462	0.999430
947.976893	0.998862
948.278286	1.001108
948.579641	1.000978
948.880958	1.000388
949.182236	1.000098
949.483476	1.000393
949.784678	1.000160
950.085841	0.999292
950.386967	0.999905
950.688054	0.999778
950.989103	0.997905
951.290114	0.998353
951.591087	1.000000
951.892021	0.999492
952.192917	0.999826
952.493776	1.000971
952.794596	0.999918
953.095378	0.999150
953.396122	0.999362
953.696828	1.000561
953.997496	0.999648
954.298126	1.001001
954.598718	0.999526
954.899272	1.000459
955.199788	0.999765
955.500266	1.001440
955.800706	1.000253
956.101108	0.999683
956.401472	1.001131
956.701798	1.000999
957.002087	1.000886
957.302337	1.000698
957.602550	1.000580
957.902724	1.001124
958.202861	1.000683
958.502960	1.000608
958.803022	1.000938
959.103045	1.001244
959.403031	1.001541
959.702979	1.001876
960.002889	1.001631
960.302762	1.000886
960.602596	1.001083
960.902393	1.001685
961.202153	1.001421
961.501875	1.000667
961.801559	1.000568
962.101205	1.000943
962.400814	1.002241
962.700385	1.001264
962.999918	1.002634
963.299414	0.999402
963.598873	1.002271
963.898293	1.001458
964.197677	1.001419
964.497022	1.001401
964.796331	1.001857
965.095601	1.002566
965.394835	1.000486
965.694030	1.003040
965.993189	1.000885
966.292309	1.001813
966.591393	1.000128
966.890439	1.001829
967.189447	1.000787
967.488419	1.002063
967.787353	1.000763
968.086249	1.001192
968.385108	1.000897
968.683930	1.002232
968.982714	1.000309
969.281462	1.001826
969.580172	1.001232
969.878844	1.002190
970.177480	1.000916
970.476078	1.002888
970.774639	1.001082
971.073162	0.999968
971.371649	1.002799
971.670098	1.000471
971.968510	1.001800
972.266885	1.000667
972.565223	1.000902
972.863524	1.000414
973.161788	1.000202
973.460014	1.002235
973.758204	1.000373
974.056356	1.001725
974.354471	1.000377
974.652550	1.002008
974.950591	1.000620
975.248595	0.999707
975.546563	1.001666
975.844493	1.001540
976.142386	1.001049
976.440243	1.002560
976.738062	1.002120
977.035845	0.999913
977.333590	1.003279
977.631299	1.001321
977.928971	1.001538
978.226606	1.001740
978.524204	1.000335
978.821765	1.002509
979.119290	1.002724
979.416777	1.001028
979.714228	1.002032
980.011642	1.001594
980.309020	1.002117
980.606360	1.001618
980.903664	1.001402
981.200931	1.001471
981.498162	1.000216
981.795356	1.000521
982.092513	1.001016
982.389633	1.002462
982.686717	0.999470
982.983764	0.999605
983.280775	1.000988
983.577749	1.000805
983.874686	0.999941
984.171587	0.999614
984.468451	1.000139
984.765279	1.001758
985.062070	1.001046
985.358824	1.001481
985.655543	1.001061
985.952224	1.001308
986.248869	1.000719
986.545478	1.003640
986.842050	1.001825
987.138586	1.000605
987.435086	1.000720
987.731549	1.002984
988.027975	1.003098
988.324366	1.000334
988.620719	1.002172
988.917037	1.000901
989.213318	1.001269
989.509563	1.002298
989.805772	1.002838
990.101944	1.001873
990.398080	1.002158
990.694180	1.002501
990.990244	1.000313
991.286271	1.002033
991.582262	1.002541
991.878217	1.001241
992.174136	1.002684
992.470019	1.001268
992.765865	1.003344
993.061676	1.002264
993.357450	1.002436
993.653188	1.002536
993.948890	1.001469
994.244556	1.001075
994.540186	1.001309
994.835780	1.001861
995.131337	1.003075
995.426859	1.001838
995.722345	1.002421
996.017795	1.001773
996.313208	1.001493
996.608586	1.001561
996.903928	1.001861
997.199234	1.001919
997.494504	1.002331
997.789738	0.999439
998.084936	1.002617
998.380099	1.000529
998.675225	1.001169
998.970316	1.000972
999.265371	1.000790
999.560390	1.001413
999.855373	1.001748
1000.150320	1.003050
1000.445232	1.000503
1000.740108	1.001526
1001.034948	1.001994
1001.329752	1.002394
1001.624521	1.001778
1001.919254	1.000993
1002.213951	1.001771
1002.508613	1.001500
1002.803239	1.001840
1003.097829	1.002094
1003.392384	1.002401
1003.686903	1.002473
1003.981386	1.001141
1004.275834	1.003567
1004.570246	1.000897
1004.864623	1.002842
1005.158964	1.002564
1005.453270	1.002004
1005.747540	1.001891
1006.041775	1.002475
1006.335974	1.001597
1006.630138	1.003745
1006.924266	1.000240
1007.218359	0.999768
1007.512416	1.003129
1007.806438	1.001928
1008.100425	1.002209
1008.394376	1.001937
1008.688292	1.001563
1008.982172	1.002091
1009.276017	1.003075
1009.569827	1.001984
1009.863602	1.001240
1010.157341	1.002622
1010.451045	1.001409
1010.744714	1.003226
1011.038347	1.002285
1011.331945	1.001310
1011.625508	1.002206
1011.919036	1.001688
1012.212528	1.002043
1012.505986	1.001551
1012.799408	1.002316
1013.092795	1.002803
1013.386147	1.001986
1013.679464	1.003575
1013.972745	1.001973
1014.265992	1.002505
1014.559204	1.000359
1014.852380	1.002158
1015.145521	1.002490
1015.438628	1.001803
1015.731699	1.002411
1016.024736	1.002347
1016.317737	1.001168
1016.610703	1.002029
1016.903635	1.001658
1017.196531	1.001230
1017.489393	1.002253
1017.782219	1.002451
1018.075011	1.001403
1018.367768	1.001719
1018.660490	1.002459
1018.953177	1.002459
1019.245829	1.002459
