Dividing Wavelength (nm)	Counts (n)	Blue Motor Position (mm): 32.900000	Red Motor Position (mm): 0.000000	
326.493990	0.999840
326.888308	0.999840
327.282561	0.999840
327.676750	1.000848
328.070874	1.000485
328.464933	1.000434
328.858929	1.000096
329.252859	0.999979
329.646726	0.999386
330.040528	0.999208
330.434265	0.999161
330.827938	0.999026
331.221547	1.000905
331.615091	0.999731
332.008571	1.000748
332.401986	0.999214
332.795338	0.999665
333.188625	0.999501
333.581847	0.999715
333.975006	0.999787
334.368100	1.000767
334.761129	0.999183
335.154095	1.000504
335.546996	1.000483
335.939833	0.998355
336.332606	1.000058
336.725315	0.998198
337.117960	0.999523
337.510540	0.998810
337.903056	0.999690
338.295508	1.000321
338.687896	0.999249
339.080220	0.999877
339.472480	0.999942
339.864676	0.999859
340.256807	0.997750
340.648875	0.999585
341.040879	0.999247
341.432818	0.999016
341.824694	0.998773
342.216506	1.000123
342.608253	0.998558
342.999937	0.999291
343.391557	0.999515
343.783113	1.000330
344.174605	0.999271
344.566033	0.999262
344.957397	1.000538
345.348697	0.999191
345.739934	0.999584
346.131106	0.999097
346.522215	0.998848
346.913260	0.999135
347.304241	0.998294
347.695159	0.998580
348.086012	0.999869
348.476802	0.999199
348.867528	0.998361
349.258191	0.999983
349.648789	0.999829
350.039324	0.999442
350.429796	0.998846
350.820203	0.998547
351.210548	0.999174
351.600828	0.999458
351.991045	0.999095
352.381198	0.999579
352.771288	0.998827
353.161314	0.997526
353.551276	0.998798
353.941175	0.995916
354.331010	0.998813
354.720782	0.997272
355.110490	0.998770
355.500135	0.999024
355.889717	0.997388
356.279235	0.998326
356.668689	0.997581
357.058080	0.998602
357.447408	0.997547
357.836672	0.997670
358.225873	0.998488
358.615010	0.997721
359.004084	0.996707
359.393095	0.998515
359.782043	0.996784
360.170927	0.998231
360.559748	0.997621
360.948505	0.997708
361.337199	0.997900
361.725830	0.997939
362.114398	0.998039
362.502903	0.997149
362.891344	0.996197
363.279722	0.996222
363.668037	0.997825
364.056289	0.998242
364.444478	0.998672
364.832603	0.997393
365.220665	0.997303
365.608665	0.996909
365.996601	0.997979
366.384474	0.996384
366.772284	0.996981
367.160031	0.995613
367.547715	0.995290
367.935336	0.994936
368.322893	0.993960
368.710388	0.993823
369.097820	0.990420
369.485189	0.988157
369.872495	0.987505
370.259738	0.985868
370.646918	0.981997
371.034035	0.981110
371.421090	0.976666
371.808081	0.971549
372.195010	0.969562
372.581875	0.964301
372.968678	0.959657
373.355418	0.955658
373.742096	0.947942
374.128710	0.944127
374.515262	0.939901
374.901751	0.933660
375.288177	0.930094
375.674540	0.922854
376.060841	0.915188
376.447079	0.909637
376.833254	0.901829
377.219367	0.898477
377.605417	0.886603
377.991404	0.883774
378.377329	0.877785
378.763191	0.870947
379.148991	0.861633
379.534727	0.854176
379.920402	0.846161
380.306013	0.842823
380.691563	0.829579
381.077049	0.823033
381.462474	0.818978
381.847835	0.808077
382.233134	0.802699
382.618371	0.803013
383.003545	0.786589
383.388657	0.783210
383.773706	0.776302
384.158693	0.771850
384.543618	0.766646
384.928480	0.758361
385.313280	0.747622
385.698017	0.747684
386.082692	0.736531
386.467305	0.734765
386.851856	0.729279
387.236344	0.724834
387.620770	0.718823
388.005133	0.713474
388.389435	0.706991
388.773674	0.704553
389.157851	0.696220
389.541965	0.694178
389.926018	0.700693
390.310008	0.686851
390.693936	0.683859
391.077802	0.675910
391.461606	0.677939
391.845348	0.667530
392.229027	0.666131
392.612645	0.664839
392.996200	0.651395
393.379694	0.645669
393.763125	0.635135
394.146494	0.640252
394.529801	0.629779
394.913047	0.622404
395.296230	0.628235
395.679351	0.619825
396.062410	0.616393
396.445408	0.619188
396.828343	0.615198
397.211217	0.609929
397.594028	0.621867
397.976778	0.612045
398.359466	0.609325
398.742092	0.604129
399.124656	0.616553
399.507158	0.604201
399.889598	0.601653
400.271977	0.592792
400.654294	0.597174
401.036549	0.596640
401.418742	0.599967
401.800874	0.586291
402.182944	0.583081
402.564952	0.574946
402.946898	0.577163
403.328783	0.577440
403.710606	0.588728
404.092367	0.563556
404.474067	0.569914
404.855705	0.567526
405.237282	0.577054
405.618797	0.562836
406.000250	0.559096
406.381642	0.548300
406.762972	0.553708
407.144240	0.552908
407.525447	0.552573
407.906593	0.545390
408.287677	0.540515
408.668700	0.549150
409.049661	0.543826
409.430560	0.538517
409.811399	0.547913
410.192176	0.530273
410.572891	0.537556
410.953545	0.525999
411.334138	0.540461
411.714669	0.533073
412.095139	0.545952
412.475547	0.530769
412.855894	0.533508
413.236180	0.533934
413.616405	0.540531
413.996568	0.532709
414.376670	0.540176
414.756711	0.547117
415.136691	0.545162
415.516609	0.539027
415.896466	0.537492
416.276262	0.536430
416.655997	0.540174
417.035670	0.525994
417.415283	0.520655
417.794834	0.528107
418.174324	0.536422
418.553753	0.547659
418.933121	0.534789
419.312428	0.533291
419.691674	0.542645
420.070859	0.535774
420.449983	0.547104
420.829045	0.541640
421.208047	0.554163
421.586988	0.553598
421.965867	0.557621
422.344686	0.554440
422.723444	0.570128
423.102141	0.589923
423.480777	0.572344
423.859352	0.596433
424.237866	0.584744
424.616319	0.592166
424.994712	0.591548
425.373044	0.606464
425.751314	0.604787
426.129524	0.625594
426.507673	0.620193
426.885762	0.622202
427.263789	0.635999
427.641756	0.649073
428.019662	0.651495
428.397508	0.659176
428.775292	0.671069
429.153016	0.674321
429.530679	0.686422
429.908282	0.691432
430.285824	0.704559
430.663305	0.701777
431.040726	0.723215
431.418086	0.731254
431.795385	0.735417
432.172624	0.744165
432.549802	0.752535
432.926920	0.760967
433.303977	0.769232
433.680974	0.777031
434.057910	0.784879
434.434786	0.792431
434.811601	0.802250
435.188355	0.803622
435.565050	0.814305
435.941683	0.823102
436.318257	0.826080
436.694770	0.834150
437.071222	0.842596
437.447614	0.850557
437.823946	0.859440
438.200218	0.864547
438.576429	0.873091
438.952580	0.878226
439.328670	0.883511
439.704700	0.891076
440.080670	0.897701
440.456580	0.900786
440.832429	0.907807
441.208218	0.915665
441.583947	0.919632
441.959616	0.923265
442.335224	0.929431
442.710773	0.933656
443.086261	0.938986
443.461689	0.942816
443.837057	0.946056
444.212365	0.949992
444.587612	0.954334
444.962800	0.956367
445.337927	0.960155
445.712995	0.964743
446.088002	0.964975
446.462949	0.968606
446.837837	0.972131
447.212664	0.972331
447.587431	0.976013
447.962139	0.975949
448.336786	0.975346
448.711374	0.976764
449.085901	0.981880
449.460369	0.983515
449.834776	0.985023
450.209124	0.986261
450.583412	0.987588
450.957640	0.987581
451.331808	0.989327
451.705917	0.990021
452.079965	0.991458
452.453954	0.991674
452.827883	0.992544
453.201752	0.993081
453.575562	0.992937
453.949311	0.993937
454.323001	0.993897
454.696632	0.994425
455.070202	0.994762
455.443713	0.994426
455.817164	0.995715
456.190556	0.995310
456.563888	0.995993
456.937160	0.996343
457.310373	0.995803
457.683526	0.996206
458.056619	0.997318
458.429653	0.996220
458.802628	0.996302
459.175542	0.997238
459.548398	0.996933
459.921194	0.996946
460.293930	0.996962
460.666607	0.997332
461.039224	0.996776
461.411782	0.997520
461.784280	0.996498
462.156719	0.997230
462.529099	0.997720
462.901419	0.997722
463.273680	0.996539
463.645882	0.998346
464.018024	0.998097
464.390106	0.997465
464.762130	0.997492
465.134094	0.997777
465.505999	0.997634
465.877845	0.996942
466.249631	0.996868
466.621358	0.996369
466.993026	0.997141
467.364634	0.996971
467.736184	0.997759
468.107674	0.997117
468.479105	0.997214
468.850477	0.997732
469.221790	0.996943
469.593043	0.997257
469.964238	0.997659
470.335373	0.997698
470.706449	0.997773
471.077467	0.997526
471.448425	0.997355
471.819324	0.997164
472.190164	0.997073
472.560945	0.997291
472.931667	0.997574
473.302330	0.997267
473.672934	0.998229
474.043479	0.997342
474.413965	0.996963
474.784393	0.996870
475.154761	0.997281
475.525070	0.997212
475.895321	0.998020
476.265513	0.998185
476.635645	0.998330
477.005719	0.997812
477.375734	0.997802
477.745691	0.996884
478.115588	0.997470
478.485427	0.997507
478.855207	0.997045
479.224928	0.997035
479.594591	0.997335
479.964194	0.996923
480.333739	0.996668
480.703226	0.996426
481.072653	0.997134
481.442022	0.996903
481.811333	0.996672
482.180584	0.996559
482.549777	0.996416
482.918912	0.996855
483.287988	0.997258
483.657005	0.997011
484.025964	0.997362
484.394864	0.996677
484.763706	0.996581
485.132489	0.997194
485.501213	0.996893
485.869879	0.996639
486.238487	0.995996
486.607036	0.996830
486.975527	0.996980
487.343959	0.996795
487.712333	0.996224
488.080648	0.996364
488.448905	0.997032
488.817104	0.997109
489.185244	0.996593
489.553326	0.997316
489.921350	0.997090
490.289315	0.996949
490.657222	0.996216
491.025070	0.996818
491.392861	0.996688
491.760593	0.996941
492.128267	0.996904
492.495883	0.996579
492.863440	0.997373
493.230939	0.996570
493.598380	0.997492
493.965763	0.997309
494.333088	0.996810
494.700354	0.996711
495.067563	0.997481
495.434713	0.997635
495.801805	0.997016
496.168839	0.997404
496.535815	0.997093
496.902733	0.997205
497.269593	0.996827
497.636395	0.996719
498.003139	0.996994
498.369825	0.997315
498.736453	0.996820
499.103023	0.997510
499.469535	0.997076
499.835989	0.997847
500.202385	0.996671
500.568723	0.997235
500.935003	0.996955
501.301226	0.997286
501.667390	0.997065
502.033497	0.997285
502.399546	0.996712
502.765537	0.997769
503.131470	0.997253
503.497345	0.997470
503.863163	0.997458
504.228923	0.997250
504.594625	0.996167
504.960269	0.997526
505.325856	0.997869
505.691385	0.997494
506.056856	0.997291
506.422270	0.997340
506.787625	0.997935
507.152924	0.998053
507.518164	0.997122
507.883347	0.997273
508.248472	0.997076
508.613540	0.997589
508.978550	0.997732
509.343503	0.997111
509.708398	0.997862
510.073236	0.997122
510.438016	0.996727
510.802738	0.996474
511.167403	0.996692
511.532010	0.997576
511.896561	0.997653
512.261053	0.996761
512.625488	0.996474
512.989866	0.997023
513.354186	0.995969
513.718449	0.997207
514.082655	0.997115
514.446803	0.997356
514.810894	0.997956
515.174927	0.997131
515.538904	0.997539
515.902822	0.997747
516.266684	0.997074
516.630488	0.997514
516.994235	0.997781
517.357925	0.997588
517.721558	0.997687
518.085133	0.996978
518.448651	0.997261
518.812112	0.997137
519.175516	0.997254
519.538863	0.997161
519.902152	0.997568
520.265385	0.997355
520.628560	0.996775
520.991678	0.997192
521.354739	0.997702
521.717743	0.997421
522.080690	0.997178
522.443580	0.996931
522.806413	0.997231
523.169189	0.997623
523.531908	0.996502
523.894569	0.997261
524.257174	0.996971
524.619722	0.997345
524.982213	0.997077
525.344647	0.996725
525.707025	0.996894
526.069345	0.996926
526.431608	0.997521
526.793815	0.997441
527.155964	0.997631
527.518057	0.997406
527.880093	0.996920
528.242072	0.997102
528.603995	0.997237
528.965860	0.997799
529.327669	0.997214
529.689421	0.997385
530.051117	0.997615
530.412755	0.997350
530.774337	0.997000
531.135862	0.997603
531.497331	0.997042
531.858743	0.997591
532.220098	0.996620
532.581396	0.997390
532.942638	0.996850
533.303824	0.997844
533.664953	0.997011
534.026025	0.997724
534.387040	0.997437
534.747999	0.997015
535.108902	0.996934
535.469748	0.997377
535.830537	0.997444
536.191270	0.997402
536.551947	0.996939
536.912567	0.997138
537.273131	0.997884
537.633638	0.997200
537.994089	0.997351
538.354483	0.997468
538.714821	0.997855
539.075103	0.997486
539.435328	0.997017
539.795497	0.997463
540.155609	0.996426
540.515665	0.997888
540.875665	0.996910
541.235609	0.997943
541.595496	0.997283
541.955328	0.996842
542.315102	0.997284
542.674821	0.997134
543.034483	0.997822
543.394090	0.997024
543.753640	0.997429
544.113134	0.997212
544.472571	0.997511
544.831953	0.997204
545.191278	0.997390
545.550548	0.996638
545.909761	0.996924
546.268918	0.998026
546.628019	0.997609
546.987064	0.997304
547.346053	0.996464
547.704986	0.997371
548.063863	0.997141
548.422684	0.997648
548.781449	0.997326
549.140158	0.997697
549.498811	0.996898
549.857408	0.996508
550.215949	0.996138
550.574434	0.996735
550.932864	0.997565
551.291237	0.997184
551.649555	0.997530
552.007817	0.997181
552.366022	0.997827
552.724173	0.997589
553.082267	0.997459
553.440305	0.997261
553.798288	0.996351
554.156215	0.997279
554.514086	0.996948
554.871902	0.997621
555.229661	0.996652
555.587365	0.997159
555.945014	0.997707
556.302606	0.996993
556.660143	0.998006
557.017625	0.997338
557.375050	0.996494
557.732421	0.997304
558.089735	0.996460
558.446994	0.996988
558.804197	0.997699
559.161345	0.996721
559.518437	0.996944
559.875474	0.997685
560.232455	0.997858
560.589381	0.997796
560.946251	0.997613
561.303065	0.997304
561.659825	0.996976
562.016528	0.997313
562.373177	0.996958
562.729770	0.997362
563.086307	0.996702
563.442789	0.997718
563.799216	0.996895
564.155587	0.997208
564.511904	0.997898
564.868164	0.996524
565.224370	0.997319
565.580520	0.997315
565.936615	0.997559
566.292654	0.996942
566.648638	0.997723
567.004567	0.997411
567.360441	0.997678
567.716260	0.996855
568.072023	0.996512
568.427732	0.997969
568.783385	0.997197
569.138982	0.997821
569.494525	0.996942
569.850013	0.997746
570.205445	0.997712
570.560823	0.997245
570.916145	0.997121
571.271412	0.997496
571.626625	0.997645
571.981782	0.997986
572.336884	0.998002
572.691931	0.998070
573.046923	0.997412
573.401860	0.997318
573.756743	0.998730
574.111570	0.997556
574.466342	0.997972
574.821059	0.997242
575.175722	0.998058
575.530330	0.997587
575.884882	0.997249
576.239380	0.997611
576.593823	0.997298
576.948211	0.997923
577.302544	0.997401
577.656823	0.997547
578.011047	0.996667
578.365216	0.998200
578.719330	0.997708
579.073389	0.996767
579.427394	0.997475
579.781344	0.998050
580.135239	0.996442
580.489080	0.997163
580.842866	0.997144
581.196597	0.997385
581.550273	0.997312
581.903895	0.997525
582.257463	0.997378
582.610975	0.996893
582.964434	0.997820
583.317837	0.998022
583.671186	0.997355
584.024481	0.997308
584.377721	0.996817
584.730906	0.997816
585.084037	0.998910
585.437113	0.997793
585.790135	0.998317
586.143103	0.997959
586.496016	0.996723
586.848874	0.997383
587.201679	0.997049
587.554428	0.997471
587.907124	0.998380
588.259765	0.997868
588.612352	0.998129
588.964884	0.998249
589.317362	0.996965
589.669786	0.997444
590.022155	0.997559
590.374470	0.997202
590.726731	0.996642
591.078937	0.997741
591.431090	0.997492
591.783188	0.997438
592.135232	0.997963
592.487222	0.998171
592.839157	0.997388
593.191038	0.996840
593.542866	0.997165
593.894639	0.996100
594.246358	0.998122
594.598022	0.998106
594.949633	0.997698
595.301190	0.997235
595.652692	0.997105
596.004141	0.997309
596.355535	0.996995
596.706876	0.997678
597.058162	0.998005
597.409395	0.997527
597.760573	0.997080
598.111698	0.997930
598.462768	0.996917
598.813785	0.996589
599.164748	0.997740
599.515657	0.996948
599.866511	0.997531
600.217312	0.998526
600.568060	0.997588
600.918753	0.998091
601.269392	0.997445
601.619978	0.997427
601.970510	0.997995
602.320988	0.997690
602.671412	0.997414
603.021783	0.997677
603.372100	0.997838
603.722363	0.998422
604.072572	0.998020
604.422728	0.997737
604.772830	0.997291
605.122878	0.998176
605.472872	0.998602
605.822813	0.997061
606.172701	0.997152
606.522534	0.998046
606.872314	0.997602
607.222041	0.997839
607.571714	0.997804
607.921333	0.997215
608.270899	0.997721
608.620411	0.998437
608.969870	0.998266
609.319276	0.997574
609.668627	0.998344
610.017926	0.997336
610.367171	0.997611
610.716362	0.997567
611.065500	0.997064
611.414585	0.997438
611.763616	0.997227
612.112594	0.997420
612.461518	0.997459
612.810389	0.998307
613.159207	0.997441
613.507971	0.996832
613.856682	0.998235
614.205340	0.997311
614.553945	0.997663
614.902496	0.997959
615.250994	0.998041
615.599439	0.997970
615.947830	0.997195
616.296169	0.997667
616.644454	0.997348
616.992686	0.997762
617.340864	0.997931
617.688990	0.997383
618.037063	0.997918
618.385082	0.997069
618.733048	0.996857
619.080961	0.996623
619.428821	0.998153
619.776628	0.996947
620.124382	0.997640
620.472083	0.997769
620.819731	0.999348
621.167326	0.998050
621.514868	0.997824
621.862357	0.998201
622.209793	0.997252
622.557176	0.998283
622.904506	0.997328
623.251783	0.997740
623.599007	0.997796
623.946179	0.997022
624.293297	0.998495
624.640363	0.998746
624.987376	0.997080
625.334336	0.997437
625.681243	0.997432
626.028097	0.997878
626.374899	0.997669
626.721647	0.999099
627.068343	0.997425
627.414987	0.998317
627.761577	0.997159
628.108115	0.997519
628.454600	0.998495
628.801032	0.998531
629.147412	0.997894
629.493739	0.998178
629.840014	0.996791
630.186236	0.997755
630.532405	0.997920
630.878521	0.997366
631.224585	0.998048
631.570597	0.996902
631.916556	0.998313
632.262462	0.996975
632.608316	0.997965
632.954117	0.997530
633.299866	0.998101
633.645562	0.997565
633.991206	0.998381
634.336797	0.997812
634.682336	0.998486
635.027823	0.998442
635.373257	0.998196
635.718639	0.998246
636.063968	0.997609
636.409245	0.997790
636.754470	0.998890
637.099642	0.998334
637.444762	0.997784
637.789829	0.997906
638.134845	0.998408
638.479808	0.998024
638.824719	0.998422
639.169577	0.998084
639.514383	0.998473
639.859137	0.997890
640.203839	0.998008
640.548489	0.997988
640.893086	0.997900
641.237632	0.998606
641.582125	0.998099
641.926566	0.998473
642.270955	0.998418
642.615292	0.997285
642.959576	0.998416
643.303809	0.998548
643.647990	0.997786
643.992118	0.998283
644.336195	0.998282
644.680219	0.997779
645.024192	0.998010
645.368112	0.997488
645.711981	0.997368
646.055797	0.998158
646.399562	0.997706
646.743274	0.998455
647.086935	0.997306
647.430544	0.997189
647.774101	0.997627
648.117606	0.997266
648.461059	0.997724
648.804460	0.998036
649.147810	0.997773
649.491108	0.998856
649.834354	0.997957
650.177548	0.997264
650.520690	0.997887
650.863781	0.997341
651.206820	0.998491
651.549807	0.998103
651.892742	0.998809
652.235626	0.997899
652.578458	0.997801
652.921238	0.998824
653.263967	0.998823
653.606644	0.997389
653.949269	0.999067
654.291843	0.997385
654.634365	0.998952
654.976836	0.997746
655.319255	0.998173
655.661622	0.998370
656.003938	0.997799
656.346203	0.997139
656.688416	0.998569
657.030577	0.997626
657.372687	0.997760
657.714746	0.998051
658.056753	0.997315
658.398708	0.997823
658.740612	0.998603
659.082465	0.998387
659.424266	0.998571
659.766016	0.997209
660.107715	0.998411
660.449362	0.997613
660.790958	0.998292
661.132503	0.997966
661.473996	0.997341
661.815438	0.997805
662.156829	0.998365
662.498168	0.998618
662.839456	0.997321
663.180693	0.998674
663.521879	0.998231
663.863013	0.998086
664.204097	0.997615
664.545129	0.998293
664.886110	0.997846
665.227040	0.997271
665.567918	0.998040
665.908746	0.997393
666.249522	0.997602
666.590248	0.997926
666.930922	0.997653
667.271545	0.998440
667.612118	0.997798
667.952639	0.998174
668.293109	0.998138
668.633528	0.997535
668.973896	0.997660
669.314213	0.996847
669.654480	0.997922
669.994695	0.996898
670.334859	0.997979
670.674973	0.997891
671.015035	0.997526
671.355047	0.997905
671.695008	0.997292
672.034918	0.997832
672.374777	0.997507
672.714585	0.997639
673.054342	0.997769
673.394049	0.997210
673.733705	0.997705
674.073310	0.997806
674.412864	0.997253
674.752368	0.997240
675.091820	0.998458
675.431223	0.998555
675.770574	0.997188
676.109875	0.998067
676.449125	0.997337
676.788324	0.997242
677.127473	0.998707
677.466571	0.997209
677.805619	0.997716
678.144616	0.998778
678.483562	0.997634
678.822458	0.998770
679.161303	0.997153
679.500098	0.997540
679.838842	0.998166
680.177535	0.997450
680.516179	0.997154
680.854771	0.997282
681.193314	0.997667
681.531805	0.997757
681.870247	0.997680
682.208638	0.997159
682.546978	0.997542
682.885268	0.996705
683.223508	0.997195
683.561697	0.998034
683.899836	0.997495
684.237925	0.997357
684.575963	0.997149
684.913951	0.998320
685.251889	0.997281
685.589776	0.997061
685.927614	0.997372
686.265401	0.996977
686.603137	0.997947
686.940824	0.996872
687.278460	0.997944
687.616046	0.997174
687.953582	0.997923
688.291068	0.997201
688.628504	0.996831
688.965889	0.996840
689.303224	0.995873
689.640510	0.997736
689.977745	0.996539
690.314930	0.997494
690.652065	0.997472
690.989150	0.997412
691.326185	0.997145
691.663170	0.996836
692.000105	0.998069
692.336990	0.998158
692.673825	0.997710
693.010610	0.997349
693.347345	0.997559
693.684030	0.996377
694.020665	0.996579
694.357251	0.996484
694.693786	0.997607
695.030272	0.995867
695.366707	0.997328
695.703093	0.997034
696.039429	0.996005
696.375716	0.997759
696.711952	0.996927
697.048139	0.998681
697.384276	0.997519
697.720363	0.997471
698.056400	0.996809
698.392388	0.996479
698.728326	0.997595
699.064214	0.997902
699.400053	0.996956
699.735842	0.997627
700.071581	0.996743
700.407270	0.997308
700.742910	0.998104
701.078501	0.996533
701.414042	0.998652
701.749533	0.996276
702.084974	0.997231
702.420366	0.997436
702.755709	0.997352
703.091002	0.996905
703.426246	0.997467
703.761440	0.997812
704.096584	0.997124
704.431679	0.996748
704.766725	0.996856
705.101721	0.998516
705.436668	0.996909
705.771565	0.997557
706.106413	0.996987
706.441212	0.997859
706.775961	0.997585
707.110661	0.997219
707.445311	0.997491
707.779913	0.997953
708.114465	0.999115
708.448967	0.997643
708.783421	0.997480
709.117825	0.998131
709.452180	0.998029
709.786485	0.997266
710.120742	0.997154
710.454949	0.995969
710.789107	0.997099
711.123216	0.995874
711.457275	0.995429
711.791286	0.996739
712.125247	0.997764
712.459159	0.996412
712.793023	0.996852
713.126837	0.997412
713.460602	0.995881
713.794318	0.996383
714.127985	0.995566
714.461602	0.996155
714.795171	0.996256
715.128691	0.997135
715.462162	0.997916
715.795584	0.996360
716.128957	0.997600
716.462281	0.997704
716.795556	0.996451
717.128782	0.997784
717.461960	0.996897
717.795088	0.996768
718.128167	0.997826
718.461198	0.997066
718.794180	0.996813
719.127113	0.997915
719.459997	0.996741
719.792833	0.996799
720.125619	0.996529
720.458357	0.996975
720.791046	0.997450
721.123686	0.998348
721.456278	0.996973
721.788821	0.996977
722.121315	0.998479
722.453761	0.997009
722.786158	0.996906
723.118506	0.997539
723.450805	0.996483
723.783056	0.998185
724.115259	0.997083
724.447412	0.997350
724.779518	0.997696
725.111574	0.996285
725.443582	0.996672
725.775542	0.997175
726.107453	0.997010
726.439315	0.997497
726.771129	0.996595
727.102895	0.997517
727.434612	0.996629
727.766281	0.996825
728.097901	0.995644
728.429473	0.997474
728.760996	0.996155
729.092471	0.997191
729.423897	0.997960
729.755276	0.996957
730.086606	0.995655
730.417887	0.996775
730.749120	0.997246
731.080305	0.996232
731.411442	0.997036
731.742530	0.996838
732.073570	0.996060
732.404562	0.996862
732.735506	0.996542
733.066401	0.996345
733.397249	0.996802
733.728048	0.996298
734.058798	0.997350
734.389501	0.997681
734.720156	0.997210
735.050762	0.998209
735.381320	0.997561
735.711831	0.996702
736.042293	0.995932
736.372707	0.997814
736.703073	0.995887
737.033391	0.997138
737.363661	0.997485
737.693883	0.997016
738.024056	0.996176
738.354182	0.997071
738.684260	0.996340
739.014290	0.997150
739.344272	0.996405
739.674207	0.996950
740.004093	0.997010
740.333931	0.996250
740.663722	0.996385
740.993464	0.996494
741.323159	0.996680
741.652806	0.996365
741.982405	0.996919
742.311956	0.996505
742.641460	0.996776
742.970915	0.996211
743.300323	0.995593
743.629683	0.996496
743.958996	0.998199
744.288260	0.997297
744.617477	0.997059
744.946647	0.996945
745.275768	0.997585
745.604842	0.996967
745.933869	0.997138
746.262847	0.997175
746.591778	0.996332
746.920662	0.997844
747.249498	0.997459
747.578286	0.999139
747.907027	0.997061
748.235720	0.997878
748.564365	0.997054
748.892963	0.997294
749.221514	0.996611
749.550017	0.996865
749.878473	0.997373
750.206881	0.998132
750.535242	0.997504
750.863555	0.997038
751.191821	0.996619
751.520039	0.996952
751.848210	0.995446
752.176334	0.997928
752.504411	0.997000
752.832440	0.997267
753.160421	0.996756
753.488356	0.997922
753.816243	0.997781
754.144082	0.997130
754.471875	0.996573
754.799620	0.996880
755.127318	0.997514
755.454969	0.997118
755.782572	0.997863
756.110129	0.996377
756.437638	0.998364
756.765100	0.997190
757.092515	0.997200
757.419882	0.998361
757.747203	0.996014
758.074477	0.998099
758.401703	0.997879
758.728882	0.997607
759.056014	0.996695
759.383099	0.997053
759.710138	0.996449
760.037129	0.996329
760.364073	0.998366
760.690970	0.996959
761.017820	0.996241
761.344623	0.996790
761.671379	0.996709
761.998088	0.996337
762.324751	0.997340
762.651366	0.995681
762.977935	0.995465
763.304456	0.995767
763.630931	0.994094
763.957359	0.994380
764.283740	0.995100
764.610074	0.995094
764.936362	0.995532
765.262602	0.996615
765.588796	0.997172
765.914943	0.996885
766.241044	0.996790
766.567097	0.996389
766.893104	0.996502
767.219064	0.996575
767.544978	0.996980
767.870845	0.997341
768.196665	0.996590
768.522438	0.997235
768.848165	0.997799
769.173846	0.996595
769.499479	0.997965
769.825066	0.997813
770.150607	0.998714
770.476101	0.997903
770.801548	0.997830
771.126949	0.999036
771.452303	0.997623
771.777611	0.997468
772.102872	0.996773
772.428087	0.997604
772.753256	0.998441
773.078378	0.997672
773.403453	0.996929
773.728482	0.999120
774.053465	0.997025
774.378401	0.997806
774.703291	0.998269
775.028135	0.998552
775.352932	0.997240
775.677683	0.998304
776.002388	0.997877
776.327046	0.997526
776.651658	0.999152
776.976224	0.997951
777.300743	0.997922
777.625216	0.996999
777.949643	0.997626
778.274024	0.996838
778.598359	0.997691
778.922647	0.997652
779.246889	0.998413
779.571086	0.998002
779.895236	0.997840
780.219339	0.998364
780.543397	0.996533
780.867409	0.997451
781.191374	0.997227
781.515294	0.998477
781.839167	0.998663
782.162995	0.997604
782.486776	0.997843
782.810511	0.998440
783.134201	0.998314
783.457844	0.998700
783.781441	0.997925
784.104993	0.996351
784.428498	0.997845
784.751958	0.998656
785.075372	0.998953
785.398739	0.996298
785.722061	0.997216
786.045337	0.997808
786.368568	0.997771
786.691752	0.997364
787.014891	0.997791
787.337983	0.997234
787.661030	0.996988
787.984031	0.998207
788.306987	0.997939
788.629897	0.995955
788.952760	0.997618
789.275579	0.997792
789.598351	0.997053
789.921078	0.998120
790.243759	0.996913
790.566395	0.997108
790.888984	0.997793
791.211529	0.997962
791.534027	0.997358
791.856480	0.998385
792.178888	0.998163
792.501249	0.997128
792.823566	0.999522
793.145836	0.997930
793.468062	0.998042
793.790241	0.999151
794.112375	0.997852
794.434464	0.997847
794.756507	0.998346
795.078505	0.997848
795.400457	0.998461
795.722364	0.998023
796.044226	0.997508
796.366042	0.997002
796.687812	0.996605
797.009538	0.997341
797.331218	0.998426
797.652852	0.998105
797.974442	0.997298
798.295986	0.997145
798.617484	0.997357
798.938938	0.998122
799.260346	0.997265
799.581709	0.997006
799.903026	0.998657
800.224299	0.997755
800.545526	0.998479
800.866708	0.998312
801.187845	0.997800
801.508936	0.998192
801.829983	0.998136
802.150984	0.997378
802.471940	0.999871
802.792851	0.997157
803.113717	0.998982
803.434538	0.998317
803.755314	0.999459
804.076045	0.998341
804.396731	0.997373
804.717372	0.996639
805.037967	0.999408
805.358518	0.998020
805.679024	0.996912
805.999485	0.998661
806.319901	0.998182
806.640272	0.998744
806.960598	0.997979
807.280879	0.997742
807.601115	0.998105
807.921306	0.998723
808.241453	0.997054
808.561554	0.997661
808.881611	0.997716
809.201623	0.997619
809.521590	0.997718
809.841513	0.998345
810.161390	0.996593
810.481223	0.998017
810.801011	0.998263
811.120755	0.998337
811.440453	0.997570
811.760107	0.998192
812.079716	0.997503
812.399281	0.998286
812.718801	0.997442
813.038276	0.998262
813.357707	0.997403
813.677093	0.998717
813.996434	0.997843
814.315731	0.999113
814.634983	0.998773
814.954191	0.998304
815.273354	0.998302
815.592473	0.998409
815.911547	0.998272
816.230577	0.997467
816.549562	0.997733
816.868502	0.997277
817.187399	0.999245
817.506250	0.999229
817.825058	0.996972
818.143821	0.998531
818.462539	0.997344
818.781213	0.996709
819.099843	0.997107
819.418429	0.996307
819.736970	0.997219
820.055466	0.996503
820.373919	0.994868
820.692327	0.994846
821.010691	0.994404
821.329011	0.991415
821.647286	0.990110
821.965517	0.988481
822.283704	0.986588
822.601847	0.985260
822.919945	0.986640
823.237999	0.988221
823.556010	0.989425
823.873976	0.989819
824.191897	0.991596
824.509775	0.991595
824.827609	0.992212
825.145398	0.994219
825.463144	0.992881
825.780845	0.992879
826.098502	0.993152
826.416116	0.992590
826.733685	0.991184
827.051210	0.990151
827.368692	0.990442
827.686129	0.991689
828.003522	0.993953
828.320872	0.992150
828.638177	0.994713
828.955439	0.995709
829.272656	0.995674
829.589830	0.995612
829.906960	0.996919
830.224046	0.997358
830.541088	0.996445
830.858086	0.997104
831.175041	0.997625
831.491952	0.996855
831.808819	0.997470
832.125642	0.996290
832.442421	0.997275
832.759157	0.997204
833.075849	0.995675
833.392497	0.993528
833.709101	0.993317
834.025662	0.992989
834.342179	0.994198
834.658653	0.995787
834.975083	0.995372
835.291469	0.995435
835.607811	0.996300
835.924110	0.997004
836.240366	0.998149
836.556578	0.997450
836.872746	0.997676
837.188871	0.998346
837.504952	0.996594
837.820990	0.997979
838.136984	0.997288
838.452935	0.997814
838.768842	0.998113
839.084706	0.997778
839.400526	0.997215
839.716303	0.995275
840.032037	0.995966
840.347727	0.995982
840.663373	0.997129
840.978977	0.996780
841.294537	0.996608
841.610054	0.997576
841.925527	0.997660
842.240957	0.998460
842.556344	0.997084
842.871687	0.998722
843.186987	0.998249
843.502244	0.998987
843.817458	0.998455
844.132629	0.998248
844.447756	0.998942
844.762840	0.998176
845.077881	0.999714
845.392879	0.998565
845.707833	0.999003
846.022745	0.998207
846.337613	0.998896
846.652438	0.997682
846.967221	0.999168
847.281960	1.000187
847.596656	0.999057
847.911309	0.998826
848.225919	0.998889
848.540485	0.998151
848.855009	0.998760
849.169490	0.998877
849.483928	0.998223
849.798323	0.997548
850.112675	0.999468
850.426984	0.999246
850.741251	0.998802
851.055474	0.998703
851.369654	1.000542
851.683792	0.998590
851.997887	0.999180
852.311938	1.000347
852.625947	0.999390
852.939914	0.998433
853.253837	0.999960
853.567718	0.998965
853.881555	0.998933
854.195350	0.999929
854.509103	0.998956
854.822812	0.999060
855.136479	0.998735
855.450103	0.999562
855.763685	0.998787
856.077224	0.999244
856.390720	0.998824
856.704173	0.999974
857.017584	0.999758
857.330953	0.998032
857.644278	0.998686
857.957561	0.999946
858.270802	1.000001
858.584000	0.997915
858.897155	0.998950
859.210268	0.998314
859.523339	0.998886
859.836367	0.998985
860.149352	0.999169
860.462295	0.999536
860.775195	0.999467
861.088054	0.997434
861.400869	0.998496
861.713642	0.997868
862.026373	1.000015
862.339062	0.999445
862.651708	0.999839
862.964312	1.000028
863.276873	0.998520
863.589392	0.998046
863.901869	0.998622
864.214303	0.998019
864.526696	0.999103
864.839045	0.999129
865.151353	0.998375
865.463619	0.998049
865.775842	0.998404
866.088023	0.999594
866.400162	0.999530
866.712258	0.999924
867.024313	0.999080
867.336325	1.000156
867.648296	0.998909
867.960224	0.999340
868.272110	0.999893
868.583954	0.999265
868.895755	0.999614
869.207515	0.998556
869.519233	0.999753
869.830909	0.997798
870.142542	0.997708
870.454134	0.998894
870.765684	0.998559
871.077191	0.999915
871.388657	0.998162
871.700081	0.998552
872.011463	0.999593
872.322803	0.998931
872.634101	0.997447
872.945357	0.997686
873.256571	0.997412
873.567744	0.998456
873.878874	0.998343
874.189963	0.998596
874.501010	1.000191
874.812015	0.998917
875.122979	0.998423
875.433900	0.998779
875.744780	0.999667
876.055618	0.996749
876.366415	0.997568
876.677169	0.998272
876.987882	0.998397
877.298554	0.998774
877.609183	0.998605
877.919771	0.998038
878.230317	0.998650
878.540822	0.997375
878.851285	0.997475
879.161707	0.997043
879.472087	0.998470
879.782425	0.996048
880.092722	0.994501
880.402977	0.993203
880.713191	0.991041
881.023363	0.988742
881.333494	0.987231
881.643583	0.987658
881.953631	0.987568
882.263637	0.986792
882.573602	0.988539
882.883526	0.989333
883.193408	0.991024
883.503248	0.990332
883.813048	0.991693
884.122806	0.993554
884.432522	0.993557
884.742197	0.996334
885.051831	0.996391
885.361424	0.996623
885.670975	0.997551
885.980485	0.996604
886.289954	0.997095
886.599382	0.995192
886.908768	0.998443
887.218113	0.996104
887.527417	0.997126
887.836680	0.997634
888.145901	0.998155
888.455082	0.999474
888.764221	0.998628
889.073319	0.997847
889.382376	0.998817
889.691392	0.997674
890.000366	0.998849
890.309300	0.999304
890.618193	0.997469
890.927044	0.997396
891.235855	0.997313
891.544625	0.998548
891.853353	0.997813
892.162041	0.998033
892.470687	0.997908
892.779293	0.996191
893.087858	0.995884
893.396381	0.997319
893.704864	0.996115
894.013306	0.995637
894.321707	0.994858
894.630068	0.993379
894.938387	0.992769
895.246665	0.992597
895.554903	0.993001
895.863100	0.994300
896.171256	0.994144
896.479371	0.995169
896.787446	0.995460
897.095480	0.996682
897.403473	0.996574
897.711425	0.996290
898.019336	0.997600
898.327207	0.997939
898.635038	0.996653
898.942827	0.996653
899.250576	0.997848
899.558284	0.997958
899.865952	0.996318
900.173579	0.998487
900.481165	0.997358
900.788711	0.997569
901.096216	0.998278
901.403681	0.998737
901.711105	0.997477
902.018489	0.998242
902.325832	0.998347
902.633135	0.997381
902.940397	0.998240
903.247619	0.998933
903.554800	0.996773
903.861941	0.995543
904.169041	0.992675
904.476101	0.991425
904.783121	0.991415
905.090100	0.992518
905.397039	0.993450
905.703938	0.994774
906.010796	0.995439
906.317614	0.995857
906.624391	0.996589
906.931129	0.997586
907.237826	0.997592
907.544483	0.998040
907.851099	0.997075
908.157675	0.998076
908.464211	0.998685
908.770707	0.996976
909.077163	0.998527
909.383578	0.998510
909.689954	0.998170
909.996289	0.998801
910.302584	0.998660
910.608839	0.999619
910.915054	0.999095
911.221229	0.999313
911.527363	0.998692
911.833458	0.999109
912.139513	0.998011
912.445527	0.998031
912.751502	0.997538
913.057436	0.997761
913.363331	0.998730
913.669186	0.999846
913.975000	0.998406
914.280775	0.998054
914.586510	0.997024
914.892205	0.996407
915.197859	0.995760
915.503475	0.994491
915.809050	0.993553
916.114585	0.991009
916.420081	0.992979
916.725536	0.992372
917.030952	0.992251
917.336328	0.993744
917.641665	0.993556
917.946961	0.994299
918.252218	0.994057
918.557435	0.994649
918.862612	0.996542
919.167750	0.997148
919.472848	0.997100
919.777906	0.998360
920.082925	0.998559
920.387904	0.998318
920.692843	0.997763
920.997743	0.998165
921.302603	0.998300
921.607423	0.997510
921.912204	0.999305
922.216946	0.998932
922.521647	0.998358
922.826310	0.998423
923.130932	0.999181
923.435516	0.998431
923.740059	0.998315
924.044564	0.998449
924.349028	0.998660
924.653454	0.999757
924.957840	0.997921
925.262186	0.998681
925.566493	0.998109
925.870761	0.999058
926.174989	0.997535
926.479178	1.000516
926.783328	0.998247
927.087438	0.999719
927.391509	0.997144
927.695541	0.999430
927.999533	0.999060
928.303486	0.999599
928.607400	0.999895
928.911275	1.000032
929.215110	0.999051
929.518906	0.999180
929.822663	1.000785
930.126381	1.000071
930.430060	0.999690
930.733699	0.998710
931.037299	1.000105
931.340861	0.999785
931.644383	0.999288
931.947866	0.998905
932.251309	1.000186
932.554714	1.000707
932.858080	0.999852
933.161407	0.999574
933.464694	0.999061
933.767943	0.999421
934.071153	0.999986
934.374323	0.999753
934.677455	0.998435
934.980548	0.998338
935.283602	0.999346
935.586617	0.999333
935.889593	1.000291
936.192530	0.999947
936.495428	0.998680
936.798287	0.999396
937.101108	1.001240
937.403890	0.999216
937.706632	1.001066
938.009336	0.999548
938.312002	0.998912
938.614628	0.998643
938.917216	0.998442
939.219765	0.998531
939.522275	0.999162
939.824747	0.999301
940.127179	0.999268
940.429573	0.999465
940.731929	0.998427
941.034246	0.997942
941.336524	0.998414
941.638763	0.997833
941.940964	0.998893
942.243126	0.999222
942.545250	0.999340
942.847335	0.999190
943.149381	0.998538
943.451389	0.997679
943.753359	0.999406
944.055290	0.999863
944.357182	0.999852
944.659036	0.999398
944.960851	0.999393
945.262628	0.999676
945.564367	0.998503
945.866067	1.000071
946.167729	0.998740
946.469352	0.999949
946.770937	0.998106
947.072484	1.000371
947.373992	0.999106
947.675462	0.998745
947.976893	0.998441
948.278286	1.001055
948.579641	0.999880
948.880958	0.999383
949.182236	0.998801
949.483476	1.001077
949.784678	0.998832
950.085841	0.998569
950.386967	0.999050
950.688054	0.999171
950.989103	0.998594
951.290114	0.997921
951.591087	0.999822
951.892021	0.998524
952.192917	0.999541
952.493776	0.999612
952.794596	0.998940
953.095378	0.999055
953.396122	0.999081
953.696828	1.000008
953.997496	0.999477
954.298126	0.999818
954.598718	0.999192
954.899272	1.000035
955.199788	0.997935
955.500266	0.999576
955.800706	0.999048
956.101108	0.999345
956.401472	1.000981
956.701798	0.999466
957.002087	0.999428
957.302337	1.000027
957.602550	1.000029
957.902724	0.999159
958.202861	0.999369
958.502960	0.998761
958.803022	1.000448
959.103045	0.999428
959.403031	1.001215
959.702979	0.999691
960.002889	0.999557
960.302762	1.000164
960.602596	0.999948
960.902393	1.001323
961.202153	0.999261
961.501875	0.999823
961.801559	0.999812
962.101205	0.999425
962.400814	1.000733
962.700385	0.999604
962.999918	0.998954
963.299414	0.999097
963.598873	1.000726
963.898293	0.999075
964.197677	0.999208
964.497022	1.000169
964.796331	1.000030
965.095601	1.000655
965.394835	0.998466
965.694030	1.000561
965.993189	1.000157
966.292309	1.000079
966.591393	0.999399
966.890439	1.000534
967.189447	1.000299
967.488419	0.998726
967.787353	0.998114
968.086249	0.999298
968.385108	0.999617
968.683930	1.000838
968.982714	0.999770
969.281462	1.000058
969.580172	1.000836
969.878844	1.000207
970.177480	0.999756
970.476078	1.000678
970.774639	0.999799
971.073162	0.999638
971.371649	1.000510
971.670098	0.998510
971.968510	1.000647
972.266885	0.998441
972.565223	1.000672
972.863524	0.998428
973.161788	0.998952
973.460014	1.000937
973.758204	0.998611
974.056356	0.999351
974.354471	0.998039
974.652550	1.001311
974.950591	0.998720
975.248595	0.998825
975.546563	1.000819
975.844493	0.999183
976.142386	0.999308
976.440243	1.000521
976.738062	0.999438
977.035845	0.998961
977.333590	1.000873
977.631299	1.000096
977.928971	0.999753
978.226606	0.998602
978.524204	0.999128
978.821765	1.000956
979.119290	1.000145
979.416777	0.999973
979.714228	1.000310
980.011642	0.999421
980.309020	1.000532
980.606360	0.999118
980.903664	0.999969
981.200931	0.998619
981.498162	0.999774
981.795356	0.999464
982.092513	0.999212
982.389633	1.000050
982.686717	0.998116
982.983764	0.999356
983.280775	0.998703
983.577749	1.000092
983.874686	0.998841
984.171587	0.998886
984.468451	0.999257
984.765279	1.000750
985.062070	1.000406
985.358824	0.999798
985.655543	0.999842
985.952224	1.000184
986.248869	1.000722
986.545478	1.000719
986.842050	0.999661
987.138586	0.998647
987.435086	1.000150
987.731549	0.999889
988.027975	1.000641
988.324366	0.998392
988.620719	1.000649
988.917037	0.999614
989.213318	1.001054
989.509563	0.999356
989.805772	1.000328
990.101944	1.000114
990.398080	1.000072
990.694180	1.000869
990.990244	0.999153
991.286271	0.999842
991.582262	1.000985
991.878217	0.999285
992.174136	1.000805
992.470019	1.000350
992.765865	1.001021
993.061676	0.999975
993.357450	0.999928
993.653188	1.000491
993.948890	0.999683
994.244556	0.998886
994.540186	0.999759
994.835780	0.999382
995.131337	1.000733
995.426859	0.999936
995.722345	0.999165
996.017795	0.998382
996.313208	0.998671
996.608586	1.000102
996.903928	0.999951
997.199234	1.000378
997.494504	0.999845
997.789738	0.998978
998.084936	1.000423
998.380099	0.999657
998.675225	1.000144
998.970316	0.999618
999.265371	1.000428
999.560390	1.000829
999.855373	0.999720
1000.150320	1.000709
1000.445232	0.999970
1000.740108	1.000253
1001.034948	0.999032
1001.329752	1.000965
1001.624521	0.999406
1001.919254	1.000138
1002.213951	1.000313
1002.508613	0.998487
1002.803239	1.000261
1003.097829	1.000446
1003.392384	1.000486
1003.686903	1.000154
1003.981386	0.999858
1004.275834	1.000644
1004.570246	0.998568
1004.864623	1.000975
1005.158964	0.999578
1005.453270	0.999525
1005.747540	0.999625
1006.041775	1.000478
1006.335974	1.000454
1006.630138	1.000369
1006.924266	0.997500
1007.218359	0.999065
1007.512416	1.001512
1007.806438	1.000250
1008.100425	0.999826
1008.394376	1.001705
1008.688292	1.000300
1008.982172	0.999667
1009.276017	0.999765
1009.569827	1.001895
1009.863602	0.999662
1010.157341	1.001083
1010.451045	0.999805
1010.744714	1.001241
1011.038347	1.000924
1011.331945	1.000012
1011.625508	0.999395
1011.919036	1.000059
1012.212528	0.999705
1012.505986	1.000414
1012.799408	1.000651
1013.092795	1.000505
1013.386147	0.999268
1013.679464	1.001146
1013.972745	0.999642
1014.265992	1.000882
1014.559204	1.000037
1014.852380	0.999779
1015.145521	1.000408
1015.438628	1.000130
1015.731699	0.999591
1016.024736	1.001601
1016.317737	0.998604
1016.610703	1.000967
1016.903635	1.000308
1017.196531	1.000068
1017.489393	1.000239
1017.782219	1.000018
1018.075011	0.999456
1018.367768	1.000442
1018.660490	1.000723
1018.953177	1.000723
1019.245829	1.000723
