Dividing Wavelength (nm)	Counts (n)	Blue Motor Position (mm): 41.200000	Red Motor Position (mm): 0.000000	
326.493990	1.000446
326.888308	1.000446
327.282561	1.000446
327.676750	1.001624
328.070874	1.000598
328.464933	1.001182
328.858929	1.001733
329.252859	1.000634
329.646726	0.999508
330.040528	0.999066
330.434265	1.000007
330.827938	0.999455
331.221547	0.999738
331.615091	1.000622
332.008571	1.001126
332.401986	0.999954
332.795338	0.998899
333.188625	1.000222
333.581847	0.999502
333.975006	1.000797
334.368100	1.000750
334.761129	0.998947
335.154095	0.999582
335.546996	1.000060
335.939833	0.999332
336.332606	0.999787
336.725315	0.998802
337.117960	1.001897
337.510540	0.998977
337.903056	0.999767
338.295508	1.002376
338.687896	1.000330
339.080220	0.999903
339.472480	0.999947
339.864676	1.001662
340.256807	0.999773
340.648875	1.000978
341.040879	1.000821
341.432818	1.000068
341.824694	0.999484
342.216506	1.000549
342.608253	0.998916
342.999937	0.999950
343.391557	1.000358
343.783113	1.000560
344.174605	0.999360
344.566033	0.999224
344.957397	1.000436
345.348697	1.000476
345.739934	1.000117
346.131106	0.999479
346.522215	0.999454
346.913260	0.999677
347.304241	0.997989
347.695159	0.999983
348.086012	0.998795
348.476802	0.999377
348.867528	0.999075
349.258191	0.999964
349.648789	1.000298
350.039324	0.998299
350.429796	0.999095
350.820203	0.998724
351.210548	1.000022
351.600828	0.999153
351.991045	0.999746
352.381198	0.999307
352.771288	0.999272
353.161314	0.999343
353.551276	0.999547
353.941175	0.997643
354.331010	0.999745
354.720782	0.998954
355.110490	0.998422
355.500135	0.999930
355.889717	0.998221
356.279235	0.997616
356.668689	1.000271
357.058080	0.998471
357.447408	0.998574
357.836672	0.998640
358.225873	0.998578
358.615010	0.998327
359.004084	0.997600
359.393095	0.999859
359.782043	0.998711
360.170927	0.998752
360.559748	0.998816
360.948505	0.997167
361.337199	0.998908
361.725830	0.999076
362.114398	0.999622
362.502903	0.998126
362.891344	0.998021
363.279722	0.997576
363.668037	0.999070
364.056289	0.998926
364.444478	0.998292
364.832603	0.997468
365.220665	0.997820
365.608665	0.997267
365.996601	0.997657
366.384474	0.996553
366.772284	0.999002
367.160031	0.997470
367.547715	0.997508
367.935336	0.996794
368.322893	0.995832
368.710388	0.994559
369.097820	0.991784
369.485189	0.989513
369.872495	0.988637
370.259738	0.986438
370.646918	0.984109
371.034035	0.980757
371.421090	0.978852
371.808081	0.973164
372.195010	0.970862
372.581875	0.966349
372.968678	0.962109
373.355418	0.958120
373.742096	0.951431
374.128710	0.946499
374.515262	0.942012
374.901751	0.936195
375.288177	0.932318
375.674540	0.925283
376.060841	0.918873
376.447079	0.912608
376.833254	0.905741
377.219367	0.900220
377.605417	0.888919
377.991404	0.886174
378.377329	0.879871
378.763191	0.873110
379.148991	0.863808
379.534727	0.857442
379.920402	0.848170
380.306013	0.845502
380.691563	0.832238
381.077049	0.826421
381.462474	0.821615
381.847835	0.811146
382.233134	0.806217
382.618371	0.806659
383.003545	0.789528
383.388657	0.788420
383.773706	0.780753
384.158693	0.776880
384.543618	0.772662
384.928480	0.764346
385.313280	0.756481
385.698017	0.757145
386.082692	0.748520
386.467305	0.748448
386.851856	0.746322
387.236344	0.743805
387.620770	0.742178
388.005133	0.740617
388.389435	0.738383
388.773674	0.740239
389.157851	0.736909
389.541965	0.739671
389.926018	0.749722
390.310008	0.742683
390.693936	0.745209
391.077802	0.744371
391.461606	0.751467
391.845348	0.748699
392.229027	0.754944
392.612645	0.759709
392.996200	0.757134
393.379694	0.758668
393.763125	0.759348
394.146494	0.769863
394.529801	0.771226
394.913047	0.775174
395.296230	0.787331
395.679351	0.789298
396.062410	0.796548
396.445408	0.806532
396.828343	0.812242
397.211217	0.817456
397.594028	0.831622
397.976778	0.837024
398.359466	0.843591
398.742092	0.851386
399.124656	0.861790
399.507158	0.865375
399.889598	0.872255
400.271977	0.877423
400.654294	0.885654
401.036549	0.893166
401.418742	0.900838
401.800874	0.905025
402.182944	0.910048
402.564952	0.915072
402.946898	0.922003
403.328783	0.928689
403.710606	0.935323
404.092367	0.936900
404.474067	0.944047
404.855705	0.947666
405.237282	0.952222
405.618797	0.955806
406.000250	0.960258
406.381642	0.961549
406.762972	0.967798
407.144240	0.970995
407.525447	0.972166
407.906593	0.975888
408.287677	0.977646
408.668700	0.980421
409.049661	0.982650
409.430560	0.984149
409.811399	0.985986
410.192176	0.986578
410.572891	0.989423
410.953545	0.990084
411.334138	0.991819
411.714669	0.992008
412.095139	0.993861
412.475547	0.994306
412.855894	0.995390
413.236180	0.994657
413.616405	0.995185
413.996568	0.995659
414.376670	0.996578
414.756711	0.996072
415.136691	0.997521
415.516609	0.996906
415.896466	0.996884
416.276262	0.997318
416.655997	0.998858
417.035670	0.998171
417.415283	0.998487
417.794834	0.998112
418.174324	0.998327
418.553753	0.998196
418.933121	0.998644
419.312428	0.999481
419.691674	0.998795
420.070859	0.998429
420.449983	0.999119
420.829045	0.997976
421.208047	0.999485
421.586988	0.998376
421.965867	0.997489
422.344686	0.998672
422.723444	0.999004
423.102141	0.999444
423.480777	0.997289
423.859352	0.998068
424.237866	0.999706
424.616319	0.998767
424.994712	0.999440
425.373044	0.998951
425.751314	0.998569
426.129524	0.999450
426.507673	0.998106
426.885762	0.998695
427.263789	0.998490
427.641756	0.998673
428.019662	0.998470
428.397508	0.998740
428.775292	0.998071
429.153016	0.998186
429.530679	0.999206
429.908282	0.998952
430.285824	0.998428
430.663305	0.999997
431.040726	0.999856
431.418086	0.999464
431.795385	0.999695
432.172624	1.000337
432.549802	0.999340
432.926920	0.998707
433.303977	0.999758
433.680974	0.999405
434.057910	0.999099
434.434786	0.997748
434.811601	0.999405
435.188355	0.999322
435.565050	0.999684
435.941683	0.998798
436.318257	0.998010
436.694770	0.998936
437.071222	0.999777
437.447614	0.998782
437.823946	0.999463
438.200218	0.999336
438.576429	0.998791
438.952580	0.999217
439.328670	0.998688
439.704700	0.998687
440.080670	0.999106
440.456580	0.998977
440.832429	0.999081
441.208218	0.999909
441.583947	0.999021
441.959616	0.998299
442.335224	1.000762
442.710773	1.000436
443.086261	0.999269
443.461689	0.998609
443.837057	0.999126
444.212365	1.000284
444.587612	0.999595
444.962800	0.999211
445.337927	1.000554
445.712995	0.999153
446.088002	0.998975
446.462949	0.998420
446.837837	1.000229
447.212664	0.998848
447.587431	0.999920
447.962139	0.999163
448.336786	0.998485
448.711374	0.998648
449.085901	0.999851
449.460369	1.000132
449.834776	0.998955
450.209124	0.999268
450.583412	0.999061
450.957640	0.998128
451.331808	0.999707
451.705917	0.999330
452.079965	0.999721
452.453954	0.999597
452.827883	0.999119
453.201752	0.999299
453.575562	0.999012
453.949311	0.998746
454.323001	0.998789
454.696632	0.999351
455.070202	0.999554
455.443713	0.998821
455.817164	0.998746
456.190556	0.999774
456.563888	1.000567
456.937160	0.999335
457.310373	0.999520
457.683526	0.999015
458.056619	0.999318
458.429653	0.998946
458.802628	0.999015
459.175542	0.999953
459.548398	0.999603
459.921194	0.999422
460.293930	0.999581
460.666607	0.999802
461.039224	0.998922
461.411782	0.998899
461.784280	0.999287
462.156719	0.999393
462.529099	0.999445
462.901419	0.999227
463.273680	0.998677
463.645882	0.998801
464.018024	0.999668
464.390106	0.999490
464.762130	0.999008
465.134094	0.999066
465.505999	0.999602
465.877845	0.999362
466.249631	0.998505
466.621358	0.998024
466.993026	0.998945
467.364634	0.998450
467.736184	0.999106
468.107674	0.999205
468.479105	0.998716
468.850477	0.998891
469.221790	0.999148
469.593043	0.998486
469.964238	0.999193
470.335373	0.998936
470.706449	0.998897
471.077467	0.999044
471.448425	0.998343
471.819324	0.999072
472.190164	0.998282
472.560945	0.998598
472.931667	0.998701
473.302330	0.998654
473.672934	0.999162
474.043479	0.998806
474.413965	0.998996
474.784393	0.998510
475.154761	0.998942
475.525070	0.998730
475.895321	0.999457
476.265513	0.999312
476.635645	0.999699
477.005719	0.998693
477.375734	0.998881
477.745691	0.998704
478.115588	0.998678
478.485427	0.998604
478.855207	0.998800
479.224928	0.998679
479.594591	0.999118
479.964194	0.998613
480.333739	0.999206
480.703226	0.998437
481.072653	0.998732
481.442022	0.998901
481.811333	0.998818
482.180584	0.999178
482.549777	0.999499
482.918912	0.999083
483.287988	0.998919
483.657005	0.998958
484.025964	0.999232
484.394864	0.998629
484.763706	0.998589
485.132489	0.998826
485.501213	0.998985
485.869879	0.999063
486.238487	0.997696
486.607036	0.999637
486.975527	0.998841
487.343959	0.998148
487.712333	0.998419
488.080648	0.998506
488.448905	0.999643
488.817104	0.998568
489.185244	0.998701
489.553326	0.998994
489.921350	0.999090
490.289315	0.999144
490.657222	0.998516
491.025070	0.998902
491.392861	0.998851
491.760593	0.998642
492.128267	0.998589
492.495883	0.998011
492.863440	0.998869
493.230939	0.998996
493.598380	0.999140
493.965763	0.998388
494.333088	0.997863
494.700354	0.997595
495.067563	0.998369
495.434713	0.998726
495.801805	0.999202
496.168839	0.998301
496.535815	0.998879
496.902733	0.998664
497.269593	0.998372
497.636395	0.998121
498.003139	0.998069
498.369825	0.999222
498.736453	0.999122
499.103023	0.998635
499.469535	0.998494
499.835989	0.999334
500.202385	0.998884
500.568723	0.998677
500.935003	0.999034
501.301226	0.998945
501.667390	0.998446
502.033497	0.999189
502.399546	0.999219
502.765537	0.998677
503.131470	0.998977
503.497345	0.998791
503.863163	0.999456
504.228923	0.998939
504.594625	0.998682
504.960269	0.998757
505.325856	1.000069
505.691385	0.999337
506.056856	0.999193
506.422270	0.999085
506.787625	0.999034
507.152924	0.999196
507.518164	0.998763
507.883347	0.998726
508.248472	0.998808
508.613540	0.998197
508.978550	0.998712
509.343503	0.999717
509.708398	0.999750
510.073236	0.999205
510.438016	0.998612
510.802738	0.998713
511.167403	0.998910
511.532010	0.999192
511.896561	0.999262
512.261053	0.998761
512.625488	0.998597
512.989866	0.998633
513.354186	0.998410
513.718449	0.999185
514.082655	0.998784
514.446803	0.998421
514.810894	0.998853
515.174927	0.999675
515.538904	0.999005
515.902822	0.999181
516.266684	0.998438
516.630488	0.999202
516.994235	0.999063
517.357925	0.999523
517.721558	0.998610
518.085133	0.998180
518.448651	0.999098
518.812112	0.999307
519.175516	0.998887
519.538863	0.998830
519.902152	0.999442
520.265385	0.998522
520.628560	0.998737
520.991678	0.999036
521.354739	0.999552
521.717743	0.998810
522.080690	0.998898
522.443580	0.999670
522.806413	0.998640
523.169189	0.999734
523.531908	0.998266
523.894569	0.998711
524.257174	0.999394
524.619722	0.999057
524.982213	0.998680
525.344647	0.999154
525.707025	0.998392
526.069345	0.998834
526.431608	0.999473
526.793815	0.998944
527.155964	0.998984
527.518057	0.999502
527.880093	0.998962
528.242072	0.998400
528.603995	0.998247
528.965860	0.999410
529.327669	0.999357
529.689421	0.998522
530.051117	0.999407
530.412755	0.999375
530.774337	0.998407
531.135862	0.999517
531.497331	0.998752
531.858743	0.999385
532.220098	0.998926
532.581396	0.999114
532.942638	0.999184
533.303824	0.999118
533.664953	0.998734
534.026025	0.999957
534.387040	0.998810
534.747999	0.998830
535.108902	0.999016
535.469748	0.999329
535.830537	0.999423
536.191270	0.999024
536.551947	0.999228
536.912567	0.999054
537.273131	0.999399
537.633638	0.998367
537.994089	0.998993
538.354483	0.999630
538.714821	0.999133
539.075103	0.999232
539.435328	0.999877
539.795497	0.998799
540.155609	0.999354
540.515665	0.999034
540.875665	0.998968
541.235609	0.999812
541.595496	0.998499
541.955328	0.999236
542.315102	0.998822
542.674821	0.999763
543.034483	0.999592
543.394090	0.998232
543.753640	0.998702
544.113134	0.998966
544.472571	0.999564
544.831953	0.998944
545.191278	0.998969
545.550548	0.998398
545.909761	0.998842
546.268918	0.999686
546.628019	0.999283
546.987064	0.999233
547.346053	0.999200
547.704986	0.998792
548.063863	0.999229
548.422684	0.999211
548.781449	0.998937
549.140158	0.998613
549.498811	0.998520
549.857408	0.998693
550.215949	0.998514
550.574434	0.998702
550.932864	0.998931
551.291237	0.998705
551.649555	0.998997
552.007817	0.999481
552.366022	0.999908
552.724173	0.999579
553.082267	0.998921
553.440305	0.998600
553.798288	0.998719
554.156215	0.998521
554.514086	0.999108
554.871902	0.999227
555.229661	0.998370
555.587365	0.999353
555.945014	0.998950
556.302606	0.998403
556.660143	0.999539
557.017625	0.999449
557.375050	0.998214
557.732421	0.999231
558.089735	0.998223
558.446994	0.998595
558.804197	0.998764
559.161345	0.998522
559.518437	0.998941
559.875474	0.999422
560.232455	0.998838
560.589381	0.999299
560.946251	0.999149
561.303065	0.998889
561.659825	0.998886
562.016528	0.999025
562.373177	0.999293
562.729770	0.998417
563.086307	0.998162
563.442789	0.999212
563.799216	0.998360
564.155587	0.998514
564.511904	0.999184
564.868164	0.998187
565.224370	0.998790
565.580520	0.999158
565.936615	0.998677
566.292654	0.998818
566.648638	0.999668
567.004567	0.998916
567.360441	0.999447
567.716260	0.998527
568.072023	0.998824
568.427732	0.998644
568.783385	0.998544
569.138982	0.998856
569.494525	0.998608
569.850013	0.999454
570.205445	0.999784
570.560823	0.998783
570.916145	0.998376
571.271412	0.999176
571.626625	0.999246
571.981782	0.999107
572.336884	0.999502
572.691931	0.999204
573.046923	0.999575
573.401860	0.998735
573.756743	0.999212
574.111570	0.998275
574.466342	1.000174
574.821059	0.999024
575.175722	0.999331
575.530330	0.999059
575.884882	0.999434
576.239380	0.999306
576.593823	0.998525
576.948211	0.999093
577.302544	0.999098
577.656823	0.999061
578.011047	0.998040
578.365216	0.999839
578.719330	0.998839
579.073389	0.998032
579.427394	0.998930
579.781344	0.999208
580.135239	0.997849
580.489080	0.999444
580.842866	0.998865
581.196597	0.997896
581.550273	0.998304
581.903895	0.999335
582.257463	0.998849
582.610975	0.998720
582.964434	0.999613
583.317837	0.999131
583.671186	0.999591
584.024481	0.998583
584.377721	0.998830
584.730906	0.999065
585.084037	0.999602
585.437113	0.999413
585.790135	0.998999
586.143103	0.999010
586.496016	0.999042
586.848874	0.999779
587.201679	0.998576
587.554428	0.998931
587.907124	0.999467
588.259765	0.999123
588.612352	0.999391
588.964884	0.999312
589.317362	0.998524
589.669786	0.999172
590.022155	0.998267
590.374470	0.998451
590.726731	0.998883
591.078937	0.999426
591.431090	0.998977
591.783188	0.998323
592.135232	0.999784
592.487222	0.998722
592.839157	0.998955
593.191038	0.998581
593.542866	0.998917
593.894639	0.998074
594.246358	0.999015
594.598022	0.999104
594.949633	0.999385
595.301190	0.998670
595.652692	0.998095
596.004141	0.998081
596.355535	0.998683
596.706876	0.998855
597.058162	0.998817
597.409395	0.999439
597.760573	0.999094
598.111698	0.998341
598.462768	0.998619
598.813785	0.998603
599.164748	0.998270
599.515657	0.998723
599.866511	0.998883
600.217312	0.999835
600.568060	0.999072
600.918753	0.999206
601.269392	0.999201
601.619978	0.998818
601.970510	0.998761
602.320988	0.998988
602.671412	0.998814
603.021783	0.999631
603.372100	0.999080
603.722363	0.999231
604.072572	0.998725
604.422728	0.998572
604.772830	0.998317
605.122878	0.998638
605.472872	0.999218
605.822813	0.998749
606.172701	0.998750
606.522534	0.998724
606.872314	0.999498
607.222041	0.998681
607.571714	0.999220
607.921333	0.999034
608.270899	0.998146
608.620411	0.998497
608.969870	0.999023
609.319276	0.998416
609.668627	0.999978
610.017926	0.998117
610.367171	0.998176
610.716362	0.998360
611.065500	0.998709
611.414585	0.998804
611.763616	0.998409
612.112594	0.998270
612.461518	0.997776
612.810389	0.998834
613.159207	0.998877
613.507971	0.998537
613.856682	0.999985
614.205340	0.997911
614.553945	0.999329
614.902496	0.998982
615.250994	0.999153
615.599439	0.998982
615.947830	0.999100
616.296169	0.998658
616.644454	0.999140
616.992686	0.998954
617.340864	0.999616
617.688990	0.998356
618.037063	0.999576
618.385082	0.998612
618.733048	0.997934
619.080961	0.999103
619.428821	0.999098
619.776628	0.997971
620.124382	0.999647
620.472083	0.999366
620.819731	0.999982
621.167326	0.998933
621.514868	0.999055
621.862357	0.999254
622.209793	0.998534
622.557176	0.999243
622.904506	0.998641
623.251783	0.998776
623.599007	0.999389
623.946179	0.998343
624.293297	0.998940
624.640363	0.998741
624.987376	0.998003
625.334336	0.999182
625.681243	0.998725
626.028097	0.998566
626.374899	0.998584
626.721647	0.999423
627.068343	0.999288
627.414987	0.998981
627.761577	0.998214
628.108115	0.999083
628.454600	0.999186
628.801032	0.999005
629.147412	0.998765
629.493739	0.999401
629.840014	0.998888
630.186236	0.997967
630.532405	0.998469
630.878521	0.998204
631.224585	0.998854
631.570597	0.997906
631.916556	0.998755
632.262462	0.998341
632.608316	0.999167
632.954117	0.998333
633.299866	0.998777
633.645562	0.998060
633.991206	0.998614
634.336797	0.998743
634.682336	0.998900
635.027823	0.998959
635.373257	0.999122
635.718639	0.999539
636.063968	0.998437
636.409245	0.998440
636.754470	0.999436
637.099642	0.999410
637.444762	0.999029
637.789829	0.998261
638.134845	0.998961
638.479808	0.999431
638.824719	0.999141
639.169577	0.999084
639.514383	0.999460
639.859137	0.999111
640.203839	0.998032
640.548489	0.999307
640.893086	0.998345
641.237632	0.999116
641.582125	0.998471
641.926566	1.000154
642.270955	0.999448
642.615292	0.998339
642.959576	0.999322
643.303809	0.998954
643.647990	0.999312
643.992118	0.999472
644.336195	0.998220
644.680219	0.999448
645.024192	0.998360
645.368112	0.998686
645.711981	0.999117
646.055797	0.999019
646.399562	0.998418
646.743274	0.999237
647.086935	0.998537
647.430544	0.998042
647.774101	0.998009
648.117606	0.998787
648.461059	0.998888
648.804460	0.998589
649.147810	0.998590
649.491108	0.998953
649.834354	0.998969
650.177548	0.998440
650.520690	0.998876
650.863781	0.997267
651.206820	0.999015
651.549807	0.998747
651.892742	0.998761
652.235626	0.998785
652.578458	0.998618
652.921238	0.998756
653.263967	0.999384
653.606644	0.998528
653.949269	0.999574
654.291843	0.997794
654.634365	0.999395
654.976836	0.997980
655.319255	1.000308
655.661622	0.998545
656.003938	0.998455
656.346203	0.998485
656.688416	0.999818
657.030577	0.999411
657.372687	0.999383
657.714746	0.998798
658.056753	0.998896
658.398708	0.998181
658.740612	0.999241
659.082465	0.999457
659.424266	0.998910
659.766016	0.997789
660.107715	0.999336
660.449362	0.998955
660.790958	0.998628
661.132503	0.998989
661.473996	0.998040
661.815438	0.999493
662.156829	0.999082
662.498168	0.999094
662.839456	0.998295
663.180693	0.998672
663.521879	0.998881
663.863013	0.999258
664.204097	0.998097
664.545129	0.998563
664.886110	0.999083
665.227040	0.998370
665.567918	0.997700
665.908746	0.997541
666.249522	0.997968
666.590248	0.998752
666.930922	0.998669
667.271545	0.998885
667.612118	0.998590
667.952639	0.999101
668.293109	0.998894
668.633528	0.997356
668.973896	0.999036
669.314213	0.998493
669.654480	0.998611
669.994695	0.997892
670.334859	0.998812
670.674973	0.998390
671.015035	0.998696
671.355047	0.997818
671.695008	0.997502
672.034918	0.998443
672.374777	0.998105
672.714585	0.998879
673.054342	0.999382
673.394049	0.998292
673.733705	0.997880
674.073310	0.998183
674.412864	0.999112
674.752368	0.998166
675.091820	0.999509
675.431223	0.998990
675.770574	0.998640
676.109875	0.998588
676.449125	0.998217
676.788324	0.998210
677.127473	0.998457
677.466571	0.998506
677.805619	0.998592
678.144616	0.999402
678.483562	0.998722
678.822458	0.998568
679.161303	0.998206
679.500098	0.997970
679.838842	0.998675
680.177535	0.998106
680.516179	0.998464
680.854771	0.998729
681.193314	0.997945
681.531805	0.997743
681.870247	0.998168
682.208638	0.997900
682.546978	0.997114
682.885268	0.998107
683.223508	0.998275
683.561697	0.998345
683.899836	0.998271
684.237925	0.997795
684.575963	0.997962
684.913951	0.998969
685.251889	0.998510
685.589776	0.997939
685.927614	0.997908
686.265401	0.998878
686.603137	0.997614
686.940824	0.998816
687.278460	0.998510
687.616046	0.997336
687.953582	0.998592
688.291068	0.998731
688.628504	0.998166
688.965889	0.998134
689.303224	0.996853
689.640510	0.997770
689.977745	0.997626
690.314930	0.997411
690.652065	0.996955
690.989150	0.998355
691.326185	0.998360
691.663170	0.997675
692.000105	0.998374
692.336990	0.998135
692.673825	0.998926
693.010610	0.997547
693.347345	0.998788
693.684030	0.997823
694.020665	0.997676
694.357251	0.997702
694.693786	0.998383
695.030272	0.997443
695.366707	0.998785
695.703093	0.997677
696.039429	0.997517
696.375716	0.998210
696.711952	0.998117
697.048139	0.998412
697.384276	0.997354
697.720363	0.998898
698.056400	0.996987
698.392388	0.997994
698.728326	0.997672
699.064214	0.999201
699.400053	0.998255
699.735842	0.998498
700.071581	0.998353
700.407270	0.997350
700.742910	0.998592
701.078501	0.997542
701.414042	0.998631
701.749533	0.997699
702.084974	0.997527
702.420366	0.997958
702.755709	0.998047
703.091002	0.999018
703.426246	0.998615
703.761440	0.997314
704.096584	0.997900
704.431679	0.997463
704.766725	0.998580
705.101721	0.998557
705.436668	0.998588
705.771565	0.998632
706.106413	0.997161
706.441212	0.997543
706.775961	0.998310
707.110661	0.997859
707.445311	0.998246
707.779913	1.000061
708.114465	0.998938
708.448967	0.998361
708.783421	0.997736
709.117825	0.998189
709.452180	0.998466
709.786485	0.997542
710.120742	0.998458
710.454949	0.996781
710.789107	0.997219
711.123216	0.997199
711.457275	0.997413
711.791286	0.997957
712.125247	0.999069
712.459159	0.998284
712.793023	0.997894
713.126837	0.997904
713.460602	0.997337
713.794318	0.997169
714.127985	0.997197
714.461602	0.997534
714.795171	0.997531
715.128691	0.998075
715.462162	0.998413
715.795584	0.998256
716.128957	0.998642
716.462281	0.998102
716.795556	0.997521
717.128782	0.997914
717.461960	0.998196
717.795088	0.997928
718.128167	0.998594
718.461198	0.997900
718.794180	0.999334
719.127113	0.998517
719.459997	0.998071
719.792833	0.998076
720.125619	0.997374
720.458357	0.997802
720.791046	0.998449
721.123686	0.997661
721.456278	0.998124
721.788821	0.998366
722.121315	0.998321
722.453761	0.997971
722.786158	0.997766
723.118506	0.997951
723.450805	0.997368
723.783056	0.999108
724.115259	0.998167
724.447412	0.998262
724.779518	0.999060
725.111574	0.997611
725.443582	0.997484
725.775542	0.998176
726.107453	0.998615
726.439315	0.999187
726.771129	0.998097
727.102895	0.998978
727.434612	0.998462
727.766281	0.998190
728.097901	0.997014
728.429473	0.998473
728.760996	0.997840
729.092471	0.998275
729.423897	0.999148
729.755276	0.997736
730.086606	0.996572
730.417887	0.998028
730.749120	0.998475
731.080305	0.997720
731.411442	0.997018
731.742530	0.998022
732.073570	0.997258
732.404562	0.997592
732.735506	0.998041
733.066401	0.997541
733.397249	0.998329
733.728048	0.998339
734.058798	0.998794
734.389501	0.999658
734.720156	0.998645
735.050762	0.998874
735.381320	0.997410
735.711831	0.996852
736.042293	0.996927
736.372707	0.999437
736.703073	0.997712
737.033391	0.998593
737.363661	0.998748
737.693883	0.997709
738.024056	0.996815
738.354182	0.997900
738.684260	0.997464
739.014290	0.998248
739.344272	0.997997
739.674207	0.998081
740.004093	0.998070
740.333931	0.998606
740.663722	0.997991
740.993464	0.998600
741.323159	0.997313
741.652806	0.997976
741.982405	0.997838
742.311956	0.998025
742.641460	0.998308
742.970915	0.997381
743.300323	0.996597
743.629683	0.997099
743.958996	0.998910
744.288260	0.997291
744.617477	0.997616
744.946647	0.997993
745.275768	0.997907
745.604842	0.998272
745.933869	0.998543
746.262847	0.999075
746.591778	0.997002
746.920662	0.997773
747.249498	0.999373
747.578286	0.999321
747.907027	0.998543
748.235720	0.998486
748.564365	0.999023
748.892963	0.997892
749.221514	0.998226
749.550017	0.998048
749.878473	0.998206
750.206881	0.999059
750.535242	0.997364
750.863555	0.997326
751.191821	0.998741
751.520039	0.999261
751.848210	0.996254
752.176334	0.997787
752.504411	0.997781
752.832440	0.997770
753.160421	0.998606
753.488356	0.998006
753.816243	0.997669
754.144082	0.998379
754.471875	0.998067
754.799620	0.999061
755.127318	0.997598
755.454969	0.998128
755.782572	0.999030
756.110129	0.997856
756.437638	1.000086
756.765100	0.998586
757.092515	0.999035
757.419882	0.998209
757.747203	0.997415
758.074477	0.998988
758.401703	0.998726
758.728882	0.998803
759.056014	0.998315
759.383099	0.998616
759.710138	0.997585
760.037129	0.998940
760.364073	0.999352
760.690970	0.998080
761.017820	0.997567
761.344623	0.997868
761.671379	0.999364
761.998088	0.998058
762.324751	0.998480
762.651366	0.997114
762.977935	0.997290
763.304456	0.997813
763.630931	0.996305
763.957359	0.996151
764.283740	0.996098
764.610074	0.996491
764.936362	0.997428
765.262602	0.998513
765.588796	0.998439
765.914943	0.998146
766.241044	0.998373
766.567097	0.998255
766.893104	0.998015
767.219064	0.997634
767.544978	0.997805
767.870845	0.998547
768.196665	0.997765
768.522438	0.998418
768.848165	0.998466
769.173846	0.999193
769.499479	0.999222
769.825066	0.998987
770.150607	0.998929
770.476101	0.999010
770.801548	0.998959
771.126949	0.999252
771.452303	0.999508
771.777611	0.998926
772.102872	0.998146
772.428087	0.998343
772.753256	0.999148
773.078378	0.998282
773.403453	0.998887
773.728482	0.999809
774.053465	0.997779
774.378401	0.998217
774.703291	0.999241
775.028135	0.998836
775.352932	0.997709
775.677683	0.999683
776.002388	0.998774
776.327046	0.998362
776.651658	0.999788
776.976224	0.999135
777.300743	0.997990
777.625216	0.997789
777.949643	0.999312
778.274024	0.998548
778.598359	0.998375
778.922647	0.998045
779.246889	0.998892
779.571086	0.998111
779.895236	0.998330
780.219339	0.999013
780.543397	0.997910
780.867409	0.998732
781.191374	0.999218
781.515294	0.999049
781.839167	0.998244
782.162995	0.999472
782.486776	0.998323
782.810511	0.998617
783.134201	0.998561
783.457844	0.999849
783.781441	0.998730
784.104993	0.997298
784.428498	0.999092
784.751958	0.999951
785.075372	1.000677
785.398739	0.998631
785.722061	0.998194
786.045337	0.998651
786.368568	0.998670
786.691752	0.997760
787.014891	0.999327
787.337983	0.998200
787.661030	0.998678
787.984031	1.000039
788.306987	0.998784
788.629897	0.997936
788.952760	0.999503
789.275579	0.998609
789.598351	0.997718
789.921078	0.998593
790.243759	0.999084
790.566395	0.998527
790.888984	0.999189
791.211529	0.999249
791.534027	0.999643
791.856480	0.998242
792.178888	0.997660
792.501249	0.998552
792.823566	1.000732
793.145836	0.998620
793.468062	0.998320
793.790241	1.000449
794.112375	0.997976
794.434464	0.999571
794.756507	0.999362
795.078505	0.998482
795.400457	0.999563
795.722364	0.998775
796.044226	0.999469
796.366042	0.997774
796.687812	0.997599
797.009538	0.998115
797.331218	0.999710
797.652852	0.999911
797.974442	0.998047
798.295986	0.999640
798.617484	0.998752
798.938938	0.999881
799.260346	0.998486
799.581709	0.998130
799.903026	0.999978
800.224299	0.998479
800.545526	0.997931
800.866708	0.998052
801.187845	0.999141
801.508936	0.998894
801.829983	0.998631
802.150984	0.998911
802.471940	0.999673
802.792851	0.998710
803.113717	1.000203
803.434538	1.000296
803.755314	1.000456
804.076045	0.999137
804.396731	0.998382
804.717372	0.997595
805.037967	0.999329
805.358518	0.999747
805.679024	0.998837
805.999485	0.998618
806.319901	0.999687
806.640272	1.000143
806.960598	0.999650
807.280879	0.997655
807.601115	0.999905
807.921306	0.999892
808.241453	0.998816
808.561554	0.999522
808.881611	0.999298
809.201623	0.998567
809.521590	0.998665
809.841513	0.999173
810.161390	0.997700
810.481223	0.998414
810.801011	1.000075
811.120755	1.000203
811.440453	0.998173
811.760107	0.999666
812.079716	0.998758
812.399281	0.998507
812.718801	0.999293
813.038276	0.999626
813.357707	0.999194
813.677093	1.000105
813.996434	0.999457
814.315731	1.001218
814.634983	0.998834
814.954191	0.999354
815.273354	0.998682
815.592473	0.998281
815.911547	0.999232
816.230577	0.998149
816.549562	0.999274
816.868502	0.997486
817.187399	0.999525
817.506250	0.998724
817.825058	0.997213
818.143821	0.999421
818.462539	0.999684
818.781213	0.999160
819.099843	0.999595
819.418429	0.997811
819.736970	0.999071
820.055466	0.997296
820.373919	0.997833
820.692327	0.997661
821.010691	0.997423
821.329011	0.995785
821.647286	0.995249
821.965517	0.995297
822.283704	0.993761
822.601847	0.993777
822.919945	0.993631
823.237999	0.994494
823.556010	0.994582
823.873976	0.995540
824.191897	0.995506
824.509775	0.996466
824.827609	0.996787
825.145398	0.997589
825.463144	0.995002
825.780845	0.995703
826.098502	0.996103
826.416116	0.997487
826.733685	0.995956
827.051210	0.995514
827.368692	0.995306
827.686129	0.995199
828.003522	0.996491
828.320872	0.995960
828.638177	0.997332
828.955439	0.998228
829.272656	0.998495
829.589830	0.997638
829.906960	0.998522
830.224046	0.998103
830.541088	0.998756
830.858086	0.999049
831.175041	0.999442
831.491952	0.997713
831.808819	0.998698
832.125642	0.999004
832.442421	0.999083
832.759157	0.999452
833.075849	0.998169
833.392497	0.998111
833.709101	0.996927
834.025662	0.996877
834.342179	0.996855
834.658653	0.998557
834.975083	0.999564
835.291469	0.999698
835.607811	0.998879
835.924110	0.998817
836.240366	0.999511
836.556578	0.998705
836.872746	0.998714
837.188871	0.998887
837.504952	0.998700
837.820990	0.998632
838.136984	0.999176
838.452935	0.998710
838.768842	0.998678
839.084706	0.999320
839.400526	0.999752
839.716303	0.998493
840.032037	0.999413
840.347727	0.998810
840.663373	0.997717
840.978977	0.997538
841.294537	0.998453
841.610054	0.999091
841.925527	0.998747
842.240957	0.999394
842.556344	0.999291
842.871687	0.999002
843.186987	0.998546
843.502244	0.999495
843.817458	0.999511
844.132629	0.999263
844.447756	0.999298
844.762840	0.998971
845.077881	0.999638
845.392879	0.998870
845.707833	0.998619
846.022745	0.998089
846.337613	0.999150
846.652438	0.998454
846.967221	0.999171
847.281960	0.999897
847.596656	1.000496
847.911309	0.999172
848.225919	0.998853
848.540485	0.999340
848.855009	1.000098
849.169490	1.000143
849.483928	0.999771
849.798323	0.999034
850.112675	1.000552
850.426984	0.998691
850.741251	0.998901
851.055474	0.999759
851.369654	1.000179
851.683792	0.997958
851.997887	0.999037
852.311938	1.000232
852.625947	0.998506
852.939914	0.998317
853.253837	1.001521
853.567718	0.999477
853.881555	0.999421
854.195350	1.000273
854.509103	0.999783
854.822812	1.000462
855.136479	0.998741
855.450103	1.000444
855.763685	1.000490
856.077224	0.999831
856.390720	0.999393
856.704173	1.000777
857.017584	1.000322
857.330953	0.999552
857.644278	0.999671
857.957561	1.000079
858.270802	0.999654
858.584000	1.000098
858.897155	1.000509
859.210268	0.999267
859.523339	0.999852
859.836367	0.998898
860.149352	0.999485
860.462295	0.999324
860.775195	1.000070
861.088054	0.999478
861.400869	0.998821
861.713642	0.998238
862.026373	0.999487
862.339062	1.000388
862.651708	0.999753
862.964312	0.999517
863.276873	0.999042
863.589392	0.998514
863.901869	0.999770
864.214303	1.000510
864.526696	0.999920
864.839045	0.999647
865.151353	0.999439
865.463619	0.999048
865.775842	0.999633
866.088023	1.000503
866.400162	0.999355
866.712258	1.000574
867.024313	0.999780
867.336325	1.000151
867.648296	0.999510
867.960224	0.999196
868.272110	1.000546
868.583954	1.000247
868.895755	1.000846
869.207515	0.999091
869.519233	1.000117
869.830909	0.999248
870.142542	0.998529
870.454134	0.999162
870.765684	0.998819
871.077191	1.000149
871.388657	0.999401
871.700081	1.000491
872.011463	1.000380
872.322803	0.999233
872.634101	0.998957
872.945357	0.998918
873.256571	0.998707
873.567744	0.999463
873.878874	0.998315
874.189963	0.999444
874.501010	1.000468
874.812015	0.999788
875.122979	1.000494
875.433900	0.998696
875.744780	0.999986
876.055618	0.998725
876.366415	0.999627
876.677169	0.998656
876.987882	0.999168
877.298554	1.000050
877.609183	0.999304
877.919771	0.999831
878.230317	0.999763
878.540822	0.999616
878.851285	0.999008
879.161707	0.999407
879.472087	1.000411
879.782425	0.997575
880.092722	0.998225
880.402977	0.998032
880.713191	0.996546
881.023363	0.995832
881.333494	0.995102
881.643583	0.995877
881.953631	0.996450
882.263637	0.995126
882.573602	0.996235
882.883526	0.996123
883.193408	0.997332
883.503248	0.996937
883.813048	0.997771
884.122806	0.998154
884.432522	0.997294
884.742197	0.998701
885.051831	0.998231
885.361424	0.998013
885.670975	0.998479
885.980485	0.998660
886.289954	0.999039
886.599382	0.998059
886.908768	0.999514
887.218113	0.998764
887.527417	0.999635
887.836680	0.999255
888.145901	0.999624
888.455082	1.001121
888.764221	1.000853
889.073319	0.999293
889.382376	1.000108
889.691392	0.997757
890.000366	0.999878
890.309300	0.999436
890.618193	0.999252
890.927044	0.998566
891.235855	0.999244
891.544625	0.998816
891.853353	0.998587
892.162041	0.998592
892.470687	0.999761
892.779293	0.999841
893.087858	0.998447
893.396381	0.999276
893.704864	0.997505
894.013306	0.999212
894.321707	0.998499
894.630068	0.997857
894.938387	0.996679
895.246665	0.998275
895.554903	0.997269
895.863100	0.998647
896.171256	0.999163
896.479371	0.999050
896.787446	0.999088
897.095480	0.998046
897.403473	0.998852
897.711425	0.998607
898.019336	0.999787
898.327207	1.000427
898.635038	0.998201
898.942827	0.999023
899.250576	0.998677
899.558284	0.999169
899.865952	0.999447
900.173579	0.999142
900.481165	0.998923
900.788711	0.997765
901.096216	0.999720
901.403681	0.999647
901.711105	0.999667
902.018489	0.999026
902.325832	0.999885
902.633135	0.998632
902.940397	1.000877
903.247619	0.999906
903.554800	0.998589
903.861941	0.998247
904.169041	0.997956
904.476101	0.997805
904.783121	0.996504
905.090100	0.997448
905.397039	0.998346
905.703938	0.997935
906.010796	0.998694
906.317614	0.998527
906.624391	0.999758
906.931129	0.999970
907.237826	0.999998
907.544483	0.999078
907.851099	0.999949
908.157675	0.999863
908.464211	0.999709
908.770707	0.998281
909.077163	0.999130
909.383578	0.999058
909.689954	0.998891
909.996289	0.999082
910.302584	1.000019
910.608839	1.000874
910.915054	0.999697
911.221229	0.999989
911.527363	0.998844
911.833458	1.000724
912.139513	1.000465
912.445527	1.000436
912.751502	0.999459
913.057436	0.998855
913.363331	1.000397
913.669186	1.000034
913.975000	0.998441
914.280775	0.999903
914.586510	0.999051
914.892205	0.998583
915.197859	0.998766
915.503475	0.998801
915.809050	0.998212
916.114585	0.996718
916.420081	0.998338
916.725536	0.999478
917.030952	0.996839
917.336328	0.997341
917.641665	0.997470
917.946961	0.997650
918.252218	0.998023
918.557435	0.997906
918.862612	0.998658
919.167750	0.998847
919.472848	0.998965
919.777906	0.999837
920.082925	0.999541
920.387904	0.999768
920.692843	0.999354
920.997743	0.997998
921.302603	0.999328
921.607423	0.999768
921.912204	0.998642
922.216946	0.999264
922.521647	1.000270
922.826310	0.998178
923.130932	1.000386
923.435516	0.998807
923.740059	0.998759
924.044564	0.998641
924.349028	0.999421
924.653454	0.999443
924.957840	0.999632
925.262186	0.999206
925.566493	0.999034
925.870761	0.999103
926.174989	0.998200
926.479178	0.999838
926.783328	0.999677
927.087438	1.000056
927.391509	0.998324
927.695541	0.999875
927.999533	0.999719
928.303486	0.998752
928.607400	0.999866
928.911275	0.999925
929.215110	1.000103
929.518906	1.000562
929.822663	1.000741
930.126381	0.999711
930.430060	0.999794
930.733699	1.000806
931.037299	0.999974
931.340861	1.000435
931.644383	0.998446
931.947866	0.999793
932.251309	1.001384
932.554714	0.999628
932.858080	1.000762
933.161407	0.998976
933.464694	0.999499
933.767943	0.999363
934.071153	0.999467
934.374323	0.999295
934.677455	0.999582
934.980548	0.999089
935.283602	0.999272
935.586617	0.999318
935.889593	1.000824
936.192530	1.000413
936.495428	0.999563
936.798287	0.998551
937.101108	0.999719
937.403890	0.999965
937.706632	1.001463
938.009336	0.999119
938.312002	0.999444
938.614628	0.998779
938.917216	0.998731
939.219765	0.999774
939.522275	0.999835
939.824747	0.999883
940.127179	1.000562
940.429573	1.000975
940.731929	0.998815
941.034246	0.998887
941.336524	0.997825
941.638763	1.000584
941.940964	0.998884
942.243126	0.998478
942.545250	0.999352
942.847335	0.999515
943.149381	0.999683
943.451389	0.999206
943.753359	0.999790
944.055290	1.001676
944.357182	1.001147
944.659036	1.000843
944.960851	0.999875
945.262628	1.000652
945.564367	0.998926
945.866067	0.999338
946.167729	0.999410
946.469352	1.001554
946.770937	0.998593
947.072484	1.000470
947.373992	0.998828
947.675462	0.999768
947.976893	0.999272
948.278286	1.000868
948.579641	0.999800
948.880958	0.998900
949.182236	0.999858
949.483476	1.000243
949.784678	0.999792
950.085841	0.998640
950.386967	0.998909
950.688054	1.000123
950.989103	0.998243
951.290114	0.998820
951.591087	0.999371
951.892021	0.999006
952.192917	1.000643
952.493776	1.000229
952.794596	1.000435
953.095378	0.999701
953.396122	1.000000
953.696828	1.000231
953.997496	1.001144
954.298126	1.000552
954.598718	0.999652
954.899272	1.000190
955.199788	0.999493
955.500266	1.000308
955.800706	1.000008
956.101108	1.000096
956.401472	1.001027
956.701798	0.999477
957.002087	0.999665
957.302337	0.999960
957.602550	0.999914
957.902724	1.000293
958.202861	0.999252
958.502960	0.998948
958.803022	0.999674
959.103045	1.000064
959.403031	1.000654
959.702979	0.999403
960.002889	0.999717
960.302762	0.997305
960.602596	0.999777
960.902393	0.998998
961.202153	1.000228
961.501875	1.000451
961.801559	1.000386
962.101205	0.999080
962.400814	1.000846
962.700385	1.000542
962.999918	1.000886
963.299414	1.000276
963.598873	1.000277
963.898293	0.999650
964.197677	0.999888
964.497022	1.000133
964.796331	1.000867
965.095601	1.000470
965.394835	0.999661
965.694030	1.000784
965.993189	0.999370
966.292309	0.999769
966.591393	0.999242
966.890439	1.000863
967.189447	0.999744
967.488419	1.000135
967.787353	0.999198
968.086249	1.000854
968.385108	0.999547
968.683930	1.002208
968.982714	1.000682
969.281462	1.000215
969.580172	0.999832
969.878844	1.000721
970.177480	0.999775
970.476078	1.001412
970.774639	1.001044
971.073162	0.999568
971.371649	0.999303
971.670098	0.998992
971.968510	1.000828
972.266885	0.999357
972.565223	1.000258
972.863524	0.998608
973.161788	1.000560
973.460014	1.000603
973.758204	1.000365
974.056356	0.999517
974.354471	1.001130
974.652550	1.000601
974.950591	0.999256
975.248595	0.999323
975.546563	1.000332
975.844493	1.000135
976.142386	0.998833
976.440243	1.001421
976.738062	0.998923
977.035845	0.999308
977.333590	1.000396
977.631299	0.998825
977.928971	1.000631
978.226606	0.999677
978.524204	0.999271
978.821765	1.000638
979.119290	1.001176
979.416777	1.000954
979.714228	1.000061
980.011642	0.999742
980.309020	0.999324
980.606360	0.999207
980.903664	0.999662
981.200931	0.998599
981.498162	1.000913
981.795356	0.999562
982.092513	0.999300
982.389633	1.001167
982.686717	0.998378
982.983764	0.999567
983.280775	0.999680
983.577749	1.001102
983.874686	0.999293
984.171587	1.000298
984.468451	0.998980
984.765279	1.000072
985.062070	1.001233
985.358824	1.000187
985.655543	1.000867
985.952224	0.999330
986.248869	0.999540
986.545478	1.000214
986.842050	1.001077
987.138586	0.999553
987.435086	0.998733
987.731549	1.000858
988.027975	1.000287
988.324366	0.999985
988.620719	1.000938
988.917037	0.999889
989.213318	1.002396
989.509563	0.999659
989.805772	1.000914
990.101944	1.001092
990.398080	1.000105
990.694180	1.000041
990.990244	0.999802
991.286271	0.999058
991.582262	1.000882
991.878217	1.000216
992.174136	1.000534
992.470019	1.000638
992.765865	1.001088
993.061676	0.999881
993.357450	0.999935
993.653188	1.000685
993.948890	1.000438
994.244556	0.999804
994.540186	1.000037
994.835780	0.999626
995.131337	1.000398
995.426859	1.001310
995.722345	0.999390
996.017795	0.999381
996.313208	1.000536
996.608586	0.999901
996.903928	1.000092
997.199234	1.000518
997.494504	1.001195
997.789738	0.999135
998.084936	1.000836
998.380099	0.999169
998.675225	0.999623
998.970316	1.000508
999.265371	0.999476
999.560390	0.999994
999.855373	0.999391
1000.150320	1.000080
1000.445232	0.999688
1000.740108	1.000569
1001.034948	0.999325
1001.329752	1.000707
1001.624521	0.999792
1001.919254	0.999848
1002.213951	1.000145
1002.508613	0.999722
1002.803239	0.999126
1003.097829	1.000232
1003.392384	1.000569
1003.686903	1.000172
1003.981386	1.000705
1004.275834	1.000614
1004.570246	0.998481
1004.864623	1.001162
1005.158964	1.000494
1005.453270	0.999584
1005.747540	1.000286
1006.041775	1.000848
1006.335974	1.000551
1006.630138	1.000969
1006.924266	0.999152
1007.218359	0.999190
1007.512416	1.000491
1007.806438	0.999964
1008.100425	0.999951
1008.394376	1.001011
1008.688292	0.999723
1008.982172	0.999851
1009.276017	0.999730
1009.569827	1.000859
1009.863602	1.000005
1010.157341	1.001281
1010.451045	0.999837
1010.744714	1.000744
1011.038347	1.000491
1011.331945	0.999785
1011.625508	0.998986
1011.919036	0.999253
1012.212528	1.000989
1012.505986	0.999672
1012.799408	1.000543
1013.092795	1.000169
1013.386147	0.999818
1013.679464	1.001323
1013.972745	0.999486
1014.265992	0.999596
1014.559204	0.999818
1014.852380	0.999953
1015.145521	0.999361
1015.438628	0.999814
1015.731699	1.000017
1016.024736	0.999390
1016.317737	1.000045
1016.610703	1.000267
1016.903635	0.999352
1017.196531	0.999616
1017.489393	0.999709
1017.782219	0.998851
1018.075011	1.000612
1018.367768	0.999178
1018.660490	0.999228
1018.953177	0.999228
1019.245829	0.999228
