Dividing Wavelength (nm)	Counts (n)	Blue Motor Position (mm): 9.400000	Red Motor Position (mm): 0.000000	
326.493990	1.003905
326.888308	1.003905
327.282561	1.003905
327.676750	1.004773
328.070874	1.004648
328.464933	1.006858
328.858929	1.005641
329.252859	1.003714
329.646726	1.004296
330.040528	1.004452
330.434265	1.003825
330.827938	1.004341
331.221547	1.005087
331.615091	1.004819
332.008571	1.004993
332.401986	1.003919
332.795338	1.003583
333.188625	1.005133
333.581847	1.004610
333.975006	1.004727
334.368100	1.004379
334.761129	1.004073
335.154095	1.004905
335.546996	1.003046
335.939833	0.999280
336.332606	0.998839
336.725315	0.997115
337.117960	0.999461
337.510540	0.998040
337.903056	0.999518
338.295508	0.998967
338.687896	0.998821
339.080220	0.999026
339.472480	0.999118
339.864676	0.999582
340.256807	0.997361
340.648875	0.999878
341.040879	0.998414
341.432818	0.999525
341.824694	0.997976
342.216506	0.998508
342.608253	0.999710
342.999937	0.997810
343.391557	0.998263
343.783113	0.999356
344.174605	0.998428
344.566033	0.998632
344.957397	0.999752
345.348697	0.998275
345.739934	0.999129
346.131106	0.997590
346.522215	0.997549
346.913260	0.997591
347.304241	0.997748
347.695159	0.997795
348.086012	0.998465
348.476802	0.999243
348.867528	0.997666
349.258191	0.998311
349.648789	0.997629
350.039324	0.997950
350.429796	0.998541
350.820203	0.997502
351.210548	0.999350
351.600828	0.997821
351.991045	0.998126
352.381198	0.998565
352.771288	0.997452
353.161314	0.997292
353.551276	0.997591
353.941175	0.996607
354.331010	0.998218
354.720782	0.997816
355.110490	0.997002
355.500135	0.999162
355.889717	0.997316
356.279235	0.996373
356.668689	0.998619
357.058080	0.997506
357.447408	0.996746
357.836672	0.997437
358.225873	0.997825
358.615010	0.997338
359.004084	0.997065
359.393095	0.996779
359.782043	0.996434
360.170927	0.997856
360.559748	0.998252
360.948505	0.996330
361.337199	0.997439
361.725830	0.997145
362.114398	0.996914
362.502903	0.997123
362.891344	0.995692
363.279722	0.996637
363.668037	0.996239
364.056289	0.995971
364.444478	0.996832
364.832603	0.996741
365.220665	0.995870
365.608665	0.995934
365.996601	0.995642
366.384474	0.994263
366.772284	0.996461
367.160031	0.993722
367.547715	0.995129
367.935336	0.994103
368.322893	0.993371
368.710388	0.991859
369.097820	0.989942
369.485189	0.987278
369.872495	0.986261
370.259738	0.984433
370.646918	0.982166
371.034035	0.978083
371.421090	0.975648
371.808081	0.971140
372.195010	0.969244
372.581875	0.963268
372.968678	0.958993
373.355418	0.954694
373.742096	0.948121
374.128710	0.943262
374.515262	0.938323
374.901751	0.934273
375.288177	0.928412
375.674540	0.922250
376.060841	0.915805
376.447079	0.910093
376.833254	0.901308
377.219367	0.897150
377.605417	0.884473
377.991404	0.882280
378.377329	0.876377
378.763191	0.870712
379.148991	0.860762
379.534727	0.853287
379.920402	0.844711
380.306013	0.841144
380.691563	0.828661
381.077049	0.822010
381.462474	0.818795
381.847835	0.806878
382.233134	0.802438
382.618371	0.801434
383.003545	0.784831
383.388657	0.782072
383.773706	0.774911
384.158693	0.770444
384.543618	0.766141
384.928480	0.756682
385.313280	0.746867
385.698017	0.746373
386.082692	0.734849
386.467305	0.733433
386.851856	0.728694
387.236344	0.722851
387.620770	0.717128
388.005133	0.711696
388.389435	0.706559
388.773674	0.702956
389.157851	0.694736
389.541965	0.692375
389.926018	0.699935
390.310008	0.686063
390.693936	0.683094
391.077802	0.675073
391.461606	0.676260
391.845348	0.666235
392.229027	0.666027
392.612645	0.663263
392.996200	0.650198
393.379694	0.643722
393.763125	0.634160
394.146494	0.638798
394.529801	0.629678
394.913047	0.621491
395.296230	0.627171
395.679351	0.618209
396.062410	0.616078
396.445408	0.617780
396.828343	0.613520
397.211217	0.608349
397.594028	0.620211
397.976778	0.610649
398.359466	0.606895
398.742092	0.602903
399.124656	0.614292
399.507158	0.603187
399.889598	0.600473
400.271977	0.591016
400.654294	0.595428
401.036549	0.594137
401.418742	0.598407
401.800874	0.584328
402.182944	0.580159
402.564952	0.572615
402.946898	0.574867
403.328783	0.575561
403.710606	0.586921
404.092367	0.560892
404.474067	0.566679
404.855705	0.564868
405.237282	0.574376
405.618797	0.560487
406.000250	0.556332
406.381642	0.546439
406.762972	0.551582
407.144240	0.549999
407.525447	0.549572
407.906593	0.542877
408.287677	0.537952
408.668700	0.546482
409.049661	0.541227
409.430560	0.535737
409.811399	0.544492
410.192176	0.526384
410.572891	0.533255
410.953545	0.521247
411.334138	0.534599
411.714669	0.527332
412.095139	0.539809
412.475547	0.523581
412.855894	0.526024
413.236180	0.524681
413.616405	0.529794
413.996568	0.520080
414.376670	0.526520
414.756711	0.531386
415.136691	0.528246
415.516609	0.519347
415.896466	0.516093
416.276262	0.511808
416.655997	0.513628
417.035670	0.495724
417.415283	0.486966
417.794834	0.491669
418.174324	0.497086
418.553753	0.505837
418.933121	0.488800
419.312428	0.482036
419.691674	0.488032
420.070859	0.476177
420.449983	0.484336
420.829045	0.473332
421.208047	0.482501
421.586988	0.475833
421.965867	0.474501
422.344686	0.463124
422.723444	0.475897
423.102141	0.492695
423.480777	0.465274
423.859352	0.486563
424.237866	0.463526
424.616319	0.464202
424.994712	0.455526
425.373044	0.465428
425.751314	0.453431
426.129524	0.470339
426.507673	0.452945
426.885762	0.447483
427.263789	0.452762
427.641756	0.462311
428.019662	0.452914
428.397508	0.452000
428.775292	0.456287
429.153016	0.448337
429.530679	0.454528
429.908282	0.447859
430.285824	0.457351
430.663305	0.436544
431.040726	0.457080
431.418086	0.457266
431.795385	0.449096
432.172624	0.447752
432.549802	0.448230
432.926920	0.447281
433.303977	0.446553
433.680974	0.443800
434.057910	0.442113
434.434786	0.441399
434.811601	0.444499
435.188355	0.426977
435.565050	0.436157
435.941683	0.437369
436.318257	0.421241
436.694770	0.422439
437.071222	0.420079
437.447614	0.424986
437.823946	0.431537
438.200218	0.420676
438.576429	0.430214
438.952580	0.423310
439.328670	0.419838
439.704700	0.426212
440.080670	0.427662
440.456580	0.409269
440.832429	0.416774
441.208218	0.427727
441.583947	0.417193
441.959616	0.416427
442.335224	0.422086
442.710773	0.412472
443.086261	0.410736
443.461689	0.424514
443.837057	0.414207
444.212365	0.404083
444.587612	0.411288
444.962800	0.401516
445.337927	0.402528
445.712995	0.428958
446.088002	0.390806
446.462949	0.401308
446.837837	0.406767
447.212664	0.394946
447.587431	0.386669
447.962139	0.356912
448.336786	0.315960
448.711374	0.326510
449.085901	0.371116
449.460369	0.374746
449.834776	0.378510
450.209124	0.357712
450.583412	0.350243
450.957640	0.343243
451.331808	0.355066
451.705917	0.378127
452.079965	0.382506
452.453954	0.371218
452.827883	0.377793
453.201752	0.372490
453.575562	0.384032
453.949311	0.372477
454.323001	0.378771
454.696632	0.374683
455.070202	0.366911
455.443713	0.358968
455.817164	0.353219
456.190556	0.349170
456.563888	0.346065
456.937160	0.343683
457.310373	0.360822
457.683526	0.359581
458.056619	0.365316
458.429653	0.365890
458.802628	0.369606
459.175542	0.364063
459.548398	0.346674
459.921194	0.338646
460.293930	0.339247
460.666607	0.316460
461.039224	0.305024
461.411782	0.300369
461.784280	0.299609
462.156719	0.303968
462.529099	0.308106
462.901419	0.324143
463.273680	0.328561
463.645882	0.328274
464.018024	0.334034
464.390106	0.327003
464.762130	0.311468
465.134094	0.294264
465.505999	0.263495
465.877845	0.233406
466.249631	0.220718
466.621358	0.228037
466.993026	0.242051
467.364634	0.248283
467.736184	0.257202
468.107674	0.265768
468.479105	0.264990
468.850477	0.271803
469.221790	0.278395
469.593043	0.288867
469.964238	0.293582
470.335373	0.292872
470.706449	0.290862
471.077467	0.291697
471.448425	0.253744
471.819324	0.229158
472.190164	0.228856
472.560945	0.257541
472.931667	0.280235
473.302330	0.284153
473.672934	0.295798
474.043479	0.284184
474.413965	0.285867
474.784393	0.289484
475.154761	0.284478
475.525070	0.281460
475.895321	0.287298
476.265513	0.281722
476.635645	0.276590
477.005719	0.276521
477.375734	0.273127
477.745691	0.266391
478.115588	0.262789
478.485427	0.256633
478.855207	0.243201
479.224928	0.225400
479.594591	0.213713
479.964194	0.217209
480.333739	0.218334
480.703226	0.219784
481.072653	0.218109
481.442022	0.214039
481.811333	0.210810
482.180584	0.214149
482.549777	0.219337
482.918912	0.222854
483.287988	0.222246
483.657005	0.222049
484.025964	0.228573
484.394864	0.225524
484.763706	0.226522
485.132489	0.231606
485.501213	0.232340
485.869879	0.230681
486.238487	0.233541
486.607036	0.231587
486.975527	0.236345
487.343959	0.231977
487.712333	0.231111
488.080648	0.232418
488.448905	0.231686
488.817104	0.232948
489.185244	0.227553
489.553326	0.224600
489.921350	0.214239
490.289315	0.196637
490.657222	0.191634
491.025070	0.192822
491.392861	0.195052
491.760593	0.200581
492.128267	0.206303
492.495883	0.211928
492.863440	0.218289
493.230939	0.224565
493.598380	0.226199
493.965763	0.228198
494.333088	0.230281
494.700354	0.231988
495.067563	0.230892
495.434713	0.234296
495.801805	0.232047
496.168839	0.233591
496.535815	0.234921
496.902733	0.234967
497.269593	0.236347
497.636395	0.234105
498.003139	0.234256
498.369825	0.237437
498.736453	0.233864
499.103023	0.235676
499.469535	0.235019
499.835989	0.235264
500.202385	0.235820
500.568723	0.239114
500.935003	0.234209
501.301226	0.238857
501.667390	0.232786
502.033497	0.231363
502.399546	0.233886
502.765537	0.235849
503.131470	0.234549
503.497345	0.230639
503.863163	0.239381
504.228923	0.232528
504.594625	0.231172
504.960269	0.236513
505.325856	0.231863
505.691385	0.236211
506.056856	0.233040
506.422270	0.232209
506.787625	0.234826
507.152924	0.232028
507.518164	0.232665
507.883347	0.234208
508.248472	0.235975
508.613540	0.230983
508.978550	0.233549
509.343503	0.234108
509.708398	0.231764
510.073236	0.229213
510.438016	0.229044
510.802738	0.229838
511.167403	0.229012
511.532010	0.231221
511.896561	0.226509
512.261053	0.225002
512.625488	0.227365
512.989866	0.227537
513.354186	0.227934
513.718449	0.229926
514.082655	0.226194
514.446803	0.228299
514.810894	0.226139
515.174927	0.228519
515.538904	0.228221
515.902822	0.225124
516.266684	0.227623
516.630488	0.228712
516.994235	0.227499
517.357925	0.226390
517.721558	0.224702
518.085133	0.224349
518.448651	0.224110
518.812112	0.226485
519.175516	0.226012
519.538863	0.223548
519.902152	0.225527
520.265385	0.222032
520.628560	0.223784
520.991678	0.224285
521.354739	0.223135
521.717743	0.224398
522.080690	0.224718
522.443580	0.222385
522.806413	0.222674
523.169189	0.222579
523.531908	0.221393
523.894569	0.224830
524.257174	0.224717
524.619722	0.222292
524.982213	0.223484
525.344647	0.222530
525.707025	0.223066
526.069345	0.221458
526.431608	0.223304
526.793815	0.221255
527.155964	0.225363
527.518057	0.224330
527.880093	0.225453
528.242072	0.223677
528.603995	0.225797
528.965860	0.227756
529.327669	0.226544
529.689421	0.227392
530.051117	0.228118
530.412755	0.226267
530.774337	0.228113
531.135862	0.228468
531.497331	0.227924
531.858743	0.230966
532.220098	0.227504
532.581396	0.230168
532.942638	0.230454
533.303824	0.231812
533.664953	0.231437
534.026025	0.233269
534.387040	0.231073
534.747999	0.231050
535.108902	0.229805
535.469748	0.235243
535.830537	0.232747
536.191270	0.233370
536.551947	0.232700
536.912567	0.232567
537.273131	0.234345
537.633638	0.234785
537.994089	0.235309
538.354483	0.236283
538.714821	0.233167
539.075103	0.233134
539.435328	0.233804
539.795497	0.237847
540.155609	0.234164
540.515665	0.232538
540.875665	0.237999
541.235609	0.236772
541.595496	0.236472
541.955328	0.233379
542.315102	0.235952
542.674821	0.237053
543.034483	0.237120
543.394090	0.236712
543.753640	0.238427
544.113134	0.233324
544.472571	0.237038
544.831953	0.233837
545.191278	0.237867
545.550548	0.237127
545.909761	0.234467
546.268918	0.235175
546.628019	0.233300
546.987064	0.236243
547.346053	0.237646
547.704986	0.235706
548.063863	0.236053
548.422684	0.235979
548.781449	0.238116
549.140158	0.235669
549.498811	0.238359
549.857408	0.241413
550.215949	0.236217
550.574434	0.239368
550.932864	0.237435
551.291237	0.235685
551.649555	0.237719
552.007817	0.237282
552.366022	0.238291
552.724173	0.238472
553.082267	0.238496
553.440305	0.235612
553.798288	0.239797
554.156215	0.236852
554.514086	0.237209
554.871902	0.240364
555.229661	0.239525
555.587365	0.240258
555.945014	0.242659
556.302606	0.239697
556.660143	0.242199
557.017625	0.238783
557.375050	0.240826
557.732421	0.237971
558.089735	0.240112
558.446994	0.239960
558.804197	0.239081
559.161345	0.239035
559.518437	0.242532
559.875474	0.240675
560.232455	0.239914
560.589381	0.240934
560.946251	0.241068
561.303065	0.238466
561.659825	0.239925
562.016528	0.241547
562.373177	0.244678
562.729770	0.241585
563.086307	0.243322
563.442789	0.241663
563.799216	0.244220
564.155587	0.243145
564.511904	0.244228
564.868164	0.244086
565.224370	0.243946
565.580520	0.245671
565.936615	0.245950
566.292654	0.248854
566.648638	0.245946
567.004567	0.246605
567.360441	0.247384
567.716260	0.249526
568.072023	0.246686
568.427732	0.247346
568.783385	0.250068
569.138982	0.248266
569.494525	0.247823
569.850013	0.250818
570.205445	0.249226
570.560823	0.251754
570.916145	0.253841
571.271412	0.252170
571.626625	0.253619
571.981782	0.253832
572.336884	0.254806
572.691931	0.254533
573.046923	0.256220
573.401860	0.256757
573.756743	0.258800
574.111570	0.257352
574.466342	0.258425
574.821059	0.257191
575.175722	0.260191
575.530330	0.259724
575.884882	0.260083
576.239380	0.261975
576.593823	0.262263
576.948211	0.261811
577.302544	0.265456
577.656823	0.264901
578.011047	0.264646
578.365216	0.265733
578.719330	0.267692
579.073389	0.267450
579.427394	0.268840
579.781344	0.269557
580.135239	0.270332
580.489080	0.270757
580.842866	0.273465
581.196597	0.273720
581.550273	0.272033
581.903895	0.273167
582.257463	0.271273
582.610975	0.274422
582.964434	0.273934
583.317837	0.276569
583.671186	0.276721
584.024481	0.276915
584.377721	0.279231
584.730906	0.279977
585.084037	0.279117
585.437113	0.281149
585.790135	0.280582
586.143103	0.283398
586.496016	0.284604
586.848874	0.282084
587.201679	0.282440
587.554428	0.285965
587.907124	0.285256
588.259765	0.285679
588.612352	0.285768
588.964884	0.290212
589.317362	0.289435
589.669786	0.289340
590.022155	0.287877
590.374470	0.287228
590.726731	0.289262
591.078937	0.294353
591.431090	0.290637
591.783188	0.294744
592.135232	0.295255
592.487222	0.295014
592.839157	0.293303
593.191038	0.295721
593.542866	0.297380
593.894639	0.300440
594.246358	0.299032
594.598022	0.298610
594.949633	0.302309
595.301190	0.302901
595.652692	0.302028
596.004141	0.298229
596.355535	0.306172
596.706876	0.306720
597.058162	0.309344
597.409395	0.306352
597.760573	0.304308
598.111698	0.306940
598.462768	0.308032
598.813785	0.309076
599.164748	0.310272
599.515657	0.310818
599.866511	0.314247
600.217312	0.309663
600.568060	0.314847
600.918753	0.311287
601.269392	0.312093
601.619978	0.315550
601.970510	0.313176
602.320988	0.313230
602.671412	0.311145
603.021783	0.313533
603.372100	0.314821
603.722363	0.314550
604.072572	0.315125
604.422728	0.315174
604.772830	0.317489
605.122878	0.317165
605.472872	0.317348
605.822813	0.316086
606.172701	0.318696
606.522534	0.316106
606.872314	0.315908
607.222041	0.317017
607.571714	0.315200
607.921333	0.316520
608.270899	0.315923
608.620411	0.313298
608.969870	0.317115
609.319276	0.316967
609.668627	0.316614
610.017926	0.315350
610.367171	0.314119
610.716362	0.315040
611.065500	0.314898
611.414585	0.313738
611.763616	0.314142
612.112594	0.314844
612.461518	0.314223
612.810389	0.312121
613.159207	0.314258
613.507971	0.316166
613.856682	0.311986
614.205340	0.312825
614.553945	0.310387
614.902496	0.314088
615.250994	0.311938
615.599439	0.312640
615.947830	0.312550
616.296169	0.313332
616.644454	0.313068
616.992686	0.312834
617.340864	0.310983
617.688990	0.314563
618.037063	0.311278
618.385082	0.312950
618.733048	0.309545
619.080961	0.312095
619.428821	0.311735
619.776628	0.311284
620.124382	0.313366
620.472083	0.314238
620.819731	0.313436
621.167326	0.317428
621.514868	0.316603
621.862357	0.321247
622.209793	0.320687
622.557176	0.323077
622.904506	0.324087
623.251783	0.326906
623.599007	0.328894
623.946179	0.328213
624.293297	0.330932
624.640363	0.334632
624.987376	0.335156
625.334336	0.337300
625.681243	0.339816
626.028097	0.340220
626.374899	0.341528
626.721647	0.341715
627.068343	0.345219
627.414987	0.346252
627.761577	0.348269
628.108115	0.346559
628.454600	0.352092
628.801032	0.349410
629.147412	0.351757
629.493739	0.352125
629.840014	0.355074
630.186236	0.352280
630.532405	0.358236
630.878521	0.355670
631.224585	0.358053
631.570597	0.361920
631.916556	0.360448
632.262462	0.360023
632.608316	0.362933
632.954117	0.363583
633.299866	0.364638
633.645562	0.365294
633.991206	0.369814
634.336797	0.372883
634.682336	0.374947
635.027823	0.376757
635.373257	0.377125
635.718639	0.381263
636.063968	0.380028
636.409245	0.385854
636.754470	0.386456
637.099642	0.389301
637.444762	0.392535
637.789829	0.391807
638.134845	0.395736
638.479808	0.396811
638.824719	0.396457
639.169577	0.400998
639.514383	0.399866
639.859137	0.404782
640.203839	0.403968
640.548489	0.405023
640.893086	0.405427
641.237632	0.407831
641.582125	0.406795
641.926566	0.408874
642.270955	0.408569
642.615292	0.408960
642.959576	0.408284
643.303809	0.409457
643.647990	0.409042
643.992118	0.410061
644.336195	0.413082
644.680219	0.411547
645.024192	0.412620
645.368112	0.406721
645.711981	0.405807
646.055797	0.401525
646.399562	0.404287
646.743274	0.398046
647.086935	0.394713
647.430544	0.395277
647.774101	0.394879
648.117606	0.394732
648.461059	0.395419
648.804460	0.397543
649.147810	0.402685
649.491108	0.404812
649.834354	0.406828
650.177548	0.411780
650.520690	0.417743
650.863781	0.419404
651.206820	0.418578
651.549807	0.423421
651.892742	0.428182
652.235626	0.427826
652.578458	0.429516
652.921238	0.435490
653.263967	0.433447
653.606644	0.437424
653.949269	0.437982
654.291843	0.441329
654.634365	0.439146
654.976836	0.442593
655.319255	0.443252
655.661622	0.445384
656.003938	0.445779
656.346203	0.448851
656.688416	0.447356
657.030577	0.450397
657.372687	0.453609
657.714746	0.454166
658.056753	0.451606
658.398708	0.455481
658.740612	0.457061
659.082465	0.454179
659.424266	0.454863
659.766016	0.454872
660.107715	0.458843
660.449362	0.457781
660.790958	0.458226
661.132503	0.460241
661.473996	0.457885
661.815438	0.459007
662.156829	0.459892
662.498168	0.461178
662.839456	0.461970
663.180693	0.461153
663.521879	0.460433
663.863013	0.462492
664.204097	0.462491
664.545129	0.459377
664.886110	0.460454
665.227040	0.459427
665.567918	0.460856
665.908746	0.460068
666.249522	0.460374
666.590248	0.461363
666.930922	0.460584
667.271545	0.460457
667.612118	0.460947
667.952639	0.462470
668.293109	0.462799
668.633528	0.465621
668.973896	0.465740
669.314213	0.466889
669.654480	0.469863
669.994695	0.469401
670.334859	0.470377
670.674973	0.472358
671.015035	0.472757
671.355047	0.473735
671.695008	0.474912
672.034918	0.476760
672.374777	0.477066
672.714585	0.479188
673.054342	0.479977
673.394049	0.480152
673.733705	0.479789
674.073310	0.482175
674.412864	0.483168
674.752368	0.485177
675.091820	0.486734
675.431223	0.490688
675.770574	0.491133
676.109875	0.494656
676.449125	0.494689
676.788324	0.497048
677.127473	0.503007
677.466571	0.503580
677.805619	0.505368
678.144616	0.508327
678.483562	0.509425
678.822458	0.512586
679.161303	0.513437
679.500098	0.515266
679.838842	0.516679
680.177535	0.517618
680.516179	0.516837
680.854771	0.516733
681.193314	0.511501
681.531805	0.503632
681.870247	0.496818
682.208638	0.491130
682.546978	0.490276
682.885268	0.492274
683.223508	0.499113
683.561697	0.503318
683.899836	0.505769
684.237925	0.510571
684.575963	0.513625
684.913951	0.516445
685.251889	0.514599
685.589776	0.516590
685.927614	0.518591
686.265401	0.515975
686.603137	0.517759
686.940824	0.514658
687.278460	0.513619
687.616046	0.514694
687.953582	0.510441
688.291068	0.513464
688.628504	0.511343
688.965889	0.513300
689.303224	0.516512
689.640510	0.521487
689.977745	0.526988
690.314930	0.533792
690.652065	0.538077
690.989150	0.544349
691.326185	0.551422
691.663170	0.556482
692.000105	0.562701
692.336990	0.568829
692.673825	0.573292
693.010610	0.578509
693.347345	0.582828
693.684030	0.587708
694.020665	0.591618
694.357251	0.597856
694.693786	0.599285
695.030272	0.602678
695.366707	0.607466
695.703093	0.609629
696.039429	0.608667
696.375716	0.613887
696.711952	0.614856
697.048139	0.616835
697.384276	0.619738
697.720363	0.620099
698.056400	0.620001
698.392388	0.625793
698.728326	0.627091
699.064214	0.629798
699.400053	0.631684
699.735842	0.637236
700.071581	0.638863
700.407270	0.642186
700.742910	0.645410
701.078501	0.649959
701.414042	0.652647
701.749533	0.655064
702.084974	0.661899
702.420366	0.657590
702.755709	0.664079
703.091002	0.669728
703.426246	0.667777
703.761440	0.670498
704.096584	0.673938
704.431679	0.674793
704.766725	0.676745
705.101721	0.680043
705.436668	0.678246
705.771565	0.681099
706.106413	0.678663
706.441212	0.679746
706.775961	0.679430
707.110661	0.678609
707.445311	0.676180
707.779913	0.679392
708.114465	0.677063
708.448967	0.673882
708.783421	0.669578
709.117825	0.666461
709.452180	0.666402
709.786485	0.661729
710.120742	0.654753
710.454949	0.655966
710.789107	0.651228
711.123216	0.645087
711.457275	0.645128
711.791286	0.642009
712.125247	0.643170
712.459159	0.647030
712.793023	0.641044
713.126837	0.651349
713.460602	0.650893
713.794318	0.653885
714.127985	0.656214
714.461602	0.667062
714.795171	0.666867
715.128691	0.674484
715.462162	0.681564
715.795584	0.687172
716.128957	0.690438
716.462281	0.692787
716.795556	0.697030
717.128782	0.703731
717.461960	0.710522
717.795088	0.710118
718.128167	0.715350
718.461198	0.719758
718.794180	0.721804
719.127113	0.726514
719.459997	0.729229
719.792833	0.733159
720.125619	0.734155
720.458357	0.739605
720.791046	0.741455
721.123686	0.743891
721.456278	0.748345
721.788821	0.748219
722.121315	0.752372
722.453761	0.754424
722.786158	0.754668
723.118506	0.753362
723.450805	0.755517
723.783056	0.754574
724.115259	0.756001
724.447412	0.756853
724.779518	0.756264
725.111574	0.755517
725.443582	0.753718
725.775542	0.756738
726.107453	0.752255
726.439315	0.752596
726.771129	0.749280
727.102895	0.745555
727.434612	0.742804
727.766281	0.741449
728.097901	0.739596
728.429473	0.741426
728.760996	0.740754
729.092471	0.740454
729.423897	0.745042
729.755276	0.747022
730.086606	0.745612
730.417887	0.741828
730.749120	0.736770
731.080305	0.734286
731.411442	0.730574
731.742530	0.732144
732.073570	0.733014
732.404562	0.730244
732.735506	0.731113
733.066401	0.734139
733.397249	0.740091
733.728048	0.748578
734.058798	0.761184
734.389501	0.769262
734.720156	0.773243
735.050762	0.780234
735.381320	0.783391
735.711831	0.786005
736.042293	0.790129
736.372707	0.791851
736.703073	0.792696
737.033391	0.792874
737.363661	0.792631
737.693883	0.791425
738.024056	0.789902
738.354182	0.788934
738.684260	0.783593
739.014290	0.781560
739.344272	0.780985
739.674207	0.778148
740.004093	0.777808
740.333931	0.778869
740.663722	0.779609
740.993464	0.780393
741.323159	0.782216
741.652806	0.787321
741.982405	0.791109
742.311956	0.795325
742.641460	0.796298
742.970915	0.800003
743.300323	0.804573
743.629683	0.808295
743.958996	0.812316
744.288260	0.814880
744.617477	0.819455
744.946647	0.820168
745.275768	0.825752
745.604842	0.826433
745.933869	0.830310
746.262847	0.831825
746.591778	0.831120
746.920662	0.834209
747.249498	0.836686
747.578286	0.835160
747.907027	0.831644
748.235720	0.828960
748.564365	0.828646
748.892963	0.830310
749.221514	0.831719
749.550017	0.832557
749.878473	0.834900
750.206881	0.839401
750.535242	0.840720
750.863555	0.840866
751.191821	0.842142
751.520039	0.842660
751.848210	0.843150
752.176334	0.844320
752.504411	0.844397
752.832440	0.847356
753.160421	0.848150
753.488356	0.849978
753.816243	0.849144
754.144082	0.852818
754.471875	0.855253
754.799620	0.855198
755.127318	0.853659
755.454969	0.854739
755.782572	0.856886
756.110129	0.856176
756.437638	0.859222
756.765100	0.858752
757.092515	0.858543
757.419882	0.858186
757.747203	0.860007
758.074477	0.859819
758.401703	0.858799
758.728882	0.856800
759.056014	0.856547
759.383099	0.856714
759.710138	0.854980
760.037129	0.852287
760.364073	0.853565
760.690970	0.854220
761.017820	0.855222
761.344623	0.854505
761.671379	0.851163
761.998088	0.846429
762.324751	0.834761
762.651366	0.808822
762.977935	0.767450
763.304456	0.741990
763.630931	0.741250
763.957359	0.761743
764.283740	0.787375
764.610074	0.807248
764.936362	0.824379
765.262602	0.837691
765.588796	0.849661
765.914943	0.858782
766.241044	0.867177
766.567097	0.871775
766.893104	0.878155
767.219064	0.881005
767.544978	0.885906
767.870845	0.890488
768.196665	0.892681
768.522438	0.893433
768.848165	0.896077
769.173846	0.900159
769.499479	0.901399
769.825066	0.903792
770.150607	0.906537
770.476101	0.905981
770.801548	0.908070
771.126949	0.911362
771.452303	0.912880
771.777611	0.914487
772.102872	0.914465
772.428087	0.917438
772.753256	0.919163
773.078378	0.920455
773.403453	0.922637
773.728482	0.926823
774.053465	0.924531
774.378401	0.925504
774.703291	0.929650
775.028135	0.930395
775.352932	0.929562
775.677683	0.932137
776.002388	0.933227
776.327046	0.931992
776.651658	0.936144
776.976224	0.937379
777.300743	0.936946
777.625216	0.937756
777.949643	0.939437
778.274024	0.938642
778.598359	0.939916
778.922647	0.939284
779.246889	0.940762
779.571086	0.940936
779.895236	0.942294
780.219339	0.942733
780.543397	0.940184
780.867409	0.940158
781.191374	0.939905
781.515294	0.942197
781.839167	0.942346
782.162995	0.942667
782.486776	0.942619
782.810511	0.943305
783.134201	0.945559
783.457844	0.944537
783.781441	0.945159
784.104993	0.946887
784.428498	0.947695
784.751958	0.947658
785.075372	0.948925
785.398739	0.948500
785.722061	0.947728
786.045337	0.948134
786.368568	0.948435
786.691752	0.948748
787.014891	0.944430
787.337983	0.939813
787.661030	0.933487
787.984031	0.926284
788.306987	0.923110
788.629897	0.921370
788.952760	0.926815
789.275579	0.930572
789.598351	0.936485
789.921078	0.941917
790.243759	0.944711
790.566395	0.947227
790.888984	0.949241
791.211529	0.951389
791.534027	0.952613
791.856480	0.955428
792.178888	0.955438
792.501249	0.956887
792.823566	0.959203
793.145836	0.959220
793.468062	0.959988
793.790241	0.960232
794.112375	0.958342
794.434464	0.957938
794.756507	0.957478
795.078505	0.955766
795.400457	0.952625
795.722364	0.949104
796.044226	0.945610
796.366042	0.943730
796.687812	0.945716
797.009538	0.945870
797.331218	0.949216
797.652852	0.950615
797.974442	0.950817
798.295986	0.952441
798.617484	0.953965
798.938938	0.956081
799.260346	0.956854
799.581709	0.956980
799.903026	0.959804
800.224299	0.960054
800.545526	0.960374
800.866708	0.961184
801.187845	0.964433
801.508936	0.964235
801.829983	0.965342
802.150984	0.966165
802.471940	0.965906
802.792851	0.966066
803.113717	0.967927
803.434538	0.966366
803.755314	0.967972
804.076045	0.967756
804.396731	0.968088
804.717372	0.966040
805.037967	0.968789
805.358518	0.967769
805.679024	0.965661
805.999485	0.966169
806.319901	0.965823
806.640272	0.967293
806.960598	0.966672
807.280879	0.966130
807.601115	0.965608
807.921306	0.967186
808.241453	0.964843
808.561554	0.965454
808.881611	0.966110
809.201623	0.966032
809.521590	0.966981
809.841513	0.967979
810.161390	0.966588
810.481223	0.967405
810.801011	0.969847
811.120755	0.970997
811.440453	0.968725
811.760107	0.970802
812.079716	0.970635
812.399281	0.971127
812.718801	0.971205
813.038276	0.972512
813.357707	0.973681
813.677093	0.973289
813.996434	0.973546
814.315731	0.974839
814.634983	0.975060
814.954191	0.974229
815.273354	0.973273
815.592473	0.972725
815.911547	0.973391
816.230577	0.971784
816.549562	0.970952
816.868502	0.969639
817.187399	0.971647
817.506250	0.969675
817.825058	0.968608
818.143821	0.968988
818.462539	0.967998
818.781213	0.965706
819.099843	0.962920
819.418429	0.956358
819.736970	0.951412
820.055466	0.945080
820.373919	0.938899
820.692327	0.930191
821.010691	0.918479
821.329011	0.884547
821.647286	0.826298
821.965517	0.767955
822.283704	0.744885
822.601847	0.749499
822.919945	0.776987
823.237999	0.806095
823.556010	0.832076
823.873976	0.854773
824.191897	0.875787
824.509775	0.892933
824.827609	0.906131
825.145398	0.914575
825.463144	0.914203
825.780845	0.910400
826.098502	0.902456
826.416116	0.885971
826.733685	0.867272
827.051210	0.861520
827.368692	0.872615
827.686129	0.889358
828.003522	0.908209
828.320872	0.922385
828.638177	0.936586
828.955439	0.946715
829.272656	0.952642
829.589830	0.958223
829.906960	0.962611
830.224046	0.965157
830.541088	0.968712
830.858086	0.970106
831.175041	0.972631
831.491952	0.972389
831.808819	0.970787
832.125642	0.970424
832.442421	0.968710
832.759157	0.961718
833.075849	0.944910
833.392497	0.926192
833.709101	0.914101
834.025662	0.916896
834.342179	0.926825
834.658653	0.940482
834.975083	0.950471
835.291469	0.959348
835.607811	0.964758
835.924110	0.968410
836.240366	0.974316
836.556578	0.977311
836.872746	0.979600
837.188871	0.980257
837.504952	0.982466
837.820990	0.983953
838.136984	0.984040
838.452935	0.984843
838.768842	0.985202
839.084706	0.983816
839.400526	0.977008
839.716303	0.962923
840.032037	0.956700
840.347727	0.959192
840.663373	0.965796
840.978977	0.971654
841.294537	0.978307
841.610054	0.981691
841.925527	0.984520
842.240957	0.985843
842.556344	0.987861
842.871687	0.989250
843.186987	0.988979
843.502244	0.990660
843.817458	0.990599
844.132629	0.991035
844.447756	0.992179
844.762840	0.992004
845.077881	0.993579
845.392879	0.992672
845.707833	0.992858
846.022745	0.993308
846.337613	0.994238
846.652438	0.993558
846.967221	0.994555
847.281960	0.994483
847.596656	0.994683
847.911309	0.994637
848.225919	0.994057
848.540485	0.994621
848.855009	0.995422
849.169490	0.994044
849.483928	0.993732
849.798323	0.993291
850.112675	0.995440
850.426984	0.994955
850.741251	0.995197
851.055474	0.993943
851.369654	0.995268
851.683792	0.994127
851.997887	0.995220
852.311938	0.995808
852.625947	0.993006
852.939914	0.994242
853.253837	0.996455
853.567718	0.995452
853.881555	0.996096
854.195350	0.994967
854.509103	0.994997
854.822812	0.994481
855.136479	0.995586
855.450103	0.995586
855.763685	0.994908
856.077224	0.994954
856.390720	0.995542
856.704173	0.996213
857.017584	0.994850
857.330953	0.995285
857.644278	0.994635
857.957561	0.994762
858.270802	0.995206
858.584000	0.994730
858.897155	0.994740
859.210268	0.994381
859.523339	0.994440
859.836367	0.994008
860.149352	0.994728
860.462295	0.994512
860.775195	0.995291
861.088054	0.994579
861.400869	0.995562
861.713642	0.994211
862.026373	0.995325
862.339062	0.995210
862.651708	0.995077
862.964312	0.996120
863.276873	0.994245
863.589392	0.994508
863.901869	0.994079
864.214303	0.995041
864.526696	0.993665
864.839045	0.993999
865.151353	0.994063
865.463619	0.991950
865.775842	0.993315
866.088023	0.995078
866.400162	0.994465
866.712258	0.994102
867.024313	0.993577
867.336325	0.994300
867.648296	0.993856
867.960224	0.994236
868.272110	0.994299
868.583954	0.994317
868.895755	0.995195
869.207515	0.993981
869.519233	0.994863
869.830909	0.993301
870.142542	0.993554
870.454134	0.993581
870.765684	0.993671
871.077191	0.993662
871.388657	0.993567
871.700081	0.994320
872.011463	0.992954
872.322803	0.992853
872.634101	0.990906
872.945357	0.992404
873.256571	0.990045
873.567744	0.991744
873.878874	0.991971
874.189963	0.990860
874.501010	0.992582
874.812015	0.991681
875.122979	0.992102
875.433900	0.991545
875.744780	0.992497
876.055618	0.990417
876.366415	0.991335
876.677169	0.990921
876.987882	0.990969
877.298554	0.992072
877.609183	0.990795
877.919771	0.990644
878.230317	0.989839
878.540822	0.988741
878.851285	0.988500
879.161707	0.986551
879.472087	0.986067
879.782425	0.979590
880.092722	0.973559
880.402977	0.959884
880.713191	0.939480
881.023363	0.911967
881.333494	0.899769
881.643583	0.895570
881.953631	0.899623
882.263637	0.908789
882.573602	0.921230
882.883526	0.930747
883.193408	0.940747
883.503248	0.946702
883.813048	0.952681
884.122806	0.960949
884.432522	0.965376
884.742197	0.972145
885.051831	0.974748
885.361424	0.978711
885.670975	0.981208
885.980485	0.981574
886.289954	0.983551
886.599382	0.984559
886.908768	0.986821
887.218113	0.987397
887.527417	0.989136
887.836680	0.989384
888.145901	0.990041
888.455082	0.992070
888.764221	0.992406
889.073319	0.991679
889.382376	0.991779
889.691392	0.991232
890.000366	0.992626
890.309300	0.992875
890.618193	0.992279
890.927044	0.990462
891.235855	0.991331
891.544625	0.990746
891.853353	0.992038
892.162041	0.990687
892.470687	0.990487
892.779293	0.987934
893.087858	0.985904
893.396381	0.985112
893.704864	0.981701
894.013306	0.976856
894.321707	0.970754
894.630068	0.966323
894.938387	0.965269
895.246665	0.965380
895.554903	0.968886
895.863100	0.973247
896.171256	0.975910
896.479371	0.980775
896.787446	0.983358
897.095480	0.985587
897.403473	0.986943
897.711425	0.987232
898.019336	0.988749
898.327207	0.989807
898.635038	0.989218
898.942827	0.990343
899.250576	0.990330
899.558284	0.991735
899.865952	0.991270
900.173579	0.992551
900.481165	0.992316
900.788711	0.992182
901.096216	0.992859
901.403681	0.993682
901.711105	0.993063
902.018489	0.993783
902.325832	0.992114
902.633135	0.993246
902.940397	0.992821
903.247619	0.989667
903.554800	0.984756
903.861941	0.973220
904.169041	0.963737
904.476101	0.959041
904.783121	0.958828
905.090100	0.963827
905.397039	0.968454
905.703938	0.974587
906.010796	0.978287
906.317614	0.984012
906.624391	0.986000
906.931129	0.989230
907.237826	0.990545
907.544483	0.991772
907.851099	0.992248
908.157675	0.992784
908.464211	0.994878
908.770707	0.993757
909.077163	0.994628
909.383578	0.995367
909.689954	0.995671
909.996289	0.996449
910.302584	0.997200
910.608839	0.997711
910.915054	0.996916
911.221229	0.997744
911.527363	0.996276
911.833458	0.996262
912.139513	0.997117
912.445527	0.997055
912.751502	0.996377
913.057436	0.994570
913.363331	0.994914
913.669186	0.995103
913.975000	0.992849
914.280775	0.991324
914.586510	0.989105
914.892205	0.984781
915.197859	0.980995
915.503475	0.975420
915.809050	0.969059
916.114585	0.966135
916.420081	0.966272
916.725536	0.966663
917.030952	0.968829
917.336328	0.972517
917.641665	0.974724
917.946961	0.978301
918.252218	0.981127
918.557435	0.984425
918.862612	0.986652
919.167750	0.987678
919.472848	0.989336
919.777906	0.991379
920.082925	0.991435
920.387904	0.992809
920.692843	0.993600
920.997743	0.992497
921.302603	0.994382
921.607423	0.992067
921.912204	0.994492
922.216946	0.996140
922.521647	0.996299
922.826310	0.996116
923.130932	0.996876
923.435516	0.995999
923.740059	0.995239
924.044564	0.995882
924.349028	0.996627
924.653454	0.996139
924.957840	0.997556
925.262186	0.997456
925.566493	0.997181
925.870761	0.997907
926.174989	0.997921
926.479178	0.999280
926.783328	0.997849
927.087438	0.997840
927.391509	0.998544
927.695541	0.999314
927.999533	0.999659
928.303486	0.998665
928.607400	1.000029
928.911275	0.998873
929.215110	0.998850
929.518906	0.999788
929.822663	1.000119
930.126381	1.000977
930.430060	0.998459
930.733699	0.999972
931.037299	0.999050
931.340861	0.999938
931.644383	0.998665
931.947866	0.999614
932.251309	1.000164
932.554714	0.999278
932.858080	1.000070
933.161407	0.998344
933.464694	1.000252
933.767943	1.000473
934.071153	0.999502
934.374323	1.000430
934.677455	0.998500
934.980548	0.998237
935.283602	1.000525
935.586617	1.000159
935.889593	1.000700
936.192530	0.999899
936.495428	0.999968
936.798287	0.999261
937.101108	1.000345
937.403890	0.998508
937.706632	1.000294
938.009336	0.999721
938.312002	0.997858
938.614628	0.998906
938.917216	0.996895
939.219765	0.996834
939.522275	0.997850
939.824747	0.997398
940.127179	0.998115
940.429573	0.998458
940.731929	0.996524
941.034246	0.997243
941.336524	0.996889
941.638763	0.996213
941.940964	0.997699
942.243126	0.997620
942.545250	0.999203
942.847335	0.999144
943.149381	0.998633
943.451389	0.997837
943.753359	0.999137
944.055290	0.999103
944.357182	0.998673
944.659036	1.000323
944.960851	0.999512
945.262628	0.999752
945.564367	0.999575
945.866067	0.999215
946.167729	1.000142
946.469352	0.999816
946.770937	0.997586
947.072484	0.999834
947.373992	1.000628
947.675462	0.997961
947.976893	0.998552
948.278286	1.001166
948.579641	1.000327
948.880958	0.998691
949.182236	1.000189
949.483476	1.000817
949.784678	1.000411
950.085841	0.999731
950.386967	0.999104
950.688054	0.999909
950.989103	0.997955
951.290114	0.998416
951.591087	0.999539
951.892021	0.999075
952.192917	0.998321
952.493776	0.999294
952.794596	0.999495
953.095378	0.998348
953.396122	0.999012
953.696828	0.999581
953.997496	1.000067
954.298126	1.000012
954.598718	0.999447
954.899272	1.000031
955.199788	0.999886
955.500266	1.000005
955.800706	0.999243
956.101108	1.000289
956.401472	1.002153
956.701798	1.000711
957.002087	0.999202
957.302337	0.999939
957.602550	1.000315
957.902724	1.000375
958.202861	1.000109
958.502960	0.999895
958.803022	1.002281
959.103045	1.001098
959.403031	1.002037
959.702979	1.002011
960.002889	1.000801
960.302762	1.000493
960.602596	1.001336
960.902393	1.002262
961.202153	1.002455
961.501875	1.002653
961.801559	0.999968
962.101205	1.000069
962.400814	1.002778
962.700385	1.000833
962.999918	1.001109
963.299414	1.000579
963.598873	1.001418
963.898293	1.001637
964.197677	1.001696
964.497022	1.001503
964.796331	1.000862
965.095601	1.001933
965.394835	1.001250
965.694030	1.003340
965.993189	1.001281
966.292309	1.002251
966.591393	1.001488
966.890439	1.002021
967.189447	1.000430
967.488419	1.000671
967.787353	1.001611
968.086249	1.001631
968.385108	1.001546
968.683930	1.003710
968.982714	1.001350
969.281462	1.001989
969.580172	1.001131
969.878844	1.001047
970.177480	1.001215
970.476078	1.002720
970.774639	1.002651
971.073162	1.002367
971.371649	1.001753
971.670098	1.001762
971.968510	1.001853
972.266885	1.001478
972.565223	1.001700
972.863524	1.000467
973.161788	1.001989
973.460014	1.002907
973.758204	1.000569
974.056356	1.000941
974.354471	1.001226
974.652550	1.001940
974.950591	1.000516
975.248595	1.000479
975.546563	1.001872
975.844493	1.002541
976.142386	1.000185
976.440243	1.002970
976.738062	1.002101
977.035845	1.001168
977.333590	1.002502
977.631299	1.001167
977.928971	1.001430
978.226606	1.001869
978.524204	1.001021
978.821765	1.002334
979.119290	1.003146
979.416777	1.002186
979.714228	1.001511
980.011642	1.002218
980.309020	1.001991
980.606360	1.000681
980.903664	1.001242
981.200931	1.001758
981.498162	1.001122
981.795356	1.001004
982.092513	1.001165
982.389633	1.001139
982.686717	1.000530
982.983764	1.000290
983.280775	1.000347
983.577749	1.001518
983.874686	1.000243
984.171587	0.999911
984.468451	1.000609
984.765279	1.002586
985.062070	1.002439
985.358824	0.999931
985.655543	1.001602
985.952224	1.002574
986.248869	1.002144
986.545478	1.004186
986.842050	1.001616
987.138586	1.001489
987.435086	1.001659
987.731549	1.003647
988.027975	1.002404
988.324366	1.001728
988.620719	1.003867
988.917037	1.002613
989.213318	1.002344
989.509563	1.002707
989.805772	1.003725
990.101944	1.003187
990.398080	1.002438
990.694180	1.003589
990.990244	1.001320
991.286271	1.002733
991.582262	1.002709
991.878217	1.002627
992.174136	1.002041
992.470019	1.003282
992.765865	1.003740
993.061676	1.002578
993.357450	1.003115
993.653188	1.003720
993.948890	1.002021
994.244556	1.003091
994.540186	1.002177
994.835780	1.001552
995.131337	1.002770
995.426859	1.002695
995.722345	1.002256
996.017795	1.002669
996.313208	1.001641
996.608586	1.001540
996.903928	1.003404
997.199234	1.001398
997.494504	1.002955
997.789738	1.001750
998.084936	1.002019
998.380099	1.002538
998.675225	1.003219
998.970316	1.002791
999.265371	1.002111
999.560390	1.002053
999.855373	1.001991
1000.150320	1.002146
1000.445232	1.001652
1000.740108	1.001521
1001.034948	1.002133
1001.329752	1.003865
1001.624521	1.002012
1001.919254	1.002432
1002.213951	1.002874
1002.508613	1.002625
1002.803239	1.002110
1003.097829	1.003422
1003.392384	1.003262
1003.686903	1.002829
1003.981386	1.002560
1004.275834	1.004660
1004.570246	1.000909
1004.864623	1.001967
1005.158964	1.001966
1005.453270	1.002563
1005.747540	1.001683
1006.041775	1.003340
1006.335974	1.002344
1006.630138	1.002288
1006.924266	1.002640
1007.218359	1.001814
1007.512416	1.004607
1007.806438	1.002494
1008.100425	1.002649
1008.394376	1.002739
1008.688292	1.001418
1008.982172	1.002321
1009.276017	1.003988
1009.569827	1.003572
1009.863602	1.001551
1010.157341	1.003718
1010.451045	1.002781
1010.744714	1.004040
1011.038347	1.002590
1011.331945	1.001543
1011.625508	1.002466
1011.919036	1.001918
1012.212528	1.002329
1012.505986	1.001722
1012.799408	1.003448
1013.092795	1.002676
1013.386147	1.003874
1013.679464	1.003397
1013.972745	1.002666
1014.265992	1.002467
1014.559204	1.002522
1014.852380	1.003834
1015.145521	1.002018
1015.438628	1.003277
1015.731699	1.002074
1016.024736	1.003676
1016.317737	1.003085
1016.610703	1.003840
1016.903635	1.001751
1017.196531	1.003094
1017.489393	1.002465
1017.782219	1.002788
1018.075011	1.001348
1018.367768	1.002937
1018.660490	1.002950
1018.953177	1.002950
1019.245829	1.002950
