Dividing Wavelength (nm)	Counts (n)	Blue Motor Position (mm): 48.400000	Red Motor Position (mm): 0.000000	
326.493990	1.000730
326.888308	1.000730
327.282561	1.000730
327.676750	1.000321
328.070874	1.000871
328.464933	1.000674
328.858929	1.000658
329.252859	1.000335
329.646726	1.000572
330.040528	1.000470
330.434265	1.000006
330.827938	1.000418
331.221547	1.000866
331.615091	1.000532
332.008571	1.000478
332.401986	0.999984
332.795338	1.000702
333.188625	0.999862
333.581847	1.000839
333.975006	1.000614
334.368100	1.000732
334.761129	1.000173
335.154095	1.000529
335.546996	1.000647
335.939833	0.999737
336.332606	1.000885
336.725315	1.000117
337.117960	1.001030
337.510540	1.000659
337.903056	1.000714
338.295508	1.002336
338.687896	1.000808
339.080220	1.000123
339.472480	1.001499
339.864676	1.000541
340.256807	0.999861
340.648875	1.001738
341.040879	0.999460
341.432818	1.000908
341.824694	1.000762
342.216506	1.000602
342.608253	1.000139
342.999937	0.999686
343.391557	1.000709
343.783113	1.001185
344.174605	1.000672
344.566033	0.999895
344.957397	1.000916
345.348697	1.001297
345.739934	0.999692
346.131106	1.000792
346.522215	0.999387
346.913260	1.001081
347.304241	0.999946
347.695159	0.999634
348.086012	1.000718
348.476802	0.998863
348.867528	1.000007
349.258191	1.000999
349.648789	0.999888
350.039324	1.000637
350.429796	0.999602
350.820203	0.999957
351.210548	1.000526
351.600828	1.000270
351.991045	1.000792
352.381198	1.000356
352.771288	1.000221
353.161314	1.000816
353.551276	0.999254
353.941175	0.998700
354.331010	1.001675
354.720782	1.000493
355.110490	1.000693
355.500135	1.001779
355.889717	0.999635
356.279235	0.999048
356.668689	1.000437
357.058080	1.000034
357.447408	1.000680
357.836672	1.000296
358.225873	0.999210
358.615010	1.000155
359.004084	0.998298
359.393095	1.001020
359.782043	0.999979
360.170927	0.999509
360.559748	1.001132
360.948505	1.000090
361.337199	0.999551
361.725830	0.999436
362.114398	1.000182
362.502903	0.999866
362.891344	0.998810
363.279722	1.000658
363.668037	1.001683
364.056289	1.000048
364.444478	1.001787
364.832603	0.998735
365.220665	1.000187
365.608665	0.999156
365.996601	1.000884
366.384474	0.999974
366.772284	1.000530
367.160031	0.998929
367.547715	0.999536
367.935336	0.998671
368.322893	0.998255
368.710388	0.997196
369.097820	0.995960
369.485189	0.994073
369.872495	0.993996
370.259738	0.992663
370.646918	0.990327
371.034035	0.990389
371.421090	0.989645
371.808081	0.987253
372.195010	0.986560
372.581875	0.985393
372.968678	0.984537
373.355418	0.985396
373.742096	0.981905
374.128710	0.981874
374.515262	0.980982
374.901751	0.981487
375.288177	0.980080
375.674540	0.980463
376.060841	0.979006
376.447079	0.978823
376.833254	0.978564
377.219367	0.979752
377.605417	0.978862
377.991404	0.978987
378.377329	0.978577
378.763191	0.978539
379.148991	0.980796
379.534727	0.979947
379.920402	0.979954
380.306013	0.980989
380.691563	0.982019
381.077049	0.981737
381.462474	0.983404
381.847835	0.982262
382.233134	0.985103
382.618371	0.986545
383.003545	0.986380
383.388657	0.986955
383.773706	0.988486
384.158693	0.989941
384.543618	0.991296
384.928480	0.990805
385.313280	0.992017
385.698017	0.991971
386.082692	0.993613
386.467305	0.992953
386.851856	0.996049
387.236344	0.994845
387.620770	0.997717
388.005133	0.997583
388.389435	0.997551
388.773674	0.996597
389.157851	0.997735
389.541965	0.998494
389.926018	0.998639
390.310008	0.998566
390.693936	0.999406
391.077802	0.998894
391.461606	0.998882
391.845348	1.000241
392.229027	0.998094
392.612645	0.999291
392.996200	0.999652
393.379694	0.999299
393.763125	0.999952
394.146494	0.999479
394.529801	0.998788
394.913047	0.999033
395.296230	0.999635
395.679351	0.999527
396.062410	0.999378
396.445408	1.000007
396.828343	1.001141
397.211217	0.999608
397.594028	0.998735
397.976778	1.000335
398.359466	0.999666
398.742092	0.999582
399.124656	0.998950
399.507158	0.999012
399.889598	1.000546
400.271977	0.999891
400.654294	0.998992
401.036549	1.000508
401.418742	0.999819
401.800874	1.000211
402.182944	0.999662
402.564952	0.999800
402.946898	1.000387
403.328783	1.000229
403.710606	0.999765
404.092367	0.999950
404.474067	1.000769
404.855705	1.000525
405.237282	1.000241
405.618797	1.000187
406.000250	0.999797
406.381642	0.999390
406.762972	1.000648
407.144240	1.000579
407.525447	0.999596
407.906593	0.998812
408.287677	0.999783
408.668700	1.000292
409.049661	1.000035
409.430560	0.999913
409.811399	0.998836
410.192176	1.000037
410.572891	1.000436
410.953545	0.999542
411.334138	0.999893
411.714669	0.999901
412.095139	1.000397
412.475547	0.999686
412.855894	1.001036
413.236180	1.000160
413.616405	0.998521
413.996568	0.999806
414.376670	0.999695
414.756711	0.998346
415.136691	0.999304
415.516609	0.998535
415.896466	0.999755
416.276262	0.999149
416.655997	1.000558
417.035670	1.000312
417.415283	1.000223
417.794834	1.000380
418.174324	1.000876
418.553753	0.998934
418.933121	0.999786
419.312428	1.000622
419.691674	1.000467
420.070859	1.000005
420.449983	1.000204
420.829045	0.998963
421.208047	1.000315
421.586988	0.999967
421.965867	0.998583
422.344686	0.999213
422.723444	0.999315
423.102141	0.999809
423.480777	0.999497
423.859352	0.999504
424.237866	0.999576
424.616319	1.000632
424.994712	0.999818
425.373044	0.999690
425.751314	1.000209
426.129524	1.000748
426.507673	0.999023
426.885762	0.999585
427.263789	0.999713
427.641756	0.999878
428.019662	1.000210
428.397508	0.999981
428.775292	1.000118
429.153016	0.999101
429.530679	0.999483
429.908282	1.000308
430.285824	0.999097
430.663305	1.000010
431.040726	0.999496
431.418086	1.000242
431.795385	0.999998
432.172624	1.000917
432.549802	0.999682
432.926920	1.000371
433.303977	0.999326
433.680974	1.000109
434.057910	0.999212
434.434786	0.999719
434.811601	1.000373
435.188355	1.000505
435.565050	1.000364
435.941683	0.998734
436.318257	0.999049
436.694770	0.999339
437.071222	1.000318
437.447614	1.000004
437.823946	0.999907
438.200218	0.999337
438.576429	0.999788
438.952580	1.000018
439.328670	0.998729
439.704700	0.999047
440.080670	0.999224
440.456580	0.999596
440.832429	1.000394
441.208218	1.000083
441.583947	0.999943
441.959616	0.998769
442.335224	1.001133
442.710773	1.000578
443.086261	0.999881
443.461689	0.998787
443.837057	0.999586
444.212365	1.000215
444.587612	1.000251
444.962800	0.999711
445.337927	1.000296
445.712995	0.999643
446.088002	1.000221
446.462949	0.999509
446.837837	1.000990
447.212664	0.999958
447.587431	1.000164
447.962139	0.999280
448.336786	1.000172
448.711374	1.000352
449.085901	0.999577
449.460369	0.999864
449.834776	1.000217
450.209124	1.000267
450.583412	1.000299
450.957640	0.999636
451.331808	1.000661
451.705917	0.999926
452.079965	0.999723
452.453954	0.999822
452.827883	0.999802
453.201752	0.999691
453.575562	0.999765
453.949311	0.999953
454.323001	0.999361
454.696632	0.999759
455.070202	0.999861
455.443713	0.999787
455.817164	0.999280
456.190556	0.999661
456.563888	1.000549
456.937160	0.999478
457.310373	0.999674
457.683526	0.999801
458.056619	1.000061
458.429653	0.999788
458.802628	0.999750
459.175542	0.999618
459.548398	0.999475
459.921194	1.000139
460.293930	1.000734
460.666607	1.000272
461.039224	0.999796
461.411782	0.999914
461.784280	0.999880
462.156719	1.000401
462.529099	1.000278
462.901419	0.999984
463.273680	0.999452
463.645882	0.999705
464.018024	0.999668
464.390106	0.999809
464.762130	0.999953
465.134094	0.999890
465.505999	0.999942
465.877845	1.000349
466.249631	0.999711
466.621358	0.999378
466.993026	0.999651
467.364634	0.999712
467.736184	0.999992
468.107674	0.999810
468.479105	0.999761
468.850477	0.999792
469.221790	0.999956
469.593043	0.999415
469.964238	1.000211
470.335373	0.999483
470.706449	0.999847
471.077467	0.999230
471.448425	0.999791
471.819324	1.000312
472.190164	0.999539
472.560945	0.999583
472.931667	0.999716
473.302330	0.999837
473.672934	0.999553
474.043479	0.999407
474.413965	1.000380
474.784393	1.000129
475.154761	1.000176
475.525070	0.999787
475.895321	1.000007
476.265513	1.000026
476.635645	1.000126
477.005719	0.999170
477.375734	0.999642
477.745691	0.999610
478.115588	0.999021
478.485427	0.999777
478.855207	0.999882
479.224928	0.999969
479.594591	1.000685
479.964194	0.999821
480.333739	0.999812
480.703226	0.999857
481.072653	0.999402
481.442022	0.999975
481.811333	0.999453
482.180584	0.999862
482.549777	0.999285
482.918912	0.999284
483.287988	0.999042
483.657005	0.998991
484.025964	0.999763
484.394864	0.999196
484.763706	0.999590
485.132489	0.999736
485.501213	1.000190
485.869879	0.999857
486.238487	0.998780
486.607036	1.000692
486.975527	0.999727
487.343959	0.999066
487.712333	0.999341
488.080648	1.000134
488.448905	1.000212
488.817104	0.999209
489.185244	0.999834
489.553326	1.000035
489.921350	1.000188
490.289315	0.999604
490.657222	0.998944
491.025070	1.000260
491.392861	0.999362
491.760593	0.999145
492.128267	0.999239
492.495883	0.998627
492.863440	0.998881
493.230939	0.999486
493.598380	0.999502
493.965763	0.999708
494.333088	0.999031
494.700354	0.999187
495.067563	0.999477
495.434713	0.999480
495.801805	0.999177
496.168839	0.999199
496.535815	0.999646
496.902733	0.999747
497.269593	0.999002
497.636395	0.999170
498.003139	0.999131
498.369825	0.999623
498.736453	0.999134
499.103023	1.000030
499.469535	0.999444
499.835989	1.000276
500.202385	0.999721
500.568723	0.998834
500.935003	0.999469
501.301226	0.999481
501.667390	0.999486
502.033497	0.999839
502.399546	0.998918
502.765537	0.999595
503.131470	0.999780
503.497345	0.999727
503.863163	0.999714
504.228923	0.999485
504.594625	0.999251
504.960269	0.999730
505.325856	1.000597
505.691385	0.999673
506.056856	0.999771
506.422270	0.999892
506.787625	0.999412
507.152924	1.000360
507.518164	0.999262
507.883347	0.999488
508.248472	0.999710
508.613540	0.999642
508.978550	0.999924
509.343503	0.998998
509.708398	1.000653
510.073236	1.000303
510.438016	0.998828
510.802738	0.999314
511.167403	0.999345
511.532010	0.999920
511.896561	1.000142
512.261053	1.000025
512.625488	0.999316
512.989866	0.998955
513.354186	0.999435
513.718449	1.000266
514.082655	0.998989
514.446803	0.999572
514.810894	1.000685
515.174927	1.000007
515.538904	0.999279
515.902822	0.999803
516.266684	0.999370
516.630488	0.999733
516.994235	1.000180
517.357925	0.999917
517.721558	0.999767
518.085133	0.999353
518.448651	0.999876
518.812112	0.999721
519.175516	0.999675
519.538863	0.999542
519.902152	0.999924
520.265385	0.999713
520.628560	0.999643
520.991678	1.000220
521.354739	0.999921
521.717743	0.999787
522.080690	0.999487
522.443580	0.999628
522.806413	0.998956
523.169189	0.999647
523.531908	0.999298
523.894569	0.999488
524.257174	0.999704
524.619722	0.999393
524.982213	0.999815
525.344647	0.999613
525.707025	0.999455
526.069345	0.999028
526.431608	0.999724
526.793815	0.999538
527.155964	1.000028
527.518057	0.999939
527.880093	0.999825
528.242072	0.999402
528.603995	0.999700
528.965860	1.000274
529.327669	1.000033
529.689421	0.999737
530.051117	0.999859
530.412755	0.999655
530.774337	0.999717
531.135862	1.000106
531.497331	0.999167
531.858743	1.000240
532.220098	0.999012
532.581396	1.000416
532.942638	0.999799
533.303824	1.000260
533.664953	0.998917
534.026025	0.999795
534.387040	0.999969
534.747999	0.999470
535.108902	0.999337
535.469748	0.999889
535.830537	1.000369
536.191270	0.999827
536.551947	0.998840
536.912567	0.999876
537.273131	0.999919
537.633638	0.999652
537.994089	1.000125
538.354483	0.999906
538.714821	0.999782
539.075103	0.999537
539.435328	1.000042
539.795497	1.000317
540.155609	0.999810
540.515665	0.999689
540.875665	1.000054
541.235609	1.000321
541.595496	0.999641
541.955328	1.000407
542.315102	1.000052
542.674821	1.000004
543.034483	0.999986
543.394090	0.999553
543.753640	1.000005
544.113134	0.999489
544.472571	1.000469
544.831953	0.999735
545.191278	1.000039
545.550548	0.999553
545.909761	0.999397
546.268918	1.000400
546.628019	1.000018
546.987064	0.999175
547.346053	0.999273
547.704986	0.999446
548.063863	0.999586
548.422684	0.999452
548.781449	1.000248
549.140158	1.000292
549.498811	0.999455
549.857408	0.999309
550.215949	0.999926
550.574434	0.999300
550.932864	0.999588
551.291237	0.999285
551.649555	0.999992
552.007817	0.999788
552.366022	1.000426
552.724173	1.000381
553.082267	0.999458
553.440305	0.999436
553.798288	0.998962
554.156215	0.999414
554.514086	0.999692
554.871902	0.999795
555.229661	0.999218
555.587365	0.999922
555.945014	1.000135
556.302606	0.999566
556.660143	0.999866
557.017625	1.000811
557.375050	0.999173
557.732421	0.999832
558.089735	0.999357
558.446994	0.999641
558.804197	1.000089
559.161345	0.999590
559.518437	0.999465
559.875474	1.000378
560.232455	0.999334
560.589381	0.999709
560.946251	0.999541
561.303065	1.000104
561.659825	0.999664
562.016528	0.999819
562.373177	1.000239
562.729770	1.000087
563.086307	0.998914
563.442789	1.000001
563.799216	0.998969
564.155587	1.000158
564.511904	1.000160
564.868164	0.998444
565.224370	0.999837
565.580520	0.999391
565.936615	1.000118
566.292654	1.000027
566.648638	1.000280
567.004567	0.999853
567.360441	1.000003
567.716260	0.999472
568.072023	0.998968
568.427732	0.999733
568.783385	0.999459
569.138982	0.999894
569.494525	0.999916
569.850013	1.000432
570.205445	1.000211
570.560823	0.999625
570.916145	0.999528
571.271412	0.999815
571.626625	0.999786
571.981782	0.999444
572.336884	0.999487
572.691931	1.000097
573.046923	1.000123
573.401860	0.999927
573.756743	1.000181
574.111570	0.999889
574.466342	1.000148
574.821059	0.999762
575.175722	0.999926
575.530330	0.999520
575.884882	0.999481
576.239380	1.000343
576.593823	0.999536
576.948211	1.000271
577.302544	0.999905
577.656823	1.000216
578.011047	1.000068
578.365216	1.000728
578.719330	1.000314
579.073389	0.999250
579.427394	0.999305
579.781344	1.000226
580.135239	0.999139
580.489080	0.999498
580.842866	1.000139
581.196597	0.999409
581.550273	0.999778
581.903895	1.000007
582.257463	1.000294
582.610975	0.999686
582.964434	1.000340
583.317837	1.000699
583.671186	1.000615
584.024481	0.999650
584.377721	0.998971
584.730906	1.000558
585.084037	1.000898
585.437113	1.001050
585.790135	0.999403
586.143103	1.000218
586.496016	1.000121
586.848874	0.999728
587.201679	0.999706
587.554428	0.999959
587.907124	1.000089
588.259765	1.000781
588.612352	1.000067
588.964884	1.000320
589.317362	0.999320
589.669786	0.999670
590.022155	1.000060
590.374470	0.999737
590.726731	0.999529
591.078937	1.000003
591.431090	0.999946
591.783188	0.999651
592.135232	1.000338
592.487222	1.000457
592.839157	1.000183
593.191038	0.999941
593.542866	1.000791
593.894639	0.999000
594.246358	1.000007
594.598022	1.000658
594.949633	1.000654
595.301190	0.999926
595.652692	0.999751
596.004141	0.999688
596.355535	0.999507
596.706876	0.999954
597.058162	0.999991
597.409395	1.000619
597.760573	0.999996
598.111698	0.999884
598.462768	0.998921
598.813785	0.998967
599.164748	0.999614
599.515657	0.999181
599.866511	1.000312
600.217312	1.000476
600.568060	0.999390
600.918753	1.000039
601.269392	1.000175
601.619978	1.000122
601.970510	0.999842
602.320988	1.000113
602.671412	0.999660
603.021783	1.000454
603.372100	1.000249
603.722363	0.999424
604.072572	0.999341
604.422728	0.999001
604.772830	0.999789
605.122878	1.000490
605.472872	1.000192
605.822813	0.999929
606.172701	1.000342
606.522534	0.999651
606.872314	1.000128
607.222041	1.000226
607.571714	1.000195
607.921333	0.999328
608.270899	0.999509
608.620411	0.999679
608.969870	1.000538
609.319276	0.999611
609.668627	1.000235
610.017926	0.999305
610.367171	0.999861
610.716362	0.999679
611.065500	1.000287
611.414585	0.999552
611.763616	0.999145
612.112594	1.000288
612.461518	0.998617
612.810389	1.000116
613.159207	1.000681
613.507971	1.000046
613.856682	1.001473
614.205340	0.998720
614.553945	0.999955
614.902496	1.000008
615.250994	1.000528
615.599439	1.000306
615.947830	0.999789
616.296169	1.000498
616.644454	0.999902
616.992686	0.999203
617.340864	1.000257
617.688990	0.999873
618.037063	1.000641
618.385082	0.999953
618.733048	0.998700
619.080961	1.000049
619.428821	1.000081
619.776628	1.000091
620.124382	1.000725
620.472083	1.000307
620.819731	1.001237
621.167326	1.000262
621.514868	1.000630
621.862357	0.999849
622.209793	0.999860
622.557176	0.999471
622.904506	0.999310
623.251783	1.000135
623.599007	0.999854
623.946179	0.999232
624.293297	1.000552
624.640363	0.999430
624.987376	0.999101
625.334336	1.000113
625.681243	1.000150
626.028097	0.999898
626.374899	0.999291
626.721647	1.000620
627.068343	0.999950
627.414987	1.000113
627.761577	0.998991
628.108115	0.998876
628.454600	0.999871
628.801032	1.000503
629.147412	0.999860
629.493739	1.000286
629.840014	0.999974
630.186236	0.999811
630.532405	1.000094
630.878521	0.999653
631.224585	0.999975
631.570597	0.999350
631.916556	1.000004
632.262462	0.999060
632.608316	1.000244
632.954117	0.999473
633.299866	0.999513
633.645562	1.000054
633.991206	1.000692
634.336797	0.999588
634.682336	0.999810
635.027823	1.000155
635.373257	1.000337
635.718639	1.000112
636.063968	0.999986
636.409245	0.999584
636.754470	1.000121
637.099642	0.999901
637.444762	0.999837
637.789829	1.000202
638.134845	0.999907
638.479808	0.999649
638.824719	0.999842
639.169577	0.999795
639.514383	0.999763
639.859137	0.999283
640.203839	1.000000
640.548489	0.999879
640.893086	0.999072
641.237632	1.000055
641.582125	0.999507
641.926566	1.000545
642.270955	0.999526
642.615292	0.999609
642.959576	0.999357
643.303809	1.000712
643.647990	0.999614
643.992118	0.999847
644.336195	0.998903
644.680219	0.999558
645.024192	0.999914
645.368112	0.998800
645.711981	0.999528
646.055797	1.000082
646.399562	0.998161
646.743274	1.000743
647.086935	0.999694
647.430544	0.999727
647.774101	0.998996
648.117606	0.999894
648.461059	1.000354
648.804460	1.000223
649.147810	0.999344
649.491108	0.999515
649.834354	0.999624
650.177548	0.999973
650.520690	0.999185
650.863781	0.998741
651.206820	0.999493
651.549807	1.000862
651.892742	0.999961
652.235626	0.999810
652.578458	0.999156
652.921238	1.000519
653.263967	0.999990
653.606644	1.000011
653.949269	1.000863
654.291843	0.999379
654.634365	1.000582
654.976836	0.999627
655.319255	1.000087
655.661622	0.999909
656.003938	0.998983
656.346203	0.998868
656.688416	0.999748
657.030577	0.999601
657.372687	0.999983
657.714746	0.998917
658.056753	0.999426
658.398708	0.998581
658.740612	1.001001
659.082465	1.000670
659.424266	1.000459
659.766016	0.998639
660.107715	1.000337
660.449362	0.999429
660.790958	0.999482
661.132503	1.000289
661.473996	0.999075
661.815438	0.999507
662.156829	0.999300
662.498168	0.999831
662.839456	0.999535
663.180693	0.999310
663.521879	0.999479
663.863013	0.999912
664.204097	0.999239
664.545129	0.999325
664.886110	1.000199
665.227040	0.999693
665.567918	0.999396
665.908746	0.998908
666.249522	0.998883
666.590248	0.999737
666.930922	0.999572
667.271545	0.999561
667.612118	0.999896
667.952639	0.999612
668.293109	0.999274
668.633528	0.998341
668.973896	0.999201
669.314213	0.998560
669.654480	0.999500
669.994695	0.998746
670.334859	1.000063
670.674973	0.998899
671.015035	0.999584
671.355047	0.998659
671.695008	0.998582
672.034918	0.998845
672.374777	0.999906
672.714585	0.998826
673.054342	1.000157
673.394049	0.999382
673.733705	0.998873
674.073310	0.998825
674.412864	0.999466
674.752368	0.998454
675.091820	1.000007
675.431223	0.999868
675.770574	0.997893
676.109875	0.999089
676.449125	0.999790
676.788324	0.999228
677.127473	0.999633
677.466571	0.999832
677.805619	0.999853
678.144616	1.000121
678.483562	0.998854
678.822458	0.999146
679.161303	0.998727
679.500098	0.999442
679.838842	0.999678
680.177535	0.998936
680.516179	0.998567
680.854771	0.998592
681.193314	0.999234
681.531805	0.999111
681.870247	0.999340
682.208638	0.999486
682.546978	0.998547
682.885268	0.998939
683.223508	0.998421
683.561697	0.999191
683.899836	0.998786
684.237925	0.998763
684.575963	0.998779
684.913951	0.999381
685.251889	0.999104
685.589776	0.999060
685.927614	0.999085
686.265401	0.998533
686.603137	0.998404
686.940824	0.998411
687.278460	1.000080
687.616046	0.999394
687.953582	0.999510
688.291068	0.999970
688.628504	0.999069
688.965889	0.998701
689.303224	0.997682
689.640510	0.999362
689.977745	0.998402
690.314930	0.998299
690.652065	0.999405
690.989150	0.998897
691.326185	0.998339
691.663170	0.999190
692.000105	0.999314
692.336990	0.999965
692.673825	0.999015
693.010610	0.999204
693.347345	0.999036
693.684030	0.998153
694.020665	0.999025
694.357251	0.999227
694.693786	0.999345
695.030272	0.998011
695.366707	0.999523
695.703093	0.998986
696.039429	0.998213
696.375716	0.999214
696.711952	0.998885
697.048139	0.998332
697.384276	0.998918
697.720363	0.998946
698.056400	0.998304
698.392388	0.998393
698.728326	0.998525
699.064214	0.999200
699.400053	0.999116
699.735842	0.998668
700.071581	0.998037
700.407270	0.998038
700.742910	0.998691
701.078501	0.998042
701.414042	0.999389
701.749533	0.996966
702.084974	0.997998
702.420366	0.999273
702.755709	0.998134
703.091002	0.998480
703.426246	0.998921
703.761440	0.998654
704.096584	0.997715
704.431679	0.998884
704.766725	0.998312
705.101721	0.998528
705.436668	0.999106
705.771565	0.998513
706.106413	0.997787
706.441212	0.999027
706.775961	0.998315
707.110661	0.998804
707.445311	0.998723
707.779913	0.999618
708.114465	0.999304
708.448967	0.999140
708.783421	0.999581
709.117825	0.999180
709.452180	0.999060
709.786485	0.998971
710.120742	0.998984
710.454949	0.998659
710.789107	0.998741
711.123216	0.997865
711.457275	0.997720
711.791286	0.998452
712.125247	0.999785
712.459159	0.998534
712.793023	0.998361
713.126837	0.998304
713.460602	0.997772
713.794318	0.997874
714.127985	0.998363
714.461602	0.998327
714.795171	0.998588
715.128691	0.998539
715.462162	0.999289
715.795584	0.998681
716.128957	0.999069
716.462281	0.998657
716.795556	0.998472
717.128782	0.998840
717.461960	0.998176
717.795088	0.998347
718.128167	0.999729
718.461198	0.998735
718.794180	0.998963
719.127113	0.998543
719.459997	0.998446
719.792833	0.998391
720.125619	0.997881
720.458357	0.998936
720.791046	0.998996
721.123686	0.998784
721.456278	0.998963
721.788821	0.998344
722.121315	0.999965
722.453761	0.999380
722.786158	0.998936
723.118506	0.998832
723.450805	0.997852
723.783056	0.998620
724.115259	0.997797
724.447412	0.999320
724.779518	0.999081
725.111574	0.998097
725.443582	0.999114
725.775542	0.999014
726.107453	0.999030
726.439315	0.999033
726.771129	0.999837
727.102895	0.999214
727.434612	0.998692
727.766281	0.999153
728.097901	0.998776
728.429473	0.999522
728.760996	0.997528
729.092471	0.999005
729.423897	0.998964
729.755276	0.998296
730.086606	0.998198
730.417887	0.998429
730.749120	0.998723
731.080305	0.998762
731.411442	0.996768
731.742530	0.997450
732.073570	0.998380
732.404562	0.999529
732.735506	0.998176
733.066401	0.998706
733.397249	0.998467
733.728048	0.998802
734.058798	0.999034
734.389501	0.999637
734.720156	0.998885
735.050762	0.998918
735.381320	0.998071
735.711831	0.998321
736.042293	0.998155
736.372707	1.000037
736.703073	0.997724
737.033391	0.998490
737.363661	0.999500
737.693883	0.998226
738.024056	0.998262
738.354182	1.000333
738.684260	0.998986
739.014290	0.998567
739.344272	0.999233
739.674207	0.999044
740.004093	0.999116
740.333931	0.999157
740.663722	0.998926
740.993464	0.999223
741.323159	0.998365
741.652806	0.998837
741.982405	0.998604
742.311956	0.998829
742.641460	0.998695
742.970915	0.997722
743.300323	0.997315
743.629683	0.998689
743.958996	0.999412
744.288260	0.998585
744.617477	0.998838
744.946647	0.998098
745.275768	0.999386
745.604842	0.998912
745.933869	0.998612
746.262847	0.999721
746.591778	0.997837
746.920662	0.998955
747.249498	0.999925
747.578286	1.000545
747.907027	0.998678
748.235720	0.999408
748.564365	0.998844
748.892963	0.998757
749.221514	0.998681
749.550017	0.998587
749.878473	0.998683
750.206881	0.999409
750.535242	0.999248
750.863555	0.998032
751.191821	0.998923
751.520039	0.998897
751.848210	0.997610
752.176334	0.999267
752.504411	0.998239
752.832440	0.998332
753.160421	0.998933
753.488356	0.998530
753.816243	0.998128
754.144082	0.999133
754.471875	0.998623
754.799620	0.998952
755.127318	0.998505
755.454969	0.998285
755.782572	0.999967
756.110129	0.997843
756.437638	0.999115
756.765100	0.999667
757.092515	0.998735
757.419882	0.999607
757.747203	0.998727
758.074477	1.000551
758.401703	0.999780
758.728882	0.999085
759.056014	0.999071
759.383099	0.999144
759.710138	0.999147
760.037129	0.998401
760.364073	0.998768
760.690970	0.998691
761.017820	0.998651
761.344623	0.998149
761.671379	0.999696
761.998088	0.999841
762.324751	0.998386
762.651366	0.998171
762.977935	0.998140
763.304456	0.999524
763.630931	0.997863
763.957359	0.997362
764.283740	0.997651
764.610074	0.998064
764.936362	0.998390
765.262602	0.999011
765.588796	0.999250
765.914943	0.998033
766.241044	0.998509
766.567097	0.998607
766.893104	0.998347
767.219064	0.998102
767.544978	0.999023
767.870845	0.999003
768.196665	0.999195
768.522438	0.999753
768.848165	0.998705
769.173846	0.998682
769.499479	0.999777
769.825066	0.999454
770.150607	1.000173
770.476101	0.998824
770.801548	1.000569
771.126949	1.001067
771.452303	0.999090
771.777611	0.999742
772.102872	0.998400
772.428087	0.998296
772.753256	0.999619
773.078378	0.999840
773.403453	0.999058
773.728482	0.999566
774.053465	0.998537
774.378401	0.999221
774.703291	1.000179
775.028135	1.000971
775.352932	0.998564
775.677683	1.000802
776.002388	0.999692
776.327046	0.998983
776.651658	1.000737
776.976224	1.000233
777.300743	0.999799
777.625216	0.998969
777.949643	0.999082
778.274024	0.998773
778.598359	0.999270
778.922647	0.998757
779.246889	1.000092
779.571086	1.000083
779.895236	0.999453
780.219339	1.000791
780.543397	0.998457
780.867409	1.000273
781.191374	0.999462
781.515294	0.999922
781.839167	0.999660
782.162995	0.999737
782.486776	0.999470
782.810511	0.999390
783.134201	0.999765
783.457844	1.000451
783.781441	0.998760
784.104993	0.998562
784.428498	0.998615
784.751958	1.000528
785.075372	1.000377
785.398739	0.998872
785.722061	0.998887
786.045337	0.998777
786.368568	1.000584
786.691752	0.999252
787.014891	0.999786
787.337983	0.998725
787.661030	0.999843
787.984031	0.999344
788.306987	0.999670
788.629897	0.998812
788.952760	0.999433
789.275579	0.999835
789.598351	0.998341
789.921078	1.000543
790.243759	0.998789
790.566395	0.998922
790.888984	1.000256
791.211529	0.999822
791.534027	0.999432
791.856480	0.999384
792.178888	0.999066
792.501249	0.999296
792.823566	0.999980
793.145836	1.000113
793.468062	0.999975
793.790241	1.000272
794.112375	0.998750
794.434464	0.999159
794.756507	0.999473
795.078505	1.000363
795.400457	1.000313
795.722364	1.000217
796.044226	0.999923
796.366042	0.999466
796.687812	0.998695
797.009538	0.998901
797.331218	0.999682
797.652852	0.999359
797.974442	1.000027
798.295986	0.999686
798.617484	0.997902
798.938938	1.000912
799.260346	0.999297
799.581709	0.999262
799.903026	0.999460
800.224299	0.999044
800.545526	0.998982
800.866708	0.998007
801.187845	0.999677
801.508936	1.000161
801.829983	0.999611
802.150984	0.999495
802.471940	0.999737
802.792851	0.999004
803.113717	1.000234
803.434538	1.000473
803.755314	1.000468
804.076045	0.999924
804.396731	0.999895
804.717372	0.998995
805.037967	1.000185
805.358518	1.000137
805.679024	0.999435
805.999485	1.000235
806.319901	0.999930
806.640272	1.000152
806.960598	1.000456
807.280879	1.000189
807.601115	1.000082
807.921306	1.001343
808.241453	1.000049
808.561554	1.000051
808.881611	1.000170
809.201623	0.999180
809.521590	0.999932
809.841513	0.999702
810.161390	0.999098
810.481223	0.999783
810.801011	0.999843
811.120755	1.001290
811.440453	0.999166
811.760107	0.999214
812.079716	1.000184
812.399281	0.998973
812.718801	0.998886
813.038276	1.000486
813.357707	1.000429
813.677093	1.000728
813.996434	0.999854
814.315731	1.000987
814.634983	1.000398
814.954191	0.999462
815.273354	0.999689
815.592473	0.999309
815.911547	1.000166
816.230577	0.999956
816.549562	0.999787
816.868502	0.998110
817.187399	0.999996
817.506250	0.999478
817.825058	0.998472
818.143821	0.999650
818.462539	1.000160
818.781213	0.999848
819.099843	1.000494
819.418429	0.999142
819.736970	1.000029
820.055466	0.998623
820.373919	0.999748
820.692327	0.998347
821.010691	0.998614
821.329011	0.998092
821.647286	0.997289
821.965517	0.998377
822.283704	0.997827
822.601847	0.996800
822.919945	0.996488
823.237999	0.996860
823.556010	0.996194
823.873976	0.996666
824.191897	0.997012
824.509775	0.997843
824.827609	0.997593
825.145398	0.997790
825.463144	0.996963
825.780845	0.997297
826.098502	0.998619
826.416116	0.999010
826.733685	0.998994
827.051210	0.998492
827.368692	0.997891
827.686129	0.997870
828.003522	0.998553
828.320872	0.998706
828.638177	0.999261
828.955439	1.000453
829.272656	0.999116
829.589830	0.998970
829.906960	0.998913
830.224046	0.998572
830.541088	0.999524
830.858086	0.999545
831.175041	1.000181
831.491952	0.999152
831.808819	0.999420
832.125642	0.999158
832.442421	1.000949
832.759157	1.001099
833.075849	0.999127
833.392497	0.999327
833.709101	0.998442
834.025662	0.998970
834.342179	0.999252
834.658653	1.000149
834.975083	0.998741
835.291469	1.000129
835.607811	0.999277
835.924110	0.998502
836.240366	1.000339
836.556578	0.999964
836.872746	1.000343
837.188871	0.999300
837.504952	0.998409
837.820990	1.000286
838.136984	0.998390
838.452935	0.998522
838.768842	1.000503
839.084706	1.000807
839.400526	1.000478
839.716303	0.998141
840.032037	0.999523
840.347727	0.999459
840.663373	0.999776
840.978977	0.999214
841.294537	0.999372
841.610054	0.999621
841.925527	1.000319
842.240957	1.000372
842.556344	0.998701
842.871687	0.999822
843.186987	1.000243
843.502244	0.999894
843.817458	0.999096
844.132629	0.999472
844.447756	1.001069
844.762840	0.999517
845.077881	1.000464
845.392879	0.998847
845.707833	0.999028
846.022745	0.999508
846.337613	1.001028
846.652438	1.000194
846.967221	1.000082
847.281960	1.000091
847.596656	1.000330
847.911309	1.000998
848.225919	0.999480
848.540485	1.000030
848.855009	1.000513
849.169490	0.999676
849.483928	0.999729
849.798323	0.999007
850.112675	0.999866
850.426984	1.000211
850.741251	1.000217
851.055474	0.999728
851.369654	1.001292
851.683792	0.998888
851.997887	1.000140
852.311938	1.000727
852.625947	0.999061
852.939914	0.998500
853.253837	1.000723
853.567718	1.001481
853.881555	0.999412
854.195350	0.999300
854.509103	0.999538
854.822812	1.001206
855.136479	1.000214
855.450103	0.999958
855.763685	0.999582
856.077224	0.999584
856.390720	1.000185
856.704173	1.001314
857.017584	1.000500
857.330953	0.999557
857.644278	1.000564
857.957561	1.000280
858.270802	1.000628
858.584000	0.999805
858.897155	0.999205
859.210268	1.000867
859.523339	1.000270
859.836367	0.999985
860.149352	0.999503
860.462295	0.999554
860.775195	1.000805
861.088054	0.999403
861.400869	0.999700
861.713642	0.998674
862.026373	1.000007
862.339062	1.000105
862.651708	0.999608
862.964312	1.000496
863.276873	0.999801
863.589392	0.999521
863.901869	1.000901
864.214303	1.000418
864.526696	1.000267
864.839045	1.000356
865.151353	1.000438
865.463619	1.000142
865.775842	1.000086
866.088023	1.002171
866.400162	1.000413
866.712258	1.000987
867.024313	0.999966
867.336325	1.000847
867.648296	0.999630
867.960224	1.000493
868.272110	1.000837
868.583954	1.000990
868.895755	1.000756
869.207515	0.999862
869.519233	1.000977
869.830909	0.999503
870.142542	0.999498
870.454134	1.000181
870.765684	0.999871
871.077191	1.000416
871.388657	1.000075
871.700081	1.000517
872.011463	1.000259
872.322803	1.000572
872.634101	0.998956
872.945357	1.000294
873.256571	0.999808
873.567744	1.000079
873.878874	0.999309
874.189963	1.000228
874.501010	1.001109
874.812015	1.000658
875.122979	0.999804
875.433900	0.999297
875.744780	1.001104
876.055618	1.000272
876.366415	0.999965
876.677169	0.999904
876.987882	1.000667
877.298554	1.001057
877.609183	1.000363
877.919771	1.000665
878.230317	1.000964
878.540822	0.999077
878.851285	0.999006
879.161707	0.999322
879.472087	1.001320
879.782425	0.998990
880.092722	0.999583
880.402977	0.998899
880.713191	0.999283
881.023363	0.998122
881.333494	0.998538
881.643583	0.999526
881.953631	0.997822
882.263637	0.997868
882.573602	0.998027
882.883526	0.997870
883.193408	0.999368
883.503248	0.999062
883.813048	0.998813
884.122806	0.999379
884.432522	0.999405
884.742197	1.001687
885.051831	0.999319
885.361424	1.000159
885.670975	1.000848
885.980485	0.999689
886.289954	0.999247
886.599382	0.999802
886.908768	1.000435
887.218113	0.999660
887.527417	0.999005
887.836680	1.000495
888.145901	0.999817
888.455082	1.000298
888.764221	1.000964
889.073319	0.999367
889.382376	1.000096
889.691392	0.999340
890.000366	0.999608
890.309300	1.000858
890.618193	1.000716
890.927044	1.000047
891.235855	0.999224
891.544625	0.999039
891.853353	0.999231
892.162041	0.999403
892.470687	1.000201
892.779293	0.999841
893.087858	1.000257
893.396381	0.999909
893.704864	0.999010
894.013306	0.999576
894.321707	1.000339
894.630068	0.999209
894.938387	0.999287
895.246665	0.998722
895.554903	0.999289
895.863100	1.000360
896.171256	0.999580
896.479371	0.998870
896.787446	0.999361
897.095480	1.000555
897.403473	0.999570
897.711425	1.000308
898.019336	1.000323
898.327207	1.001420
898.635038	0.998216
898.942827	0.999502
899.250576	1.000034
899.558284	1.000032
899.865952	0.999122
900.173579	0.999713
900.481165	1.000127
900.788711	1.000982
901.096216	0.999429
901.403681	0.999351
901.711105	0.999958
902.018489	0.999894
902.325832	1.000260
902.633135	0.999975
902.940397	1.000783
903.247619	1.000105
903.554800	1.000298
903.861941	1.000124
904.169041	1.000027
904.476101	1.000170
904.783121	0.999176
905.090100	1.000210
905.397039	1.000182
905.703938	0.998954
906.010796	0.998999
906.317614	1.000189
906.624391	1.000019
906.931129	1.000203
907.237826	0.999915
907.544483	1.000403
907.851099	0.999720
908.157675	0.999319
908.464211	1.000765
908.770707	0.998931
909.077163	0.999779
909.383578	1.000713
909.689954	1.000022
909.996289	1.000097
910.302584	1.000768
910.608839	1.002141
910.915054	0.998641
911.221229	1.000849
911.527363	0.998619
911.833458	1.000325
912.139513	1.001449
912.445527	1.000795
912.751502	1.001079
913.057436	0.999489
913.363331	1.001060
913.669186	1.001728
913.975000	0.999494
914.280775	0.999860
914.586510	0.999636
914.892205	0.998871
915.197859	0.999502
915.503475	0.999175
915.809050	0.999746
916.114585	0.998783
916.420081	1.000382
916.725536	1.000961
917.030952	1.000508
917.336328	0.999563
917.641665	0.999154
917.946961	0.999348
918.252218	1.000665
918.557435	0.998472
918.862612	0.999853
919.167750	1.001092
919.472848	1.000302
919.777906	0.999892
920.082925	1.001332
920.387904	1.001164
920.692843	1.000847
920.997743	0.998977
921.302603	1.001250
921.607423	1.000095
921.912204	0.999112
922.216946	1.001206
922.521647	1.000507
922.826310	0.999861
923.130932	1.000417
923.435516	1.001175
923.740059	0.999655
924.044564	0.998890
924.349028	1.000632
924.653454	1.000143
924.957840	0.999834
925.262186	1.000365
925.566493	0.999748
925.870761	0.999403
926.174989	0.999979
926.479178	1.000938
926.783328	0.999890
927.087438	1.000567
927.391509	1.000050
927.695541	1.000334
927.999533	0.999772
928.303486	1.000522
928.607400	1.000274
928.911275	0.999343
929.215110	1.001426
929.518906	1.000081
929.822663	1.001725
930.126381	1.000869
930.430060	0.999388
930.733699	1.000706
931.037299	1.000193
931.340861	1.001793
931.644383	0.999596
931.947866	1.000605
932.251309	1.001017
932.554714	1.000044
932.858080	1.000121
933.161407	0.999948
933.464694	1.000722
933.767943	0.999925
934.071153	1.000003
934.374323	1.000522
934.677455	1.000197
934.980548	1.000038
935.283602	1.001044
935.586617	1.000275
935.889593	1.001092
936.192530	1.000992
936.495428	0.999893
936.798287	0.999553
937.101108	0.999662
937.403890	1.000465
937.706632	1.001763
938.009336	1.000644
938.312002	0.999996
938.614628	1.000629
938.917216	0.998782
939.219765	1.000365
939.522275	1.001140
939.824747	1.000280
940.127179	0.999921
940.429573	1.000901
940.731929	0.999429
941.034246	0.999316
941.336524	1.000194
941.638763	1.001113
941.940964	0.999796
942.243126	1.000753
942.545250	1.001269
942.847335	0.999826
943.149381	1.001992
943.451389	0.999884
943.753359	1.001340
944.055290	1.002192
944.357182	1.000529
944.659036	1.000564
944.960851	1.000493
945.262628	0.999895
945.564367	1.000552
945.866067	1.000533
946.167729	1.001582
946.469352	1.000673
946.770937	0.998945
947.072484	1.000854
947.373992	1.000925
947.675462	0.999858
947.976893	0.999918
948.278286	1.001848
948.579641	1.001060
948.880958	0.999896
949.182236	0.999868
949.483476	1.001242
949.784678	1.000318
950.085841	1.000219
950.386967	1.000185
950.688054	1.000376
950.989103	0.998444
951.290114	0.999526
951.591087	0.999696
951.892021	1.000269
952.192917	1.000112
952.493776	0.999394
952.794596	0.999393
953.095378	1.000082
953.396122	1.000483
953.696828	1.000586
953.997496	1.000905
954.298126	1.000624
954.598718	0.999599
954.899272	1.000521
955.199788	0.999472
955.500266	1.000538
955.800706	0.999945
956.101108	0.999097
956.401472	1.001450
956.701798	0.999306
957.002087	1.000290
957.302337	1.001013
957.602550	1.000532
957.902724	1.000994
958.202861	1.000296
958.502960	1.000285
958.803022	1.000753
959.103045	1.000695
959.403031	1.000889
959.702979	1.001119
960.002889	1.000337
960.302762	0.999677
960.602596	1.000923
960.902393	0.999789
961.202153	1.001287
961.501875	1.001064
961.801559	1.000519
962.101205	0.999906
962.400814	1.000874
962.700385	1.000693
962.999918	1.000108
963.299414	0.999700
963.598873	1.000953
963.898293	0.999241
964.197677	1.000211
964.497022	1.000914
964.796331	1.000997
965.095601	1.001061
965.394835	1.000574
965.694030	1.000376
965.993189	0.999738
966.292309	1.001412
966.591393	0.998751
966.890439	1.001871
967.189447	1.000106
967.488419	0.999814
967.787353	0.999986
968.086249	1.000130
968.385108	1.000465
968.683930	1.001498
968.982714	1.000235
969.281462	0.999020
969.580172	0.999483
969.878844	1.001623
970.177480	1.000095
970.476078	1.001536
970.774639	1.000104
971.073162	1.000503
971.371649	1.000696
971.670098	1.000078
971.968510	1.001040
972.266885	0.998753
972.565223	0.999487
972.863524	0.999678
973.161788	0.999636
973.460014	1.002535
973.758204	1.000207
974.056356	0.998006
974.354471	0.999813
974.652550	1.001133
974.950591	0.999930
975.248595	1.000384
975.546563	1.001014
975.844493	1.000652
976.142386	0.998514
976.440243	1.000583
976.738062	0.999098
977.035845	0.999870
977.333590	1.000538
977.631299	1.000955
977.928971	1.000059
978.226606	1.000335
978.524204	0.999598
978.821765	0.999606
979.119290	1.001481
979.416777	1.000050
979.714228	0.999623
980.011642	1.000944
980.309020	0.999209
980.606360	0.999623
980.903664	0.999742
981.200931	1.000358
981.498162	1.001121
981.795356	1.000527
982.092513	1.000244
982.389633	1.000893
982.686717	0.999814
982.983764	1.000677
983.280775	1.000340
983.577749	1.001350
983.874686	0.999400
984.171587	1.000689
984.468451	1.000683
984.765279	1.000414
985.062070	0.999621
985.358824	1.000493
985.655543	1.001235
985.952224	1.001342
986.248869	0.999419
986.545478	1.000833
986.842050	0.999951
987.138586	0.999005
987.435086	1.000427
987.731549	1.002236
988.027975	1.000430
988.324366	0.999609
988.620719	1.001773
988.917037	1.000314
989.213318	1.000248
989.509563	1.000361
989.805772	1.001008
990.101944	1.000518
990.398080	0.999491
990.694180	1.000885
990.990244	0.999326
991.286271	0.999548
991.582262	1.001279
991.878217	0.999711
992.174136	1.000663
992.470019	1.000377
992.765865	1.001552
993.061676	1.000279
993.357450	1.000494
993.653188	1.000178
993.948890	1.000761
994.244556	0.999866
994.540186	1.000523
994.835780	0.999984
995.131337	1.001171
995.426859	0.999926
995.722345	1.000861
996.017795	0.998681
996.313208	0.999989
996.608586	1.001141
996.903928	0.999803
997.199234	1.000225
997.494504	1.000778
997.789738	0.998879
998.084936	1.000243
998.380099	0.999238
998.675225	1.000553
998.970316	1.000778
999.265371	1.000791
999.560390	1.000056
999.855373	1.001570
1000.150320	0.998476
1000.445232	1.001520
1000.740108	0.999147
1001.034948	1.000534
1001.329752	1.002267
1001.624521	0.998563
1001.919254	0.999147
1002.213951	1.000895
1002.508613	0.999208
1002.803239	1.000726
1003.097829	1.000238
1003.392384	1.001165
1003.686903	1.000959
1003.981386	1.001014
1004.275834	1.001072
1004.570246	0.999417
1004.864623	1.001954
1005.158964	1.000294
1005.453270	1.000333
1005.747540	0.998947
1006.041775	1.000520
1006.335974	1.000706
1006.630138	1.001028
1006.924266	0.999243
1007.218359	0.999547
1007.512416	1.000975
1007.806438	1.000229
1008.100425	1.000244
1008.394376	1.000483
1008.688292	1.000513
1008.982172	0.998193
1009.276017	1.000746
1009.569827	1.000583
1009.863602	0.999052
1010.157341	1.000419
1010.451045	1.000231
1010.744714	1.002389
1011.038347	1.000740
1011.331945	0.999206
1011.625508	1.000098
1011.919036	1.000247
1012.212528	0.999911
1012.505986	1.000140
1012.799408	0.999887
1013.092795	0.999908
1013.386147	1.000756
1013.679464	1.000143
1013.972745	1.000221
1014.265992	1.000130
1014.559204	1.000274
1014.852380	1.000149
1015.145521	1.000710
1015.438628	0.999446
1015.731699	0.999815
1016.024736	1.000405
1016.317737	0.999452
1016.610703	1.001041
1016.903635	1.000629
1017.196531	0.998881
1017.489393	1.000270
1017.782219	0.999032
1018.075011	0.999320
1018.367768	0.999485
1018.660490	1.000886
1018.953177	1.000886
1019.245829	1.000886
