Dividing Wavelength (nm)	Counts (n)	Blue Motor Position (mm): 2.100000	Red Motor Position (mm): 0.000000	
326.493990	1.006184
326.888308	1.006184
327.282561	1.006184
327.676750	1.008305
328.070874	1.006842
328.464933	1.007537
328.858929	1.007344
329.252859	1.007496
329.646726	1.006738
330.040528	1.006302
330.434265	1.007525
330.827938	1.006812
331.221547	1.007311
331.615091	1.006233
332.008571	1.007228
332.401986	1.006044
332.795338	1.006029
333.188625	1.007462
333.581847	1.006564
333.975006	1.007014
334.368100	1.007684
334.761129	1.006006
335.154095	1.006996
335.546996	1.004131
335.939833	0.998895
336.332606	1.000204
336.725315	0.998650
337.117960	0.999999
337.510540	0.999958
337.903056	0.999488
338.295508	1.000719
338.687896	0.999599
339.080220	0.998984
339.472480	0.999416
339.864676	1.000143
340.256807	0.998775
340.648875	0.998778
341.040879	0.999756
341.432818	0.999770
341.824694	0.998615
342.216506	0.999628
342.608253	0.998030
342.999937	0.998895
343.391557	0.999617
343.783113	1.001006
344.174605	1.000029
344.566033	0.998358
344.957397	0.999811
345.348697	1.000349
345.739934	0.999677
346.131106	0.998442
346.522215	0.998181
346.913260	0.999637
347.304241	0.998748
347.695159	0.999667
348.086012	0.999582
348.476802	0.999056
348.867528	0.998950
349.258191	1.000059
349.648789	0.999531
350.039324	1.000063
350.429796	0.999031
350.820203	0.997830
351.210548	0.999193
351.600828	0.999521
351.991045	0.998013
352.381198	1.000022
352.771288	0.999296
353.161314	0.998972
353.551276	0.998511
353.941175	0.997600
354.331010	0.999721
354.720782	0.998994
355.110490	0.999161
355.500135	0.998021
355.889717	0.997940
356.279235	0.998523
356.668689	0.998468
357.058080	0.998806
357.447408	0.998207
357.836672	0.998805
358.225873	0.998050
358.615010	0.997367
359.004084	0.997631
359.393095	0.998505
359.782043	0.998162
360.170927	0.999410
360.559748	0.998775
360.948505	0.997364
361.337199	0.997677
361.725830	0.998795
362.114398	0.997352
362.502903	0.996714
362.891344	0.996813
363.279722	0.996387
363.668037	0.998804
364.056289	0.997381
364.444478	0.998000
364.832603	0.996549
365.220665	0.998334
365.608665	0.997645
365.996601	0.996554
366.384474	0.997066
366.772284	0.997282
367.160031	0.994704
367.547715	0.995207
367.935336	0.995197
368.322893	0.994003
368.710388	0.992468
369.097820	0.991280
369.485189	0.989556
369.872495	0.986794
370.259738	0.985070
370.646918	0.981713
371.034035	0.980298
371.421090	0.976563
371.808081	0.971463
372.195010	0.969484
372.581875	0.963653
372.968678	0.959722
373.355418	0.956363
373.742096	0.949222
374.128710	0.944238
374.515262	0.940294
374.901751	0.934134
375.288177	0.929469
375.674540	0.922461
376.060841	0.915584
376.447079	0.909471
376.833254	0.902453
377.219367	0.898261
377.605417	0.886466
377.991404	0.882946
378.377329	0.876991
378.763191	0.870734
379.148991	0.861578
379.534727	0.853768
379.920402	0.845255
380.306013	0.842612
380.691563	0.829367
381.077049	0.822529
381.462474	0.818800
381.847835	0.807968
382.233134	0.802859
382.618371	0.802496
383.003545	0.785420
383.388657	0.783280
383.773706	0.776109
384.158693	0.772672
384.543618	0.766667
384.928480	0.757475
385.313280	0.747691
385.698017	0.747360
386.082692	0.736063
386.467305	0.733799
386.851856	0.728137
387.236344	0.723385
387.620770	0.718611
388.005133	0.711964
388.389435	0.706190
388.773674	0.704156
389.157851	0.695940
389.541965	0.693293
389.926018	0.699566
390.310008	0.686286
390.693936	0.683464
391.077802	0.676256
391.461606	0.677472
391.845348	0.665926
392.229027	0.666777
392.612645	0.664273
392.996200	0.651506
393.379694	0.643657
393.763125	0.634293
394.146494	0.639731
394.529801	0.629338
394.913047	0.621822
395.296230	0.627521
395.679351	0.619448
396.062410	0.615473
396.445408	0.618336
396.828343	0.613579
397.211217	0.609382
397.594028	0.621325
397.976778	0.611212
398.359466	0.607848
398.742092	0.603235
399.124656	0.615375
399.507158	0.603008
399.889598	0.600602
400.271977	0.592144
400.654294	0.595620
401.036549	0.594991
401.418742	0.598674
401.800874	0.584662
402.182944	0.581415
402.564952	0.572974
402.946898	0.575433
403.328783	0.576031
403.710606	0.587036
404.092367	0.561856
404.474067	0.567277
404.855705	0.565318
405.237282	0.574528
405.618797	0.561372
406.000250	0.557260
406.381642	0.546517
406.762972	0.551678
407.144240	0.550720
407.525447	0.550555
407.906593	0.542903
408.287677	0.539003
408.668700	0.547177
409.049661	0.541260
409.430560	0.536249
409.811399	0.544917
410.192176	0.526481
410.572891	0.534046
410.953545	0.521931
411.334138	0.535744
411.714669	0.527594
412.095139	0.540025
412.475547	0.524070
412.855894	0.526366
413.236180	0.524899
413.616405	0.530266
413.996568	0.520655
414.376670	0.527335
414.756711	0.531539
415.136691	0.528754
415.516609	0.519059
415.896466	0.516215
416.276262	0.512809
416.655997	0.514107
417.035670	0.495867
417.415283	0.487546
417.794834	0.491945
418.174324	0.497541
418.553753	0.506732
418.933121	0.488662
419.312428	0.482603
419.691674	0.488852
420.070859	0.477380
420.449983	0.484922
420.829045	0.473746
421.208047	0.482693
421.586988	0.476019
421.965867	0.475089
422.344686	0.463794
422.723444	0.476553
423.102141	0.493564
423.480777	0.465815
423.859352	0.486540
424.237866	0.464012
424.616319	0.464702
424.994712	0.455855
425.373044	0.466025
425.751314	0.454006
426.129524	0.470641
426.507673	0.453902
426.885762	0.447471
427.263789	0.453274
427.641756	0.463539
428.019662	0.453304
428.397508	0.452133
428.775292	0.456215
429.153016	0.448642
429.530679	0.454394
429.908282	0.448334
430.285824	0.457954
430.663305	0.436580
431.040726	0.457767
431.418086	0.457360
431.795385	0.449802
432.172624	0.448256
432.549802	0.448712
432.926920	0.447743
433.303977	0.447347
433.680974	0.444564
434.057910	0.443380
434.434786	0.441860
434.811601	0.445019
435.188355	0.427527
435.565050	0.436376
435.941683	0.437423
436.318257	0.421365
436.694770	0.423084
437.071222	0.420777
437.447614	0.425045
437.823946	0.431334
438.200218	0.421012
438.576429	0.430543
438.952580	0.423754
439.328670	0.420676
439.704700	0.427001
440.080670	0.428343
440.456580	0.409258
440.832429	0.417025
441.208218	0.428057
441.583947	0.418069
441.959616	0.416686
442.335224	0.422568
442.710773	0.412912
443.086261	0.411484
443.461689	0.424905
443.837057	0.414645
444.212365	0.404532
444.587612	0.411818
444.962800	0.401447
445.337927	0.403426
445.712995	0.429587
446.088002	0.390866
446.462949	0.401670
446.837837	0.406442
447.212664	0.395375
447.587431	0.387135
447.962139	0.357439
448.336786	0.316068
448.711374	0.326421
449.085901	0.371036
449.460369	0.375419
449.834776	0.378603
450.209124	0.357830
450.583412	0.350983
450.957640	0.343725
451.331808	0.355450
451.705917	0.378452
452.079965	0.383262
452.453954	0.371352
452.827883	0.378030
453.201752	0.372956
453.575562	0.383810
453.949311	0.372762
454.323001	0.378742
454.696632	0.374174
455.070202	0.367275
455.443713	0.359299
455.817164	0.353984
456.190556	0.349842
456.563888	0.346452
456.937160	0.344029
457.310373	0.361243
457.683526	0.360099
458.056619	0.365676
458.429653	0.366763
458.802628	0.370054
459.175542	0.364185
459.548398	0.346669
459.921194	0.339378
460.293930	0.339193
460.666607	0.317206
461.039224	0.304786
461.411782	0.300429
461.784280	0.299963
462.156719	0.303956
462.529099	0.308049
462.901419	0.324389
463.273680	0.328861
463.645882	0.328580
464.018024	0.334205
464.390106	0.327191
464.762130	0.311336
465.134094	0.294735
465.505999	0.263398
465.877845	0.234051
466.249631	0.220473
466.621358	0.228239
466.993026	0.241991
467.364634	0.248250
467.736184	0.257287
468.107674	0.266128
468.479105	0.265298
468.850477	0.272110
469.221790	0.278965
469.593043	0.289069
469.964238	0.293493
470.335373	0.293214
470.706449	0.291226
471.077467	0.291784
471.448425	0.253705
471.819324	0.229447
472.190164	0.228936
472.560945	0.257941
472.931667	0.280158
473.302330	0.284126
473.672934	0.296286
474.043479	0.284328
474.413965	0.285994
474.784393	0.289605
475.154761	0.284337
475.525070	0.281590
475.895321	0.287557
476.265513	0.282043
476.635645	0.277345
477.005719	0.277034
477.375734	0.273647
477.745691	0.266900
478.115588	0.262903
478.485427	0.256589
478.855207	0.243567
479.224928	0.225735
479.594591	0.214057
479.964194	0.217236
480.333739	0.218679
480.703226	0.220000
481.072653	0.218257
481.442022	0.214231
481.811333	0.210873
482.180584	0.214216
482.549777	0.219747
482.918912	0.222826
483.287988	0.222790
483.657005	0.222241
484.025964	0.228684
484.394864	0.225947
484.763706	0.226721
485.132489	0.231617
485.501213	0.232660
485.869879	0.230623
486.238487	0.233854
486.607036	0.231972
486.975527	0.236317
487.343959	0.232381
487.712333	0.231217
488.080648	0.232921
488.448905	0.231910
488.817104	0.233496
489.185244	0.227497
489.553326	0.224710
489.921350	0.214425
490.289315	0.196745
490.657222	0.191717
491.025070	0.193359
491.392861	0.195182
491.760593	0.200842
492.128267	0.206419
492.495883	0.212289
492.863440	0.218355
493.230939	0.224899
493.598380	0.226181
493.965763	0.228529
494.333088	0.230511
494.700354	0.232343
495.067563	0.231061
495.434713	0.234677
495.801805	0.232169
496.168839	0.233958
496.535815	0.235211
496.902733	0.234897
497.269593	0.236764
497.636395	0.234221
498.003139	0.234624
498.369825	0.237873
498.736453	0.234224
499.103023	0.235844
499.469535	0.235116
499.835989	0.235450
500.202385	0.236015
500.568723	0.239317
500.935003	0.234495
501.301226	0.238909
501.667390	0.233320
502.033497	0.231224
502.399546	0.234409
502.765537	0.236192
503.131470	0.234818
503.497345	0.230779
503.863163	0.239484
504.228923	0.232484
504.594625	0.231214
504.960269	0.236695
505.325856	0.232034
505.691385	0.236461
506.056856	0.233194
506.422270	0.232391
506.787625	0.234905
507.152924	0.232487
507.518164	0.232928
507.883347	0.234461
508.248472	0.236372
508.613540	0.231090
508.978550	0.233649
509.343503	0.234209
509.708398	0.231903
510.073236	0.229605
510.438016	0.229097
510.802738	0.229911
511.167403	0.229222
511.532010	0.231070
511.896561	0.226747
512.261053	0.225186
512.625488	0.227431
512.989866	0.227824
513.354186	0.228066
513.718449	0.229849
514.082655	0.226430
514.446803	0.228540
514.810894	0.226142
515.174927	0.228920
515.538904	0.228483
515.902822	0.225210
516.266684	0.227728
516.630488	0.228657
516.994235	0.227470
517.357925	0.226591
517.721558	0.224717
518.085133	0.224507
518.448651	0.224027
518.812112	0.226735
519.175516	0.226285
519.538863	0.223674
519.902152	0.225806
520.265385	0.222269
520.628560	0.223948
520.991678	0.224589
521.354739	0.223314
521.717743	0.224652
522.080690	0.225014
522.443580	0.222361
522.806413	0.223021
523.169189	0.222451
523.531908	0.221378
523.894569	0.224975
524.257174	0.224864
524.619722	0.222569
524.982213	0.223802
525.344647	0.222543
525.707025	0.223488
526.069345	0.221590
526.431608	0.223315
526.793815	0.221214
527.155964	0.225493
527.518057	0.224414
527.880093	0.225478
528.242072	0.223970
528.603995	0.225933
528.965860	0.227584
529.327669	0.226556
529.689421	0.227289
530.051117	0.228303
530.412755	0.226059
530.774337	0.228306
531.135862	0.228759
531.497331	0.228096
531.858743	0.230901
532.220098	0.227438
532.581396	0.230304
532.942638	0.230416
533.303824	0.231703
533.664953	0.231181
534.026025	0.233155
534.387040	0.230960
534.747999	0.231072
535.108902	0.229835
535.469748	0.234823
535.830537	0.232491
536.191270	0.233238
536.551947	0.232845
536.912567	0.232692
537.273131	0.234169
537.633638	0.234634
537.994089	0.235171
538.354483	0.235796
538.714821	0.232747
539.075103	0.232511
539.435328	0.233450
539.795497	0.237315
540.155609	0.233591
540.515665	0.231940
540.875665	0.237802
541.235609	0.236327
541.595496	0.236226
541.955328	0.232932
542.315102	0.235476
542.674821	0.236665
543.034483	0.236865
543.394090	0.236517
543.753640	0.238018
544.113134	0.233115
544.472571	0.236550
544.831953	0.233212
545.191278	0.237474
545.550548	0.236428
545.909761	0.233619
546.268918	0.234434
546.628019	0.232730
546.987064	0.235194
547.346053	0.236991
547.704986	0.235033
548.063863	0.235114
548.422684	0.235375
548.781449	0.237295
549.140158	0.235272
549.498811	0.237678
549.857408	0.240800
550.215949	0.235536
550.574434	0.238546
550.932864	0.236670
551.291237	0.235219
551.649555	0.237063
552.007817	0.236461
552.366022	0.237539
552.724173	0.237740
553.082267	0.237699
553.440305	0.234701
553.798288	0.238991
554.156215	0.235812
554.514086	0.236370
554.871902	0.239936
555.229661	0.238454
555.587365	0.239294
555.945014	0.241965
556.302606	0.238840
556.660143	0.241701
557.017625	0.237946
557.375050	0.240098
557.732421	0.237227
558.089735	0.239212
558.446994	0.239288
558.804197	0.238522
559.161345	0.238123
559.518437	0.241853
559.875474	0.239745
560.232455	0.239219
560.589381	0.240117
560.946251	0.240206
561.303065	0.237842
561.659825	0.239269
562.016528	0.240937
562.373177	0.243422
562.729770	0.240591
563.086307	0.242757
563.442789	0.240753
563.799216	0.243423
564.155587	0.242638
564.511904	0.243510
564.868164	0.243619
565.224370	0.243471
565.580520	0.245084
565.936615	0.244969
566.292654	0.248030
566.648638	0.245144
567.004567	0.246145
567.360441	0.246354
567.716260	0.248572
568.072023	0.246131
568.427732	0.247003
568.783385	0.249323
569.138982	0.247611
569.494525	0.247303
569.850013	0.250052
570.205445	0.248707
570.560823	0.251316
570.916145	0.253140
571.271412	0.251725
571.626625	0.252870
571.981782	0.253441
572.336884	0.254149
572.691931	0.253982
573.046923	0.255477
573.401860	0.256531
573.756743	0.258109
574.111570	0.257007
574.466342	0.257410
574.821059	0.256702
575.175722	0.259318
575.530330	0.259239
575.884882	0.259504
576.239380	0.261571
576.593823	0.261886
576.948211	0.261620
577.302544	0.264658
577.656823	0.264670
578.011047	0.264389
578.365216	0.265198
578.719330	0.267036
579.073389	0.266750
579.427394	0.267930
579.781344	0.268824
580.135239	0.270396
580.489080	0.269944
580.842866	0.273048
581.196597	0.273478
581.550273	0.271657
581.903895	0.272528
582.257463	0.270438
582.610975	0.274147
582.964434	0.273434
583.317837	0.276063
583.671186	0.276485
584.024481	0.276372
584.377721	0.278924
584.730906	0.279487
585.084037	0.279319
585.437113	0.280735
585.790135	0.280034
586.143103	0.283171
586.496016	0.284453
586.848874	0.281794
587.201679	0.282464
587.554428	0.285616
587.907124	0.284409
588.259765	0.285117
588.612352	0.285923
588.964884	0.289439
589.317362	0.289202
589.669786	0.289057
590.022155	0.287441
590.374470	0.286851
590.726731	0.289054
591.078937	0.293959
591.431090	0.290186
591.783188	0.294163
592.135232	0.294705
592.487222	0.294635
592.839157	0.293249
593.191038	0.295189
593.542866	0.297135
593.894639	0.300464
594.246358	0.298684
594.598022	0.298432
594.949633	0.301974
595.301190	0.302314
595.652692	0.301492
596.004141	0.297734
596.355535	0.305834
596.706876	0.306947
597.058162	0.309048
597.409395	0.306020
597.760573	0.303827
598.111698	0.307151
598.462768	0.307352
598.813785	0.308465
599.164748	0.310396
599.515657	0.310436
599.866511	0.314032
600.217312	0.309367
600.568060	0.314565
600.918753	0.310426
601.269392	0.311876
601.619978	0.315169
601.970510	0.312491
602.320988	0.312438
602.671412	0.310630
603.021783	0.312943
603.372100	0.314178
603.722363	0.313960
604.072572	0.315112
604.422728	0.314706
604.772830	0.316849
605.122878	0.316834
605.472872	0.316991
605.822813	0.315156
606.172701	0.318132
606.522534	0.315210
606.872314	0.315310
607.222041	0.316673
607.571714	0.314604
607.921333	0.315751
608.270899	0.315836
608.620411	0.312185
608.969870	0.316572
609.319276	0.316355
609.668627	0.316386
610.017926	0.314895
610.367171	0.313507
610.716362	0.314173
611.065500	0.314450
611.414585	0.313154
611.763616	0.313240
612.112594	0.313839
612.461518	0.313407
612.810389	0.311021
613.159207	0.313143
613.507971	0.315086
613.856682	0.311092
614.205340	0.312234
614.553945	0.309417
614.902496	0.313069
615.250994	0.311263
615.599439	0.311921
615.947830	0.311239
616.296169	0.312497
616.644454	0.312023
616.992686	0.311901
617.340864	0.310073
617.688990	0.313072
618.037063	0.309934
618.385082	0.311832
618.733048	0.308603
619.080961	0.311042
619.428821	0.310297
619.776628	0.310210
620.124382	0.312357
620.472083	0.313088
620.819731	0.311892
621.167326	0.315605
621.514868	0.315317
621.862357	0.319681
622.209793	0.318933
622.557176	0.321591
622.904506	0.322858
623.251783	0.325008
623.599007	0.327487
623.946179	0.326881
624.293297	0.329294
624.640363	0.332376
624.987376	0.333430
625.334336	0.335440
625.681243	0.337773
626.028097	0.338510
626.374899	0.339674
626.721647	0.340269
627.068343	0.342957
627.414987	0.344229
627.761577	0.346179
628.108115	0.344350
628.454600	0.350081
628.801032	0.347487
629.147412	0.349261
629.493739	0.350132
629.840014	0.352747
630.186236	0.349774
630.532405	0.355755
630.878521	0.353654
631.224585	0.355264
631.570597	0.358574
631.916556	0.357552
632.262462	0.357071
632.608316	0.359608
632.954117	0.360400
633.299866	0.361523
633.645562	0.361301
633.991206	0.366113
634.336797	0.369124
634.682336	0.371204
635.027823	0.373037
635.373257	0.373649
635.718639	0.377092
636.063968	0.376534
636.409245	0.382473
636.754470	0.382423
637.099642	0.385237
637.444762	0.388454
637.789829	0.387602
638.134845	0.390560
638.479808	0.391886
638.824719	0.391919
639.169577	0.396246
639.514383	0.394954
639.859137	0.399637
640.203839	0.398420
640.548489	0.399328
640.893086	0.400554
641.237632	0.402518
641.582125	0.401365
641.926566	0.403117
642.270955	0.402654
642.615292	0.402846
642.959576	0.402334
643.303809	0.403187
643.647990	0.402370
643.992118	0.403147
644.336195	0.406057
644.680219	0.404336
645.024192	0.405649
645.368112	0.399149
645.711981	0.397990
646.055797	0.393199
646.399562	0.395215
646.743274	0.388163
647.086935	0.385095
647.430544	0.385162
647.774101	0.384041
648.117606	0.383804
648.461059	0.384360
648.804460	0.386951
649.147810	0.392163
649.491108	0.393728
649.834354	0.395458
650.177548	0.400463
650.520690	0.406027
650.863781	0.406563
651.206820	0.406365
651.549807	0.411252
651.892742	0.415290
652.235626	0.414861
652.578458	0.415642
652.921238	0.421708
653.263967	0.419292
653.606644	0.423329
653.949269	0.423253
654.291843	0.427234
654.634365	0.424195
654.976836	0.427119
655.319255	0.427940
655.661622	0.428738
656.003938	0.428752
656.346203	0.431176
656.688416	0.429339
657.030577	0.432709
657.372687	0.435634
657.714746	0.435710
658.056753	0.432582
658.398708	0.436858
658.740612	0.437825
659.082465	0.433713
659.424266	0.434555
659.766016	0.434151
660.107715	0.437498
660.449362	0.435961
660.790958	0.436030
661.132503	0.437326
661.473996	0.434622
661.815438	0.435721
662.156829	0.435728
662.498168	0.436662
662.839456	0.437574
663.180693	0.435659
663.521879	0.435578
663.863013	0.436051
664.204097	0.434840
664.545129	0.431819
664.886110	0.431911
665.227040	0.429226
665.567918	0.431987
665.908746	0.429733
666.249522	0.429572
666.590248	0.430639
666.930922	0.428863
667.271545	0.427765
667.612118	0.427591
667.952639	0.429064
668.293109	0.427936
668.633528	0.430846
668.973896	0.430843
669.314213	0.431509
669.654480	0.432411
669.994695	0.433101
670.334859	0.433786
670.674973	0.434341
671.015035	0.435037
671.355047	0.434204
671.695008	0.435533
672.034918	0.437139
672.374777	0.436691
672.714585	0.437405
673.054342	0.437532
673.394049	0.438031
673.733705	0.435778
674.073310	0.436761
674.412864	0.439282
674.752368	0.439637
675.091820	0.440213
675.431223	0.444500
675.770574	0.444696
676.109875	0.447543
676.449125	0.447661
676.788324	0.449972
677.127473	0.455275
677.466571	0.455215
677.805619	0.456980
678.144616	0.458194
678.483562	0.459927
678.822458	0.462376
679.161303	0.462845
679.500098	0.463592
679.838842	0.465253
680.177535	0.464867
680.516179	0.463410
680.854771	0.461623
681.193314	0.455295
681.531805	0.446778
681.870247	0.435093
682.208638	0.427777
682.546978	0.426510
682.885268	0.428813
683.223508	0.434680
683.561697	0.438906
683.899836	0.441182
684.237925	0.444295
684.575963	0.447067
684.913951	0.450565
685.251889	0.445987
685.589776	0.448234
685.927614	0.450244
686.265401	0.444798
686.603137	0.446109
686.940824	0.439808
687.278460	0.439038
687.616046	0.437480
687.953582	0.432633
688.291068	0.433929
688.628504	0.429144
688.965889	0.432135
689.303224	0.435227
689.640510	0.439685
689.977745	0.445291
690.314930	0.453214
690.652065	0.458091
690.989150	0.465509
691.326185	0.472353
691.663170	0.476735
692.000105	0.484345
692.336990	0.491355
692.673825	0.493534
693.010610	0.500430
693.347345	0.506334
693.684030	0.507992
694.020665	0.512060
694.357251	0.521024
694.693786	0.520727
695.030272	0.524220
695.366707	0.527715
695.703093	0.532219
696.039429	0.529895
696.375716	0.531802
696.711952	0.534236
697.048139	0.536426
697.384276	0.538303
697.720363	0.536920
698.056400	0.534514
698.392388	0.540729
698.728326	0.544016
699.064214	0.546566
699.400053	0.547467
699.735842	0.551639
700.071581	0.553608
700.407270	0.556741
700.742910	0.559758
701.078501	0.565962
701.414042	0.566515
701.749533	0.569130
702.084974	0.579811
702.420366	0.570690
702.755709	0.578525
703.091002	0.586709
703.426246	0.580454
703.761440	0.585395
704.096584	0.590410
704.431679	0.587310
704.766725	0.589430
705.101721	0.591785
705.436668	0.587581
705.771565	0.593796
706.106413	0.589965
706.441212	0.586498
706.775961	0.585416
707.110661	0.587121
707.445311	0.584604
707.779913	0.582015
708.114465	0.579563
708.448967	0.576357
708.783421	0.568962
709.117825	0.563305
709.452180	0.563043
709.786485	0.557081
710.120742	0.546872
710.454949	0.548534
710.789107	0.540379
711.123216	0.531738
711.457275	0.532696
711.791286	0.524312
712.125247	0.523419
712.459159	0.534198
712.793023	0.525729
713.126837	0.530065
713.460602	0.530659
713.794318	0.539938
714.127985	0.538993
714.461602	0.549518
714.795171	0.551919
715.128691	0.560672
715.462162	0.568018
715.795584	0.573929
716.128957	0.576137
716.462281	0.583313
716.795556	0.586016
717.128782	0.591845
717.461960	0.601202
717.795088	0.599614
718.128167	0.606859
718.461198	0.614212
718.794180	0.615278
719.127113	0.618429
719.459997	0.621105
719.792833	0.627954
720.125619	0.628932
720.458357	0.634296
720.791046	0.634998
721.123686	0.638411
721.456278	0.645097
721.788821	0.642126
722.121315	0.647652
722.453761	0.651097
722.786158	0.649293
723.118506	0.645285
723.450805	0.653066
723.783056	0.649177
724.115259	0.646610
724.447412	0.646148
724.779518	0.647651
725.111574	0.646581
725.443582	0.641880
725.775542	0.644158
726.107453	0.635996
726.439315	0.636182
726.771129	0.633535
727.102895	0.627655
727.434612	0.620516
727.766281	0.618887
728.097901	0.617578
728.429473	0.616493
728.760996	0.615694
729.092471	0.616000
729.423897	0.619651
729.755276	0.617921
730.086606	0.619197
730.417887	0.613499
730.749120	0.604187
731.080305	0.595288
731.411442	0.589829
731.742530	0.594820
732.073570	0.594071
732.404562	0.587271
732.735506	0.588143
733.066401	0.593547
733.397249	0.602599
733.728048	0.613728
734.058798	0.626550
734.389501	0.637748
734.720156	0.647617
735.050762	0.655214
735.381320	0.655960
735.711831	0.664309
736.042293	0.669743
736.372707	0.666583
736.703073	0.670735
737.033391	0.673763
737.363661	0.669436
737.693883	0.665556
738.024056	0.663782
738.354182	0.664635
738.684260	0.653758
739.014290	0.650484
739.344272	0.651056
739.674207	0.644087
740.004093	0.643270
740.333931	0.643890
740.663722	0.643869
740.993464	0.644207
741.323159	0.647270
741.652806	0.652844
741.982405	0.657515
742.311956	0.663141
742.641460	0.665138
742.970915	0.669160
743.300323	0.674769
743.629683	0.681975
743.958996	0.684310
744.288260	0.688726
744.617477	0.694858
744.946647	0.696312
745.275768	0.702205
745.604842	0.702174
745.933869	0.711861
746.262847	0.713308
746.591778	0.705792
746.920662	0.712947
747.249498	0.719055
747.578286	0.710697
747.907027	0.705746
748.235720	0.706802
748.564365	0.701469
748.892963	0.701865
749.221514	0.704393
749.550017	0.709116
749.878473	0.710847
750.206881	0.716930
750.535242	0.716976
750.863555	0.715566
751.191821	0.716187
751.520039	0.720835
751.848210	0.723887
752.176334	0.719229
752.504411	0.717283
752.832440	0.725964
753.160421	0.730210
753.488356	0.727748
753.816243	0.724840
754.144082	0.732686
754.471875	0.737588
754.799620	0.733220
755.127318	0.734335
755.454969	0.734105
755.782572	0.734400
756.110129	0.737739
756.437638	0.740394
756.765100	0.737506
757.092515	0.736105
757.419882	0.734463
757.747203	0.739615
758.074477	0.739958
758.401703	0.735437
758.728882	0.732044
759.056014	0.730173
759.383099	0.729209
759.710138	0.730035
760.037129	0.725638
760.364073	0.720785
760.690970	0.722856
761.017820	0.727404
761.344623	0.724329
761.671379	0.715390
761.998088	0.703271
762.324751	0.679901
762.651366	0.637316
762.977935	0.569457
763.304456	0.517766
763.630931	0.508106
763.957359	0.547603
764.283740	0.591677
764.610074	0.620081
764.936362	0.650686
765.262602	0.679231
765.588796	0.700233
765.914943	0.717199
766.241044	0.736179
766.567097	0.742752
766.893104	0.752639
767.219064	0.759216
767.544978	0.766162
767.870845	0.779405
768.196665	0.784500
768.522438	0.781994
768.848165	0.783523
769.173846	0.791546
769.499479	0.796152
769.825066	0.800900
770.150607	0.804956
770.476101	0.800155
770.801548	0.801717
771.126949	0.813114
771.452303	0.817677
771.777611	0.816136
772.102872	0.814862
772.428087	0.819979
772.753256	0.823505
773.078378	0.826344
773.403453	0.834800
773.728482	0.839016
774.053465	0.831485
774.378401	0.835719
774.703291	0.844935
775.028135	0.845651
775.352932	0.844436
775.677683	0.850055
776.002388	0.849826
776.327046	0.850068
776.651658	0.853870
776.976224	0.856396
777.300743	0.855053
777.625216	0.857824
777.949643	0.859343
778.274024	0.858967
778.598359	0.861684
778.922647	0.859858
779.246889	0.860564
779.571086	0.864597
779.895236	0.866499
780.219339	0.865560
780.543397	0.860075
780.867409	0.860423
781.191374	0.861827
781.515294	0.862959
781.839167	0.861593
782.162995	0.864927
782.486776	0.862610
782.810511	0.863797
783.134201	0.867701
783.457844	0.865288
783.781441	0.867895
784.104993	0.872580
784.428498	0.873443
784.751958	0.868694
785.075372	0.872214
785.398739	0.875846
785.722061	0.870022
786.045337	0.867611
786.368568	0.872082
786.691752	0.874224
787.014891	0.860243
787.337983	0.850226
787.661030	0.843921
787.984031	0.824939
788.306987	0.813762
788.629897	0.813360
788.952760	0.818710
789.275579	0.823219
789.598351	0.839258
789.921078	0.852626
790.243759	0.854344
790.566395	0.857924
790.888984	0.867716
791.211529	0.871770
791.534027	0.874457
791.856480	0.877159
792.178888	0.882553
792.501249	0.883940
792.823566	0.886791
793.145836	0.885529
793.468062	0.888394
793.790241	0.888239
794.112375	0.885911
794.434464	0.882644
794.756507	0.880820
795.078505	0.879776
795.400457	0.874283
795.722364	0.863714
796.044226	0.856841
796.366042	0.854235
796.687812	0.857769
797.009538	0.853002
797.331218	0.858309
797.652852	0.861585
797.974442	0.865273
798.295986	0.866514
798.617484	0.868875
798.938938	0.875014
799.260346	0.877845
799.581709	0.879665
799.903026	0.883105
800.224299	0.884700
800.545526	0.886333
800.866708	0.891676
801.187845	0.895389
801.508936	0.894344
801.829983	0.891495
802.150984	0.896721
802.471940	0.901304
802.792851	0.899558
803.113717	0.901372
803.434538	0.898710
803.755314	0.901399
804.076045	0.903895
804.396731	0.903374
804.717372	0.901682
805.037967	0.905722
805.358518	0.903132
805.679024	0.898100
805.999485	0.900885
806.319901	0.898756
806.640272	0.902323
806.960598	0.901191
807.280879	0.896824
807.601115	0.895403
807.921306	0.899293
808.241453	0.899774
808.561554	0.898470
808.881611	0.897201
809.201623	0.898687
809.521590	0.899657
809.841513	0.901305
810.161390	0.898076
810.481223	0.901081
810.801011	0.905093
811.120755	0.906913
811.440453	0.904479
811.760107	0.904932
812.079716	0.904224
812.399281	0.907396
812.718801	0.909059
813.038276	0.910656
813.357707	0.909997
813.677093	0.909147
813.996434	0.909741
814.315731	0.912357
814.634983	0.913536
814.954191	0.912544
815.273354	0.907570
815.592473	0.903538
815.911547	0.905318
816.230577	0.901076
816.549562	0.898658
816.868502	0.899068
817.187399	0.896321
817.506250	0.891714
817.825058	0.891940
818.143821	0.888124
818.462539	0.884193
818.781213	0.875742
819.099843	0.865311
819.418429	0.847392
819.736970	0.830721
820.055466	0.810757
820.373919	0.784338
820.692327	0.751028
821.010691	0.715422
821.329011	0.634336
821.647286	0.517589
821.965517	0.402223
822.283704	0.359536
822.601847	0.360309
822.919945	0.395954
823.237999	0.430737
823.556010	0.478870
823.873976	0.535534
824.191897	0.587076
824.509775	0.630740
824.827609	0.676795
825.145398	0.701211
825.463144	0.702042
825.780845	0.684446
826.098502	0.665648
826.416116	0.619918
826.733685	0.574748
827.051210	0.566033
827.368692	0.581198
827.686129	0.619552
828.003522	0.673506
828.320872	0.722937
828.638177	0.766020
828.955439	0.800707
829.272656	0.820916
829.589830	0.840282
829.906960	0.855524
830.224046	0.869549
830.541088	0.879814
830.858086	0.884226
831.175041	0.890808
831.491952	0.888865
831.808819	0.885446
832.125642	0.877219
832.442421	0.865519
832.759157	0.841974
833.075849	0.793712
833.392497	0.728828
833.709101	0.687515
834.025662	0.697101
834.342179	0.729261
834.658653	0.770042
834.975083	0.806242
835.291469	0.834363
835.607811	0.855755
835.924110	0.873451
836.240366	0.891057
836.556578	0.903308
836.872746	0.911916
837.188871	0.918670
837.504952	0.924160
837.820990	0.926502
838.136984	0.931604
838.452935	0.933678
838.768842	0.935317
839.084706	0.928612
839.400526	0.902620
839.716303	0.860193
840.032037	0.837721
840.347727	0.842335
840.663373	0.859760
840.978977	0.882046
841.294537	0.905641
841.610054	0.921595
841.925527	0.929453
842.240957	0.937585
842.556344	0.943503
842.871687	0.949462
843.186987	0.953449
843.502244	0.953994
843.817458	0.957443
844.132629	0.960035
844.447756	0.965330
844.762840	0.964536
845.077881	0.966355
845.392879	0.963463
845.707833	0.967307
846.022745	0.969264
846.337613	0.968854
846.652438	0.969277
846.967221	0.971090
847.281960	0.970246
847.596656	0.971342
847.911309	0.971421
848.225919	0.971141
848.540485	0.972724
848.855009	0.975885
849.169490	0.972857
849.483928	0.974758
849.798323	0.972948
850.112675	0.975446
850.426984	0.974988
850.741251	0.975282
851.055474	0.974888
851.369654	0.973737
851.683792	0.972820
851.997887	0.975112
852.311938	0.975776
852.625947	0.973286
852.939914	0.972269
853.253837	0.973485
853.567718	0.975223
853.881555	0.975335
854.195350	0.973399
854.509103	0.974700
854.822812	0.975252
855.136479	0.976161
855.450103	0.975600
855.763685	0.973787
856.077224	0.974176
856.390720	0.975789
856.704173	0.974974
857.017584	0.973627
857.330953	0.971968
857.644278	0.971330
857.957561	0.973220
858.270802	0.974864
858.584000	0.973713
858.897155	0.971792
859.210268	0.972131
859.523339	0.973837
859.836367	0.974887
860.149352	0.975211
860.462295	0.974958
860.775195	0.974699
861.088054	0.973496
861.400869	0.975788
861.713642	0.974666
862.026373	0.975515
862.339062	0.977052
862.651708	0.973303
862.964312	0.974399
863.276873	0.973696
863.589392	0.972451
863.901869	0.971595
864.214303	0.968965
864.526696	0.968396
864.839045	0.969086
865.151353	0.967038
865.463619	0.966413
865.775842	0.967751
866.088023	0.967460
866.400162	0.967517
866.712258	0.968565
867.024313	0.967693
867.336325	0.968496
867.648296	0.967715
867.960224	0.965887
868.272110	0.967083
868.583954	0.968418
868.895755	0.969744
869.207515	0.965948
869.519233	0.965164
869.830909	0.963939
870.142542	0.965551
870.454134	0.966381
870.765684	0.964875
871.077191	0.964410
871.388657	0.962972
871.700081	0.963201
872.011463	0.964116
872.322803	0.963036
872.634101	0.959989
872.945357	0.958345
873.256571	0.956537
873.567744	0.957768
873.878874	0.958056
874.189963	0.957676
874.501010	0.957452
874.812015	0.955128
875.122979	0.954570
875.433900	0.957442
875.744780	0.958058
876.055618	0.954751
876.366415	0.954033
876.677169	0.953606
876.987882	0.955589
877.298554	0.955889
877.609183	0.950659
877.919771	0.948562
878.230317	0.946025
878.540822	0.944443
878.851285	0.939039
879.161707	0.930972
879.472087	0.917626
879.782425	0.899714
880.092722	0.864691
880.402977	0.811075
880.713191	0.747300
881.023363	0.685805
881.333494	0.651629
881.643583	0.624241
881.953631	0.623845
882.263637	0.652098
882.573602	0.693004
882.883526	0.718660
883.193408	0.743756
883.503248	0.767765
883.813048	0.795102
884.122806	0.826257
884.432522	0.850648
884.742197	0.870822
885.051831	0.881914
885.361424	0.893917
885.670975	0.905495
885.980485	0.915171
886.289954	0.921568
886.599382	0.926367
886.908768	0.931846
887.218113	0.936198
887.527417	0.942557
887.836680	0.945226
888.145901	0.948934
888.455082	0.952004
888.764221	0.954788
889.073319	0.955737
889.382376	0.957601
889.691392	0.955584
890.000366	0.956563
890.309300	0.957647
890.618193	0.956267
890.927044	0.956233
891.235855	0.954642
891.544625	0.955400
891.853353	0.955754
892.162041	0.952788
892.470687	0.947465
892.779293	0.941924
893.087858	0.936303
893.396381	0.928504
893.704864	0.913970
894.013306	0.890284
894.321707	0.862898
894.630068	0.847908
894.938387	0.841949
895.246665	0.843568
895.554903	0.856182
895.863100	0.870337
896.171256	0.888432
896.479371	0.907590
896.787446	0.921238
897.095480	0.927899
897.403473	0.930452
897.711425	0.935526
898.019336	0.942329
898.327207	0.947691
898.635038	0.947910
898.942827	0.948883
899.250576	0.952122
899.558284	0.957561
899.865952	0.957880
900.173579	0.959071
900.481165	0.961155
900.788711	0.962631
901.096216	0.965336
901.403681	0.967314
901.711105	0.965646
902.018489	0.967974
902.325832	0.966280
902.633135	0.965143
902.940397	0.959885
903.247619	0.945787
903.554800	0.920712
903.861941	0.878904
904.169041	0.841490
904.476101	0.822968
904.783121	0.824224
905.090100	0.840372
905.397039	0.862775
905.703938	0.884677
906.010796	0.906832
906.317614	0.924401
906.624391	0.938084
906.931129	0.947241
907.237826	0.954575
907.544483	0.962100
907.851099	0.968121
908.157675	0.971575
908.464211	0.973802
908.770707	0.975661
909.077163	0.979332
909.383578	0.979700
909.689954	0.979340
909.996289	0.980598
910.302584	0.982797
910.608839	0.985421
910.915054	0.983951
911.221229	0.984033
911.527363	0.982299
911.833458	0.983087
912.139513	0.980855
912.445527	0.981652
912.751502	0.979397
913.057436	0.976700
913.363331	0.974898
913.669186	0.970516
913.975000	0.965915
914.280775	0.959046
914.586510	0.950882
914.892205	0.937685
915.197859	0.913384
915.503475	0.886489
915.809050	0.866530
916.114585	0.860511
916.420081	0.857441
916.725536	0.854608
917.030952	0.863099
917.336328	0.876815
917.641665	0.892967
917.946961	0.909015
918.252218	0.919761
918.557435	0.929265
918.862612	0.938094
919.167750	0.943592
919.472848	0.950939
919.777906	0.956932
920.082925	0.961170
920.387904	0.964965
920.692843	0.967325
920.997743	0.967948
921.302603	0.970872
921.607423	0.973090
921.912204	0.975579
922.216946	0.978004
922.521647	0.978656
922.826310	0.978228
923.130932	0.982009
923.435516	0.984697
923.740059	0.983809
924.044564	0.983810
924.349028	0.985575
924.653454	0.987408
924.957840	0.987296
925.262186	0.988374
925.566493	0.989126
925.870761	0.990233
926.174989	0.990221
926.479178	0.992244
926.783328	0.992890
927.087438	0.993305
927.391509	0.993303
927.695541	0.994159
927.999533	0.995763
928.303486	0.995883
928.607400	0.995522
928.911275	0.995761
929.215110	0.996199
929.518906	0.995128
929.822663	0.996792
930.126381	0.996402
930.430060	0.995662
930.733699	0.996271
931.037299	0.996131
931.340861	0.995740
931.644383	0.994500
931.947866	0.994990
932.251309	0.995769
932.554714	0.994913
932.858080	0.995878
933.161407	0.995548
933.464694	0.995892
933.767943	0.995671
934.071153	0.995318
934.374323	0.996588
934.677455	0.996350
934.980548	0.996495
935.283602	0.996802
935.586617	0.997033
935.889593	0.997186
936.192530	0.997591
936.495428	0.996939
936.798287	0.995596
937.101108	0.995138
937.403890	0.994141
937.706632	0.994205
938.009336	0.992056
938.312002	0.990557
938.614628	0.989103
938.917216	0.987281
939.219765	0.986612
939.522275	0.987296
939.824747	0.987510
940.127179	0.987315
940.429573	0.990070
940.731929	0.988739
941.034246	0.988716
941.336524	0.989594
941.638763	0.990596
941.940964	0.991167
942.243126	0.991383
942.545250	0.992065
942.847335	0.991532
943.149381	0.994004
943.451389	0.991120
943.753359	0.994324
944.055290	0.995458
944.357182	0.995976
944.659036	0.995318
944.960851	0.996214
945.262628	0.996234
945.564367	0.994770
945.866067	0.994210
946.167729	0.995844
946.469352	0.996386
946.770937	0.992902
947.072484	0.995653
947.373992	0.996005
947.675462	0.994692
947.976893	0.996229
948.278286	0.996895
948.579641	0.997113
948.880958	0.996576
949.182236	0.996543
949.483476	0.997336
949.784678	0.996981
950.085841	0.996072
950.386967	0.995620
950.688054	0.996434
950.989103	0.994706
951.290114	0.995251
951.591087	0.994619
951.892021	0.994352
952.192917	0.994875
952.493776	0.992795
952.794596	0.993640
953.095378	0.992828
953.396122	0.992935
953.696828	0.994464
953.997496	0.994808
954.298126	0.996512
954.598718	0.994923
954.899272	0.995692
955.199788	0.996196
955.500266	0.997283
955.800706	0.997157
956.101108	0.998099
956.401472	0.998875
956.701798	0.998482
957.002087	0.999014
957.302337	1.000362
957.602550	1.000200
957.902724	0.999382
958.202861	0.999185
958.502960	0.999430
958.803022	1.002214
959.103045	1.000758
959.403031	1.001786
959.702979	1.002846
960.002889	1.001389
960.302762	1.000708
960.602596	1.001757
960.902393	1.002069
961.202153	1.001174
961.501875	1.002434
961.801559	1.002214
962.101205	1.001122
962.400814	1.002573
962.700385	1.003311
962.999918	1.003202
963.299414	1.001680
963.598873	1.002705
963.898293	1.002639
964.197677	1.001410
964.497022	1.001894
964.796331	1.002023
965.095601	1.003183
965.394835	1.002780
965.694030	1.003038
965.993189	1.002542
966.292309	1.002837
966.591393	1.001642
966.890439	1.004546
967.189447	1.002938
967.488419	1.002488
967.787353	1.001544
968.086249	1.002889
968.385108	1.002313
968.683930	1.003185
968.982714	1.003414
969.281462	1.003908
969.580172	1.001610
969.878844	1.003574
970.177480	1.003717
970.476078	1.002600
970.774639	1.001688
971.073162	1.001629
971.371649	1.001588
971.670098	1.001699
971.968510	1.003365
972.266885	1.000962
972.565223	1.001337
972.863524	0.999629
973.161788	1.002417
973.460014	1.002595
973.758204	1.001199
974.056356	1.001978
974.354471	1.002012
974.652550	1.003519
974.950591	1.001190
975.248595	1.001815
975.546563	1.002828
975.844493	1.003103
976.142386	1.002227
976.440243	1.003381
976.738062	1.003056
977.035845	1.001746
977.333590	1.003098
977.631299	1.001797
977.928971	1.002042
978.226606	1.003225
978.524204	1.003312
978.821765	1.003805
979.119290	1.004357
979.416777	1.002393
979.714228	1.001640
980.011642	1.003651
980.309020	1.002479
980.606360	1.002018
980.903664	1.002470
981.200931	1.001512
981.498162	1.002219
981.795356	1.001038
982.092513	1.000873
982.389633	0.999545
982.686717	0.996142
982.983764	0.996276
983.280775	0.996875
983.577749	0.997429
983.874686	0.996841
984.171587	0.997898
984.468451	0.999288
984.765279	1.000950
985.062070	1.002102
985.358824	1.000195
985.655543	1.002447
985.952224	1.002422
986.248869	1.001761
986.545478	1.004154
986.842050	1.002382
987.138586	1.002046
987.435086	1.002871
987.731549	1.004050
988.027975	1.003923
988.324366	1.003499
988.620719	1.004697
988.917037	1.003838
989.213318	1.004392
989.509563	1.004055
989.805772	1.004307
990.101944	1.004430
990.398080	1.003531
990.694180	1.004202
990.990244	1.003893
991.286271	1.004553
991.582262	1.004088
991.878217	1.004200
992.174136	1.004793
992.470019	1.005402
992.765865	1.005382
993.061676	1.003795
993.357450	1.003902
993.653188	1.004144
993.948890	1.004560
994.244556	1.003262
994.540186	1.002593
994.835780	1.002897
995.131337	1.004624
995.426859	1.003631
995.722345	1.002747
996.017795	1.001489
996.313208	1.002126
996.608586	1.003399
996.903928	1.002763
997.199234	1.002100
997.494504	1.004277
997.789738	1.002011
998.084936	1.002921
998.380099	1.003103
998.675225	1.003463
998.970316	1.002874
999.265371	1.003903
999.560390	1.003906
999.855373	1.003038
1000.150320	1.003828
1000.445232	1.003766
1000.740108	1.004066
1001.034948	1.003498
1001.329752	1.003716
1001.624521	1.003850
1001.919254	1.003335
1002.213951	1.004902
1002.508613	1.003565
1002.803239	1.004094
1003.097829	1.004553
1003.392384	1.004323
1003.686903	1.003931
1003.981386	1.004027
1004.275834	1.005197
1004.570246	1.001913
1004.864623	1.005730
1005.158964	1.003719
1005.453270	1.003637
1005.747540	1.002929
1006.041775	1.004690
1006.335974	1.005279
1006.630138	1.004973
1006.924266	1.002650
1007.218359	1.002836
1007.512416	1.005340
1007.806438	1.003817
1008.100425	1.005140
1008.394376	1.004681
1008.688292	1.005044
1008.982172	1.004712
1009.276017	1.005086
1009.569827	1.005644
1009.863602	1.004628
1010.157341	1.006711
1010.451045	1.003649
1010.744714	1.006093
1011.038347	1.003957
1011.331945	1.003734
1011.625508	1.004967
1011.919036	1.004805
1012.212528	1.004368
1012.505986	1.004659
1012.799408	1.004845
1013.092795	1.004885
1013.386147	1.005102
1013.679464	1.006139
1013.972745	1.003909
1014.265992	1.004414
1014.559204	1.004621
1014.852380	1.005531
1015.145521	1.005337
1015.438628	1.005273
1015.731699	1.004614
1016.024736	1.004832
1016.317737	1.004509
1016.610703	1.005855
1016.903635	1.004969
1017.196531	1.004625
1017.489393	1.003342
1017.782219	1.004463
1018.075011	1.004758
1018.367768	1.004140
1018.660490	1.005646
1018.953177	1.005646
1019.245829	1.005646
