Dividing Wavelength (nm)	Counts (n)	Blue Motor Position (mm): 32.400000	Red Motor Position (mm): 0.000000	
326.493990	0.999404
326.888308	0.999404
327.282561	0.999404
327.676750	1.001684
328.070874	1.001581
328.464933	1.003050
328.858929	1.001462
329.252859	1.001425
329.646726	1.001357
330.040528	1.000474
330.434265	1.000072
330.827938	1.000460
331.221547	1.000413
331.615091	1.001431
332.008571	1.002058
332.401986	1.000625
332.795338	1.000525
333.188625	1.000826
333.581847	1.000948
333.975006	1.001182
334.368100	1.001405
334.761129	0.999775
335.154095	0.999428
335.546996	0.999874
335.939833	0.998594
336.332606	1.000449
336.725315	0.999628
337.117960	1.000627
337.510540	0.999510
337.903056	0.999543
338.295508	1.000712
338.687896	1.000687
339.080220	0.999272
339.472480	1.000652
339.864676	1.000143
340.256807	0.998661
340.648875	1.000190
341.040879	1.000276
341.432818	1.000687
341.824694	0.999456
342.216506	1.000722
342.608253	0.999953
342.999937	0.998712
343.391557	1.000242
343.783113	1.000404
344.174605	1.001119
344.566033	0.998994
344.957397	1.000356
345.348697	1.000890
345.739934	0.999182
346.131106	1.000032
346.522215	0.999268
346.913260	0.998748
347.304241	0.998835
347.695159	1.000006
348.086012	0.999253
348.476802	0.999242
348.867528	0.998683
349.258191	1.000409
349.648789	0.999384
350.039324	1.000476
350.429796	0.998982
350.820203	0.997974
351.210548	0.999865
351.600828	0.999884
351.991045	0.998896
352.381198	0.999346
352.771288	0.999672
353.161314	0.998470
353.551276	0.999055
353.941175	0.997137
354.331010	0.999500
354.720782	0.999134
355.110490	0.998751
355.500135	0.998952
355.889717	0.997917
356.279235	0.998238
356.668689	0.999784
357.058080	0.998324
357.447408	0.998264
357.836672	0.999445
358.225873	0.998117
358.615010	0.998788
359.004084	0.996862
359.393095	0.998929
359.782043	0.997892
360.170927	0.998641
360.559748	0.998861
360.948505	0.997882
361.337199	0.997768
361.725830	0.999208
362.114398	0.998984
362.502903	0.997787
362.891344	0.996942
363.279722	0.998071
363.668037	0.999275
364.056289	0.996913
364.444478	0.998375
364.832603	0.997227
365.220665	0.997772
365.608665	0.997355
365.996601	0.996623
366.384474	0.996264
366.772284	0.995905
367.160031	0.996502
367.547715	0.996022
367.935336	0.996032
368.322893	0.994016
368.710388	0.993279
369.097820	0.991752
369.485189	0.990098
369.872495	0.987492
370.259738	0.985068
370.646918	0.982649
371.034035	0.979329
371.421090	0.977205
371.808081	0.971831
372.195010	0.968950
372.581875	0.964985
372.968678	0.960193
373.355418	0.957788
373.742096	0.948813
374.128710	0.944851
374.515262	0.939522
374.901751	0.934397
375.288177	0.929335
375.674540	0.923371
376.060841	0.917073
376.447079	0.910161
376.833254	0.904176
377.219367	0.898859
377.605417	0.887587
377.991404	0.884084
378.377329	0.878520
378.763191	0.870743
379.148991	0.862738
379.534727	0.854922
379.920402	0.846649
380.306013	0.842664
380.691563	0.830223
381.077049	0.823843
381.462474	0.819356
381.847835	0.808054
382.233134	0.803277
382.618371	0.804509
383.003545	0.786593
383.388657	0.784743
383.773706	0.776410
384.158693	0.771760
384.543618	0.767824
384.928480	0.758936
385.313280	0.748784
385.698017	0.747864
386.082692	0.736333
386.467305	0.735259
386.851856	0.729321
387.236344	0.724142
387.620770	0.718903
388.005133	0.713166
388.389435	0.707343
388.773674	0.704946
389.157851	0.695929
389.541965	0.694663
389.926018	0.700361
390.310008	0.687598
390.693936	0.685128
391.077802	0.676619
391.461606	0.679106
391.845348	0.667307
392.229027	0.667437
392.612645	0.665087
392.996200	0.651870
393.379694	0.645183
393.763125	0.635967
394.146494	0.640387
394.529801	0.631105
394.913047	0.622374
395.296230	0.628334
395.679351	0.619252
396.062410	0.616725
396.445408	0.619599
396.828343	0.614946
397.211217	0.610212
397.594028	0.622081
397.976778	0.612690
398.359466	0.609464
398.742092	0.604583
399.124656	0.617002
399.507158	0.604901
399.889598	0.601837
400.271977	0.593500
400.654294	0.597635
401.036549	0.596050
401.418742	0.600796
401.800874	0.586595
402.182944	0.582369
402.564952	0.574324
402.946898	0.576894
403.328783	0.577917
403.710606	0.588737
404.092367	0.564217
404.474067	0.568846
404.855705	0.567286
405.237282	0.577359
405.618797	0.562521
406.000250	0.559576
406.381642	0.548586
406.762972	0.554040
407.144240	0.552246
407.525447	0.552796
407.906593	0.545322
408.287677	0.540347
408.668700	0.549070
409.049661	0.543078
409.430560	0.538414
409.811399	0.547385
410.192176	0.529083
410.572891	0.536609
410.953545	0.525035
411.334138	0.538198
411.714669	0.531197
412.095139	0.543277
412.475547	0.527597
412.855894	0.530660
413.236180	0.529813
413.616405	0.535282
413.996568	0.526800
414.376670	0.533637
414.756711	0.539582
415.136691	0.537206
415.516609	0.530262
415.896466	0.527810
416.276262	0.525678
416.655997	0.529113
417.035670	0.512558
417.415283	0.506102
417.794834	0.513475
418.174324	0.520231
418.553753	0.531678
418.933121	0.516577
419.312428	0.513982
419.691674	0.522000
420.070859	0.513815
420.449983	0.524744
420.829045	0.517108
421.208047	0.529415
421.586988	0.526413
421.965867	0.529386
422.344686	0.523940
422.723444	0.539243
423.102141	0.558955
423.480777	0.538434
423.859352	0.562204
424.237866	0.547357
424.616319	0.553534
424.994712	0.551300
425.373044	0.566434
425.751314	0.562333
426.129524	0.582171
426.507673	0.574758
426.885762	0.575728
427.263789	0.587819
427.641756	0.600411
428.019662	0.600816
428.397508	0.608509
428.775292	0.619211
429.153016	0.620697
429.530679	0.633086
429.908282	0.635841
430.285824	0.650242
430.663305	0.645020
431.040726	0.667569
431.418086	0.674589
431.795385	0.678877
432.172624	0.686537
432.549802	0.695113
432.926920	0.703353
433.303977	0.711592
433.680974	0.718472
434.057910	0.726211
434.434786	0.734314
434.811601	0.745402
435.188355	0.745080
435.565050	0.757622
435.941683	0.766850
436.318257	0.769174
436.694770	0.779101
437.071222	0.786123
437.447614	0.796833
437.823946	0.806543
438.200218	0.811707
438.576429	0.822367
438.952580	0.827964
439.328670	0.833884
439.704700	0.843308
440.080670	0.851065
440.456580	0.853790
440.832429	0.863872
441.208218	0.873139
441.583947	0.877416
441.959616	0.882176
442.335224	0.891309
442.710773	0.895559
443.086261	0.901521
443.461689	0.908620
443.837057	0.912968
444.212365	0.917182
444.587612	0.923460
444.962800	0.926592
445.337927	0.931331
445.712995	0.938655
446.088002	0.938857
446.462949	0.943658
446.837837	0.949442
447.212664	0.950817
447.587431	0.954836
447.962139	0.954373
448.336786	0.954573
448.711374	0.957549
449.085901	0.965269
449.460369	0.969090
449.834776	0.971057
450.209124	0.972790
450.583412	0.975492
450.957640	0.975568
451.331808	0.978657
451.705917	0.981021
452.079965	0.983124
452.453954	0.984295
452.827883	0.986001
453.201752	0.987083
453.575562	0.987286
453.949311	0.988480
454.323001	0.989830
454.696632	0.990861
455.070202	0.991295
455.443713	0.991485
455.817164	0.992349
456.190556	0.992450
456.563888	0.994569
456.937160	0.994015
457.310373	0.994408
457.683526	0.994765
458.056619	0.995618
458.429653	0.995850
458.802628	0.995353
459.175542	0.995897
459.548398	0.995910
459.921194	0.996804
460.293930	0.996489
460.666607	0.996941
461.039224	0.996727
461.411782	0.996868
461.784280	0.996116
462.156719	0.997385
462.529099	0.997437
462.901419	0.997095
463.273680	0.996846
463.645882	0.996787
464.018024	0.998264
464.390106	0.997412
464.762130	0.997560
465.134094	0.997925
465.505999	0.997779
465.877845	0.997108
466.249631	0.997029
466.621358	0.997235
466.993026	0.997558
467.364634	0.997862
467.736184	0.997994
468.107674	0.997662
468.479105	0.998033
468.850477	0.998070
469.221790	0.998207
469.593043	0.997422
469.964238	0.997959
470.335373	0.998066
470.706449	0.997930
471.077467	0.997755
471.448425	0.998569
471.819324	0.997875
472.190164	0.997050
472.560945	0.997960
472.931667	0.997992
473.302330	0.998452
473.672934	0.998665
474.043479	0.997590
474.413965	0.998446
474.784393	0.997926
475.154761	0.997232
475.525070	0.997954
475.895321	0.999331
476.265513	0.998240
476.635645	0.998342
477.005719	0.997791
477.375734	0.997265
477.745691	0.997120
478.115588	0.997613
478.485427	0.997578
478.855207	0.997787
479.224928	0.997882
479.594591	0.998181
479.964194	0.997541
480.333739	0.997504
480.703226	0.997035
481.072653	0.996851
481.442022	0.997099
481.811333	0.997327
482.180584	0.997542
482.549777	0.997502
482.918912	0.997569
483.287988	0.997568
483.657005	0.997177
484.025964	0.997551
484.394864	0.996999
484.763706	0.996934
485.132489	0.997788
485.501213	0.997678
485.869879	0.996866
486.238487	0.996368
486.607036	0.998020
486.975527	0.997610
487.343959	0.997393
487.712333	0.997675
488.080648	0.996772
488.448905	0.997764
488.817104	0.996877
489.185244	0.997621
489.553326	0.997423
489.921350	0.997383
490.289315	0.996998
490.657222	0.996695
491.025070	0.997816
491.392861	0.997905
491.760593	0.997272
492.128267	0.997098
492.495883	0.996762
492.863440	0.997617
493.230939	0.997588
493.598380	0.997811
493.965763	0.997372
494.333088	0.997114
494.700354	0.997226
495.067563	0.997260
495.434713	0.997971
495.801805	0.997452
496.168839	0.997865
496.535815	0.998313
496.902733	0.997807
497.269593	0.997248
497.636395	0.997206
498.003139	0.996965
498.369825	0.998355
498.736453	0.997593
499.103023	0.997500
499.469535	0.997640
499.835989	0.997663
500.202385	0.997062
500.568723	0.997239
500.935003	0.997703
501.301226	0.998346
501.667390	0.997324
502.033497	0.997922
502.399546	0.998056
502.765537	0.997812
503.131470	0.997606
503.497345	0.997776
503.863163	0.998037
504.228923	0.997859
504.594625	0.997283
504.960269	0.997858
505.325856	0.998820
505.691385	0.997484
506.056856	0.998374
506.422270	0.997767
506.787625	0.997663
507.152924	0.998353
507.518164	0.997306
507.883347	0.997627
508.248472	0.997969
508.613540	0.997428
508.978550	0.997809
509.343503	0.997818
509.708398	0.998401
510.073236	0.998089
510.438016	0.997134
510.802738	0.997306
511.167403	0.997811
511.532010	0.997797
511.896561	0.997862
512.261053	0.997505
512.625488	0.997871
512.989866	0.997788
513.354186	0.997399
513.718449	0.997865
514.082655	0.997280
514.446803	0.997657
514.810894	0.998288
515.174927	0.998119
515.538904	0.997902
515.902822	0.997710
516.266684	0.998107
516.630488	0.998093
516.994235	0.998295
517.357925	0.998412
517.721558	0.997639
518.085133	0.997530
518.448651	0.997634
518.812112	0.998240
519.175516	0.997407
519.538863	0.997694
519.902152	0.998731
520.265385	0.997829
520.628560	0.997879
520.991678	0.997497
521.354739	0.998297
521.717743	0.997909
522.080690	0.997530
522.443580	0.998141
522.806413	0.997434
523.169189	0.997812
523.531908	0.996762
523.894569	0.997934
524.257174	0.997859
524.619722	0.998018
524.982213	0.997511
525.344647	0.997449
525.707025	0.996985
526.069345	0.997191
526.431608	0.998180
526.793815	0.997902
527.155964	0.998320
527.518057	0.998077
527.880093	0.997568
528.242072	0.997677
528.603995	0.997688
528.965860	0.998140
529.327669	0.998215
529.689421	0.997505
530.051117	0.998453
530.412755	0.997658
530.774337	0.997600
531.135862	0.998017
531.497331	0.997402
531.858743	0.998118
532.220098	0.997309
532.581396	0.998218
532.942638	0.998061
533.303824	0.998635
533.664953	0.997693
534.026025	0.998546
534.387040	0.998217
534.747999	0.997927
535.108902	0.997775
535.469748	0.998274
535.830537	0.998067
536.191270	0.997469
536.551947	0.996812
536.912567	0.998152
537.273131	0.997878
537.633638	0.997363
537.994089	0.997875
538.354483	0.998141
538.714821	0.997805
539.075103	0.998125
539.435328	0.998163
539.795497	0.998436
540.155609	0.998210
540.515665	0.998394
540.875665	0.997757
541.235609	0.998046
541.595496	0.997639
541.955328	0.997756
542.315102	0.998153
542.674821	0.998953
543.034483	0.998177
543.394090	0.997384
543.753640	0.998287
544.113134	0.997715
544.472571	0.997969
544.831953	0.998184
545.191278	0.998148
545.550548	0.997293
545.909761	0.997380
546.268918	0.998152
546.628019	0.998511
546.987064	0.997802
547.346053	0.997388
547.704986	0.997509
548.063863	0.997820
548.422684	0.997977
548.781449	0.997343
549.140158	0.997972
549.498811	0.998007
549.857408	0.997103
550.215949	0.997763
550.574434	0.997755
550.932864	0.998067
551.291237	0.997588
551.649555	0.998452
552.007817	0.997937
552.366022	0.998413
552.724173	0.997942
553.082267	0.997621
553.440305	0.997788
553.798288	0.997534
554.156215	0.997829
554.514086	0.997869
554.871902	0.997310
555.229661	0.997266
555.587365	0.998348
555.945014	0.998541
556.302606	0.997363
556.660143	0.998447
557.017625	0.998279
557.375050	0.997790
557.732421	0.997844
558.089735	0.996921
558.446994	0.997380
558.804197	0.998375
559.161345	0.997707
559.518437	0.997930
559.875474	0.997525
560.232455	0.997939
560.589381	0.998177
560.946251	0.997281
561.303065	0.998043
561.659825	0.997769
562.016528	0.998168
562.373177	0.997839
562.729770	0.998141
563.086307	0.997467
563.442789	0.998003
563.799216	0.997560
564.155587	0.997755
564.511904	0.998613
564.868164	0.996647
565.224370	0.998019
565.580520	0.998162
565.936615	0.997540
566.292654	0.997717
566.648638	0.997954
567.004567	0.997656
567.360441	0.998176
567.716260	0.997078
568.072023	0.997389
568.427732	0.997741
568.783385	0.997426
569.138982	0.998060
569.494525	0.997836
569.850013	0.998394
570.205445	0.998141
570.560823	0.997754
570.916145	0.998070
571.271412	0.997879
571.626625	0.997780
571.981782	0.998033
572.336884	0.998896
572.691931	0.998311
573.046923	0.998292
573.401860	0.998119
573.756743	0.998168
574.111570	0.997942
574.466342	0.998716
574.821059	0.998048
575.175722	0.998047
575.530330	0.998121
575.884882	0.997460
576.239380	0.997543
576.593823	0.997640
576.948211	0.998060
577.302544	0.997785
577.656823	0.998734
578.011047	0.997392
578.365216	0.998663
578.719330	0.998294
579.073389	0.997016
579.427394	0.997804
579.781344	0.998889
580.135239	0.996780
580.489080	0.998129
580.842866	0.998712
581.196597	0.998019
581.550273	0.997884
581.903895	0.998823
582.257463	0.997293
582.610975	0.996875
582.964434	0.998478
583.317837	0.998729
583.671186	0.998298
584.024481	0.998019
584.377721	0.996895
584.730906	0.998343
585.084037	0.999137
585.437113	0.998723
585.790135	0.997682
586.143103	0.998655
586.496016	0.998314
586.848874	0.998540
587.201679	0.997634
587.554428	0.998198
587.907124	0.998775
588.259765	0.998173
588.612352	0.997941
588.964884	0.998248
589.317362	0.997781
589.669786	0.998493
590.022155	0.997983
590.374470	0.997867
590.726731	0.997167
591.078937	0.998333
591.431090	0.998372
591.783188	0.997628
592.135232	0.998682
592.487222	0.998355
592.839157	0.997751
593.191038	0.998278
593.542866	0.997737
593.894639	0.997032
594.246358	0.998120
594.598022	0.998058
594.949633	0.998536
595.301190	0.998050
595.652692	0.997715
596.004141	0.998014
596.355535	0.997601
596.706876	0.998637
597.058162	0.997112
597.409395	0.998425
597.760573	0.998181
598.111698	0.998479
598.462768	0.997795
598.813785	0.998285
599.164748	0.997918
599.515657	0.997404
599.866511	0.998136
600.217312	0.998220
600.568060	0.997778
600.918753	0.998487
601.269392	0.998185
601.619978	0.998945
601.970510	0.997781
602.320988	0.998967
602.671412	0.997649
603.021783	0.998359
603.372100	0.999072
603.722363	0.998519
604.072572	0.997776
604.422728	0.997877
604.772830	0.998233
605.122878	0.999209
605.472872	0.998592
605.822813	0.998399
606.172701	0.998428
606.522534	0.998796
606.872314	0.998246
607.222041	0.997785
607.571714	0.998955
607.921333	0.998345
608.270899	0.998329
608.620411	0.998655
608.969870	0.999247
609.319276	0.997774
609.668627	0.998443
610.017926	0.998242
610.367171	0.998764
610.716362	0.997797
611.065500	0.997657
611.414585	0.998319
611.763616	0.997762
612.112594	0.998491
612.461518	0.997616
612.810389	0.998709
613.159207	0.998231
613.507971	0.997948
613.856682	0.999021
614.205340	0.997144
614.553945	0.998306
614.902496	0.997294
615.250994	0.998164
615.599439	0.998904
615.947830	0.998196
616.296169	0.998611
616.644454	0.998265
616.992686	0.998199
617.340864	0.998875
617.688990	0.998408
618.037063	0.998641
618.385082	0.997535
618.733048	0.997712
619.080961	0.997925
619.428821	0.999287
619.776628	0.997683
620.124382	0.999187
620.472083	0.998407
620.819731	0.999360
621.167326	0.998445
621.514868	0.998531
621.862357	0.998193
622.209793	0.998549
622.557176	0.998512
622.904506	0.997913
623.251783	0.998374
623.599007	0.998353
623.946179	0.997668
624.293297	0.998246
624.640363	0.998772
624.987376	0.998199
625.334336	0.998567
625.681243	0.998056
626.028097	0.998557
626.374899	0.999061
626.721647	0.999045
627.068343	0.998479
627.414987	0.999016
627.761577	0.997849
628.108115	0.998087
628.454600	0.997987
628.801032	0.998454
629.147412	0.998458
629.493739	0.999147
629.840014	0.997276
630.186236	0.997720
630.532405	0.998408
630.878521	0.997946
631.224585	0.997917
631.570597	0.998908
631.916556	0.997892
632.262462	0.997218
632.608316	0.999156
632.954117	0.998130
633.299866	0.998092
633.645562	0.997927
633.991206	0.998849
634.336797	0.998202
634.682336	0.999400
635.027823	0.998236
635.373257	0.998559
635.718639	0.998435
636.063968	0.997988
636.409245	0.998161
636.754470	0.998721
637.099642	0.997555
637.444762	0.998974
637.789829	0.998314
638.134845	0.998512
638.479808	0.998129
638.824719	0.998997
639.169577	0.999052
639.514383	0.999107
639.859137	0.998423
640.203839	0.997935
640.548489	0.998677
640.893086	0.997854
641.237632	0.998958
641.582125	0.998651
641.926566	0.999361
642.270955	0.997664
642.615292	0.998182
642.959576	0.998502
643.303809	0.998977
643.647990	0.997819
643.992118	0.998527
644.336195	0.997673
644.680219	0.998630
645.024192	0.998669
645.368112	0.998248
645.711981	0.998231
646.055797	0.998732
646.399562	0.997967
646.743274	0.999282
647.086935	0.998150
647.430544	0.997284
647.774101	0.997652
648.117606	0.999552
648.461059	0.999148
648.804460	0.998662
649.147810	0.997373
649.491108	0.998643
649.834354	0.999346
650.177548	0.998701
650.520690	0.998319
650.863781	0.998204
651.206820	0.998956
651.549807	0.997011
651.892742	0.998220
652.235626	0.998292
652.578458	0.998845
652.921238	0.998752
653.263967	0.998906
653.606644	0.997682
653.949269	0.998526
654.291843	0.997399
654.634365	0.999042
654.976836	0.997911
655.319255	0.998735
655.661622	0.998561
656.003938	0.998213
656.346203	0.997674
656.688416	0.998774
657.030577	0.998016
657.372687	0.998198
657.714746	0.998163
658.056753	0.997555
658.398708	0.997612
658.740612	0.999047
659.082465	0.998518
659.424266	0.997850
659.766016	0.998499
660.107715	0.998501
660.449362	0.998210
660.790958	0.997794
661.132503	0.998662
661.473996	0.998099
661.815438	0.998876
662.156829	0.998825
662.498168	0.998044
662.839456	0.997362
663.180693	0.998545
663.521879	0.998017
663.863013	0.998800
664.204097	0.998057
664.545129	0.998206
664.886110	0.997899
665.227040	0.997580
665.567918	0.998089
665.908746	0.997695
666.249522	0.997410
666.590248	0.998360
666.930922	0.998410
667.271545	0.998301
667.612118	0.998208
667.952639	0.997784
668.293109	0.998110
668.633528	0.997367
668.973896	0.998749
669.314213	0.997632
669.654480	0.998544
669.994695	0.997506
670.334859	0.997815
670.674973	0.997574
671.015035	0.997476
671.355047	0.997927
671.695008	0.997742
672.034918	0.998036
672.374777	0.997715
672.714585	0.997960
673.054342	0.997843
673.394049	0.997541
673.733705	0.997935
674.073310	0.997762
674.412864	0.998290
674.752368	0.997622
675.091820	0.998060
675.431223	0.998727
675.770574	0.997256
676.109875	0.998008
676.449125	0.997155
676.788324	0.997280
677.127473	0.998038
677.466571	0.997974
677.805619	0.997785
678.144616	0.998717
678.483562	0.998575
678.822458	0.998076
679.161303	0.997285
679.500098	0.998308
679.838842	0.998011
680.177535	0.997296
680.516179	0.997286
680.854771	0.997612
681.193314	0.997440
681.531805	0.998074
681.870247	0.997629
682.208638	0.998241
682.546978	0.997376
682.885268	0.997312
683.223508	0.997573
683.561697	0.997050
683.899836	0.997662
684.237925	0.998088
684.575963	0.996901
684.913951	0.996890
685.251889	0.997443
685.589776	0.996892
685.927614	0.997511
686.265401	0.998181
686.603137	0.997343
686.940824	0.997362
687.278460	0.998728
687.616046	0.997593
687.953582	0.997830
688.291068	0.997690
688.628504	0.997158
688.965889	0.997509
689.303224	0.996727
689.640510	0.997265
689.977745	0.996862
690.314930	0.996633
690.652065	0.997975
690.989150	0.997146
691.326185	0.996738
691.663170	0.997428
692.000105	0.998052
692.336990	0.997089
692.673825	0.997428
693.010610	0.996500
693.347345	0.997763
693.684030	0.997005
694.020665	0.997150
694.357251	0.996460
694.693786	0.997487
695.030272	0.996310
695.366707	0.997594
695.703093	0.997411
696.039429	0.997114
696.375716	0.998649
696.711952	0.996567
697.048139	0.997822
697.384276	0.997673
697.720363	0.997288
698.056400	0.996599
698.392388	0.996017
698.728326	0.997270
699.064214	0.997911
699.400053	0.997772
699.735842	0.998636
700.071581	0.997234
700.407270	0.997539
700.742910	0.996932
701.078501	0.997642
701.414042	0.998731
701.749533	0.996201
702.084974	0.997660
702.420366	0.997378
702.755709	0.997326
703.091002	0.997661
703.426246	0.997729
703.761440	0.997519
704.096584	0.996768
704.431679	0.995762
704.766725	0.998139
705.101721	0.997475
705.436668	0.996728
705.771565	0.997192
706.106413	0.996544
706.441212	0.997361
706.775961	0.997332
707.110661	0.997271
707.445311	0.997457
707.779913	0.999021
708.114465	0.998478
708.448967	0.998426
708.783421	0.997881
709.117825	0.995903
709.452180	0.997405
709.786485	0.998684
710.120742	0.996772
710.454949	0.997308
710.789107	0.997181
711.123216	0.995876
711.457275	0.996997
711.791286	0.996713
712.125247	0.998198
712.459159	0.997146
712.793023	0.996300
713.126837	0.996972
713.460602	0.996583
713.794318	0.995778
714.127985	0.996242
714.461602	0.996475
714.795171	0.996821
715.128691	0.997208
715.462162	0.998081
715.795584	0.997007
716.128957	0.997516
716.462281	0.997516
716.795556	0.997152
717.128782	0.997898
717.461960	0.996776
717.795088	0.996635
718.128167	0.998707
718.461198	0.997704
718.794180	0.998093
719.127113	0.996722
719.459997	0.996731
719.792833	0.997223
720.125619	0.997030
720.458357	0.997086
720.791046	0.997640
721.123686	0.997518
721.456278	0.997434
721.788821	0.997113
722.121315	0.998163
722.453761	0.998043
722.786158	0.997444
723.118506	0.997459
723.450805	0.996748
723.783056	0.997541
724.115259	0.997094
724.447412	0.998463
724.779518	0.997643
725.111574	0.997733
725.443582	0.998202
725.775542	0.997414
726.107453	0.998110
726.439315	0.997344
726.771129	0.998203
727.102895	0.997927
727.434612	0.997760
727.766281	0.997805
728.097901	0.996849
728.429473	0.998275
728.760996	0.996582
729.092471	0.997988
729.423897	0.996839
729.755276	0.997847
730.086606	0.996944
730.417887	0.998043
730.749120	0.996998
731.080305	0.997042
731.411442	0.996376
731.742530	0.995876
732.073570	0.996679
732.404562	0.996720
732.735506	0.996657
733.066401	0.996751
733.397249	0.996953
733.728048	0.996577
734.058798	0.997755
734.389501	0.997933
734.720156	0.997659
735.050762	0.998111
735.381320	0.996512
735.711831	0.996907
736.042293	0.997340
736.372707	0.997734
736.703073	0.996656
737.033391	0.997623
737.363661	0.997420
737.693883	0.996253
738.024056	0.997667
738.354182	0.998175
738.684260	0.997106
739.014290	0.997118
739.344272	0.997261
739.674207	0.997728
740.004093	0.997420
740.333931	0.997058
740.663722	0.997067
740.993464	0.997394
741.323159	0.996153
741.652806	0.997577
741.982405	0.997137
742.311956	0.998332
742.641460	0.996979
742.970915	0.996413
743.300323	0.996524
743.629683	0.997220
743.958996	0.998484
744.288260	0.997472
744.617477	0.997135
744.946647	0.996859
745.275768	0.997773
745.604842	0.997384
745.933869	0.997162
746.262847	0.997049
746.591778	0.996149
746.920662	0.997234
747.249498	0.999119
747.578286	0.999081
747.907027	0.997002
748.235720	0.997725
748.564365	0.998742
748.892963	0.997463
749.221514	0.997803
749.550017	0.996633
749.878473	0.997285
750.206881	0.998344
750.535242	0.996564
750.863555	0.996903
751.191821	0.997569
751.520039	0.997122
751.848210	0.996319
752.176334	0.997273
752.504411	0.998543
752.832440	0.996175
753.160421	0.998142
753.488356	0.997436
753.816243	0.997796
754.144082	0.997361
754.471875	0.997440
754.799620	0.997621
755.127318	0.997779
755.454969	0.998107
755.782572	0.999475
756.110129	0.997537
756.437638	0.998385
756.765100	0.997795
757.092515	0.997355
757.419882	0.997899
757.747203	0.996540
758.074477	0.997450
758.401703	0.997163
758.728882	0.997582
759.056014	0.997218
759.383099	0.997575
759.710138	0.997541
760.037129	0.997420
760.364073	0.997864
760.690970	0.997691
761.017820	0.996933
761.344623	0.997875
761.671379	0.998421
761.998088	0.997704
762.324751	0.997338
762.651366	0.996246
762.977935	0.995741
763.304456	0.996425
763.630931	0.995176
763.957359	0.995001
764.283740	0.994642
764.610074	0.996100
764.936362	0.996652
765.262602	0.997009
765.588796	0.996829
765.914943	0.997219
766.241044	0.997567
766.567097	0.997425
766.893104	0.997373
767.219064	0.996991
767.544978	0.997999
767.870845	0.997972
768.196665	0.997132
768.522438	0.997583
768.848165	0.998909
769.173846	0.998601
769.499479	0.999512
769.825066	0.998718
770.150607	0.998605
770.476101	0.999354
770.801548	0.998640
771.126949	0.998007
771.452303	0.997842
771.777611	0.999257
772.102872	0.997714
772.428087	0.997359
772.753256	0.998134
773.078378	0.998548
773.403453	0.996618
773.728482	0.999396
774.053465	0.998270
774.378401	0.998848
774.703291	0.999169
775.028135	0.998809
775.352932	0.997854
775.677683	0.999035
776.002388	0.998712
776.327046	0.998169
776.651658	0.999593
776.976224	0.999358
777.300743	0.998259
777.625216	0.998244
777.949643	0.998719
778.274024	0.997730
778.598359	0.999210
778.922647	0.999180
779.246889	0.998985
779.571086	0.998703
779.895236	0.998753
780.219339	0.999528
780.543397	0.997880
780.867409	0.998612
781.191374	0.998410
781.515294	0.999747
781.839167	0.999496
782.162995	0.998079
782.486776	0.999214
782.810511	0.998930
783.134201	0.998668
783.457844	0.998533
783.781441	0.999421
784.104993	0.997665
784.428498	0.998682
784.751958	0.999542
785.075372	0.998728
785.398739	0.998768
785.722061	0.997223
786.045337	0.998719
786.368568	0.998825
786.691752	0.999275
787.014891	0.998530
787.337983	0.997271
787.661030	0.998153
787.984031	0.998092
788.306987	0.999263
788.629897	0.996721
788.952760	0.997860
789.275579	0.997775
789.598351	0.998017
789.921078	0.998571
790.243759	0.998499
790.566395	0.998101
790.888984	0.998743
791.211529	0.997723
791.534027	0.998509
791.856480	0.998352
792.178888	0.998294
792.501249	0.996601
792.823566	1.000207
793.145836	0.998324
793.468062	0.998202
793.790241	0.998640
794.112375	0.997508
794.434464	0.999272
794.756507	0.999609
795.078505	0.998219
795.400457	0.998575
795.722364	0.998340
796.044226	0.998567
796.366042	0.997192
796.687812	0.996837
797.009538	0.997450
797.331218	0.999090
797.652852	0.998528
797.974442	0.997922
798.295986	0.999328
798.617484	0.997866
798.938938	0.999417
799.260346	0.998533
799.581709	0.997171
799.903026	0.999313
800.224299	0.997613
800.545526	0.996937
800.866708	0.998203
801.187845	0.999007
801.508936	0.998271
801.829983	0.998992
802.150984	0.999122
802.471940	0.999145
802.792851	0.998898
803.113717	1.000746
803.434538	0.998650
803.755314	1.001153
804.076045	0.998521
804.396731	0.998049
804.717372	0.996490
805.037967	0.999644
805.358518	0.998635
805.679024	0.997998
805.999485	0.999052
806.319901	0.999127
806.640272	0.999024
806.960598	0.998650
807.280879	0.998507
807.601115	0.998829
807.921306	0.999362
808.241453	0.997566
808.561554	0.998384
808.881611	0.999395
809.201623	0.998241
809.521590	0.998118
809.841513	0.998054
810.161390	0.997786
810.481223	0.998551
810.801011	0.998643
811.120755	0.999382
811.440453	0.998004
811.760107	0.998937
812.079716	0.998318
812.399281	0.997843
812.718801	0.998460
813.038276	0.998814
813.357707	0.998209
813.677093	0.998682
813.996434	0.998060
814.315731	1.000338
814.634983	0.999909
814.954191	0.997839
815.273354	0.998381
815.592473	0.998160
815.911547	0.998434
816.230577	0.997615
816.549562	0.999236
816.868502	0.997815
817.187399	0.999280
817.506250	0.998366
817.825058	0.997596
818.143821	0.998403
818.462539	0.998416
818.781213	0.998405
819.099843	0.999064
819.418429	0.997337
819.736970	0.997553
820.055466	0.996236
820.373919	0.996467
820.692327	0.994107
821.010691	0.995602
821.329011	0.992669
821.647286	0.990945
821.965517	0.989250
822.283704	0.987469
822.601847	0.987096
822.919945	0.987614
823.237999	0.988027
823.556010	0.988849
823.873976	0.990976
824.191897	0.991274
824.509775	0.993510
824.827609	0.993670
825.145398	0.994943
825.463144	0.992295
825.780845	0.993470
826.098502	0.993619
826.416116	0.993623
826.733685	0.991976
827.051210	0.992237
827.368692	0.991736
827.686129	0.992157
828.003522	0.994442
828.320872	0.994439
828.638177	0.995907
828.955439	0.996760
829.272656	0.996866
829.589830	0.995595
829.906960	0.997937
830.224046	0.996796
830.541088	0.997505
830.858086	0.996967
831.175041	0.997848
831.491952	0.997845
831.808819	0.997627
832.125642	0.997046
832.442421	0.997649
832.759157	0.997891
833.075849	0.996198
833.392497	0.995285
833.709101	0.994509
834.025662	0.993536
834.342179	0.995092
834.658653	0.995061
834.975083	0.996560
835.291469	0.996554
835.607811	0.996714
835.924110	0.997070
836.240366	0.999462
836.556578	0.997863
836.872746	0.998223
837.188871	0.999537
837.504952	0.997850
837.820990	0.999611
838.136984	0.997521
838.452935	0.999671
838.768842	0.998511
839.084706	0.998670
839.400526	0.997492
839.716303	0.997070
840.032037	0.997422
840.347727	0.996325
840.663373	0.998007
840.978977	0.997432
841.294537	0.997819
841.610054	0.998633
841.925527	0.999733
842.240957	0.998765
842.556344	0.999448
842.871687	0.998597
843.186987	0.998227
843.502244	0.999710
843.817458	0.998205
844.132629	0.999695
844.447756	0.999026
844.762840	0.998138
845.077881	1.001322
845.392879	0.998557
845.707833	0.999507
846.022745	0.998812
846.337613	0.999401
846.652438	0.998646
846.967221	0.999645
847.281960	1.000072
847.596656	0.999450
847.911309	1.000375
848.225919	0.997657
848.540485	0.998995
848.855009	1.000368
849.169490	0.999663
849.483928	0.999561
849.798323	0.999006
850.112675	0.999659
850.426984	0.999520
850.741251	0.999912
851.055474	0.999347
851.369654	0.999595
851.683792	0.999158
851.997887	0.999288
852.311938	0.999693
852.625947	0.998867
852.939914	0.998705
853.253837	1.000854
853.567718	0.999344
853.881555	1.000667
854.195350	0.999208
854.509103	0.999851
854.822812	0.999440
855.136479	0.999230
855.450103	0.999960
855.763685	0.999480
856.077224	0.999162
856.390720	0.999775
856.704173	1.000605
857.017584	1.000209
857.330953	1.000106
857.644278	0.999592
857.957561	1.000279
858.270802	0.999156
858.584000	1.000237
858.897155	0.999505
859.210268	1.000529
859.523339	1.000583
859.836367	0.999137
860.149352	0.999601
860.462295	0.999510
860.775195	1.000016
861.088054	0.998904
861.400869	1.000049
861.713642	0.998449
862.026373	0.999323
862.339062	1.000323
862.651708	1.000089
862.964312	1.000329
863.276873	0.998832
863.589392	0.999807
863.901869	0.998184
864.214303	0.999652
864.526696	0.999499
864.839045	1.000315
865.151353	1.000109
865.463619	0.998068
865.775842	1.000014
866.088023	0.999435
866.400162	0.998742
866.712258	1.001648
867.024313	0.999900
867.336325	1.000379
867.648296	0.998807
867.960224	0.999095
868.272110	0.999563
868.583954	0.997888
868.895755	1.000412
869.207515	0.999182
869.519233	1.000266
869.830909	0.998271
870.142542	0.997537
870.454134	0.999064
870.765684	0.998635
871.077191	0.999785
871.388657	0.998621
871.700081	0.999757
872.011463	0.999982
872.322803	0.998995
872.634101	0.998363
872.945357	0.998473
873.256571	0.998470
873.567744	0.998146
873.878874	0.999230
874.189963	0.998035
874.501010	1.001177
874.812015	0.999099
875.122979	1.000032
875.433900	0.999063
875.744780	0.999260
876.055618	0.998473
876.366415	0.999148
876.677169	0.998617
876.987882	0.998868
877.298554	1.000328
877.609183	0.998141
877.919771	0.999008
878.230317	0.998759
878.540822	0.998232
878.851285	0.997734
879.161707	0.997499
879.472087	0.998421
879.782425	0.995530
880.092722	0.995666
880.402977	0.993804
880.713191	0.991980
881.023363	0.990176
881.333494	0.986681
881.643583	0.988146
881.953631	0.987860
882.263637	0.988014
882.573602	0.988251
882.883526	0.989879
883.193408	0.991344
883.503248	0.992307
883.813048	0.991656
884.122806	0.994585
884.432522	0.994067
884.742197	0.995563
885.051831	0.995825
885.361424	0.996565
885.670975	0.998290
885.980485	0.996355
886.289954	0.996602
886.599382	0.996105
886.908768	0.998023
887.218113	0.997506
887.527417	0.998969
887.836680	0.998120
888.145901	0.999160
888.455082	0.999795
888.764221	0.999778
889.073319	0.998217
889.382376	0.999171
889.691392	0.997731
890.000366	0.999137
890.309300	0.999300
890.618193	0.999046
890.927044	0.999138
891.235855	0.997732
891.544625	0.998729
891.853353	0.998371
892.162041	0.997850
892.470687	0.999115
892.779293	0.997778
893.087858	0.996912
893.396381	0.998439
893.704864	0.997368
894.013306	0.995705
894.321707	0.994865
894.630068	0.993877
894.938387	0.993731
895.246665	0.994019
895.554903	0.993257
895.863100	0.996045
896.171256	0.996174
896.479371	0.996630
896.787446	0.996989
897.095480	0.997348
897.403473	0.996815
897.711425	0.997695
898.019336	0.999521
898.327207	0.999519
898.635038	0.997552
898.942827	0.998340
899.250576	0.997542
899.558284	0.998120
899.865952	0.997279
900.173579	0.998581
900.481165	0.998871
900.788711	0.997301
901.096216	0.998859
901.403681	1.000363
901.711105	0.999498
902.018489	0.998961
902.325832	0.999509
902.633135	0.999272
902.940397	0.999248
903.247619	0.998426
903.554800	0.996887
903.861941	0.996182
904.169041	0.994288
904.476101	0.992482
904.783121	0.992955
905.090100	0.993141
905.397039	0.993741
905.703938	0.994580
906.010796	0.995131
906.317614	0.996467
906.624391	0.997597
906.931129	0.998147
907.237826	0.997917
907.544483	0.998352
907.851099	0.997401
908.157675	0.998718
908.464211	0.998808
908.770707	0.998472
909.077163	1.000787
909.383578	0.998726
909.689954	0.997891
909.996289	0.999153
910.302584	1.000470
910.608839	1.000591
910.915054	0.999084
911.221229	1.001193
911.527363	0.998874
911.833458	0.999771
912.139513	1.000024
912.445527	0.999782
912.751502	0.998859
913.057436	0.998367
913.363331	0.999651
913.669186	0.999270
913.975000	0.998339
914.280775	0.999288
914.586510	0.997110
914.892205	0.995452
915.197859	0.995705
915.503475	0.995937
915.809050	0.993958
916.114585	0.991141
916.420081	0.992393
916.725536	0.993683
917.030952	0.993153
917.336328	0.994278
917.641665	0.994394
917.946961	0.994888
918.252218	0.995344
918.557435	0.996534
918.862612	0.996817
919.167750	0.997005
919.472848	0.998334
919.777906	0.997516
920.082925	0.998898
920.387904	0.999143
920.692843	0.999163
920.997743	0.998214
921.302603	0.999041
921.607423	0.997915
921.912204	0.998598
922.216946	0.999454
922.521647	0.999491
922.826310	0.998445
923.130932	0.999725
923.435516	0.998792
923.740059	0.998966
924.044564	0.999508
924.349028	0.999191
924.653454	1.001032
924.957840	0.999364
925.262186	0.999019
925.566493	0.999183
925.870761	0.999218
926.174989	0.998813
926.479178	0.999864
926.783328	0.999426
927.087438	0.999746
927.391509	0.998895
927.695541	0.999492
927.999533	1.001511
928.303486	0.999396
928.607400	0.999801
928.911275	1.000218
929.215110	0.999752
929.518906	1.000127
929.822663	1.001359
930.126381	1.001262
930.430060	0.999540
930.733699	0.999722
931.037299	1.000787
931.340861	1.000395
931.644383	0.998708
931.947866	1.000649
932.251309	1.000041
932.554714	0.999837
932.858080	1.000988
933.161407	0.999324
933.464694	1.000850
933.767943	1.000411
934.071153	0.999402
934.374323	1.000363
934.677455	1.000159
934.980548	0.999365
935.283602	0.999881
935.586617	1.001291
935.889593	1.000881
936.192530	1.001084
936.495428	1.000914
936.798287	0.998399
937.101108	1.000846
937.403890	0.999520
937.706632	1.001296
938.009336	1.000200
938.312002	0.999396
938.614628	0.999992
938.917216	1.000015
939.219765	0.999195
939.522275	0.999294
939.824747	0.999069
940.127179	1.000383
940.429573	1.000275
940.731929	0.998202
941.034246	0.999148
941.336524	0.998285
941.638763	0.998835
941.940964	0.998683
942.243126	0.998402
942.545250	1.000522
942.847335	0.999966
943.149381	1.000043
943.451389	0.999088
943.753359	0.999207
944.055290	1.001307
944.357182	0.999749
944.659036	0.999535
944.960851	1.000831
945.262628	0.999357
945.564367	1.000644
945.866067	1.000334
946.167729	0.999227
946.469352	0.999985
946.770937	0.997042
947.072484	1.000349
947.373992	0.999939
947.675462	0.999331
947.976893	0.998503
948.278286	1.000837
948.579641	1.000824
948.880958	0.999499
949.182236	0.998320
949.483476	1.001157
949.784678	1.001470
950.085841	0.999601
950.386967	0.999521
950.688054	0.999405
950.989103	0.998315
951.290114	0.999260
951.591087	0.999645
951.892021	1.000040
952.192917	1.000017
952.493776	0.999476
952.794596	0.998908
953.095378	0.999910
953.396122	0.999395
953.696828	0.999620
953.997496	0.999699
954.298126	1.001098
954.598718	1.000149
954.899272	1.000086
955.199788	0.999958
955.500266	1.000634
955.800706	0.999394
956.101108	0.999017
956.401472	1.001155
956.701798	0.999229
957.002087	1.000162
957.302337	0.999622
957.602550	0.999952
957.902724	1.000516
958.202861	1.001311
958.502960	0.999809
958.803022	1.001252
959.103045	0.999669
959.403031	1.000108
959.702979	1.001159
960.002889	1.000110
960.302762	0.998917
960.602596	0.999745
960.902393	1.000729
961.202153	0.999489
961.501875	0.999635
961.801559	1.000794
962.101205	1.000320
962.400814	1.001737
962.700385	0.999573
962.999918	1.000344
963.299414	0.999707
963.598873	1.000578
963.898293	1.000279
964.197677	1.000083
964.497022	1.000590
964.796331	1.000223
965.095601	1.001341
965.394835	1.000916
965.694030	1.000049
965.993189	1.000002
966.292309	1.001035
966.591393	0.999495
966.890439	1.001500
967.189447	1.000695
967.488419	1.001066
967.787353	1.000607
968.086249	0.999701
968.385108	0.999362
968.683930	1.001355
968.982714	1.000582
969.281462	1.001099
969.580172	1.000068
969.878844	1.000910
970.177480	1.000795
970.476078	1.001252
970.774639	1.000933
971.073162	0.998568
971.371649	1.000040
971.670098	0.998913
971.968510	0.999828
972.266885	0.999899
972.565223	1.000547
972.863524	0.998698
973.161788	0.999514
973.460014	1.000327
973.758204	0.999421
974.056356	1.000214
974.354471	1.000911
974.652550	1.000911
974.950591	0.999384
975.248595	0.999458
975.546563	1.000895
975.844493	1.000592
976.142386	0.998899
976.440243	1.001816
976.738062	1.000817
977.035845	0.998718
977.333590	1.000877
977.631299	1.000787
977.928971	1.000549
978.226606	1.000707
978.524204	0.999040
978.821765	1.000239
979.119290	1.001138
979.416777	1.000987
979.714228	1.000254
980.011642	1.000680
980.309020	0.998681
980.606360	1.000910
980.903664	1.000335
981.200931	1.000008
981.498162	0.999596
981.795356	1.000000
982.092513	0.999180
982.389633	1.001904
982.686717	0.999094
982.983764	0.999702
983.280775	1.000373
983.577749	1.001050
983.874686	0.999618
984.171587	0.999618
984.468451	1.000944
984.765279	1.001283
985.062070	1.001191
985.358824	0.999303
985.655543	1.000485
985.952224	0.999913
986.248869	1.000000
986.545478	1.000309
986.842050	0.999252
987.138586	1.000215
987.435086	1.000166
987.731549	1.001551
988.027975	1.001860
988.324366	0.999784
988.620719	1.001569
988.917037	1.000147
989.213318	1.001584
989.509563	1.000774
989.805772	1.000843
990.101944	1.000796
990.398080	1.001233
990.694180	1.000797
990.990244	1.000444
991.286271	1.001046
991.582262	1.001898
991.878217	1.000083
992.174136	1.000617
992.470019	1.000341
992.765865	1.001693
993.061676	1.000615
993.357450	1.000380
993.653188	1.001761
993.948890	1.001232
994.244556	0.999351
994.540186	0.999625
994.835780	0.999863
995.131337	1.001177
995.426859	1.000516
995.722345	1.001114
996.017795	0.999871
996.313208	1.001763
996.608586	1.000687
996.903928	1.001253
997.199234	0.999681
997.494504	1.001518
997.789738	1.000093
998.084936	1.000645
998.380099	1.000291
998.675225	1.001975
998.970316	1.001467
999.265371	1.001269
999.560390	1.001516
999.855373	1.000329
1000.150320	1.000980
1000.445232	1.000282
1000.740108	1.000003
1001.034948	1.000478
1001.329752	1.001721
1001.624521	1.001399
1001.919254	0.999942
1002.213951	1.000997
1002.508613	1.001087
1002.803239	1.000205
1003.097829	1.000866
1003.392384	1.000989
1003.686903	1.001492
1003.981386	1.001010
1004.275834	1.001586
1004.570246	0.999916
1004.864623	1.000711
1005.158964	1.001353
1005.453270	1.000849
1005.747540	1.001098
1006.041775	1.000911
1006.335974	1.001921
1006.630138	1.000828
1006.924266	1.000439
1007.218359	0.998375
1007.512416	1.001272
1007.806438	1.000137
1008.100425	1.000860
1008.394376	1.001255
1008.688292	0.999858
1008.982172	1.000724
1009.276017	0.999817
1009.569827	1.000357
1009.863602	0.999099
1010.157341	1.000819
1010.451045	1.000238
1010.744714	1.002232
1011.038347	1.000849
1011.331945	0.999346
1011.625508	0.999618
1011.919036	1.000019
1012.212528	1.000200
1012.505986	0.999912
1012.799408	1.001182
1013.092795	1.000544
1013.386147	1.001004
1013.679464	1.000290
1013.972745	1.000366
1014.265992	0.999756
1014.559204	1.000256
1014.852380	1.001018
1015.145521	1.000371
1015.438628	1.001038
1015.731699	1.000071
1016.024736	1.001839
1016.317737	1.001019
1016.610703	1.001421
1016.903635	1.000779
1017.196531	1.000134
1017.489393	1.001011
1017.782219	1.000583
1018.075011	0.999691
1018.367768	1.000164
1018.660490	1.000514
1018.953177	1.000514
1019.245829	1.000514
