Dividing Wavelength (nm)	Counts (n)	Blue Motor Position (mm): 36.000000	Red Motor Position (mm): 0.000000	
326.493990	0.999436
326.888308	0.999436
327.282561	0.999436
327.676750	1.000647
328.070874	1.001264
328.464933	1.000599
328.858929	1.000665
329.252859	1.000990
329.646726	1.000039
330.040528	0.999932
330.434265	0.999746
330.827938	1.000380
331.221547	1.001004
331.615091	1.000609
332.008571	1.000806
332.401986	1.000152
332.795338	1.001203
333.188625	1.000145
333.581847	1.000294
333.975006	1.000039
334.368100	1.000591
334.761129	1.000292
335.154095	1.000349
335.546996	0.999295
335.939833	0.997685
336.332606	0.999243
336.725315	0.998740
337.117960	0.999922
337.510540	0.999024
337.903056	1.000267
338.295508	1.000836
338.687896	1.000916
339.080220	0.999119
339.472480	1.000410
339.864676	0.999265
340.256807	0.998045
340.648875	1.000000
341.040879	1.000528
341.432818	1.000123
341.824694	0.999532
342.216506	0.999181
342.608253	1.000557
342.999937	0.999684
343.391557	1.000358
343.783113	1.001374
344.174605	1.000024
344.566033	0.999117
344.957397	0.999704
345.348697	1.000596
345.739934	1.000225
346.131106	0.999086
346.522215	0.998834
346.913260	1.000632
347.304241	0.999227
347.695159	0.999875
348.086012	0.999514
348.476802	0.999890
348.867528	0.999196
349.258191	1.000707
349.648789	1.000602
350.039324	0.999633
350.429796	1.000324
350.820203	0.997278
351.210548	0.999419
351.600828	0.999989
351.991045	0.998078
352.381198	0.998157
352.771288	0.998436
353.161314	0.999570
353.551276	0.999723
353.941175	0.997709
354.331010	1.000737
354.720782	0.998787
355.110490	0.999324
355.500135	0.999130
355.889717	0.998006
356.279235	0.999449
356.668689	0.998839
357.058080	0.998889
357.447408	0.998443
357.836672	0.999444
358.225873	0.998929
358.615010	0.998497
359.004084	0.997149
359.393095	0.998708
359.782043	0.999265
360.170927	0.998923
360.559748	0.997478
360.948505	0.997908
361.337199	0.998251
361.725830	0.998574
362.114398	0.998445
362.502903	0.998786
362.891344	0.996724
363.279722	0.998149
363.668037	0.997820
364.056289	0.998645
364.444478	0.998619
364.832603	0.998255
365.220665	0.997227
365.608665	0.996600
365.996601	0.997675
366.384474	0.996282
366.772284	0.997473
367.160031	0.995445
367.547715	0.997091
367.935336	0.996138
368.322893	0.995079
368.710388	0.992555
369.097820	0.991468
369.485189	0.989326
369.872495	0.988089
370.259738	0.986356
370.646918	0.982572
371.034035	0.980370
371.421090	0.977864
371.808081	0.973359
372.195010	0.970340
372.581875	0.966038
372.968678	0.959535
373.355418	0.957010
373.742096	0.949300
374.128710	0.945192
374.515262	0.940307
374.901751	0.934288
375.288177	0.930289
375.674540	0.922230
376.060841	0.917125
376.447079	0.910405
376.833254	0.903190
377.219367	0.898921
377.605417	0.887673
377.991404	0.884985
378.377329	0.877715
378.763191	0.871701
379.148991	0.862431
379.534727	0.854766
379.920402	0.847825
380.306013	0.842997
380.691563	0.830170
381.077049	0.824517
381.462474	0.819667
381.847835	0.808098
382.233134	0.804522
382.618371	0.803564
383.003545	0.787536
383.388657	0.784526
383.773706	0.776638
384.158693	0.773366
384.543618	0.767100
384.928480	0.758355
385.313280	0.749715
385.698017	0.748774
386.082692	0.737564
386.467305	0.735380
386.851856	0.729824
387.236344	0.724958
387.620770	0.718895
388.005133	0.713415
388.389435	0.707801
388.773674	0.705485
389.157851	0.697759
389.541965	0.695975
389.926018	0.701489
390.310008	0.688259
390.693936	0.686191
391.077802	0.678418
391.461606	0.680507
391.845348	0.669487
392.229027	0.668299
392.612645	0.666597
392.996200	0.653910
393.379694	0.646501
393.763125	0.637319
394.146494	0.641352
394.529801	0.631595
394.913047	0.623888
395.296230	0.629953
395.679351	0.621351
396.062410	0.618339
396.445408	0.620868
396.828343	0.616453
397.211217	0.611753
397.594028	0.623523
397.976778	0.614023
398.359466	0.611612
398.742092	0.606795
399.124656	0.618665
399.507158	0.607545
399.889598	0.605830
400.271977	0.597327
400.654294	0.602275
401.036549	0.602026
401.418742	0.607061
401.800874	0.594861
402.182944	0.593230
402.564952	0.586940
402.946898	0.590785
403.328783	0.594162
403.710606	0.606949
404.092367	0.585051
404.474067	0.593400
404.855705	0.595406
405.237282	0.606377
405.618797	0.597627
406.000250	0.597318
406.381642	0.592405
406.762972	0.602098
407.144240	0.604566
407.525447	0.609377
407.906593	0.608183
408.287677	0.608412
408.668700	0.621533
409.049661	0.621802
409.430560	0.623984
409.811399	0.637755
410.192176	0.629115
410.572891	0.642287
410.953545	0.639434
411.334138	0.656567
411.714669	0.657882
412.095139	0.674514
412.475547	0.670331
412.855894	0.680149
413.236180	0.686516
413.616405	0.698018
413.996568	0.700034
414.376670	0.712252
414.756711	0.723359
415.136691	0.729987
415.516609	0.732879
415.896466	0.739595
416.276262	0.746211
416.655997	0.755942
417.035670	0.756430
417.415283	0.760427
417.794834	0.772895
418.174324	0.783196
418.553753	0.795538
418.933121	0.797077
419.312428	0.804412
419.691674	0.815214
420.070859	0.819616
420.449983	0.830888
420.829045	0.834334
421.208047	0.846085
421.586988	0.851865
421.965867	0.858550
422.344686	0.864844
422.723444	0.874646
423.102141	0.885483
423.480777	0.885888
423.859352	0.897384
424.237866	0.900004
424.616319	0.906011
424.994712	0.910457
425.373044	0.918179
425.751314	0.921379
426.129524	0.929884
426.507673	0.932203
426.885762	0.937242
427.263789	0.942950
427.641756	0.947545
428.019662	0.950941
428.397508	0.954701
428.775292	0.957955
429.153016	0.961596
429.530679	0.965717
429.908282	0.968371
430.285824	0.971077
430.663305	0.973199
431.040726	0.976500
431.418086	0.978989
431.795385	0.981080
432.172624	0.983341
432.549802	0.984590
432.926920	0.986007
433.303977	0.987291
433.680974	0.988784
434.057910	0.989951
434.434786	0.990646
434.811601	0.990695
435.188355	0.991979
435.565050	0.993648
435.941683	0.993143
436.318257	0.993688
436.694770	0.995171
437.071222	0.996154
437.447614	0.995837
437.823946	0.995250
438.200218	0.996262
438.576429	0.996542
438.952580	0.997187
439.328670	0.996330
439.704700	0.996080
440.080670	0.997477
440.456580	0.997674
440.832429	0.997942
441.208218	0.997780
441.583947	0.998537
441.959616	0.997516
442.335224	0.999742
442.710773	0.998596
443.086261	0.998431
443.461689	0.998007
443.837057	0.998010
444.212365	0.999793
444.587612	0.999223
444.962800	0.998556
445.337927	0.999481
445.712995	0.998892
446.088002	0.997884
446.462949	0.998539
446.837837	0.999879
447.212664	0.998370
447.587431	0.999985
447.962139	0.998846
448.336786	0.998628
448.711374	0.998586
449.085901	0.999254
449.460369	0.999658
449.834776	0.998800
450.209124	0.999079
450.583412	0.999626
450.957640	0.998924
451.331808	0.999640
451.705917	0.998628
452.079965	0.999353
452.453954	0.999489
452.827883	0.998759
453.201752	0.999637
453.575562	0.999216
453.949311	0.999190
454.323001	0.998498
454.696632	0.999826
455.070202	0.998920
455.443713	0.998940
455.817164	0.999280
456.190556	0.999429
456.563888	1.000160
456.937160	0.999369
457.310373	0.998388
457.683526	0.999634
458.056619	0.999072
458.429653	0.999401
458.802628	0.998631
459.175542	0.999133
459.548398	0.998786
459.921194	0.999188
460.293930	0.999779
460.666607	0.999234
461.039224	0.998571
461.411782	0.998938
461.784280	0.998178
462.156719	0.999138
462.529099	0.999305
462.901419	0.999174
463.273680	0.998521
463.645882	0.998932
464.018024	0.998956
464.390106	0.999084
464.762130	0.999239
465.134094	0.998332
465.505999	0.998676
465.877845	0.998185
466.249631	0.998040
466.621358	0.997451
466.993026	0.998624
467.364634	0.998835
467.736184	0.998329
468.107674	0.998679
468.479105	0.998355
468.850477	0.999583
469.221790	0.998502
469.593043	0.998254
469.964238	0.998541
470.335373	0.998816
470.706449	0.999004
471.077467	0.998999
471.448425	0.999414
471.819324	0.998671
472.190164	0.997658
472.560945	0.998055
472.931667	0.998392
473.302330	0.999332
473.672934	0.998649
474.043479	0.998038
474.413965	0.998823
474.784393	0.998720
475.154761	0.998232
475.525070	0.998689
475.895321	0.998755
476.265513	0.998834
476.635645	0.999252
477.005719	0.998730
477.375734	0.998424
477.745691	0.998152
478.115588	0.997381
478.485427	0.997864
478.855207	0.997842
479.224928	0.997869
479.594591	0.998233
479.964194	0.998387
480.333739	0.997657
480.703226	0.997863
481.072653	0.998128
481.442022	0.998123
481.811333	0.998080
482.180584	0.998708
482.549777	0.998099
482.918912	0.998277
483.287988	0.998413
483.657005	0.997741
484.025964	0.998254
484.394864	0.998418
484.763706	0.998273
485.132489	0.998542
485.501213	0.998648
485.869879	0.997647
486.238487	0.997672
486.607036	0.998294
486.975527	0.998138
487.343959	0.998153
487.712333	0.998187
488.080648	0.997333
488.448905	0.998792
488.817104	0.998433
489.185244	0.998516
489.553326	0.998451
489.921350	0.999053
490.289315	0.998377
490.657222	0.998079
491.025070	0.998736
491.392861	0.998661
491.760593	0.998374
492.128267	0.998355
492.495883	0.997695
492.863440	0.998519
493.230939	0.998411
493.598380	0.999082
493.965763	0.998736
494.333088	0.997427
494.700354	0.997758
495.067563	0.998083
495.434713	0.998757
495.801805	0.998411
496.168839	0.998698
496.535815	0.998850
496.902733	0.998418
497.269593	0.998016
497.636395	0.997503
498.003139	0.997609
498.369825	0.998708
498.736453	0.997995
499.103023	0.998476
499.469535	0.998285
499.835989	0.999173
500.202385	0.998917
500.568723	0.998318
500.935003	0.998534
501.301226	0.998594
501.667390	0.997989
502.033497	0.998099
502.399546	0.998222
502.765537	0.998320
503.131470	0.998663
503.497345	0.998400
503.863163	0.998402
504.228923	0.998572
504.594625	0.998354
504.960269	0.998037
505.325856	0.999201
505.691385	0.998090
506.056856	0.998544
506.422270	0.998274
506.787625	0.998952
507.152924	0.998438
507.518164	0.998114
507.883347	0.998376
508.248472	0.998728
508.613540	0.998734
508.978550	0.998654
509.343503	0.998341
509.708398	0.998372
510.073236	0.998415
510.438016	0.997196
510.802738	0.998222
511.167403	0.997798
511.532010	0.998357
511.896561	0.998267
512.261053	0.998016
512.625488	0.997816
512.989866	0.997669
513.354186	0.997168
513.718449	0.998574
514.082655	0.997653
514.446803	0.997845
514.810894	0.998341
515.174927	0.998167
515.538904	0.998949
515.902822	0.998315
516.266684	0.998195
516.630488	0.998616
516.994235	0.998411
517.357925	0.999144
517.721558	0.998635
518.085133	0.998031
518.448651	0.998066
518.812112	0.998463
519.175516	0.998119
519.538863	0.998143
519.902152	0.998429
520.265385	0.998657
520.628560	0.997890
520.991678	0.998217
521.354739	0.998669
521.717743	0.998795
522.080690	0.997433
522.443580	0.998570
522.806413	0.998188
523.169189	0.998492
523.531908	0.998111
523.894569	0.998269
524.257174	0.997986
524.619722	0.998504
524.982213	0.998690
525.344647	0.998701
525.707025	0.997493
526.069345	0.997871
526.431608	0.998861
526.793815	0.998939
527.155964	0.998564
527.518057	0.998984
527.880093	0.998405
528.242072	0.998690
528.603995	0.998714
528.965860	0.998783
529.327669	0.998818
529.689421	0.998218
530.051117	0.998549
530.412755	0.998544
530.774337	0.998937
531.135862	0.999140
531.497331	0.998312
531.858743	0.999174
532.220098	0.998647
532.581396	0.998817
532.942638	0.998710
533.303824	0.998964
533.664953	0.998823
534.026025	0.999169
534.387040	0.999013
534.747999	0.998647
535.108902	0.998630
535.469748	0.999137
535.830537	0.998400
536.191270	0.998954
536.551947	0.998175
536.912567	0.998209
537.273131	0.999165
537.633638	0.998605
537.994089	0.999422
538.354483	0.998362
538.714821	0.998627
539.075103	0.999052
539.435328	0.998922
539.795497	0.998314
540.155609	0.998771
540.515665	0.998654
540.875665	0.998820
541.235609	0.999223
541.595496	0.997907
541.955328	0.998906
542.315102	0.998735
542.674821	0.998963
543.034483	0.999286
543.394090	0.997888
543.753640	0.998583
544.113134	0.999436
544.472571	0.999776
544.831953	0.999368
545.191278	0.998603
545.550548	0.998918
545.909761	0.998408
546.268918	0.999904
546.628019	0.999540
546.987064	0.998839
547.346053	0.998252
547.704986	0.998327
548.063863	0.998310
548.422684	0.999352
548.781449	0.999275
549.140158	0.999485
549.498811	0.998518
549.857408	0.998455
550.215949	0.997993
550.574434	0.998408
550.932864	0.999205
551.291237	0.998423
551.649555	0.999678
552.007817	0.998504
552.366022	0.999364
552.724173	0.999278
553.082267	0.998905
553.440305	0.998538
553.798288	0.998265
554.156215	0.998708
554.514086	0.998677
554.871902	0.998648
555.229661	0.998380
555.587365	0.998833
555.945014	0.998880
556.302606	0.998127
556.660143	0.999367
557.017625	0.999059
557.375050	0.997958
557.732421	0.999075
558.089735	0.998262
558.446994	0.998646
558.804197	0.998635
559.161345	0.998259
559.518437	0.998024
559.875474	0.999279
560.232455	0.998467
560.589381	0.999001
560.946251	0.998579
561.303065	0.998812
561.659825	0.997840
562.016528	0.998900
562.373177	0.998813
562.729770	0.998590
563.086307	0.998139
563.442789	0.999265
563.799216	0.998261
564.155587	0.999116
564.511904	0.999307
564.868164	0.998269
565.224370	0.998640
565.580520	0.999000
565.936615	0.998577
566.292654	0.998692
566.648638	0.999457
567.004567	0.998829
567.360441	0.999058
567.716260	0.999009
568.072023	0.998809
568.427732	0.998315
568.783385	0.999095
569.138982	0.999012
569.494525	0.998611
569.850013	0.999204
570.205445	0.998839
570.560823	0.998379
570.916145	0.998336
571.271412	0.999264
571.626625	0.999192
571.981782	0.998427
572.336884	0.999063
572.691931	0.998697
573.046923	0.999270
573.401860	0.998787
573.756743	0.999234
574.111570	0.998486
574.466342	0.999315
574.821059	0.998671
575.175722	0.999799
575.530330	0.998677
575.884882	0.998291
576.239380	0.999073
576.593823	0.998990
576.948211	0.999227
577.302544	0.999233
577.656823	0.998872
578.011047	0.998806
578.365216	0.999685
578.719330	0.999044
579.073389	0.998667
579.427394	0.998927
579.781344	0.999257
580.135239	0.998010
580.489080	0.999135
580.842866	0.999587
581.196597	0.998432
581.550273	0.998003
581.903895	0.999326
582.257463	0.998690
582.610975	0.998598
582.964434	0.999602
583.317837	0.999317
583.671186	0.999230
584.024481	0.998689
584.377721	0.998505
584.730906	0.998806
585.084037	0.999648
585.437113	0.999049
585.790135	0.999313
586.143103	0.999391
586.496016	0.998965
586.848874	0.999229
587.201679	0.998683
587.554428	0.998923
587.907124	1.000009
588.259765	0.998893
588.612352	0.999892
588.964884	0.999376
589.317362	0.998974
589.669786	0.999215
590.022155	0.998289
590.374470	0.998787
590.726731	0.998587
591.078937	0.998980
591.431090	0.999720
591.783188	0.999080
592.135232	1.000132
592.487222	0.999187
592.839157	0.998704
593.191038	0.998780
593.542866	0.999371
593.894639	0.998355
594.246358	0.999318
594.598022	0.999864
594.949633	0.998807
595.301190	0.999391
595.652692	0.998412
596.004141	0.998783
596.355535	0.998284
596.706876	0.999691
597.058162	0.999444
597.409395	0.999414
597.760573	0.999099
598.111698	0.998724
598.462768	0.998921
598.813785	0.999037
599.164748	0.999151
599.515657	0.998982
599.866511	0.998910
600.217312	1.000102
600.568060	0.999747
600.918753	0.999001
601.269392	0.999706
601.619978	0.999492
601.970510	0.999069
602.320988	0.998643
602.671412	0.998146
603.021783	0.999484
603.372100	0.999784
603.722363	0.999750
604.072572	0.998940
604.422728	0.998802
604.772830	0.998714
605.122878	0.998427
605.472872	0.999643
605.822813	0.998813
606.172701	0.999192
606.522534	0.998993
606.872314	1.000201
607.222041	0.998853
607.571714	0.999713
607.921333	0.999886
608.270899	0.999303
608.620411	0.999945
608.969870	0.999412
609.319276	0.998953
609.668627	0.999663
610.017926	0.999469
610.367171	0.998902
610.716362	0.999688
611.065500	0.998548
611.414585	0.999870
611.763616	0.998179
612.112594	0.999293
612.461518	0.998231
612.810389	0.999452
613.159207	0.999418
613.507971	0.998836
613.856682	1.000297
614.205340	0.998037
614.553945	0.999278
614.902496	0.998317
615.250994	0.999299
615.599439	0.999172
615.947830	0.998534
616.296169	0.999709
616.644454	0.998917
616.992686	0.999627
617.340864	0.999639
617.688990	0.998704
618.037063	0.999448
618.385082	0.998339
618.733048	0.998443
619.080961	0.999203
619.428821	0.999445
619.776628	0.998347
620.124382	0.999498
620.472083	1.000131
620.819731	0.999989
621.167326	0.999344
621.514868	0.999064
621.862357	0.999651
622.209793	0.999557
622.557176	0.998945
622.904506	0.998786
623.251783	0.999046
623.599007	0.999700
623.946179	0.997979
624.293297	0.999445
624.640363	0.999907
624.987376	0.998800
625.334336	0.998970
625.681243	0.999827
626.028097	0.999484
626.374899	0.999780
626.721647	1.000159
627.068343	0.998864
627.414987	0.998961
627.761577	0.998583
628.108115	0.998817
628.454600	0.999750
628.801032	0.999738
629.147412	0.999592
629.493739	0.999821
629.840014	0.999138
630.186236	0.998932
630.532405	0.998741
630.878521	0.998996
631.224585	0.998806
631.570597	0.997532
631.916556	0.999014
632.262462	0.997942
632.608316	0.999239
632.954117	0.998637
633.299866	0.999564
633.645562	0.998856
633.991206	0.999403
634.336797	0.998413
634.682336	0.999649
635.027823	0.998994
635.373257	0.998655
635.718639	0.999808
636.063968	0.999002
636.409245	0.998396
636.754470	0.999894
637.099642	0.999638
637.444762	0.999575
637.789829	0.998675
638.134845	0.999248
638.479808	0.999038
638.824719	0.999143
639.169577	0.999459
639.514383	0.999378
639.859137	1.000273
640.203839	0.999284
640.548489	0.999555
640.893086	0.998460
641.237632	0.999349
641.582125	0.998686
641.926566	0.999627
642.270955	0.999402
642.615292	0.998644
642.959576	0.999037
643.303809	0.999542
643.647990	0.999622
643.992118	0.999357
644.336195	0.998774
644.680219	0.998869
645.024192	0.999170
645.368112	0.998349
645.711981	0.999305
646.055797	0.999377
646.399562	0.998455
646.743274	0.999473
647.086935	0.998460
647.430544	0.999676
647.774101	0.999206
648.117606	0.999510
648.461059	0.999436
648.804460	0.999777
649.147810	0.998927
649.491108	0.999512
649.834354	0.999727
650.177548	0.998495
650.520690	0.999415
650.863781	0.998452
651.206820	0.998690
651.549807	0.999488
651.892742	0.999462
652.235626	0.998883
652.578458	0.999207
652.921238	1.000112
653.263967	0.999381
653.606644	0.998353
653.949269	0.999728
654.291843	0.998171
654.634365	0.999370
654.976836	0.998319
655.319255	0.999579
655.661622	0.999197
656.003938	0.999389
656.346203	0.998388
656.688416	0.999592
657.030577	0.999509
657.372687	0.998711
657.714746	0.998171
658.056753	0.999076
658.398708	0.998434
658.740612	1.000023
659.082465	0.999021
659.424266	0.998921
659.766016	0.998403
660.107715	0.999381
660.449362	0.999342
660.790958	0.998796
661.132503	0.999335
661.473996	0.998747
661.815438	0.999214
662.156829	0.999475
662.498168	0.999469
662.839456	0.998778
663.180693	0.998591
663.521879	0.999418
663.863013	0.998757
664.204097	0.998574
664.545129	0.999353
664.886110	0.999170
665.227040	0.999142
665.567918	0.998855
665.908746	0.998762
666.249522	0.998412
666.590248	0.999503
666.930922	0.998776
667.271545	0.999114
667.612118	0.998617
667.952639	0.998506
668.293109	0.998831
668.633528	0.998345
668.973896	0.998752
669.314213	0.998565
669.654480	0.998866
669.994695	0.998860
670.334859	0.999228
670.674973	0.998671
671.015035	0.999788
671.355047	0.998781
671.695008	0.998895
672.034918	0.998780
672.374777	0.999420
672.714585	0.998408
673.054342	0.999984
673.394049	0.999349
673.733705	0.998846
674.073310	0.999444
674.412864	0.998351
674.752368	0.997457
675.091820	1.000321
675.431223	0.998612
675.770574	0.998136
676.109875	0.999045
676.449125	0.998922
676.788324	0.998492
677.127473	0.999651
677.466571	0.999222
677.805619	0.998990
678.144616	0.998964
678.483562	0.998988
678.822458	0.998767
679.161303	0.998645
679.500098	0.998755
679.838842	0.998933
680.177535	0.997970
680.516179	0.997886
680.854771	0.998036
681.193314	0.998335
681.531805	0.998711
681.870247	0.999367
682.208638	0.998813
682.546978	0.998385
682.885268	0.998552
683.223508	0.998639
683.561697	0.998903
683.899836	0.998530
684.237925	0.998612
684.575963	0.999055
684.913951	0.998851
685.251889	0.998755
685.589776	0.999298
685.927614	0.998011
686.265401	0.998183
686.603137	0.998115
686.940824	0.997968
687.278460	0.999370
687.616046	0.998081
687.953582	0.998368
688.291068	0.998871
688.628504	0.999294
688.965889	0.998310
689.303224	0.997791
689.640510	0.999086
689.977745	0.998009
690.314930	0.998140
690.652065	0.998541
690.989150	0.998511
691.326185	0.998531
691.663170	0.997560
692.000105	0.998668
692.336990	0.999079
692.673825	0.998278
693.010610	0.998492
693.347345	0.998454
693.684030	0.998309
694.020665	0.998379
694.357251	0.998225
694.693786	0.998708
695.030272	0.997699
695.366707	0.998619
695.703093	0.998323
696.039429	0.998498
696.375716	0.998863
696.711952	0.998284
697.048139	0.998917
697.384276	0.998294
697.720363	0.998503
698.056400	0.997099
698.392388	0.998385
698.728326	0.998024
699.064214	0.999363
699.400053	0.998664
699.735842	0.999444
700.071581	0.998640
700.407270	0.998438
700.742910	0.998175
701.078501	0.998709
701.414042	0.998933
701.749533	0.996988
702.084974	0.998533
702.420366	0.998057
702.755709	0.998025
703.091002	0.999511
703.426246	0.998758
703.761440	0.998167
704.096584	0.997840
704.431679	0.997509
704.766725	0.998901
705.101721	0.999038
705.436668	0.998844
705.771565	0.997706
706.106413	0.997196
706.441212	0.997967
706.775961	0.998667
707.110661	0.997413
707.445311	0.998125
707.779913	0.999715
708.114465	0.999721
708.448967	0.998170
708.783421	0.998027
709.117825	0.998400
709.452180	0.998596
709.786485	0.999132
710.120742	0.997593
710.454949	0.997340
710.789107	0.998536
711.123216	0.998013
711.457275	0.997510
711.791286	0.998381
712.125247	0.998576
712.459159	0.998172
712.793023	0.997902
713.126837	0.999464
713.460602	0.997527
713.794318	0.997542
714.127985	0.997188
714.461602	0.998796
714.795171	0.996646
715.128691	0.998514
715.462162	0.998729
715.795584	0.997878
716.128957	0.998181
716.462281	0.999333
716.795556	0.998735
717.128782	0.999057
717.461960	0.998016
717.795088	0.998444
718.128167	0.999254
718.461198	0.998414
718.794180	0.998916
719.127113	0.998523
719.459997	0.998437
719.792833	0.997439
720.125619	0.998096
720.458357	0.998334
720.791046	0.998968
721.123686	0.998024
721.456278	0.997984
721.788821	0.998204
722.121315	0.998532
722.453761	0.998654
722.786158	0.997973
723.118506	0.998107
723.450805	0.997262
723.783056	0.998739
724.115259	0.997244
724.447412	0.998883
724.779518	0.999150
725.111574	0.998184
725.443582	0.998731
725.775542	0.998231
726.107453	0.999492
726.439315	0.999012
726.771129	0.998763
727.102895	0.998346
727.434612	0.998641
727.766281	0.998409
728.097901	0.996770
728.429473	0.998992
728.760996	0.997144
729.092471	0.998560
729.423897	0.998522
729.755276	0.998055
730.086606	0.997812
730.417887	0.998172
730.749120	0.998850
731.080305	0.997993
731.411442	0.997489
731.742530	0.996995
732.073570	0.997275
732.404562	0.997826
732.735506	0.998555
733.066401	0.998157
733.397249	0.998274
733.728048	0.998906
734.058798	0.998835
734.389501	0.999454
734.720156	0.998484
735.050762	0.998922
735.381320	0.998856
735.711831	0.998340
736.042293	0.997886
736.372707	0.998860
736.703073	0.997067
737.033391	0.998785
737.363661	0.999518
737.693883	0.998350
738.024056	0.997666
738.354182	0.998744
738.684260	0.997556
739.014290	0.998234
739.344272	0.998219
739.674207	0.998033
740.004093	0.998461
740.333931	0.998349
740.663722	0.997974
740.993464	0.998015
741.323159	0.996908
741.652806	0.998693
741.982405	0.999113
742.311956	0.999464
742.641460	0.998282
742.970915	0.998345
743.300323	0.997403
743.629683	0.997709
743.958996	0.998579
744.288260	0.997215
744.617477	0.998961
744.946647	0.997182
745.275768	0.998895
745.604842	0.998019
745.933869	0.998478
746.262847	0.999614
746.591778	0.997068
746.920662	0.999166
747.249498	0.999454
747.578286	0.999870
747.907027	0.998800
748.235720	0.998198
748.564365	0.999588
748.892963	0.997990
749.221514	0.999164
749.550017	0.998200
749.878473	0.998134
750.206881	0.999984
750.535242	0.997862
750.863555	0.997915
751.191821	0.997683
751.520039	0.997123
751.848210	0.996394
752.176334	0.997713
752.504411	0.997306
752.832440	0.997945
753.160421	0.998504
753.488356	0.997423
753.816243	0.997426
754.144082	0.997444
754.471875	0.998344
754.799620	0.998713
755.127318	0.998462
755.454969	0.998622
755.782572	0.999667
756.110129	0.997889
756.437638	0.999598
756.765100	0.998210
757.092515	0.997628
757.419882	0.999196
757.747203	0.997568
758.074477	0.999136
758.401703	0.999222
758.728882	0.998439
759.056014	0.998102
759.383099	0.998839
759.710138	0.998200
760.037129	0.997961
760.364073	0.998333
760.690970	0.998192
761.017820	0.997097
761.344623	0.999074
761.671379	0.998708
761.998088	0.998639
762.324751	0.997870
762.651366	0.997589
762.977935	0.997070
763.304456	0.997458
763.630931	0.996538
763.957359	0.996346
764.283740	0.997617
764.610074	0.996325
764.936362	0.997368
765.262602	0.997815
765.588796	0.998794
765.914943	0.997437
766.241044	0.998446
766.567097	0.998051
766.893104	0.997665
767.219064	0.997348
767.544978	0.998387
767.870845	0.997913
768.196665	0.998504
768.522438	0.999499
768.848165	0.998466
769.173846	0.999414
769.499479	0.999163
769.825066	0.999704
770.150607	0.999804
770.476101	0.998181
770.801548	1.000289
771.126949	1.000222
771.452303	0.999349
771.777611	0.998230
772.102872	0.999150
772.428087	0.997798
772.753256	0.998881
773.078378	0.999196
773.403453	0.998420
773.728482	1.000078
774.053465	0.998210
774.378401	0.999014
774.703291	0.999131
775.028135	0.999713
775.352932	0.997199
775.677683	0.999366
776.002388	0.998833
776.327046	0.999005
776.651658	0.999683
776.976224	0.999234
777.300743	0.998778
777.625216	0.998409
777.949643	0.999060
778.274024	0.999019
778.598359	0.998477
778.922647	0.999349
779.246889	1.000353
779.571086	0.999453
779.895236	0.998678
780.219339	0.999775
780.543397	0.999361
780.867409	0.999612
781.191374	0.999338
781.515294	0.999750
781.839167	0.999435
782.162995	1.000313
782.486776	0.998678
782.810511	0.998632
783.134201	0.999869
783.457844	0.999238
783.781441	0.998968
784.104993	0.997914
784.428498	0.998955
784.751958	0.999944
785.075372	0.999931
785.398739	0.997800
785.722061	0.998338
786.045337	0.999422
786.368568	0.998521
786.691752	0.999179
787.014891	0.998678
787.337983	0.998020
787.661030	0.997720
787.984031	0.999966
788.306987	0.998715
788.629897	0.997807
788.952760	0.998816
789.275579	0.999151
789.598351	0.998569
789.921078	0.999508
790.243759	0.998441
790.566395	0.998282
790.888984	0.999367
791.211529	0.998496
791.534027	0.999124
791.856480	0.997770
792.178888	0.998031
792.501249	0.998301
792.823566	0.999823
793.145836	0.999602
793.468062	0.999790
793.790241	0.999170
794.112375	0.998060
794.434464	0.998475
794.756507	0.999909
795.078505	0.999585
795.400457	0.998273
795.722364	0.998815
796.044226	0.998922
796.366042	0.997868
796.687812	0.997644
797.009538	0.998286
797.331218	0.999084
797.652852	0.998752
797.974442	0.998188
798.295986	0.998922
798.617484	0.999420
798.938938	0.998511
799.260346	0.998479
799.581709	0.998650
799.903026	0.998881
800.224299	0.998481
800.545526	0.998292
800.866708	0.998708
801.187845	0.998611
801.508936	0.999037
801.829983	0.998998
802.150984	0.999663
802.471940	0.998601
802.792851	0.998251
803.113717	0.999443
803.434538	0.999639
803.755314	1.000095
804.076045	0.999713
804.396731	0.998474
804.717372	0.997646
805.037967	1.000240
805.358518	0.999309
805.679024	0.998113
805.999485	0.999340
806.319901	0.998582
806.640272	0.999580
806.960598	1.000883
807.280879	0.999538
807.601115	0.999740
807.921306	0.999964
808.241453	0.999357
808.561554	0.999146
808.881611	0.998397
809.201623	0.997875
809.521590	0.998298
809.841513	0.999945
810.161390	0.998342
810.481223	0.997992
810.801011	0.999842
811.120755	0.999385
811.440453	0.997769
811.760107	0.998401
812.079716	0.998832
812.399281	0.998432
812.718801	0.999200
813.038276	0.998651
813.357707	0.999183
813.677093	0.999042
813.996434	0.998921
814.315731	1.000532
814.634983	0.999773
814.954191	0.999554
815.273354	0.997927
815.592473	0.997936
815.911547	1.000141
816.230577	0.999049
816.549562	0.999052
816.868502	0.998653
817.187399	0.999143
817.506250	0.999531
817.825058	0.998098
818.143821	0.998780
818.462539	0.998139
818.781213	0.998651
819.099843	0.999087
819.418429	0.998437
819.736970	0.998068
820.055466	0.997187
820.373919	0.997470
820.692327	0.997152
821.010691	0.996804
821.329011	0.994618
821.647286	0.994000
821.965517	0.992332
822.283704	0.991284
822.601847	0.991402
822.919945	0.990998
823.237999	0.992423
823.556010	0.993089
823.873976	0.993876
824.191897	0.995191
824.509775	0.995674
824.827609	0.996014
825.145398	0.996081
825.463144	0.994265
825.780845	0.995958
826.098502	0.995370
826.416116	0.996361
826.733685	0.994831
827.051210	0.993108
827.368692	0.992918
827.686129	0.993575
828.003522	0.996600
828.320872	0.996324
828.638177	0.996825
828.955439	0.997391
829.272656	0.997042
829.589830	0.997287
829.906960	0.998334
830.224046	0.998387
830.541088	0.998566
830.858086	0.997892
831.175041	0.998246
831.491952	0.998562
831.808819	0.998319
832.125642	0.998437
832.442421	0.998823
832.759157	0.999493
833.075849	0.996910
833.392497	0.996550
833.709101	0.995429
834.025662	0.995614
834.342179	0.996314
834.658653	0.997448
834.975083	0.998204
835.291469	0.998071
835.607811	0.998188
835.924110	0.999072
836.240366	0.999455
836.556578	0.999638
836.872746	0.998794
837.188871	0.998073
837.504952	0.999180
837.820990	0.999317
838.136984	0.998771
838.452935	0.999439
838.768842	0.999851
839.084706	0.999582
839.400526	0.999238
839.716303	0.997121
840.032037	0.998953
840.347727	0.997090
840.663373	0.999085
840.978977	0.997963
841.294537	0.999676
841.610054	0.998997
841.925527	1.000305
842.240957	0.998929
842.556344	0.998537
842.871687	0.998333
843.186987	0.998330
843.502244	0.999683
843.817458	0.997814
844.132629	0.999138
844.447756	0.999599
844.762840	0.999840
845.077881	0.999674
845.392879	0.997544
845.707833	0.998827
846.022745	0.999669
846.337613	0.999990
846.652438	0.999721
846.967221	0.999625
847.281960	0.999900
847.596656	1.000012
847.911309	0.999381
848.225919	0.998852
848.540485	0.998485
848.855009	1.000145
849.169490	0.999531
849.483928	0.999216
849.798323	0.998974
850.112675	1.001593
850.426984	0.998766
850.741251	0.998841
851.055474	0.999431
851.369654	1.000326
851.683792	0.998953
851.997887	0.999433
852.311938	0.999687
852.625947	0.999036
852.939914	0.998198
853.253837	1.000283
853.567718	1.000217
853.881555	1.000010
854.195350	1.000366
854.509103	1.000410
854.822812	0.999964
855.136479	0.999985
855.450103	1.000503
855.763685	0.999424
856.077224	0.998722
856.390720	0.999239
856.704173	1.000010
857.017584	1.000013
857.330953	0.999315
857.644278	0.999401
857.957561	1.000343
858.270802	1.000804
858.584000	0.999230
858.897155	0.999577
859.210268	0.999475
859.523339	0.999957
859.836367	0.999923
860.149352	0.997905
860.462295	0.998550
860.775195	0.999851
861.088054	0.998350
861.400869	0.999685
861.713642	0.998408
862.026373	1.000155
862.339062	0.999982
862.651708	1.000540
862.964312	0.999937
863.276873	0.999262
863.589392	0.999863
863.901869	0.999232
864.214303	0.999288
864.526696	0.998866
864.839045	0.999712
865.151353	0.999899
865.463619	0.998573
865.775842	0.999748
866.088023	1.000431
866.400162	0.999005
866.712258	0.999787
867.024313	1.000180
867.336325	0.999406
867.648296	0.999544
867.960224	1.000912
868.272110	0.999944
868.583954	0.998837
868.895755	1.000270
869.207515	0.999884
869.519233	1.000938
869.830909	0.999352
870.142542	0.998406
870.454134	0.999529
870.765684	0.999157
871.077191	1.000046
871.388657	1.000169
871.700081	0.999632
872.011463	1.000052
872.322803	0.999969
872.634101	0.998920
872.945357	0.998924
873.256571	0.999076
873.567744	0.999652
873.878874	1.000214
874.189963	0.999569
874.501010	1.000252
874.812015	0.999481
875.122979	1.000103
875.433900	0.999450
875.744780	0.998661
876.055618	0.998357
876.366415	0.999374
876.677169	0.999238
876.987882	0.999300
877.298554	1.000319
877.609183	0.998861
877.919771	0.999222
878.230317	0.999674
878.540822	0.998445
878.851285	0.998536
879.161707	0.999107
879.472087	0.999455
879.782425	0.997617
880.092722	0.996912
880.402977	0.995730
880.713191	0.992632
881.023363	0.992335
881.333494	0.991817
881.643583	0.992577
881.953631	0.991588
882.263637	0.991081
882.573602	0.992192
882.883526	0.992682
883.193408	0.995213
883.503248	0.994145
883.813048	0.994379
884.122806	0.995971
884.432522	0.996464
884.742197	0.999139
885.051831	0.997498
885.361424	0.997356
885.670975	0.998560
885.980485	0.997417
886.289954	0.997900
886.599382	0.997800
886.908768	0.999641
887.218113	0.999022
887.527417	0.998321
887.836680	0.999025
888.145901	0.999068
888.455082	1.000047
888.764221	0.999181
889.073319	0.997819
889.382376	0.999774
889.691392	0.997903
890.000366	1.000244
890.309300	0.998723
890.618193	1.000632
890.927044	0.998345
891.235855	0.998955
891.544625	0.999042
891.853353	0.998533
892.162041	0.997979
892.470687	1.001164
892.779293	0.999045
893.087858	0.997108
893.396381	0.998675
893.704864	0.996868
894.013306	0.997715
894.321707	0.997072
894.630068	0.994900
894.938387	0.995848
895.246665	0.995813
895.554903	0.995730
895.863100	0.997200
896.171256	0.997262
896.479371	0.998043
896.787446	0.997898
897.095480	0.997767
897.403473	0.998103
897.711425	0.998153
898.019336	0.999294
898.327207	0.999049
898.635038	0.996743
898.942827	0.998750
899.250576	0.997410
899.558284	0.999125
899.865952	0.998072
900.173579	0.999477
900.481165	0.998848
900.788711	0.998176
901.096216	0.998940
901.403681	0.999008
901.711105	0.999003
902.018489	0.998279
902.325832	0.998717
902.633135	0.999646
902.940397	0.998761
903.247619	0.998785
903.554800	0.997806
903.861941	0.997173
904.169041	0.995974
904.476101	0.995932
904.783121	0.994634
905.090100	0.995707
905.397039	0.995904
905.703938	0.996598
906.010796	0.997202
906.317614	0.997804
906.624391	0.997035
906.931129	0.998361
907.237826	0.998897
907.544483	0.998898
907.851099	0.998548
908.157675	0.999614
908.464211	0.999583
908.770707	0.998046
909.077163	0.999670
909.383578	0.999673
909.689954	0.997924
909.996289	0.998428
910.302584	1.000296
910.608839	1.001657
910.915054	0.999624
911.221229	1.000219
911.527363	0.999007
911.833458	0.998912
912.139513	0.999749
912.445527	1.000481
912.751502	0.999450
913.057436	0.998444
913.363331	0.999133
913.669186	0.999696
913.975000	0.998967
914.280775	0.998507
914.586510	0.997410
914.892205	0.997376
915.197859	0.997057
915.503475	0.996585
915.809050	0.995817
916.114585	0.994001
916.420081	0.994830
916.725536	0.995713
917.030952	0.995476
917.336328	0.994801
917.641665	0.994971
917.946961	0.995971
918.252218	0.996328
918.557435	0.996667
918.862612	0.998786
919.167750	0.998465
919.472848	0.998672
919.777906	0.998041
920.082925	0.999370
920.387904	0.998890
920.692843	0.998823
920.997743	0.997997
921.302603	1.000072
921.607423	0.998147
921.912204	0.999422
922.216946	1.000014
922.521647	0.999804
922.826310	0.998143
923.130932	1.000525
923.435516	0.999567
923.740059	0.998889
924.044564	0.998049
924.349028	0.998951
924.653454	1.000151
924.957840	1.000349
925.262186	1.000078
925.566493	0.999941
925.870761	0.999267
926.174989	0.999022
926.479178	1.000155
926.783328	1.000848
927.087438	0.999618
927.391509	0.999197
927.695541	0.999548
927.999533	0.999596
928.303486	0.999018
928.607400	1.000373
928.911275	0.999735
929.215110	1.000816
929.518906	1.000346
929.822663	1.000766
930.126381	1.001650
930.430060	0.999786
930.733699	1.000077
931.037299	1.000625
931.340861	1.000018
931.644383	0.999655
931.947866	0.999389
932.251309	1.000669
932.554714	0.999440
932.858080	0.999031
933.161407	0.998741
933.464694	1.000243
933.767943	0.999956
934.071153	0.999705
934.374323	0.999896
934.677455	0.998836
934.980548	0.999803
935.283602	1.000189
935.586617	0.998801
935.889593	1.000425
936.192530	0.999635
936.495428	1.000463
936.798287	1.000021
937.101108	0.999984
937.403890	1.000108
937.706632	1.000555
938.009336	1.000258
938.312002	0.998823
938.614628	0.999806
938.917216	0.998961
939.219765	0.998584
939.522275	0.999289
939.824747	0.999538
940.127179	1.000394
940.429573	1.001367
940.731929	0.998732
941.034246	0.999384
941.336524	0.999269
941.638763	0.999275
941.940964	0.999790
942.243126	0.999634
942.545250	1.000126
942.847335	0.999074
943.149381	1.000108
943.451389	0.999393
943.753359	1.000326
944.055290	1.000593
944.357182	1.000094
944.659036	1.000287
944.960851	1.000532
945.262628	1.000442
945.564367	0.999587
945.866067	0.999890
946.167729	1.000174
946.469352	1.000327
946.770937	0.998504
947.072484	1.000096
947.373992	1.000725
947.675462	0.999670
947.976893	0.999289
948.278286	1.002061
948.579641	1.000246
948.880958	1.000523
949.182236	0.999288
949.483476	1.000182
949.784678	0.998984
950.085841	0.999922
950.386967	0.998225
950.688054	1.000163
950.989103	0.998743
951.290114	0.998020
951.591087	1.000346
951.892021	0.998998
952.192917	0.999054
952.493776	0.999478
952.794596	0.999643
953.095378	0.999482
953.396122	1.000285
953.696828	1.000215
953.997496	0.999422
954.298126	1.000569
954.598718	1.000089
954.899272	1.000937
955.199788	0.998416
955.500266	1.000805
955.800706	0.999208
956.101108	0.998251
956.401472	1.001984
956.701798	0.999388
957.002087	1.000104
957.302337	0.998980
957.602550	0.999109
957.902724	0.999208
958.202861	0.999742
958.502960	1.000691
958.803022	1.000325
959.103045	1.000572
959.403031	1.000415
959.702979	0.999381
960.002889	1.000016
960.302762	0.998708
960.602596	1.000753
960.902393	1.000809
961.202153	0.999658
961.501875	0.999982
961.801559	0.999395
962.101205	0.999122
962.400814	1.001077
962.700385	1.000522
962.999918	1.000260
963.299414	0.999332
963.598873	1.000123
963.898293	0.999637
964.197677	0.999062
964.497022	0.999599
964.796331	0.999658
965.095601	1.001821
965.394835	0.999368
965.694030	1.000554
965.993189	0.999669
966.292309	1.000303
966.591393	0.998633
966.890439	1.001057
967.189447	0.999602
967.488419	0.999737
967.787353	1.000061
968.086249	1.000207
968.385108	0.998814
968.683930	1.001312
968.982714	1.000340
969.281462	0.999479
969.580172	0.999030
969.878844	1.000802
970.177480	0.999757
970.476078	1.000804
970.774639	1.000358
971.073162	1.000085
971.371649	0.999969
971.670098	1.000474
971.968510	0.999369
972.266885	0.999150
972.565223	1.001391
972.863524	0.999659
973.161788	1.000038
973.460014	0.999839
973.758204	1.000611
974.056356	0.998882
974.354471	0.998738
974.652550	1.000804
974.950591	0.999497
975.248595	0.998269
975.546563	1.000898
975.844493	1.000223
976.142386	0.999488
976.440243	0.998959
976.738062	1.000041
977.035845	1.000334
977.333590	1.000017
977.631299	0.999777
977.928971	0.999277
978.226606	1.000063
978.524204	0.999574
978.821765	1.000648
979.119290	1.001184
979.416777	0.999898
979.714228	1.000615
980.011642	1.000206
980.309020	0.999784
980.606360	0.999821
980.903664	1.000238
981.200931	0.998792
981.498162	1.000799
981.795356	1.000038
982.092513	0.999321
982.389633	1.001777
982.686717	0.998494
982.983764	0.999400
983.280775	1.000084
983.577749	1.000967
983.874686	0.999260
984.171587	0.999642
984.468451	1.000232
984.765279	0.999988
985.062070	0.999585
985.358824	1.000252
985.655543	0.999453
985.952224	1.001284
986.248869	0.999316
986.545478	1.001322
986.842050	0.999762
987.138586	0.998168
987.435086	0.998401
987.731549	1.001098
988.027975	1.000737
988.324366	0.998982
988.620719	1.000673
988.917037	0.999883
989.213318	1.000102
989.509563	0.999881
989.805772	1.001288
990.101944	1.000729
990.398080	0.999993
990.694180	1.000961
990.990244	0.998852
991.286271	1.000422
991.582262	1.000193
991.878217	1.000183
992.174136	1.001558
992.470019	1.000844
992.765865	1.001715
993.061676	1.000293
993.357450	1.000170
993.653188	1.000912
993.948890	0.999998
994.244556	0.999686
994.540186	1.000577
994.835780	1.000248
995.131337	1.000721
995.426859	0.999826
995.722345	0.999495
996.017795	0.999704
996.313208	0.999299
996.608586	1.000411
996.903928	0.999922
997.199234	0.999860
997.494504	1.000954
997.789738	0.998387
998.084936	1.001254
998.380099	0.999151
998.675225	1.000369
998.970316	1.000943
999.265371	1.000037
999.560390	0.999593
999.855373	1.000174
1000.150320	1.000292
1000.445232	0.999154
1000.740108	0.999539
1001.034948	1.000004
1001.329752	1.000983
1001.624521	0.999438
1001.919254	0.999309
1002.213951	1.000770
1002.508613	0.999881
1002.803239	0.999983
1003.097829	1.000206
1003.392384	1.000136
1003.686903	0.999495
1003.981386	1.000257
1004.275834	1.001932
1004.570246	0.998664
1004.864623	1.001004
1005.158964	1.001098
1005.453270	1.000702
1005.747540	0.999308
1006.041775	1.000604
1006.335974	1.000346
1006.630138	1.001074
1006.924266	0.999048
1007.218359	0.998705
1007.512416	1.001299
1007.806438	1.000134
1008.100425	1.000506
1008.394376	1.000850
1008.688292	1.000131
1008.982172	0.999705
1009.276017	1.000520
1009.569827	1.000818
1009.863602	0.999570
1010.157341	0.999928
1010.451045	0.999986
1010.744714	1.002604
1011.038347	1.001029
1011.331945	0.999202
1011.625508	0.999946
1011.919036	1.000248
1012.212528	1.000936
1012.505986	0.999829
1012.799408	1.000267
1013.092795	1.000742
1013.386147	1.000338
1013.679464	1.000950
1013.972745	1.001393
1014.265992	0.998470
1014.559204	0.999916
1014.852380	1.001621
1015.145521	0.999421
1015.438628	0.998689
1015.731699	0.999838
1016.024736	1.000705
1016.317737	0.999432
1016.610703	0.999651
1016.903635	1.000027
1017.196531	0.999983
1017.489393	0.999275
1017.782219	0.999958
1018.075011	0.999670
1018.367768	1.000466
1018.660490	0.999788
1018.953177	0.999788
1019.245829	0.999788
