Dividing Wavelength (nm)	Counts (n)	Blue Motor Position (mm): 17.200000	Red Motor Position (mm): 0.000000	
326.493990	1.001592
326.888308	1.001592
327.282561	1.001592
327.676750	1.002989
328.070874	1.003545
328.464933	1.003047
328.858929	1.004361
329.252859	1.003207
329.646726	1.001849
330.040528	1.003026
330.434265	1.002633
330.827938	1.002638
331.221547	1.002323
331.615091	1.003240
332.008571	1.002999
332.401986	1.002594
332.795338	1.003110
333.188625	1.002964
333.581847	1.002616
333.975006	1.002314
334.368100	1.001480
334.761129	1.003128
335.154095	1.001670
335.546996	1.001756
335.939833	0.998975
336.332606	0.999895
336.725315	0.998693
337.117960	0.998934
337.510540	0.999137
337.903056	0.999375
338.295508	0.999822
338.687896	0.999852
339.080220	0.999538
339.472480	0.999140
339.864676	0.999026
340.256807	0.998781
340.648875	1.000224
341.040879	0.999056
341.432818	0.999810
341.824694	0.999403
342.216506	0.999041
342.608253	1.000145
342.999937	0.998086
343.391557	0.998047
343.783113	1.000318
344.174605	0.999985
344.566033	1.000283
344.957397	0.999737
345.348697	0.999253
345.739934	0.999827
346.131106	0.998568
346.522215	0.998542
346.913260	0.998611
347.304241	0.997627
347.695159	0.998192
348.086012	0.998899
348.476802	0.998733
348.867528	0.998617
349.258191	0.998828
349.648789	0.998833
350.039324	0.998606
350.429796	0.999114
350.820203	0.997254
351.210548	1.000323
351.600828	0.999547
351.991045	0.998722
352.381198	0.998179
352.771288	0.998387
353.161314	0.998446
353.551276	0.997937
353.941175	0.997181
354.331010	0.998564
354.720782	0.998251
355.110490	0.998522
355.500135	0.998221
355.889717	0.997128
356.279235	0.997972
356.668689	0.998004
357.058080	0.998308
357.447408	0.997487
357.836672	0.997995
358.225873	0.997619
358.615010	0.998233
359.004084	0.995615
359.393095	0.998265
359.782043	0.998319
360.170927	0.998518
360.559748	0.998279
360.948505	0.997692
361.337199	0.996518
361.725830	0.997447
362.114398	0.997768
362.502903	0.997783
362.891344	0.996131
363.279722	0.996179
363.668037	0.997118
364.056289	0.997129
364.444478	0.997956
364.832603	0.996816
365.220665	0.997349
365.608665	0.996810
365.996601	0.996458
366.384474	0.995424
366.772284	0.995548
367.160031	0.994876
367.547715	0.995121
367.935336	0.994146
368.322893	0.992582
368.710388	0.993475
369.097820	0.990553
369.485189	0.988461
369.872495	0.986694
370.259738	0.984778
370.646918	0.982109
371.034035	0.980457
371.421090	0.976184
371.808081	0.970888
372.195010	0.969089
372.581875	0.963046
372.968678	0.958339
373.355418	0.956197
373.742096	0.948083
374.128710	0.944363
374.515262	0.938966
374.901751	0.934117
375.288177	0.929180
375.674540	0.921603
376.060841	0.915415
376.447079	0.909410
376.833254	0.902507
377.219367	0.897581
377.605417	0.885305
377.991404	0.882270
378.377329	0.876812
378.763191	0.869938
379.148991	0.861835
379.534727	0.854051
379.920402	0.846190
380.306013	0.842265
380.691563	0.829392
381.077049	0.822879
381.462474	0.818570
381.847835	0.806489
382.233134	0.802965
382.618371	0.802826
383.003545	0.785142
383.388657	0.784144
383.773706	0.775901
384.158693	0.771907
384.543618	0.766397
384.928480	0.757764
385.313280	0.746778
385.698017	0.746299
386.082692	0.735491
386.467305	0.734754
386.851856	0.728716
387.236344	0.723320
387.620770	0.717929
388.005133	0.711205
388.389435	0.706611
388.773674	0.704009
389.157851	0.695691
389.541965	0.692691
389.926018	0.699406
390.310008	0.686221
390.693936	0.683032
391.077802	0.675670
391.461606	0.677124
391.845348	0.666594
392.229027	0.665357
392.612645	0.664007
392.996200	0.651232
393.379694	0.644246
393.763125	0.633794
394.146494	0.639141
394.529801	0.629449
394.913047	0.621761
395.296230	0.626916
395.679351	0.617980
396.062410	0.615908
396.445408	0.617907
396.828343	0.614014
397.211217	0.608976
397.594028	0.620242
397.976778	0.611088
398.359466	0.607807
398.742092	0.603361
399.124656	0.614545
399.507158	0.603071
399.889598	0.600091
400.271977	0.590955
400.654294	0.595333
401.036549	0.594842
401.418742	0.599087
401.800874	0.584761
402.182944	0.581092
402.564952	0.573844
402.946898	0.574610
403.328783	0.575484
403.710606	0.586610
404.092367	0.561649
404.474067	0.567087
404.855705	0.566073
405.237282	0.574664
405.618797	0.560928
406.000250	0.555785
406.381642	0.547096
406.762972	0.551538
407.144240	0.550312
407.525447	0.550023
407.906593	0.543910
408.287677	0.539017
408.668700	0.546388
409.049661	0.541579
409.430560	0.535586
409.811399	0.544493
410.192176	0.526581
410.572891	0.533315
410.953545	0.521360
411.334138	0.535400
411.714669	0.528087
412.095139	0.540059
412.475547	0.523862
412.855894	0.525867
413.236180	0.524743
413.616405	0.530183
413.996568	0.520086
414.376670	0.526481
414.756711	0.531478
415.136691	0.528525
415.516609	0.519829
415.896466	0.516153
416.276262	0.512095
416.655997	0.514418
417.035670	0.494880
417.415283	0.487392
417.794834	0.491951
418.174324	0.498044
418.553753	0.506458
418.933121	0.488762
419.312428	0.482914
419.691674	0.488578
420.070859	0.476385
420.449983	0.484779
420.829045	0.473717
421.208047	0.483122
421.586988	0.476002
421.965867	0.474561
422.344686	0.463591
422.723444	0.476543
423.102141	0.493587
423.480777	0.465628
423.859352	0.486916
424.237866	0.463561
424.616319	0.464729
424.994712	0.455051
425.373044	0.465778
425.751314	0.454221
426.129524	0.471237
426.507673	0.453388
426.885762	0.447318
427.263789	0.452564
427.641756	0.462654
428.019662	0.453145
428.397508	0.452571
428.775292	0.456696
429.153016	0.448339
429.530679	0.454573
429.908282	0.447704
430.285824	0.457776
430.663305	0.436830
431.040726	0.457545
431.418086	0.457534
431.795385	0.449074
432.172624	0.448622
432.549802	0.448614
432.926920	0.447240
433.303977	0.446852
433.680974	0.443303
434.057910	0.442768
434.434786	0.441713
434.811601	0.444916
435.188355	0.427227
435.565050	0.436088
435.941683	0.437510
436.318257	0.421421
436.694770	0.422640
437.071222	0.420488
437.447614	0.424603
437.823946	0.431661
438.200218	0.420738
438.576429	0.430727
438.952580	0.423455
439.328670	0.420111
439.704700	0.426690
440.080670	0.427799
440.456580	0.409486
440.832429	0.417654
441.208218	0.428188
441.583947	0.417291
441.959616	0.416143
442.335224	0.422242
442.710773	0.413055
443.086261	0.411368
443.461689	0.424929
443.837057	0.414447
444.212365	0.404532
444.587612	0.411952
444.962800	0.401447
445.337927	0.403195
445.712995	0.429042
446.088002	0.391419
446.462949	0.401815
446.837837	0.406693
447.212664	0.395391
447.587431	0.386834
447.962139	0.357210
448.336786	0.315956
448.711374	0.326531
449.085901	0.371401
449.460369	0.375174
449.834776	0.378744
450.209124	0.357719
450.583412	0.350755
450.957640	0.343875
451.331808	0.355454
451.705917	0.378802
452.079965	0.383286
452.453954	0.371467
452.827883	0.378353
453.201752	0.373219
453.575562	0.384180
453.949311	0.372628
454.323001	0.378807
454.696632	0.374903
455.070202	0.367556
455.443713	0.359313
455.817164	0.353723
456.190556	0.349576
456.563888	0.346550
456.937160	0.344352
457.310373	0.361505
457.683526	0.360171
458.056619	0.365414
458.429653	0.366637
458.802628	0.370031
459.175542	0.364472
459.548398	0.346724
459.921194	0.339315
460.293930	0.339205
460.666607	0.316946
461.039224	0.305402
461.411782	0.300882
461.784280	0.300185
462.156719	0.304320
462.529099	0.308818
462.901419	0.324577
463.273680	0.328787
463.645882	0.328385
464.018024	0.334492
464.390106	0.327010
464.762130	0.311440
465.134094	0.295008
465.505999	0.263627
465.877845	0.234058
466.249631	0.220939
466.621358	0.228484
466.993026	0.242208
467.364634	0.248447
467.736184	0.257267
468.107674	0.266103
468.479105	0.265668
468.850477	0.272082
469.221790	0.278992
469.593043	0.289318
469.964238	0.293869
470.335373	0.293456
470.706449	0.291388
471.077467	0.292376
471.448425	0.254208
471.819324	0.229873
472.190164	0.229078
472.560945	0.258192
472.931667	0.280690
473.302330	0.284505
473.672934	0.296645
474.043479	0.284047
474.413965	0.286690
474.784393	0.290054
475.154761	0.284952
475.525070	0.281897
475.895321	0.287834
476.265513	0.282104
476.635645	0.277130
477.005719	0.277092
477.375734	0.273880
477.745691	0.266908
478.115588	0.263392
478.485427	0.256915
478.855207	0.243892
479.224928	0.226246
479.594591	0.214304
479.964194	0.217798
480.333739	0.218999
480.703226	0.220412
481.072653	0.218754
481.442022	0.214459
481.811333	0.211377
482.180584	0.214587
482.549777	0.220004
482.918912	0.223333
483.287988	0.222854
483.657005	0.222567
484.025964	0.228803
484.394864	0.226551
484.763706	0.226974
485.132489	0.232166
485.501213	0.232884
485.869879	0.231178
486.238487	0.234329
486.607036	0.232319
486.975527	0.236959
487.343959	0.232785
487.712333	0.231639
488.080648	0.233252
488.448905	0.232459
488.817104	0.233655
489.185244	0.228316
489.553326	0.225173
489.921350	0.214961
490.289315	0.197328
490.657222	0.192182
491.025070	0.193767
491.392861	0.195797
491.760593	0.201385
492.128267	0.207140
492.495883	0.212538
492.863440	0.218994
493.230939	0.225318
493.598380	0.226780
493.965763	0.228851
494.333088	0.231118
494.700354	0.232507
495.067563	0.232009
495.434713	0.235516
495.801805	0.232749
496.168839	0.234772
496.535815	0.235926
496.902733	0.235852
497.269593	0.237216
497.636395	0.234936
498.003139	0.235389
498.369825	0.238429
498.736453	0.235027
499.103023	0.236568
499.469535	0.236062
499.835989	0.236194
500.202385	0.236935
500.568723	0.240549
500.935003	0.235523
501.301226	0.240066
501.667390	0.233838
502.033497	0.232174
502.399546	0.235151
502.765537	0.237026
503.131470	0.235709
503.497345	0.232032
503.863163	0.240218
504.228923	0.233797
504.594625	0.232321
504.960269	0.237994
505.325856	0.233263
505.691385	0.237553
506.056856	0.234453
506.422270	0.233680
506.787625	0.236321
507.152924	0.233688
507.518164	0.234148
507.883347	0.236194
508.248472	0.237609
508.613540	0.232894
508.978550	0.235457
509.343503	0.236014
509.708398	0.233470
510.073236	0.231173
510.438016	0.231113
510.802738	0.232347
511.167403	0.231263
511.532010	0.233566
511.896561	0.229078
512.261053	0.227799
512.625488	0.229989
512.989866	0.230523
513.354186	0.230591
513.718449	0.233050
514.082655	0.229372
514.446803	0.231652
514.810894	0.229859
515.174927	0.232627
515.538904	0.232343
515.902822	0.229443
516.266684	0.231685
516.630488	0.233175
516.994235	0.232309
517.357925	0.231319
517.721558	0.229875
518.085133	0.229915
518.448651	0.230118
518.812112	0.232735
519.175516	0.232378
519.538863	0.230636
519.902152	0.232927
520.265385	0.229656
520.628560	0.231867
520.991678	0.232539
521.354739	0.231778
521.717743	0.233736
522.080690	0.234360
522.443580	0.232489
522.806413	0.233684
523.169189	0.233799
523.531908	0.233043
523.894569	0.237176
524.257174	0.237623
524.619722	0.235903
524.982213	0.237498
525.344647	0.237512
525.707025	0.238802
526.069345	0.237729
526.431608	0.240269
526.793815	0.238615
527.155964	0.243911
527.518057	0.243549
527.880093	0.245272
528.242072	0.244917
528.603995	0.247529
528.965860	0.250071
529.327669	0.249900
529.689421	0.251696
530.051117	0.253527
530.412755	0.252902
530.774337	0.255724
531.135862	0.257881
531.497331	0.257849
531.858743	0.262241
532.220098	0.259773
532.581396	0.263851
532.942638	0.265270
533.303824	0.267997
533.664953	0.269506
534.026025	0.272203
534.387040	0.271695
534.747999	0.273171
535.108902	0.273475
535.469748	0.280017
535.830537	0.279396
536.191270	0.281336
536.551947	0.282716
536.912567	0.284660
537.273131	0.287756
537.633638	0.289876
537.994089	0.292368
538.354483	0.295156
538.714821	0.293753
539.075103	0.295592
539.435328	0.298695
539.795497	0.303919
540.155609	0.303220
540.515665	0.303249
540.875665	0.310953
541.235609	0.312029
541.595496	0.314331
541.955328	0.313757
542.315102	0.318481
542.674821	0.322154
543.034483	0.324397
543.394090	0.326634
543.753640	0.331408
544.113134	0.329486
544.472571	0.335273
544.831953	0.335183
545.191278	0.341631
545.550548	0.343674
545.909761	0.343508
546.268918	0.347601
546.628019	0.348946
546.987064	0.354701
547.346053	0.358472
547.704986	0.360404
548.063863	0.363378
548.422684	0.366171
548.781449	0.371696
549.140158	0.372415
549.498811	0.377978
549.857408	0.383338
550.215949	0.383376
550.574434	0.389205
550.932864	0.391582
551.291237	0.392599
551.649555	0.399167
552.007817	0.401659
552.366022	0.405610
552.724173	0.409891
553.082267	0.412572
553.440305	0.415715
553.798288	0.421005
554.156215	0.423292
554.514086	0.427089
554.871902	0.433518
555.229661	0.436499
555.587365	0.440958
555.945014	0.446058
556.302606	0.448580
556.660143	0.453212
557.017625	0.455974
557.375050	0.460554
557.732421	0.462093
558.089735	0.468357
558.446994	0.471573
558.804197	0.474862
559.161345	0.479003
559.518437	0.484569
559.875474	0.488035
560.232455	0.491876
560.589381	0.496228
560.946251	0.501991
561.303065	0.501881
561.659825	0.508387
562.016528	0.513206
562.373177	0.518075
562.729770	0.522020
563.086307	0.526544
563.442789	0.529419
563.799216	0.536812
564.155587	0.539604
564.511904	0.545637
564.868164	0.549086
565.224370	0.551853
565.580520	0.559363
565.936615	0.560785
566.292654	0.568622
566.648638	0.570824
567.004567	0.575516
567.360441	0.580052
567.716260	0.585701
568.072023	0.588303
568.427732	0.593742
568.783385	0.597805
569.138982	0.602529
569.494525	0.605573
569.850013	0.611474
570.205445	0.615927
570.560823	0.620140
570.916145	0.626063
571.271412	0.629015
571.626625	0.634623
571.981782	0.638246
572.336884	0.643720
572.691931	0.646009
573.046923	0.652794
573.401860	0.656843
573.756743	0.662110
574.111570	0.665619
574.466342	0.669029
574.821059	0.672816
575.175722	0.677937
575.530330	0.682074
575.884882	0.685220
576.239380	0.691443
576.593823	0.694057
576.948211	0.698865
577.302544	0.703468
577.656823	0.708063
578.011047	0.710627
578.365216	0.715447
578.719330	0.720316
579.073389	0.723640
579.427394	0.727721
579.781344	0.731999
580.135239	0.735349
580.489080	0.738761
580.842866	0.744620
581.196597	0.747771
581.550273	0.749769
581.903895	0.755542
582.257463	0.756514
582.610975	0.762120
582.964434	0.764449
583.317837	0.769893
583.671186	0.772001
584.024481	0.776090
584.377721	0.779284
584.730906	0.783712
585.084037	0.787192
585.437113	0.790196
585.790135	0.793410
586.143103	0.797229
586.496016	0.800184
586.848874	0.803026
587.201679	0.805261
587.554428	0.810611
587.907124	0.813403
588.259765	0.815885
588.612352	0.819839
588.964884	0.822171
589.317362	0.825402
589.669786	0.828250
590.022155	0.829093
590.374470	0.833433
590.726731	0.835828
591.078937	0.841060
591.431090	0.843813
591.783188	0.846445
592.135232	0.850817
592.487222	0.851566
592.839157	0.853934
593.191038	0.857829
593.542866	0.860017
593.894639	0.863100
594.246358	0.866205
594.598022	0.868343
594.949633	0.871296
595.301190	0.873826
595.652692	0.875827
596.004141	0.878792
596.355535	0.881003
596.706876	0.884213
597.058162	0.886487
597.409395	0.887988
597.760573	0.889786
598.111698	0.892221
598.462768	0.893902
598.813785	0.895893
599.164748	0.899383
599.515657	0.901412
599.866511	0.904732
600.217312	0.905872
600.568060	0.907291
600.918753	0.909843
601.269392	0.911154
601.619978	0.913269
601.970510	0.914366
602.320988	0.916580
602.671412	0.917977
603.021783	0.920102
603.372100	0.922170
603.722363	0.924314
604.072572	0.925195
604.422728	0.926687
604.772830	0.927685
605.122878	0.930326
605.472872	0.931835
605.822813	0.932372
606.172701	0.934408
606.522534	0.936377
606.872314	0.937823
607.222041	0.938229
607.571714	0.939942
607.921333	0.940827
608.270899	0.941998
608.620411	0.943287
608.969870	0.945239
609.319276	0.945486
609.668627	0.947950
610.017926	0.947951
610.367171	0.948717
610.716362	0.950051
611.065500	0.951804
611.414585	0.952225
611.763616	0.952534
612.112594	0.953948
612.461518	0.954002
612.810389	0.956005
613.159207	0.957055
613.507971	0.957377
613.856682	0.958544
614.205340	0.958666
614.553945	0.959667
614.902496	0.960597
615.250994	0.961372
615.599439	0.962251
615.947830	0.962411
616.296169	0.963134
616.644454	0.964552
616.992686	0.965654
617.340864	0.965751
617.688990	0.965444
618.037063	0.966514
618.385082	0.966701
618.733048	0.967516
619.080961	0.968310
619.428821	0.969185
619.776628	0.968937
620.124382	0.971008
620.472083	0.970889
620.819731	0.972675
621.167326	0.972562
621.514868	0.973230
621.862357	0.974021
622.209793	0.973715
622.557176	0.974554
622.904506	0.975410
623.251783	0.976441
623.599007	0.977249
623.946179	0.976535
624.293297	0.978291
624.640363	0.978600
624.987376	0.978854
625.334336	0.979098
625.681243	0.979683
626.028097	0.981406
626.374899	0.981073
626.721647	0.982084
627.068343	0.981858
627.414987	0.982174
627.761577	0.981762
628.108115	0.982909
628.454600	0.983733
628.801032	0.983515
629.147412	0.984024
629.493739	0.984314
629.840014	0.983272
630.186236	0.984279
630.532405	0.984410
630.878521	0.984506
631.224585	0.985288
631.570597	0.984629
631.916556	0.985108
632.262462	0.984821
632.608316	0.985915
632.954117	0.985864
633.299866	0.985923
633.645562	0.986604
633.991206	0.987336
634.336797	0.986876
634.682336	0.987732
635.027823	0.987523
635.373257	0.988112
635.718639	0.988435
636.063968	0.987541
636.409245	0.987691
636.754470	0.988540
637.099642	0.988706
637.444762	0.989029
637.789829	0.988962
638.134845	0.989188
638.479808	0.988637
638.824719	0.990196
639.169577	0.989666
639.514383	0.990276
639.859137	0.989898
640.203839	0.989957
640.548489	0.990334
640.893086	0.990360
641.237632	0.990588
641.582125	0.990769
641.926566	0.991186
642.270955	0.990768
642.615292	0.990416
642.959576	0.990636
643.303809	0.991035
643.647990	0.991044
643.992118	0.990716
644.336195	0.989990
644.680219	0.991010
645.024192	0.991150
645.368112	0.990197
645.711981	0.990565
646.055797	0.991056
646.399562	0.990497
646.743274	0.992052
647.086935	0.990694
647.430544	0.990597
647.774101	0.990598
648.117606	0.990648
648.461059	0.992011
648.804460	0.991688
649.147810	0.990767
649.491108	0.990845
649.834354	0.991317
650.177548	0.991047
650.520690	0.991130
650.863781	0.991084
651.206820	0.991744
651.549807	0.991783
651.892742	0.992630
652.235626	0.992419
652.578458	0.992401
652.921238	0.991141
653.263967	0.992661
653.606644	0.992670
653.949269	0.992601
654.291843	0.991812
654.634365	0.992932
654.976836	0.991873
655.319255	0.992465
655.661622	0.993159
656.003938	0.992506
656.346203	0.991486
656.688416	0.993273
657.030577	0.992095
657.372687	0.993365
657.714746	0.992267
658.056753	0.992098
658.398708	0.991431
658.740612	0.992969
659.082465	0.992576
659.424266	0.991996
659.766016	0.992158
660.107715	0.993292
660.449362	0.993134
660.790958	0.992241
661.132503	0.992470
661.473996	0.991797
661.815438	0.993338
662.156829	0.993419
662.498168	0.993334
662.839456	0.991884
663.180693	0.993501
663.521879	0.992309
663.863013	0.993539
664.204097	0.992659
664.545129	0.992738
664.886110	0.992569
665.227040	0.993229
665.567918	0.992201
665.908746	0.992113
666.249522	0.992441
666.590248	0.991892
666.930922	0.992409
667.271545	0.993152
667.612118	0.992737
667.952639	0.991830
668.293109	0.992512
668.633528	0.991907
668.973896	0.992149
669.314213	0.992357
669.654480	0.993419
669.994695	0.992696
670.334859	0.992331
670.674973	0.992448
671.015035	0.993371
671.355047	0.992518
671.695008	0.991928
672.034918	0.992260
672.374777	0.992940
672.714585	0.992043
673.054342	0.993191
673.394049	0.991453
673.733705	0.992648
674.073310	0.992586
674.412864	0.992518
674.752368	0.992103
675.091820	0.992852
675.431223	0.992669
675.770574	0.992296
676.109875	0.992617
676.449125	0.992188
676.788324	0.992620
677.127473	0.992459
677.466571	0.992029
677.805619	0.992567
678.144616	0.992635
678.483562	0.992857
678.822458	0.993025
679.161303	0.992448
679.500098	0.993767
679.838842	0.993493
680.177535	0.992585
680.516179	0.992290
680.854771	0.992490
681.193314	0.992593
681.531805	0.993465
681.870247	0.993653
682.208638	0.992714
682.546978	0.991770
682.885268	0.992297
683.223508	0.992884
683.561697	0.993060
683.899836	0.992371
684.237925	0.992429
684.575963	0.992667
684.913951	0.992024
685.251889	0.992708
685.589776	0.991917
685.927614	0.992328
686.265401	0.992855
686.603137	0.991775
686.940824	0.992945
687.278460	0.993098
687.616046	0.992310
687.953582	0.992752
688.291068	0.992544
688.628504	0.992218
688.965889	0.991507
689.303224	0.991416
689.640510	0.991785
689.977745	0.991324
690.314930	0.991679
690.652065	0.992884
690.989150	0.991836
691.326185	0.992789
691.663170	0.992643
692.000105	0.993221
692.336990	0.993400
692.673825	0.992732
693.010610	0.992561
693.347345	0.993502
693.684030	0.993179
694.020665	0.992976
694.357251	0.992369
694.693786	0.992459
695.030272	0.992197
695.366707	0.993466
695.703093	0.992932
696.039429	0.993192
696.375716	0.994163
696.711952	0.992628
697.048139	0.993091
697.384276	0.993594
697.720363	0.992973
698.056400	0.992004
698.392388	0.992318
698.728326	0.993635
699.064214	0.994470
699.400053	0.992682
699.735842	0.993955
700.071581	0.993719
700.407270	0.992573
700.742910	0.993496
701.078501	0.993229
701.414042	0.994119
701.749533	0.991585
702.084974	0.992923
702.420366	0.994333
702.755709	0.993289
703.091002	0.993606
703.426246	0.994628
703.761440	0.992923
704.096584	0.993434
704.431679	0.991852
704.766725	0.993485
705.101721	0.994053
705.436668	0.993016
705.771565	0.993044
706.106413	0.992415
706.441212	0.994118
706.775961	0.993945
707.110661	0.992768
707.445311	0.993390
707.779913	0.994475
708.114465	0.993074
708.448967	0.994735
708.783421	0.994038
709.117825	0.992731
709.452180	0.993843
709.786485	0.994037
710.120742	0.992702
710.454949	0.992261
710.789107	0.992801
711.123216	0.992567
711.457275	0.991821
711.791286	0.993325
712.125247	0.993396
712.459159	0.992210
712.793023	0.992203
713.126837	0.992732
713.460602	0.991890
713.794318	0.991594
714.127985	0.992086
714.461602	0.992790
714.795171	0.992617
715.128691	0.992506
715.462162	0.992377
715.795584	0.992127
716.128957	0.992734
716.462281	0.992474
716.795556	0.993114
717.128782	0.994025
717.461960	0.993583
717.795088	0.992819
718.128167	0.994396
718.461198	0.993356
718.794180	0.993740
719.127113	0.993857
719.459997	0.993699
719.792833	0.992552
720.125619	0.992214
720.458357	0.992658
720.791046	0.994260
721.123686	0.993836
721.456278	0.993777
721.788821	0.993589
722.121315	0.994898
722.453761	0.993499
722.786158	0.993857
723.118506	0.994496
723.450805	0.993070
723.783056	0.994549
724.115259	0.993176
724.447412	0.993334
724.779518	0.993888
725.111574	0.993238
725.443582	0.994157
725.775542	0.993371
726.107453	0.994718
726.439315	0.994311
726.771129	0.994281
727.102895	0.993551
727.434612	0.993835
727.766281	0.993189
728.097901	0.992649
728.429473	0.994096
728.760996	0.992596
729.092471	0.992945
729.423897	0.993910
729.755276	0.993575
730.086606	0.992884
730.417887	0.993550
730.749120	0.993770
731.080305	0.993415
731.411442	0.992124
731.742530	0.991287
732.073570	0.992346
732.404562	0.992510
732.735506	0.992847
733.066401	0.993081
733.397249	0.992431
733.728048	0.991913
734.058798	0.993097
734.389501	0.995057
734.720156	0.993049
735.050762	0.994021
735.381320	0.993546
735.711831	0.992550
736.042293	0.993839
736.372707	0.994039
736.703073	0.992346
737.033391	0.993167
737.363661	0.993975
737.693883	0.993347
738.024056	0.993068
738.354182	0.993820
738.684260	0.994001
739.014290	0.992923
739.344272	0.993372
739.674207	0.993059
740.004093	0.993243
740.333931	0.993055
740.663722	0.993154
740.993464	0.994013
741.323159	0.993599
741.652806	0.993276
741.982405	0.993243
742.311956	0.993708
742.641460	0.993465
742.970915	0.993097
743.300323	0.992846
743.629683	0.993284
743.958996	0.993776
744.288260	0.993443
744.617477	0.993847
744.946647	0.994757
745.275768	0.994530
745.604842	0.993150
745.933869	0.993552
746.262847	0.993912
746.591778	0.993491
746.920662	0.993788
747.249498	0.994389
747.578286	0.996237
747.907027	0.994154
748.235720	0.993811
748.564365	0.994101
748.892963	0.993600
749.221514	0.994448
749.550017	0.993711
749.878473	0.993806
750.206881	0.994815
750.535242	0.993735
750.863555	0.993481
751.191821	0.994524
751.520039	0.993933
751.848210	0.992288
752.176334	0.994213
752.504411	0.993829
752.832440	0.993404
753.160421	0.993628
753.488356	0.995261
753.816243	0.994391
754.144082	0.993510
754.471875	0.994618
754.799620	0.995009
755.127318	0.993792
755.454969	0.995043
755.782572	0.995125
756.110129	0.994345
756.437638	0.995029
756.765100	0.994845
757.092515	0.994345
757.419882	0.994385
757.747203	0.993811
758.074477	0.995407
758.401703	0.993722
758.728882	0.994344
759.056014	0.994118
759.383099	0.994779
759.710138	0.993709
760.037129	0.992861
760.364073	0.994770
760.690970	0.994057
761.017820	0.993550
761.344623	0.994834
761.671379	0.993924
761.998088	0.993916
762.324751	0.994176
762.651366	0.992353
762.977935	0.991308
763.304456	0.990238
763.630931	0.987520
763.957359	0.987931
764.283740	0.988992
764.610074	0.990894
764.936362	0.991242
765.262602	0.993182
765.588796	0.993056
765.914943	0.993397
766.241044	0.993369
766.567097	0.993293
766.893104	0.994142
767.219064	0.993038
767.544978	0.994636
767.870845	0.994593
768.196665	0.994694
768.522438	0.995175
768.848165	0.995736
769.173846	0.995905
769.499479	0.996061
769.825066	0.996044
770.150607	0.996141
770.476101	0.995392
770.801548	0.995707
771.126949	0.996323
771.452303	0.995820
771.777611	0.995769
772.102872	0.996150
772.428087	0.995754
772.753256	0.995746
773.078378	0.996327
773.403453	0.995512
773.728482	0.996694
774.053465	0.996422
774.378401	0.995476
774.703291	0.997524
775.028135	0.997226
775.352932	0.995881
775.677683	0.997078
776.002388	0.996293
776.327046	0.996576
776.651658	0.998091
776.976224	0.996451
777.300743	0.996289
777.625216	0.996520
777.949643	0.996513
778.274024	0.995733
778.598359	0.997880
778.922647	0.997013
779.246889	0.996614
779.571086	0.997007
779.895236	0.996139
780.219339	0.997247
780.543397	0.994715
780.867409	0.996966
781.191374	0.996086
781.515294	0.997260
781.839167	0.997434
782.162995	0.996540
782.486776	0.996569
782.810511	0.995747
783.134201	0.997761
783.457844	0.997290
783.781441	0.996255
784.104993	0.996056
784.428498	0.996803
784.751958	0.998147
785.075372	0.997278
785.398739	0.996042
785.722061	0.996273
786.045337	0.997231
786.368568	0.995922
786.691752	0.997406
787.014891	0.996336
787.337983	0.996845
787.661030	0.996570
787.984031	0.996264
788.306987	0.996293
788.629897	0.994300
788.952760	0.996334
789.275579	0.995859
789.598351	0.995941
789.921078	0.997112
790.243759	0.996797
790.566395	0.995337
790.888984	0.996438
791.211529	0.997037
791.534027	0.996163
791.856480	0.997238
792.178888	0.996465
792.501249	0.996801
792.823566	0.998297
793.145836	0.996991
793.468062	0.997557
793.790241	0.997474
794.112375	0.995548
794.434464	0.995807
794.756507	0.997734
795.078505	0.997545
795.400457	0.997328
795.722364	0.997241
796.044226	0.996007
796.366042	0.995503
796.687812	0.995224
797.009538	0.996115
797.331218	0.996188
797.652852	0.997226
797.974442	0.996323
798.295986	0.997047
798.617484	0.995730
798.938938	0.997433
799.260346	0.997016
799.581709	0.995830
799.903026	0.996852
800.224299	0.996686
800.545526	0.997161
800.866708	0.997083
801.187845	0.996747
801.508936	0.997061
801.829983	0.998076
802.150984	0.997875
802.471940	0.996725
802.792851	0.997829
803.113717	0.997610
803.434538	0.997394
803.755314	0.998615
804.076045	0.997303
804.396731	0.997125
804.717372	0.996500
805.037967	0.997913
805.358518	0.997118
805.679024	0.997483
805.999485	0.996726
806.319901	0.998065
806.640272	0.998187
806.960598	0.997306
807.280879	0.997014
807.601115	0.998138
807.921306	0.997965
808.241453	0.997140
808.561554	0.996271
808.881611	0.997424
809.201623	0.996796
809.521590	0.996438
809.841513	0.998212
810.161390	0.996956
810.481223	0.997354
810.801011	0.997956
811.120755	0.998185
811.440453	0.997076
811.760107	0.998554
812.079716	0.997011
812.399281	0.997536
812.718801	0.996246
813.038276	0.997052
813.357707	0.997364
813.677093	0.998183
813.996434	0.997924
814.315731	0.998099
814.634983	0.997062
814.954191	0.998403
815.273354	0.996912
815.592473	0.997434
815.911547	0.998052
816.230577	0.996681
816.549562	0.997133
816.868502	0.996367
817.187399	0.996574
817.506250	0.996968
817.825058	0.994707
818.143821	0.996668
818.462539	0.996712
818.781213	0.996861
819.099843	0.996841
819.418429	0.994759
819.736970	0.994771
820.055466	0.992545
820.373919	0.992593
820.692327	0.990879
821.010691	0.988927
821.329011	0.986452
821.647286	0.983048
821.965517	0.979470
822.283704	0.975128
822.601847	0.972252
822.919945	0.973667
823.237999	0.975279
823.556010	0.977327
823.873976	0.980055
824.191897	0.982504
824.509775	0.984520
824.827609	0.985237
825.145398	0.987259
825.463144	0.985695
825.780845	0.986223
826.098502	0.986771
826.416116	0.986352
826.733685	0.983473
827.051210	0.980053
827.368692	0.981967
827.686129	0.983182
828.003522	0.986788
828.320872	0.987020
828.638177	0.989055
828.955439	0.991405
829.272656	0.992388
829.589830	0.992918
829.906960	0.994165
830.224046	0.994457
830.541088	0.995715
830.858086	0.995791
831.175041	0.996809
831.491952	0.995845
831.808819	0.995972
832.125642	0.995070
832.442421	0.995104
832.759157	0.995323
833.075849	0.992418
833.392497	0.990375
833.709101	0.987292
834.025662	0.986158
834.342179	0.986932
834.658653	0.990704
834.975083	0.991191
835.291469	0.991509
835.607811	0.993203
835.924110	0.994428
836.240366	0.995900
836.556578	0.996222
836.872746	0.997475
837.188871	0.995929
837.504952	0.996300
837.820990	0.998206
838.136984	0.995741
838.452935	0.998170
838.768842	0.998477
839.084706	0.998225
839.400526	0.997027
839.716303	0.994149
840.032037	0.993688
840.347727	0.992676
840.663373	0.994821
840.978977	0.994919
841.294537	0.997915
841.610054	0.998129
841.925527	0.997673
842.240957	0.998716
842.556344	0.998058
842.871687	0.998501
843.186987	0.998275
843.502244	0.999307
843.817458	0.998229
844.132629	0.998430
844.447756	0.998984
844.762840	0.998901
845.077881	1.001398
845.392879	0.998206
845.707833	0.998580
846.022745	0.999114
846.337613	0.999588
846.652438	1.000278
846.967221	0.999339
847.281960	0.998789
847.596656	1.000058
847.911309	0.999736
848.225919	0.999184
848.540485	1.000019
848.855009	1.000259
849.169490	0.998834
849.483928	0.998907
849.798323	0.998835
850.112675	1.000032
850.426984	1.000054
850.741251	0.999168
851.055474	0.998788
851.369654	1.000526
851.683792	0.998889
851.997887	0.999346
852.311938	0.999427
852.625947	0.998934
852.939914	0.999185
853.253837	1.000267
853.567718	1.000454
853.881555	1.000303
854.195350	0.999379
854.509103	0.998722
854.822812	1.000025
855.136479	0.999502
855.450103	1.000029
855.763685	1.000451
856.077224	0.999361
856.390720	0.998997
856.704173	1.000580
857.017584	1.000427
857.330953	0.999833
857.644278	0.999479
857.957561	0.999771
858.270802	0.999052
858.584000	1.000064
858.897155	0.999282
859.210268	1.000663
859.523339	0.999764
859.836367	1.000507
860.149352	1.000076
860.462295	0.999062
860.775195	0.999086
861.088054	0.997804
861.400869	0.999233
861.713642	0.999809
862.026373	1.000301
862.339062	1.000695
862.651708	0.999081
862.964312	0.999930
863.276873	0.999669
863.589392	1.000598
863.901869	0.998759
864.214303	0.998261
864.526696	0.999989
864.839045	0.998959
865.151353	0.998422
865.463619	0.999153
865.775842	0.999591
866.088023	1.000002
866.400162	0.999410
866.712258	1.000494
867.024313	1.000363
867.336325	1.000971
867.648296	1.000362
867.960224	0.999406
868.272110	1.000135
868.583954	0.999416
868.895755	0.999913
869.207515	0.999598
869.519233	0.999588
869.830909	0.997915
870.142542	0.997857
870.454134	0.998046
870.765684	0.998201
871.077191	0.998570
871.388657	0.998606
871.700081	0.998994
872.011463	0.999354
872.322803	0.998812
872.634101	0.997975
872.945357	0.998229
873.256571	0.997656
873.567744	0.998300
873.878874	0.999259
874.189963	0.997517
874.501010	0.999839
874.812015	0.998104
875.122979	0.998595
875.433900	0.997146
875.744780	0.998151
876.055618	0.997924
876.366415	0.998144
876.677169	0.996778
876.987882	0.998294
877.298554	0.998951
877.609183	0.997790
877.919771	0.997513
878.230317	0.998492
878.540822	0.996384
878.851285	0.997492
879.161707	0.996146
879.472087	0.997518
879.782425	0.993579
880.092722	0.991847
880.402977	0.988405
880.713191	0.983924
881.023363	0.980456
881.333494	0.976610
881.643583	0.977197
881.953631	0.976253
882.263637	0.975987
882.573602	0.978934
882.883526	0.980497
883.193408	0.983284
883.503248	0.983644
883.813048	0.985747
884.122806	0.986905
884.432522	0.988544
884.742197	0.992197
885.051831	0.992042
885.361424	0.993160
885.670975	0.994719
885.980485	0.994441
886.289954	0.995031
886.599382	0.994988
886.908768	0.996234
887.218113	0.995166
887.527417	0.997706
887.836680	0.997711
888.145901	0.997214
888.455082	0.999259
888.764221	0.998422
889.073319	0.996582
889.382376	0.998393
889.691392	0.996739
890.000366	0.997848
890.309300	0.998001
890.618193	0.997715
890.927044	0.997352
891.235855	0.997900
891.544625	0.998528
891.853353	0.996961
892.162041	0.997303
892.470687	0.998455
892.779293	0.996377
893.087858	0.995308
893.396381	0.994685
893.704864	0.993574
894.013306	0.993159
894.321707	0.990186
894.630068	0.989569
894.938387	0.988291
895.246665	0.987622
895.554903	0.988769
895.863100	0.990645
896.171256	0.991771
896.479371	0.992673
896.787446	0.993883
897.095480	0.994940
897.403473	0.995648
897.711425	0.995867
898.019336	0.997258
898.327207	0.996904
898.635038	0.995953
898.942827	0.997292
899.250576	0.996332
899.558284	0.997863
899.865952	0.996675
900.173579	0.997483
900.481165	0.997504
900.788711	0.997566
901.096216	0.998594
901.403681	0.999345
901.711105	0.997115
902.018489	0.996880
902.325832	0.998697
902.633135	0.997776
902.940397	0.997571
903.247619	0.996479
903.554800	0.993885
903.861941	0.991607
904.169041	0.987836
904.476101	0.986104
904.783121	0.985233
905.090100	0.986773
905.397039	0.988963
905.703938	0.989619
906.010796	0.993123
906.317614	0.993447
906.624391	0.996018
906.931129	0.996119
907.237826	0.997275
907.544483	0.997204
907.851099	0.998091
908.157675	0.997972
908.464211	0.998715
908.770707	0.997481
909.077163	0.998852
909.383578	0.998967
909.689954	0.999056
909.996289	0.999542
910.302584	0.999851
910.608839	1.000730
910.915054	0.999490
911.221229	1.000634
911.527363	0.998483
911.833458	0.999738
912.139513	0.998873
912.445527	0.999228
912.751502	0.998280
913.057436	0.998154
913.363331	0.998554
913.669186	0.998228
913.975000	0.998301
914.280775	0.996954
914.586510	0.995305
914.892205	0.994270
915.197859	0.993087
915.503475	0.990745
915.809050	0.988724
916.114585	0.984373
916.420081	0.985309
916.725536	0.987215
917.030952	0.987731
917.336328	0.988383
917.641665	0.988755
917.946961	0.989941
918.252218	0.992142
918.557435	0.993047
918.862612	0.993826
919.167750	0.995551
919.472848	0.997009
919.777906	0.997462
920.082925	0.997772
920.387904	0.998061
920.692843	0.997404
920.997743	0.996898
921.302603	0.998022
921.607423	0.996637
921.912204	0.998627
922.216946	0.999744
922.521647	0.999088
922.826310	0.998005
923.130932	0.999985
923.435516	0.998926
923.740059	0.999609
924.044564	0.998212
924.349028	0.998825
924.653454	0.999587
924.957840	0.998795
925.262186	1.000371
925.566493	0.999177
925.870761	0.999282
926.174989	0.999947
926.479178	1.001752
926.783328	0.999494
927.087438	1.000449
927.391509	0.999359
927.695541	1.000011
927.999533	1.000035
928.303486	1.000407
928.607400	1.000715
928.911275	1.000874
929.215110	1.002290
929.518906	0.999844
929.822663	1.000913
930.126381	1.000861
930.430060	1.000682
930.733699	1.000433
931.037299	1.000504
931.340861	1.000488
931.644383	1.000134
931.947866	1.000257
932.251309	1.001353
932.554714	0.999498
932.858080	1.001220
933.161407	0.999119
933.464694	1.001393
933.767943	1.000706
934.071153	1.002134
934.374323	1.001730
934.677455	1.000425
934.980548	1.001657
935.283602	1.000998
935.586617	1.000711
935.889593	1.002755
936.192530	1.002273
936.495428	1.000994
936.798287	1.000569
937.101108	1.000919
937.403890	1.000118
937.706632	1.001624
938.009336	1.000789
938.312002	1.000119
938.614628	1.000106
938.917216	0.999561
939.219765	0.999678
939.522275	0.999727
939.824747	1.000354
940.127179	0.999307
940.429573	1.000747
940.731929	0.999492
941.034246	0.999668
941.336524	0.999021
941.638763	0.999084
941.940964	0.999348
942.243126	1.000097
942.545250	0.999317
942.847335	0.999942
943.149381	1.000351
943.451389	0.998549
943.753359	1.000584
944.055290	1.001080
944.357182	1.000530
944.659036	1.000934
944.960851	1.000433
945.262628	1.000810
945.564367	1.000469
945.866067	1.001553
946.167729	1.001870
946.469352	1.001673
946.770937	0.999484
947.072484	1.001431
947.373992	1.000737
947.675462	0.999329
947.976893	1.000661
948.278286	1.002592
948.579641	1.001750
948.880958	1.000335
949.182236	1.000632
949.483476	1.000483
949.784678	1.000310
950.085841	1.000841
950.386967	1.000854
950.688054	1.001327
950.989103	0.999690
951.290114	1.000016
951.591087	1.000964
951.892021	0.999822
952.192917	1.000748
952.493776	1.000491
952.794596	1.000396
953.095378	0.999824
953.396122	0.999229
953.696828	1.001133
953.997496	1.000255
954.298126	1.001829
954.598718	0.999504
954.899272	1.000824
955.199788	1.000382
955.500266	1.002026
955.800706	1.001538
956.101108	1.000320
956.401472	1.001555
956.701798	0.999919
957.002087	1.001309
957.302337	1.001303
957.602550	1.000885
957.902724	1.001328
958.202861	1.000674
958.502960	1.000279
958.803022	1.002118
959.103045	1.001372
959.403031	1.002288
959.702979	1.002403
960.002889	1.001207
960.302762	1.000509
960.602596	1.002083
960.902393	1.000571
961.202153	1.002075
961.501875	1.002076
961.801559	1.002284
962.101205	1.001722
962.400814	1.002746
962.700385	1.002218
962.999918	1.000805
963.299414	1.000880
963.598873	1.001719
963.898293	1.002826
964.197677	1.001403
964.497022	1.001499
964.796331	1.001309
965.095601	1.002701
965.394835	1.001655
965.694030	1.001357
965.993189	1.002255
966.292309	1.002309
966.591393	0.999641
966.890439	1.002398
967.189447	1.001637
967.488419	1.001379
967.787353	1.002324
968.086249	1.001530
968.385108	1.001552
968.683930	1.002417
968.982714	1.001687
969.281462	1.001818
969.580172	1.000745
969.878844	1.003222
970.177480	1.001518
970.476078	1.003562
970.774639	1.001941
971.073162	1.001735
971.371649	1.001470
971.670098	1.001163
971.968510	1.002261
972.266885	1.000721
972.565223	1.001088
972.863524	1.000899
973.161788	1.001637
973.460014	1.002500
973.758204	1.000970
974.056356	1.002606
974.354471	1.001345
974.652550	1.002914
974.950591	1.000595
975.248595	1.000064
975.546563	1.001582
975.844493	1.001641
976.142386	1.000908
976.440243	1.002641
976.738062	1.002667
977.035845	1.001213
977.333590	1.001673
977.631299	1.001584
977.928971	1.001932
978.226606	1.002436
978.524204	1.000629
978.821765	1.002812
979.119290	1.002447
979.416777	1.001024
979.714228	1.001065
980.011642	1.002545
980.309020	1.001123
980.606360	1.001277
980.903664	1.001591
981.200931	1.001794
981.498162	1.001699
981.795356	1.001670
982.092513	1.002152
982.389633	1.002091
982.686717	1.000831
982.983764	1.000216
983.280775	1.000856
983.577749	1.002731
983.874686	0.999429
984.171587	1.000207
984.468451	1.000991
984.765279	1.001976
985.062070	1.002235
985.358824	1.001292
985.655543	1.001728
985.952224	1.001761
986.248869	1.001257
986.545478	1.003054
986.842050	1.001890
987.138586	1.001209
987.435086	1.001040
987.731549	1.003648
988.027975	1.003101
988.324366	1.001264
988.620719	1.004242
988.917037	1.001547
989.213318	1.002588
989.509563	1.003472
989.805772	1.003086
990.101944	1.003690
990.398080	1.001938
990.694180	1.003111
990.990244	1.001317
991.286271	1.002574
991.582262	1.002639
991.878217	1.001830
992.174136	1.002295
992.470019	1.002752
992.765865	1.003823
993.061676	1.002153
993.357450	1.003061
993.653188	1.002833
993.948890	1.000881
994.244556	1.002356
994.540186	1.001514
994.835780	1.001927
995.131337	1.002498
995.426859	1.001681
995.722345	1.001600
996.017795	1.001236
996.313208	1.002262
996.608586	1.002618
996.903928	1.002387
997.199234	1.001513
997.494504	1.003790
997.789738	1.000254
998.084936	1.002705
998.380099	1.001180
998.675225	1.001886
998.970316	1.002597
999.265371	1.001302
999.560390	1.002179
999.855373	1.002173
1000.150320	1.001316
1000.445232	1.001476
1000.740108	1.001812
1001.034948	1.001186
1001.329752	1.002808
1001.624521	1.001694
1001.919254	1.001856
1002.213951	1.002775
1002.508613	1.001575
1002.803239	1.001244
1003.097829	1.003330
1003.392384	1.002879
1003.686903	1.002085
1003.981386	1.002028
1004.275834	1.003234
1004.570246	1.001169
1004.864623	1.002048
1005.158964	1.003103
1005.453270	1.002986
1005.747540	1.002561
1006.041775	1.002686
1006.335974	1.002877
1006.630138	1.001900
1006.924266	1.000952
1007.218359	1.001880
1007.512416	1.002238
1007.806438	1.002078
1008.100425	1.003256
1008.394376	1.002687
1008.688292	1.002356
1008.982172	1.001148
1009.276017	1.002555
1009.569827	1.003886
1009.863602	1.001413
1010.157341	1.003363
1010.451045	1.002026
1010.744714	1.004105
1011.038347	1.002749
1011.331945	1.001039
1011.625508	1.001350
1011.919036	1.001618
1012.212528	1.002016
1012.505986	1.001874
1012.799408	1.003824
1013.092795	1.001786
1013.386147	1.002288
1013.679464	1.003259
1013.972745	1.001883
1014.265992	1.002295
1014.559204	1.002157
1014.852380	1.003327
1015.145521	1.001554
1015.438628	1.002517
1015.731699	1.001246
1016.024736	1.003524
1016.317737	1.002588
1016.610703	1.002011
1016.903635	1.002159
1017.196531	1.002975
1017.489393	1.002818
1017.782219	1.002393
1018.075011	1.001439
1018.367768	1.001117
1018.660490	1.002651
1018.953177	1.002651
1019.245829	1.002651
