Dividing Wavelength (nm)	Counts (n)	Blue Motor Position (mm): 10.400000	Red Motor Position (mm): 0.000000	
326.493990	1.003779
326.888308	1.003779
327.282561	1.003779
327.676750	1.005194
328.070874	1.005635
328.464933	1.005953
328.858929	1.006265
329.252859	1.004467
329.646726	1.004504
330.040528	1.004531
330.434265	1.004128
330.827938	1.002841
331.221547	1.004190
331.615091	1.005089
332.008571	1.005974
332.401986	1.002637
332.795338	1.004825
333.188625	1.004735
333.581847	1.003807
333.975006	1.004266
334.368100	1.005554
334.761129	1.003636
335.154095	1.004180
335.546996	1.003057
335.939833	0.997502
336.332606	0.999478
336.725315	0.999180
337.117960	0.999431
337.510540	0.998522
337.903056	0.999470
338.295508	1.000227
338.687896	0.999389
339.080220	0.999556
339.472480	0.998952
339.864676	0.999114
340.256807	0.999426
340.648875	1.000105
341.040879	0.999217
341.432818	1.000086
341.824694	0.999890
342.216506	0.999533
342.608253	0.999241
342.999937	0.999030
343.391557	0.999257
343.783113	1.000252
344.174605	1.000832
344.566033	0.999751
344.957397	0.999899
345.348697	0.998944
345.739934	0.999770
346.131106	0.999794
346.522215	0.998105
346.913260	0.999097
347.304241	0.997873
347.695159	0.998799
348.086012	0.998351
348.476802	0.998149
348.867528	0.998867
349.258191	0.998758
349.648789	0.999659
350.039324	0.999147
350.429796	0.997836
350.820203	0.996245
351.210548	0.998768
351.600828	0.998054
351.991045	0.997054
352.381198	0.999582
352.771288	0.999119
353.161314	0.999635
353.551276	0.997396
353.941175	0.997891
354.331010	0.998914
354.720782	0.998272
355.110490	0.998455
355.500135	0.999288
355.889717	0.996597
356.279235	0.997887
356.668689	0.998094
357.058080	0.998656
357.447408	0.997067
357.836672	0.998551
358.225873	0.998925
358.615010	0.997902
359.004084	0.997198
359.393095	0.998465
359.782043	0.996940
360.170927	0.998978
360.559748	0.997457
360.948505	0.997508
361.337199	0.998187
361.725830	0.997815
362.114398	0.997177
362.502903	0.996512
362.891344	0.997234
363.279722	0.997176
363.668037	0.997256
364.056289	0.996955
364.444478	0.997994
364.832603	0.996859
365.220665	0.997580
365.608665	0.996463
365.996601	0.997934
366.384474	0.995911
366.772284	0.997460
367.160031	0.994543
367.547715	0.996561
367.935336	0.994661
368.322893	0.994962
368.710388	0.993645
369.097820	0.991023
369.485189	0.989423
369.872495	0.987294
370.259738	0.984775
370.646918	0.981954
371.034035	0.980052
371.421090	0.977568
371.808081	0.971896
372.195010	0.968832
372.581875	0.963913
372.968678	0.960382
373.355418	0.955770
373.742096	0.948083
374.128710	0.943864
374.515262	0.940078
374.901751	0.932795
375.288177	0.929432
375.674540	0.920717
376.060841	0.915905
376.447079	0.910201
376.833254	0.902732
377.219367	0.898344
377.605417	0.885426
377.991404	0.883045
378.377329	0.877354
378.763191	0.871005
379.148991	0.862168
379.534727	0.854352
379.920402	0.844543
380.306013	0.842327
380.691563	0.829328
381.077049	0.822552
381.462474	0.818986
381.847835	0.807103
382.233134	0.803476
382.618371	0.802769
383.003545	0.784861
383.388657	0.783928
383.773706	0.776483
384.158693	0.770797
384.543618	0.765527
384.928480	0.756963
385.313280	0.747283
385.698017	0.747141
386.082692	0.735279
386.467305	0.735380
386.851856	0.728373
387.236344	0.723484
387.620770	0.717319
388.005133	0.710824
388.389435	0.706100
388.773674	0.704282
389.157851	0.695553
389.541965	0.693085
389.926018	0.700574
390.310008	0.686545
390.693936	0.683436
391.077802	0.675395
391.461606	0.677386
391.845348	0.666100
392.229027	0.666179
392.612645	0.664088
392.996200	0.651502
393.379694	0.644102
393.763125	0.634620
394.146494	0.638604
394.529801	0.629661
394.913047	0.621790
395.296230	0.627458
395.679351	0.619336
396.062410	0.615763
396.445408	0.618347
396.828343	0.613743
397.211217	0.609401
397.594028	0.620538
397.976778	0.610756
398.359466	0.607837
398.742092	0.603006
399.124656	0.614915
399.507158	0.603261
399.889598	0.600228
400.271977	0.591255
400.654294	0.595302
401.036549	0.594736
401.418742	0.599037
401.800874	0.584722
402.182944	0.581683
402.564952	0.573079
402.946898	0.575529
403.328783	0.575624
403.710606	0.587193
404.092367	0.561915
404.474067	0.567109
404.855705	0.565975
405.237282	0.574940
405.618797	0.561151
406.000250	0.555843
406.381642	0.546827
406.762972	0.551285
407.144240	0.550856
407.525447	0.550467
407.906593	0.543088
408.287677	0.538613
408.668700	0.546901
409.049661	0.541691
409.430560	0.536361
409.811399	0.544457
410.192176	0.526567
410.572891	0.533223
410.953545	0.522166
411.334138	0.535360
411.714669	0.527444
412.095139	0.539980
412.475547	0.524421
412.855894	0.525816
413.236180	0.524446
413.616405	0.529448
413.996568	0.520250
414.376670	0.527387
414.756711	0.531476
415.136691	0.528205
415.516609	0.519639
415.896466	0.516170
416.276262	0.512041
416.655997	0.514342
417.035670	0.495114
417.415283	0.487868
417.794834	0.492238
418.174324	0.498101
418.553753	0.506564
418.933121	0.488728
419.312428	0.482368
419.691674	0.488411
420.070859	0.477138
420.449983	0.484142
420.829045	0.473097
421.208047	0.482805
421.586988	0.475577
421.965867	0.474887
422.344686	0.463215
422.723444	0.475939
423.102141	0.493104
423.480777	0.465761
423.859352	0.486659
424.237866	0.463932
424.616319	0.464276
424.994712	0.455847
425.373044	0.466103
425.751314	0.453948
426.129524	0.470388
426.507673	0.453798
426.885762	0.447634
427.263789	0.453204
427.641756	0.462505
428.019662	0.453112
428.397508	0.452403
428.775292	0.456596
429.153016	0.448407
429.530679	0.454473
429.908282	0.447552
430.285824	0.458332
430.663305	0.435804
431.040726	0.457208
431.418086	0.457571
431.795385	0.449412
432.172624	0.448279
432.549802	0.448363
432.926920	0.447505
433.303977	0.446790
433.680974	0.444070
434.057910	0.442807
434.434786	0.442020
434.811601	0.445139
435.188355	0.426999
435.565050	0.436514
435.941683	0.437565
436.318257	0.421320
436.694770	0.422650
437.071222	0.420508
437.447614	0.425038
437.823946	0.431375
438.200218	0.421452
438.576429	0.430283
438.952580	0.423475
439.328670	0.419909
439.704700	0.426874
440.080670	0.427966
440.456580	0.408733
440.832429	0.417226
441.208218	0.428130
441.583947	0.417191
441.959616	0.416427
442.335224	0.422675
442.710773	0.412677
443.086261	0.411068
443.461689	0.424587
443.837057	0.415175
444.212365	0.404455
444.587612	0.411817
444.962800	0.401573
445.337927	0.402934
445.712995	0.429220
446.088002	0.391040
446.462949	0.401345
446.837837	0.406485
447.212664	0.395135
447.587431	0.386779
447.962139	0.356915
448.336786	0.315986
448.711374	0.326146
449.085901	0.371023
449.460369	0.375424
449.834776	0.378695
450.209124	0.357201
450.583412	0.350662
450.957640	0.343317
451.331808	0.355137
451.705917	0.378148
452.079965	0.383461
452.453954	0.371329
452.827883	0.378241
453.201752	0.373016
453.575562	0.384243
453.949311	0.372740
454.323001	0.378425
454.696632	0.374585
455.070202	0.367142
455.443713	0.359011
455.817164	0.353705
456.190556	0.349351
456.563888	0.346477
456.937160	0.343914
457.310373	0.361345
457.683526	0.360087
458.056619	0.366062
458.429653	0.366188
458.802628	0.370069
459.175542	0.364006
459.548398	0.346591
459.921194	0.339221
460.293930	0.339300
460.666607	0.316543
461.039224	0.304496
461.411782	0.300299
461.784280	0.299771
462.156719	0.303941
462.529099	0.308182
462.901419	0.324322
463.273680	0.328916
463.645882	0.328420
464.018024	0.334146
464.390106	0.327255
464.762130	0.311438
465.134094	0.294227
465.505999	0.263491
465.877845	0.233888
466.249631	0.220527
466.621358	0.228249
466.993026	0.242149
467.364634	0.248222
467.736184	0.257088
468.107674	0.266075
468.479105	0.265443
468.850477	0.271999
469.221790	0.278589
469.593043	0.288630
469.964238	0.293459
470.335373	0.293298
470.706449	0.291354
471.077467	0.291718
471.448425	0.253900
471.819324	0.229433
472.190164	0.228881
472.560945	0.257854
472.931667	0.280048
473.302330	0.284585
473.672934	0.296310
474.043479	0.284123
474.413965	0.286324
474.784393	0.289357
475.154761	0.284545
475.525070	0.281383
475.895321	0.287505
476.265513	0.281727
476.635645	0.276767
477.005719	0.276816
477.375734	0.273444
477.745691	0.266535
478.115588	0.263033
478.485427	0.256618
478.855207	0.243327
479.224928	0.225780
479.594591	0.213875
479.964194	0.217338
480.333739	0.218563
480.703226	0.220040
481.072653	0.218126
481.442022	0.213993
481.811333	0.210894
482.180584	0.214186
482.549777	0.219694
482.918912	0.222959
483.287988	0.222631
483.657005	0.222128
484.025964	0.228662
484.394864	0.226170
484.763706	0.226426
485.132489	0.231636
485.501213	0.232597
485.869879	0.230792
486.238487	0.233783
486.607036	0.231827
486.975527	0.236476
487.343959	0.232126
487.712333	0.231213
488.080648	0.232578
488.448905	0.231953
488.817104	0.233089
489.185244	0.227385
489.553326	0.224737
489.921350	0.214348
490.289315	0.196929
490.657222	0.191878
491.025070	0.193251
491.392861	0.195299
491.760593	0.200768
492.128267	0.206540
492.495883	0.212004
492.863440	0.218405
493.230939	0.224836
493.598380	0.226414
493.965763	0.228352
494.333088	0.230411
494.700354	0.232036
495.067563	0.230802
495.434713	0.234859
495.801805	0.232153
496.168839	0.233645
496.535815	0.235345
496.902733	0.235083
497.269593	0.236502
497.636395	0.234515
498.003139	0.234426
498.369825	0.237688
498.736453	0.233999
499.103023	0.235685
499.469535	0.235039
499.835989	0.235507
500.202385	0.235902
500.568723	0.239423
500.935003	0.234785
501.301226	0.239013
501.667390	0.233248
502.033497	0.231405
502.399546	0.234163
502.765537	0.236290
503.131470	0.234613
503.497345	0.230683
503.863163	0.239416
504.228923	0.232696
504.594625	0.231367
504.960269	0.236592
505.325856	0.232130
505.691385	0.236383
506.056856	0.233098
506.422270	0.232580
506.787625	0.234839
507.152924	0.232546
507.518164	0.232556
507.883347	0.234315
508.248472	0.236166
508.613540	0.231023
508.978550	0.233914
509.343503	0.234474
509.708398	0.231914
510.073236	0.229321
510.438016	0.229279
510.802738	0.230360
511.167403	0.229155
511.532010	0.231388
511.896561	0.226608
512.261053	0.225354
512.625488	0.227330
512.989866	0.227823
513.354186	0.228484
513.718449	0.229840
514.082655	0.226302
514.446803	0.228756
514.810894	0.226538
515.174927	0.229089
515.538904	0.228666
515.902822	0.225471
516.266684	0.227506
516.630488	0.228955
516.994235	0.227699
517.357925	0.226441
517.721558	0.224885
518.085133	0.224758
518.448651	0.224522
518.812112	0.226747
519.175516	0.226164
519.538863	0.223896
519.902152	0.225462
520.265385	0.222368
520.628560	0.224107
520.991678	0.224488
521.354739	0.223297
521.717743	0.224539
522.080690	0.225181
522.443580	0.222431
522.806413	0.223286
523.169189	0.222693
523.531908	0.221475
523.894569	0.225270
524.257174	0.225076
524.619722	0.223036
524.982213	0.223931
525.344647	0.222800
525.707025	0.223744
526.069345	0.221759
526.431608	0.223641
526.793815	0.221458
527.155964	0.225837
527.518057	0.224673
527.880093	0.225891
528.242072	0.224135
528.603995	0.226186
528.965860	0.227757
529.327669	0.226947
529.689421	0.227781
530.051117	0.228609
530.412755	0.226290
530.774337	0.228611
531.135862	0.229396
531.497331	0.228098
531.858743	0.231219
532.220098	0.228088
532.581396	0.230511
532.942638	0.231214
533.303824	0.232249
533.664953	0.231793
534.026025	0.233791
534.387040	0.231643
534.747999	0.231401
535.108902	0.230722
535.469748	0.235557
535.830537	0.233197
536.191270	0.233820
536.551947	0.233349
536.912567	0.233405
537.273131	0.235081
537.633638	0.235414
537.994089	0.235581
538.354483	0.236833
538.714821	0.233677
539.075103	0.233505
539.435328	0.234493
539.795497	0.238121
540.155609	0.234587
540.515665	0.232943
540.875665	0.238449
541.235609	0.237119
541.595496	0.237145
541.955328	0.233768
542.315102	0.236626
542.674821	0.237725
543.034483	0.237438
543.394090	0.237191
543.753640	0.239229
544.113134	0.234372
544.472571	0.237498
544.831953	0.234560
545.191278	0.238642
545.550548	0.237616
545.909761	0.234730
546.268918	0.235389
546.628019	0.233661
546.987064	0.236887
547.346053	0.238443
547.704986	0.236144
548.063863	0.236367
548.422684	0.236758
548.781449	0.238566
549.140158	0.236498
549.498811	0.239084
549.857408	0.242232
550.215949	0.236715
550.574434	0.240109
550.932864	0.238498
551.291237	0.236543
551.649555	0.238184
552.007817	0.237858
552.366022	0.238936
552.724173	0.238918
553.082267	0.239432
553.440305	0.235982
553.798288	0.240385
554.156215	0.237193
554.514086	0.237878
554.871902	0.240789
555.229661	0.240117
555.587365	0.241061
555.945014	0.243370
556.302606	0.240207
556.660143	0.242785
557.017625	0.239178
557.375050	0.241648
557.732421	0.238538
558.089735	0.240398
558.446994	0.240386
558.804197	0.239826
559.161345	0.239556
559.518437	0.243136
559.875474	0.241142
560.232455	0.240430
560.589381	0.241417
560.946251	0.241535
561.303065	0.239184
561.659825	0.240195
562.016528	0.242068
562.373177	0.244703
562.729770	0.242322
563.086307	0.244044
563.442789	0.242075
563.799216	0.245071
564.155587	0.243958
564.511904	0.244840
564.868164	0.244794
565.224370	0.244578
565.580520	0.246473
565.936615	0.246166
566.292654	0.249455
566.648638	0.246270
567.004567	0.247417
567.360441	0.247784
567.716260	0.249653
568.072023	0.247469
568.427732	0.248051
568.783385	0.250302
569.138982	0.248737
569.494525	0.248236
569.850013	0.251374
570.205445	0.249953
570.560823	0.252024
570.916145	0.254412
571.271412	0.252670
571.626625	0.254161
571.981782	0.254324
572.336884	0.255307
572.691931	0.255096
573.046923	0.256692
573.401860	0.257663
573.756743	0.259234
574.111570	0.258026
574.466342	0.258690
574.821059	0.257774
575.175722	0.260677
575.530330	0.260239
575.884882	0.260438
576.239380	0.262402
576.593823	0.263090
576.948211	0.262716
577.302544	0.265826
577.656823	0.265411
578.011047	0.265568
578.365216	0.266163
578.719330	0.268254
579.073389	0.267901
579.427394	0.269214
579.781344	0.270271
580.135239	0.271410
580.489080	0.271082
580.842866	0.274172
581.196597	0.274265
581.550273	0.272615
581.903895	0.273886
582.257463	0.271401
582.610975	0.275356
582.964434	0.274572
583.317837	0.277078
583.671186	0.277625
584.024481	0.277166
584.377721	0.279950
584.730906	0.280909
585.084037	0.280212
585.437113	0.281876
585.790135	0.281415
586.143103	0.284274
586.496016	0.285262
586.848874	0.282730
587.201679	0.283615
587.554428	0.286957
587.907124	0.285879
588.259765	0.286539
588.612352	0.286900
588.964884	0.290901
589.317362	0.290252
589.669786	0.290197
590.022155	0.289038
590.374470	0.288343
590.726731	0.290155
591.078937	0.295032
591.431090	0.291644
591.783188	0.295381
592.135232	0.296267
592.487222	0.295920
592.839157	0.293880
593.191038	0.296558
593.542866	0.298422
593.894639	0.301811
594.246358	0.300205
594.598022	0.299599
594.949633	0.303164
595.301190	0.303911
595.652692	0.303141
596.004141	0.299274
596.355535	0.307249
596.706876	0.308196
597.058162	0.309814
597.409395	0.307402
597.760573	0.305403
598.111698	0.308489
598.462768	0.309077
598.813785	0.310181
599.164748	0.311388
599.515657	0.312228
599.866511	0.315612
600.217312	0.311120
600.568060	0.315875
600.918753	0.312373
601.269392	0.313521
601.619978	0.316709
601.970510	0.314618
602.320988	0.314682
602.671412	0.312208
603.021783	0.314602
603.372100	0.316222
603.722363	0.316224
604.072572	0.316840
604.422728	0.316451
604.772830	0.319020
605.122878	0.318350
605.472872	0.319013
605.822813	0.317223
606.172701	0.320563
606.522534	0.317569
606.872314	0.318022
607.222041	0.319003
607.571714	0.316878
607.921333	0.318386
608.270899	0.318330
608.620411	0.314829
608.969870	0.319262
609.319276	0.319158
609.668627	0.318828
610.017926	0.317588
610.367171	0.316375
610.716362	0.317090
611.065500	0.316861
611.414585	0.316207
611.763616	0.316427
612.112594	0.317367
612.461518	0.316805
612.810389	0.314561
613.159207	0.317010
613.507971	0.318345
613.856682	0.314777
614.205340	0.315861
614.553945	0.313629
614.902496	0.317313
615.250994	0.315443
615.599439	0.316204
615.947830	0.315963
616.296169	0.316830
616.644454	0.316904
616.992686	0.316784
617.340864	0.315276
617.688990	0.318436
618.037063	0.315218
618.385082	0.317321
618.733048	0.314608
619.080961	0.317111
619.428821	0.316893
619.776628	0.316915
620.124382	0.319198
620.472083	0.319933
620.819731	0.319065
621.167326	0.322997
621.514868	0.322587
621.862357	0.327005
622.209793	0.326524
622.557176	0.329311
622.904506	0.330508
623.251783	0.333089
623.599007	0.335577
623.946179	0.334898
624.293297	0.337442
624.640363	0.341447
624.987376	0.342168
625.334336	0.344528
625.681243	0.347438
626.028097	0.348214
626.374899	0.349444
626.721647	0.350114
627.068343	0.352986
627.414987	0.354715
627.761577	0.357111
628.108115	0.355437
628.454600	0.361117
628.801032	0.359431
629.147412	0.360997
629.493739	0.362817
629.840014	0.365783
630.186236	0.363395
630.532405	0.369225
630.878521	0.366823
631.224585	0.369748
631.570597	0.373760
631.916556	0.373114
632.262462	0.373073
632.608316	0.376595
632.954117	0.377363
633.299866	0.378432
633.645562	0.379104
633.991206	0.384117
634.336797	0.387009
634.682336	0.389874
635.027823	0.391459
635.373257	0.392654
635.718639	0.396366
636.063968	0.396026
636.409245	0.401971
636.754470	0.402940
637.099642	0.405525
637.444762	0.409055
637.789829	0.409375
638.134845	0.413383
638.479808	0.414432
638.824719	0.415093
639.169577	0.419186
639.514383	0.418624
639.859137	0.423322
640.203839	0.423362
640.548489	0.425087
640.893086	0.426488
641.237632	0.428913
641.582125	0.427771
641.926566	0.430879
642.270955	0.430374
642.615292	0.431782
642.959576	0.431775
643.303809	0.432873
643.647990	0.433160
643.992118	0.434413
644.336195	0.437531
644.680219	0.437366
645.024192	0.438530
645.368112	0.433435
645.711981	0.432879
646.055797	0.429524
646.399562	0.433238
646.743274	0.428612
647.086935	0.425786
647.430544	0.426472
647.774101	0.426652
648.117606	0.427404
648.461059	0.428217
648.804460	0.431701
649.147810	0.436204
649.491108	0.438982
649.834354	0.441331
650.177548	0.446864
650.520690	0.452937
650.863781	0.454394
651.206820	0.454879
651.549807	0.459667
651.892742	0.464398
652.235626	0.464496
652.578458	0.466262
652.921238	0.473245
653.263967	0.471598
653.606644	0.475525
653.949269	0.477209
654.291843	0.480825
654.634365	0.479169
654.976836	0.483397
655.319255	0.483957
655.661622	0.486640
656.003938	0.488262
656.346203	0.490548
656.688416	0.490307
657.030577	0.493065
657.372687	0.496965
657.714746	0.498106
658.056753	0.495937
658.398708	0.501029
658.740612	0.502141
659.082465	0.500519
659.424266	0.501737
659.766016	0.502265
660.107715	0.506831
660.449362	0.506045
660.790958	0.507289
661.132503	0.510060
661.473996	0.508582
661.815438	0.510395
662.156829	0.511167
662.498168	0.513062
662.839456	0.513650
663.180693	0.513832
663.521879	0.513657
663.863013	0.515752
664.204097	0.517550
664.545129	0.514837
664.886110	0.516810
665.227040	0.516361
665.567918	0.518623
665.908746	0.518459
666.249522	0.518925
666.590248	0.520859
666.930922	0.520474
667.271545	0.521429
667.612118	0.522174
667.952639	0.523818
668.293109	0.525604
668.633528	0.528051
668.973896	0.528430
669.314213	0.530098
669.654480	0.533744
669.994695	0.533769
670.334859	0.535010
670.674973	0.538225
671.015035	0.538783
671.355047	0.539855
671.695008	0.541658
672.034918	0.543652
672.374777	0.545369
672.714585	0.547239
673.054342	0.548316
673.394049	0.549869
673.733705	0.549518
674.073310	0.553178
674.412864	0.553762
674.752368	0.557448
675.091820	0.558652
675.431223	0.562040
675.770574	0.563776
676.109875	0.567215
676.449125	0.568090
676.788324	0.571074
677.127473	0.576436
677.466571	0.577843
677.805619	0.580334
678.144616	0.583738
678.483562	0.585230
678.822458	0.588632
679.161303	0.589733
679.500098	0.592033
679.838842	0.593177
680.177535	0.594883
680.516179	0.594091
680.854771	0.595089
681.193314	0.591670
681.531805	0.585580
681.870247	0.580190
682.208638	0.575536
682.546978	0.575407
682.885268	0.578199
683.223508	0.584018
683.561697	0.588247
683.899836	0.591456
684.237925	0.595485
684.575963	0.597830
684.913951	0.601079
685.251889	0.601088
685.589776	0.601781
685.927614	0.603947
686.265401	0.602567
686.603137	0.603743
686.940824	0.602294
687.278460	0.602084
687.616046	0.602244
687.953582	0.599555
688.291068	0.601178
688.628504	0.601492
688.965889	0.602882
689.303224	0.605621
689.640510	0.610672
689.977745	0.615735
690.314930	0.621949
690.652065	0.626486
690.989150	0.631769
691.326185	0.638674
691.663170	0.644100
692.000105	0.648780
692.336990	0.654638
692.673825	0.659241
693.010610	0.663742
693.347345	0.666756
693.684030	0.672628
694.020665	0.675733
694.357251	0.681314
694.693786	0.683680
695.030272	0.686061
695.366707	0.689917
695.703093	0.693763
696.039429	0.692586
696.375716	0.697569
696.711952	0.698476
697.048139	0.700337
697.384276	0.702532
697.720363	0.703422
698.056400	0.704481
698.392388	0.708488
698.728326	0.711061
699.064214	0.713691
699.400053	0.715209
699.735842	0.720702
700.071581	0.722123
700.407270	0.724938
700.742910	0.727615
701.078501	0.731334
701.414042	0.734791
701.749533	0.737551
702.084974	0.741666
702.420366	0.740542
702.755709	0.745345
703.091002	0.749864
703.426246	0.750240
703.761440	0.750986
704.096584	0.754440
704.431679	0.755063
704.766725	0.758040
705.101721	0.760683
705.436668	0.759846
705.771565	0.762122
706.106413	0.761227
706.441212	0.762031
706.775961	0.762787
707.110661	0.760991
707.445311	0.760198
707.779913	0.762505
708.114465	0.761177
708.448967	0.758248
708.783421	0.756053
709.117825	0.753753
709.452180	0.752693
709.786485	0.750025
710.120742	0.745571
710.454949	0.745745
710.789107	0.742838
711.123216	0.737889
711.457275	0.737987
711.791286	0.735759
712.125247	0.737500
712.459159	0.739728
712.793023	0.735220
713.126837	0.744393
713.460602	0.744436
713.794318	0.746866
714.127985	0.749866
714.461602	0.757571
714.795171	0.759029
715.128691	0.764882
715.462162	0.770607
715.795584	0.774903
716.128957	0.778374
716.462281	0.781865
716.795556	0.784862
717.128782	0.789834
717.461960	0.795494
717.795088	0.796042
718.128167	0.800404
718.461198	0.803687
718.794180	0.805599
719.127113	0.809216
719.459997	0.810326
719.792833	0.815298
720.125619	0.815210
720.458357	0.820248
720.791046	0.821465
721.123686	0.823096
721.456278	0.826112
721.788821	0.825797
722.121315	0.830291
722.453761	0.830478
722.786158	0.831319
723.118506	0.831444
723.450805	0.832961
723.783056	0.832394
724.115259	0.834111
724.447412	0.834956
724.779518	0.834013
725.111574	0.833569
725.443582	0.833491
725.775542	0.835195
726.107453	0.831425
726.439315	0.832662
726.771129	0.830836
727.102895	0.827514
727.434612	0.825727
727.766281	0.825566
728.097901	0.823929
728.429473	0.824963
728.760996	0.825305
729.092471	0.825622
729.423897	0.828814
729.755276	0.831103
730.086606	0.829561
730.417887	0.827035
730.749120	0.824438
731.080305	0.822583
731.411442	0.820858
731.742530	0.821500
732.073570	0.822762
732.404562	0.822385
732.735506	0.822531
733.066401	0.823942
733.397249	0.829851
733.728048	0.836750
734.058798	0.844971
734.389501	0.851721
734.720156	0.854777
735.050762	0.859743
735.381320	0.862223
735.711831	0.864030
736.042293	0.866738
736.372707	0.867932
736.703073	0.868530
737.033391	0.868880
737.363661	0.869379
737.693883	0.869138
738.024056	0.867302
738.354182	0.866907
738.684260	0.863616
739.014290	0.861686
739.344272	0.860959
739.674207	0.859044
740.004093	0.858794
740.333931	0.859139
740.663722	0.859710
740.993464	0.860902
741.323159	0.862099
741.652806	0.866307
741.982405	0.868781
742.311956	0.872850
742.641460	0.874627
742.970915	0.876847
743.300323	0.879467
743.629683	0.882619
743.958996	0.885221
744.288260	0.888260
744.617477	0.890869
744.946647	0.892283
745.275768	0.895308
745.604842	0.896227
745.933869	0.898742
746.262847	0.901341
746.591778	0.900019
746.920662	0.902947
747.249498	0.904268
747.578286	0.904160
747.907027	0.901421
748.235720	0.899190
748.564365	0.899775
748.892963	0.900684
749.221514	0.901089
749.550017	0.901896
749.878473	0.903835
750.206881	0.906670
750.535242	0.906818
750.863555	0.907144
751.191821	0.908807
751.520039	0.908759
751.848210	0.909991
752.176334	0.910959
752.504411	0.910575
752.832440	0.912666
753.160421	0.913051
753.488356	0.914510
753.816243	0.914437
754.144082	0.915372
754.471875	0.917293
754.799620	0.918024
755.127318	0.918016
755.454969	0.917919
755.782572	0.919451
756.110129	0.918927
756.437638	0.921430
756.765100	0.921384
757.092515	0.919782
757.419882	0.920719
757.747203	0.920842
758.074477	0.922072
758.401703	0.921415
758.728882	0.919940
759.056014	0.919839
759.383099	0.919064
759.710138	0.917961
760.037129	0.917553
760.364073	0.918905
760.690970	0.918345
761.017820	0.919181
761.344623	0.919885
761.671379	0.918345
761.998088	0.916569
762.324751	0.909670
762.651366	0.895253
762.977935	0.869498
763.304456	0.854422
763.630931	0.854127
763.957359	0.866851
764.283740	0.883102
764.610074	0.895112
764.936362	0.904681
765.262602	0.911834
765.588796	0.918938
765.914943	0.924127
766.241044	0.928998
766.567097	0.932608
766.893104	0.935946
767.219064	0.936907
767.544978	0.939839
767.870845	0.943243
768.196665	0.943903
768.522438	0.945501
768.848165	0.946464
769.173846	0.948009
769.499479	0.948839
769.825066	0.951585
770.150607	0.952020
770.476101	0.952769
770.801548	0.954365
771.126949	0.956074
771.452303	0.956265
771.777611	0.957910
772.102872	0.957353
772.428087	0.958217
772.753256	0.960461
773.078378	0.960600
773.403453	0.961940
773.728482	0.965208
774.053465	0.962783
774.378401	0.963719
774.703291	0.966534
775.028135	0.966743
775.352932	0.965955
775.677683	0.968082
776.002388	0.968317
776.327046	0.967904
776.651658	0.969563
776.976224	0.970329
777.300743	0.969632
777.625216	0.969922
777.949643	0.970557
778.274024	0.969678
778.598359	0.972417
778.922647	0.971131
779.246889	0.972057
779.571086	0.972632
779.895236	0.971976
780.219339	0.971830
780.543397	0.970774
780.867409	0.971555
781.191374	0.971121
781.515294	0.972834
781.839167	0.972366
782.162995	0.972836
782.486776	0.972412
782.810511	0.974489
783.134201	0.974935
783.457844	0.975555
783.781441	0.974598
784.104993	0.975127
784.428498	0.977370
784.751958	0.977349
785.075372	0.976461
785.398739	0.976860
785.722061	0.976452
786.045337	0.975700
786.368568	0.976530
786.691752	0.976708
787.014891	0.975342
787.337983	0.971933
787.661030	0.969225
787.984031	0.966287
788.306987	0.965152
788.629897	0.964355
788.952760	0.966679
789.275579	0.967974
789.598351	0.972218
789.921078	0.974986
790.243759	0.975348
790.566395	0.975235
790.888984	0.976963
791.211529	0.980006
791.534027	0.979976
791.856480	0.980160
792.178888	0.981000
792.501249	0.980784
792.823566	0.983125
793.145836	0.981324
793.468062	0.982373
793.790241	0.983216
794.112375	0.981624
794.434464	0.981560
794.756507	0.982591
795.078505	0.981185
795.400457	0.979618
795.722364	0.977678
796.044226	0.976753
796.366042	0.974644
796.687812	0.975140
797.009538	0.975777
797.331218	0.978950
797.652852	0.977842
797.974442	0.978472
798.295986	0.979626
798.617484	0.980248
798.938938	0.981021
799.260346	0.981297
799.581709	0.981779
799.903026	0.983126
800.224299	0.982485
800.545526	0.983297
800.866708	0.983835
801.187845	0.984865
801.508936	0.984715
801.829983	0.985212
802.150984	0.985068
802.471940	0.985604
802.792851	0.985353
803.113717	0.987346
803.434538	0.985788
803.755314	0.987017
804.076045	0.985452
804.396731	0.985796
804.717372	0.984322
805.037967	0.987318
805.358518	0.986079
805.679024	0.985661
805.999485	0.986092
806.319901	0.985229
806.640272	0.986079
806.960598	0.985347
807.280879	0.985234
807.601115	0.984841
807.921306	0.986373
808.241453	0.984921
808.561554	0.985930
808.881611	0.985631
809.201623	0.985492
809.521590	0.986372
809.841513	0.986827
810.161390	0.985149
810.481223	0.986452
810.801011	0.987347
811.120755	0.987623
811.440453	0.987550
811.760107	0.987768
812.079716	0.987725
812.399281	0.988094
812.718801	0.987111
813.038276	0.988390
813.357707	0.988585
813.677093	0.989044
813.996434	0.988291
814.315731	0.990396
814.634983	0.988920
814.954191	0.989493
815.273354	0.988745
815.592473	0.987632
815.911547	0.989082
816.230577	0.988130
816.549562	0.987400
816.868502	0.985912
817.187399	0.987354
817.506250	0.987661
817.825058	0.985796
818.143821	0.986680
818.462539	0.985593
818.781213	0.984886
819.099843	0.983541
819.418429	0.980459
819.736970	0.978779
820.055466	0.975473
820.373919	0.973056
820.692327	0.968789
821.010691	0.962951
821.329011	0.948149
821.647286	0.919617
821.965517	0.889009
822.283704	0.875556
822.601847	0.878583
822.919945	0.891947
823.237999	0.906816
823.556010	0.918550
823.873976	0.929852
824.191897	0.939945
824.509775	0.948612
824.827609	0.955020
825.145398	0.959096
825.463144	0.959120
825.780845	0.957867
826.098502	0.954555
826.416116	0.948584
826.733685	0.939318
827.051210	0.936062
827.368692	0.941021
827.686129	0.947669
828.003522	0.956359
828.320872	0.962643
828.638177	0.968242
828.955439	0.975142
829.272656	0.977634
829.589830	0.980043
829.906960	0.982154
830.224046	0.983791
830.541088	0.985796
830.858086	0.986525
831.175041	0.988452
831.491952	0.986540
831.808819	0.987116
832.125642	0.987079
832.442421	0.986270
832.759157	0.982204
833.075849	0.976070
833.392497	0.967805
833.709101	0.961847
834.025662	0.961918
834.342179	0.965826
834.658653	0.972914
834.975083	0.976090
835.291469	0.980813
835.607811	0.983392
835.924110	0.985573
836.240366	0.988997
836.556578	0.989768
836.872746	0.990624
837.188871	0.990670
837.504952	0.991303
837.820990	0.992411
838.136984	0.992482
838.452935	0.992645
838.768842	0.993866
839.084706	0.992535
839.400526	0.989527
839.716303	0.983755
840.032037	0.979914
840.347727	0.980737
840.663373	0.983349
840.978977	0.986639
841.294537	0.989360
841.610054	0.992013
841.925527	0.993441
842.240957	0.994025
842.556344	0.994771
842.871687	0.995393
843.186987	0.995553
843.502244	0.995759
843.817458	0.995227
844.132629	0.995267
844.447756	0.996227
844.762840	0.996936
845.077881	0.997508
845.392879	0.996183
845.707833	0.996631
846.022745	0.997028
846.337613	0.997795
846.652438	0.997135
846.967221	0.997445
847.281960	0.997959
847.596656	0.997565
847.911309	0.997946
848.225919	0.996759
848.540485	0.998572
848.855009	0.999315
849.169490	0.998634
849.483928	0.998322
849.798323	0.998153
850.112675	0.998577
850.426984	0.997693
850.741251	0.997613
851.055474	0.998520
851.369654	0.998368
851.683792	0.998083
851.997887	0.998400
852.311938	0.998472
852.625947	0.997615
852.939914	0.997149
853.253837	0.998540
853.567718	0.998711
853.881555	0.998398
854.195350	0.997732
854.509103	0.998754
854.822812	0.998421
855.136479	0.998025
855.450103	0.997575
855.763685	0.998530
856.077224	0.998157
856.390720	0.998125
856.704173	0.998685
857.017584	0.998197
857.330953	0.997684
857.644278	0.997797
857.957561	0.997117
858.270802	0.997944
858.584000	0.997510
858.897155	0.997389
859.210268	0.997870
859.523339	0.998354
859.836367	0.998518
860.149352	0.996922
860.462295	0.998000
860.775195	0.998804
861.088054	0.996430
861.400869	0.997957
861.713642	0.997571
862.026373	0.998849
862.339062	0.999353
862.651708	0.998373
862.964312	0.998469
863.276873	0.998492
863.589392	0.997695
863.901869	0.996213
864.214303	0.998344
864.526696	0.998035
864.839045	0.996705
865.151353	0.997160
865.463619	0.996753
865.775842	0.998173
866.088023	0.998725
866.400162	0.998123
866.712258	0.998612
867.024313	0.997745
867.336325	0.998043
867.648296	0.997631
867.960224	0.997695
868.272110	0.997545
868.583954	0.997780
868.895755	0.998405
869.207515	0.997270
869.519233	0.998643
869.830909	0.996856
870.142542	0.997109
870.454134	0.996078
870.765684	0.997138
871.077191	0.996698
871.388657	0.996337
871.700081	0.997030
872.011463	0.997762
872.322803	0.997079
872.634101	0.996230
872.945357	0.995892
873.256571	0.995617
873.567744	0.996570
873.878874	0.994855
874.189963	0.994153
874.501010	0.997204
874.812015	0.996262
875.122979	0.995607
875.433900	0.996058
875.744780	0.995604
876.055618	0.995166
876.366415	0.994822
876.677169	0.996126
876.987882	0.995853
877.298554	0.996370
877.609183	0.994650
877.919771	0.994408
878.230317	0.994672
878.540822	0.993660
878.851285	0.992901
879.161707	0.992676
879.472087	0.991844
879.782425	0.987489
880.092722	0.984560
880.402977	0.977522
880.713191	0.968287
881.023363	0.954891
881.333494	0.946804
881.643583	0.945443
881.953631	0.947569
882.263637	0.949923
882.573602	0.956433
882.883526	0.960751
883.193408	0.966686
883.503248	0.970228
883.813048	0.972703
884.122806	0.977010
884.432522	0.979988
884.742197	0.984258
885.051831	0.984362
885.361424	0.987159
885.670975	0.989801
885.980485	0.988996
886.289954	0.990004
886.599382	0.990536
886.908768	0.993599
887.218113	0.993406
887.527417	0.993557
887.836680	0.994893
888.145901	0.995080
888.455082	0.995948
888.764221	0.995131
889.073319	0.995284
889.382376	0.995898
889.691392	0.994080
890.000366	0.996002
890.309300	0.995642
890.618193	0.996671
890.927044	0.995223
891.235855	0.995156
891.544625	0.994863
891.853353	0.994368
892.162041	0.995021
892.470687	0.995376
892.779293	0.993447
893.087858	0.991379
893.396381	0.991553
893.704864	0.989295
894.013306	0.986132
894.321707	0.984037
894.630068	0.980228
894.938387	0.978956
895.246665	0.979927
895.554903	0.980771
895.863100	0.984412
896.171256	0.985815
896.479371	0.986924
896.787446	0.988947
897.095480	0.990894
897.403473	0.991862
897.711425	0.992132
898.019336	0.993425
898.327207	0.994061
898.635038	0.993100
898.942827	0.993726
899.250576	0.994123
899.558284	0.994145
899.865952	0.994632
900.173579	0.996166
900.481165	0.995409
900.788711	0.995736
901.096216	0.995489
901.403681	0.996596
901.711105	0.996561
902.018489	0.996811
902.325832	0.996490
902.633135	0.995119
902.940397	0.995687
903.247619	0.993131
903.554800	0.990027
903.861941	0.985027
904.169041	0.978083
904.476101	0.975335
904.783121	0.975836
905.090100	0.978367
905.397039	0.979792
905.703938	0.983358
906.010796	0.987495
906.317614	0.989146
906.624391	0.991754
906.931129	0.993680
907.237826	0.994721
907.544483	0.995267
907.851099	0.995198
908.157675	0.995896
908.464211	0.996501
908.770707	0.996558
909.077163	0.998698
909.383578	0.997379
909.689954	0.997948
909.996289	0.997519
910.302584	0.998106
910.608839	0.999266
910.915054	0.998129
911.221229	0.999232
911.527363	0.997809
911.833458	0.999014
912.139513	0.998092
912.445527	0.998525
912.751502	0.997155
913.057436	0.996315
913.363331	0.997267
913.669186	0.997119
913.975000	0.996123
914.280775	0.994862
914.586510	0.992622
914.892205	0.990089
915.197859	0.988514
915.503475	0.985055
915.809050	0.981321
916.114585	0.978099
916.420081	0.978088
916.725536	0.978302
917.030952	0.980842
917.336328	0.981285
917.641665	0.982874
917.946961	0.985106
918.252218	0.987060
918.557435	0.989484
918.862612	0.991074
919.167750	0.993435
919.472848	0.993312
919.777906	0.994132
920.082925	0.994924
920.387904	0.995692
920.692843	0.995769
920.997743	0.995666
921.302603	0.997608
921.607423	0.995381
921.912204	0.996760
922.216946	0.997975
922.521647	0.997259
922.826310	0.997700
923.130932	0.997593
923.435516	0.997719
923.740059	0.997390
924.044564	0.998498
924.349028	0.997476
924.653454	0.999375
924.957840	0.998370
925.262186	0.999901
925.566493	0.998591
925.870761	0.998562
926.174989	0.999152
926.479178	0.999729
926.783328	1.000512
927.087438	0.999289
927.391509	0.998153
927.695541	0.999548
927.999533	1.000845
928.303486	0.999775
928.607400	0.999476
928.911275	1.000843
929.215110	1.001389
929.518906	1.001101
929.822663	1.000544
930.126381	1.000599
930.430060	1.000021
930.733699	1.000206
931.037299	1.001005
931.340861	1.001484
931.644383	0.999371
931.947866	1.000056
932.251309	1.000286
932.554714	1.000083
932.858080	1.000693
933.161407	1.000668
933.464694	1.000171
933.767943	1.000498
934.071153	0.999725
934.374323	1.001393
934.677455	1.001264
934.980548	0.999758
935.283602	1.001024
935.586617	0.999707
935.889593	1.001925
936.192530	0.999925
936.495428	1.001192
936.798287	0.999737
937.101108	1.000630
937.403890	0.999000
937.706632	1.001233
938.009336	0.999365
938.312002	0.998737
938.614628	0.999237
938.917216	0.998413
939.219765	0.998196
939.522275	0.999002
939.824747	0.999235
940.127179	0.998744
940.429573	1.000012
940.731929	0.998824
941.034246	0.999451
941.336524	0.997433
941.638763	0.998334
941.940964	0.998494
942.243126	0.999483
942.545250	1.000129
942.847335	0.999220
943.149381	0.999936
943.451389	0.998415
943.753359	1.000580
944.055290	1.000604
944.357182	1.001298
944.659036	1.000770
944.960851	1.001086
945.262628	1.001136
945.564367	1.000717
945.866067	1.000748
946.167729	1.000205
946.469352	1.000656
946.770937	0.998060
947.072484	1.000493
947.373992	0.999818
947.675462	1.000061
947.976893	0.999882
948.278286	1.001317
948.579641	1.002149
948.880958	1.001034
949.182236	1.000597
949.483476	1.001379
949.784678	1.001409
950.085841	1.000067
950.386967	0.999459
950.688054	1.000929
950.989103	0.999484
951.290114	0.998688
951.591087	1.000024
951.892021	0.999987
952.192917	1.000093
952.493776	1.000623
952.794596	0.999636
953.095378	1.000210
953.396122	0.999637
953.696828	1.000374
953.997496	1.000233
954.298126	1.001721
954.598718	1.000443
954.899272	1.000231
955.199788	1.000213
955.500266	1.002463
955.800706	1.000273
956.101108	1.001230
956.401472	1.001908
956.701798	1.001216
957.002087	1.000256
957.302337	1.000984
957.602550	1.002019
957.902724	1.001027
958.202861	1.000966
958.502960	1.001230
958.803022	1.001615
959.103045	1.002328
959.403031	1.002736
959.702979	1.002115
960.002889	1.001123
960.302762	1.001184
960.602596	1.002657
960.902393	1.001647
961.202153	1.001315
961.501875	1.002318
961.801559	1.002304
962.101205	1.001163
962.400814	1.003396
962.700385	1.002095
962.999918	1.000662
963.299414	1.001625
963.598873	1.002188
963.898293	1.000893
964.197677	1.001025
964.497022	1.001933
964.796331	1.002293
965.095601	1.002781
965.394835	1.001805
965.694030	1.002291
965.993189	1.001289
966.292309	1.002119
966.591393	1.000420
966.890439	1.002520
967.189447	1.001198
967.488419	1.000999
967.787353	1.002319
968.086249	1.002284
968.385108	1.002027
968.683930	1.003671
968.982714	1.002176
969.281462	1.002057
969.580172	1.002439
969.878844	1.002337
970.177480	1.002515
970.476078	1.001877
970.774639	1.003057
971.073162	1.000991
971.371649	1.001300
971.670098	1.001139
971.968510	1.002786
972.266885	1.001787
972.565223	1.001159
972.863524	1.000643
973.161788	1.001426
973.460014	1.002478
973.758204	1.001131
974.056356	1.001529
974.354471	1.001726
974.652550	1.001983
974.950591	1.002128
975.248595	1.000651
975.546563	1.002013
975.844493	1.003772
976.142386	1.001424
976.440243	1.004188
976.738062	1.002542
977.035845	1.001784
977.333590	1.002493
977.631299	1.001369
977.928971	1.001922
978.226606	1.001928
978.524204	1.001571
978.821765	1.002722
979.119290	1.002908
979.416777	1.002777
979.714228	1.002081
980.011642	1.003309
980.309020	1.002253
980.606360	1.001974
980.903664	1.002652
981.200931	1.002304
981.498162	1.002301
981.795356	1.001027
982.092513	1.002116
982.389633	1.002280
982.686717	1.001548
982.983764	1.001356
983.280775	1.001606
983.577749	1.002360
983.874686	0.999761
984.171587	1.001556
984.468451	1.002343
984.765279	1.002368
985.062070	1.001936
985.358824	1.000773
985.655543	1.002557
985.952224	1.003088
986.248869	1.001578
986.545478	1.003198
986.842050	1.001404
987.138586	1.001774
987.435086	1.001888
987.731549	1.003112
988.027975	1.003536
988.324366	1.002817
988.620719	1.004527
988.917037	1.002359
989.213318	1.004264
989.509563	1.003285
989.805772	1.003000
990.101944	1.004336
990.398080	1.002666
990.694180	1.003616
990.990244	1.001982
991.286271	1.004526
991.582262	1.003140
991.878217	1.002181
992.174136	1.004066
992.470019	1.001945
992.765865	1.005579
993.061676	1.003779
993.357450	1.003099
993.653188	1.003042
993.948890	1.001905
994.244556	1.003133
994.540186	1.002939
994.835780	1.001946
995.131337	1.004133
995.426859	1.003199
995.722345	1.003177
996.017795	1.002244
996.313208	1.002170
996.608586	1.002564
996.903928	1.002458
997.199234	1.002544
997.494504	1.002571
997.789738	1.002264
998.084936	1.002910
998.380099	1.001637
998.675225	1.003469
998.970316	1.002509
999.265371	1.002759
999.560390	1.002650
999.855373	1.002494
1000.150320	1.002613
1000.445232	1.002951
1000.740108	1.002331
1001.034948	1.001778
1001.329752	1.004693
1001.624521	1.002928
1001.919254	1.002807
1002.213951	1.002543
1002.508613	1.001450
1002.803239	1.003088
1003.097829	1.002814
1003.392384	1.003015
1003.686903	1.003818
1003.981386	1.003526
1004.275834	1.004488
1004.570246	1.001955
1004.864623	1.002894
1005.158964	1.004116
1005.453270	1.001956
1005.747540	1.003375
1006.041775	1.003810
1006.335974	1.003803
1006.630138	1.003645
1006.924266	1.002076
1007.218359	1.001358
1007.512416	1.004258
1007.806438	1.003056
1008.100425	1.003440
1008.394376	1.003771
1008.688292	1.003789
1008.982172	1.002792
1009.276017	1.004717
1009.569827	1.004147
1009.863602	1.002590
1010.157341	1.003585
1010.451045	1.002488
1010.744714	1.005616
1011.038347	1.003567
1011.331945	1.002122
1011.625508	1.004008
1011.919036	1.002551
1012.212528	1.003071
1012.505986	1.001759
1012.799408	1.003167
1013.092795	1.003166
1013.386147	1.003100
1013.679464	1.003292
1013.972745	1.004430
1014.265992	1.003169
1014.559204	1.003522
1014.852380	1.003174
1015.145521	1.004634
1015.438628	1.003520
1015.731699	1.002904
1016.024736	1.003471
1016.317737	1.003906
1016.610703	1.003224
1016.903635	1.003252
1017.196531	1.002915
1017.489393	1.003133
1017.782219	1.003847
1018.075011	1.002210
1018.367768	1.001415
1018.660490	1.002953
1018.953177	1.002953
1019.245829	1.002953
