Dividing Wavelength (nm)	Counts (n)	Blue Motor Position (mm): 13.300000	Red Motor Position (mm): 0.000000	
326.493990	1.002487
326.888308	1.002487
327.282561	1.002487
327.676750	1.005372
328.070874	1.003911
328.464933	1.004675
328.858929	1.003853
329.252859	1.003187
329.646726	1.003241
330.040528	1.003804
330.434265	1.003369
330.827938	1.003792
331.221547	1.003905
331.615091	1.004890
332.008571	1.004556
332.401986	1.002281
332.795338	1.003559
333.188625	1.003799
333.581847	1.002318
333.975006	1.003645
334.368100	1.004019
334.761129	1.002953
335.154095	1.002818
335.546996	1.002131
335.939833	0.999191
336.332606	0.999693
336.725315	0.998828
337.117960	0.999080
337.510540	0.998442
337.903056	0.999837
338.295508	1.000455
338.687896	1.000209
339.080220	0.999195
339.472480	0.998822
339.864676	1.000214
340.256807	0.997429
340.648875	0.999994
341.040879	0.998669
341.432818	0.998938
341.824694	0.998812
342.216506	0.999552
342.608253	0.999796
342.999937	0.998916
343.391557	0.999120
343.783113	1.000115
344.174605	0.999110
344.566033	0.999260
344.957397	0.998710
345.348697	1.000130
345.739934	0.999355
346.131106	0.998441
346.522215	0.997977
346.913260	0.999480
347.304241	0.997565
347.695159	0.999807
348.086012	0.998109
348.476802	0.999674
348.867528	0.998341
349.258191	1.000598
349.648789	0.999286
350.039324	0.999795
350.429796	0.999250
350.820203	0.997980
351.210548	0.997973
351.600828	0.998099
351.991045	0.998841
352.381198	0.999116
352.771288	0.998729
353.161314	0.998713
353.551276	0.998413
353.941175	0.997528
354.331010	0.999224
354.720782	0.998815
355.110490	0.998897
355.500135	0.998084
355.889717	0.997337
356.279235	0.997705
356.668689	0.999407
357.058080	0.999199
357.447408	0.997215
357.836672	0.997318
358.225873	0.997819
358.615010	0.998028
359.004084	0.997373
359.393095	0.998599
359.782043	0.996936
360.170927	0.996902
360.559748	0.997052
360.948505	0.997601
361.337199	0.997259
361.725830	0.998104
362.114398	0.997634
362.502903	0.996260
362.891344	0.997499
363.279722	0.997156
363.668037	0.997578
364.056289	0.995923
364.444478	0.998206
364.832603	0.997281
365.220665	0.997302
365.608665	0.996398
365.996601	0.996853
366.384474	0.995780
366.772284	0.995520
367.160031	0.995390
367.547715	0.995958
367.935336	0.994443
368.322893	0.993597
368.710388	0.992295
369.097820	0.990326
369.485189	0.987320
369.872495	0.987427
370.259738	0.984468
370.646918	0.981489
371.034035	0.979855
371.421090	0.976816
371.808081	0.971876
372.195010	0.969061
372.581875	0.963690
372.968678	0.959289
373.355418	0.955250
373.742096	0.948942
374.128710	0.943951
374.515262	0.940585
374.901751	0.935159
375.288177	0.928659
375.674540	0.921636
376.060841	0.915801
376.447079	0.909426
376.833254	0.902385
377.219367	0.897304
377.605417	0.885642
377.991404	0.882438
378.377329	0.876184
378.763191	0.869215
379.148991	0.861069
379.534727	0.853768
379.920402	0.845481
380.306013	0.841768
380.691563	0.828704
381.077049	0.823410
381.462474	0.818808
381.847835	0.807925
382.233134	0.802302
382.618371	0.802812
383.003545	0.785190
383.388657	0.782732
383.773706	0.776404
384.158693	0.771455
384.543618	0.766260
384.928480	0.758091
385.313280	0.747311
385.698017	0.746960
386.082692	0.735605
386.467305	0.734206
386.851856	0.728202
387.236344	0.723497
387.620770	0.718042
388.005133	0.712050
388.389435	0.705870
388.773674	0.703735
389.157851	0.695601
389.541965	0.693437
389.926018	0.700089
390.310008	0.687191
390.693936	0.684068
391.077802	0.675675
391.461606	0.677817
391.845348	0.666227
392.229027	0.665731
392.612645	0.663805
392.996200	0.650851
393.379694	0.644536
393.763125	0.634437
394.146494	0.639033
394.529801	0.629039
394.913047	0.621586
395.296230	0.627751
395.679351	0.618957
396.062410	0.615227
396.445408	0.618284
396.828343	0.614114
397.211217	0.609533
397.594028	0.620580
397.976778	0.611194
398.359466	0.607091
398.742092	0.602260
399.124656	0.614830
399.507158	0.603046
399.889598	0.600558
400.271977	0.591674
400.654294	0.595507
401.036549	0.594319
401.418742	0.599034
401.800874	0.584821
402.182944	0.581123
402.564952	0.572610
402.946898	0.575180
403.328783	0.575934
403.710606	0.586831
404.092367	0.562407
404.474067	0.567376
404.855705	0.565819
405.237282	0.573660
405.618797	0.560721
406.000250	0.556914
406.381642	0.546776
406.762972	0.552072
407.144240	0.550525
407.525447	0.550096
407.906593	0.543312
408.287677	0.538336
408.668700	0.546983
409.049661	0.540874
409.430560	0.535587
409.811399	0.544824
410.192176	0.526202
410.572891	0.533725
410.953545	0.521341
411.334138	0.535376
411.714669	0.527599
412.095139	0.539573
412.475547	0.523492
412.855894	0.526671
413.236180	0.525116
413.616405	0.529972
413.996568	0.520587
414.376670	0.527187
414.756711	0.531056
415.136691	0.528235
415.516609	0.519785
415.896466	0.516801
416.276262	0.512390
416.655997	0.514201
417.035670	0.495369
417.415283	0.486722
417.794834	0.491577
418.174324	0.497355
418.553753	0.506988
418.933121	0.489413
419.312428	0.482505
419.691674	0.488267
420.070859	0.476396
420.449983	0.485251
420.829045	0.473803
421.208047	0.483040
421.586988	0.475692
421.965867	0.474557
422.344686	0.463054
422.723444	0.475903
423.102141	0.492717
423.480777	0.465965
423.859352	0.486605
424.237866	0.464318
424.616319	0.464821
424.994712	0.455035
425.373044	0.465995
425.751314	0.453799
426.129524	0.470691
426.507673	0.453542
426.885762	0.447181
427.263789	0.452804
427.641756	0.462369
428.019662	0.452895
428.397508	0.452124
428.775292	0.456326
429.153016	0.448905
429.530679	0.454389
429.908282	0.447078
430.285824	0.458093
430.663305	0.436130
431.040726	0.457297
431.418086	0.457522
431.795385	0.449409
432.172624	0.447818
432.549802	0.448351
432.926920	0.447099
433.303977	0.447014
433.680974	0.444489
434.057910	0.442564
434.434786	0.441369
434.811601	0.444569
435.188355	0.427204
435.565050	0.436688
435.941683	0.438048
436.318257	0.421504
436.694770	0.422590
437.071222	0.420860
437.447614	0.425013
437.823946	0.431646
438.200218	0.420725
438.576429	0.430359
438.952580	0.424004
439.328670	0.420059
439.704700	0.426852
440.080670	0.427788
440.456580	0.409381
440.832429	0.417054
441.208218	0.427824
441.583947	0.417541
441.959616	0.416177
442.335224	0.422159
442.710773	0.412379
443.086261	0.410778
443.461689	0.424595
443.837057	0.414331
444.212365	0.404527
444.587612	0.411867
444.962800	0.401503
445.337927	0.403291
445.712995	0.428657
446.088002	0.390702
446.462949	0.401705
446.837837	0.406504
447.212664	0.394961
447.587431	0.387069
447.962139	0.356797
448.336786	0.315841
448.711374	0.326584
449.085901	0.370936
449.460369	0.375410
449.834776	0.378631
450.209124	0.357792
450.583412	0.351057
450.957640	0.343485
451.331808	0.354913
451.705917	0.378670
452.079965	0.382750
452.453954	0.371054
452.827883	0.377964
453.201752	0.373156
453.575562	0.383751
453.949311	0.372824
454.323001	0.378772
454.696632	0.374553
455.070202	0.366899
455.443713	0.359178
455.817164	0.354157
456.190556	0.349673
456.563888	0.346288
456.937160	0.344071
457.310373	0.360641
457.683526	0.359960
458.056619	0.365144
458.429653	0.366167
458.802628	0.370102
459.175542	0.363679
459.548398	0.346464
459.921194	0.338913
460.293930	0.339455
460.666607	0.316591
461.039224	0.304947
461.411782	0.300561
461.784280	0.299606
462.156719	0.304105
462.529099	0.308420
462.901419	0.324581
463.273680	0.329172
463.645882	0.328199
464.018024	0.334650
464.390106	0.327122
464.762130	0.311669
465.134094	0.294468
465.505999	0.263714
465.877845	0.233965
466.249631	0.220756
466.621358	0.228186
466.993026	0.242289
467.364634	0.248220
467.736184	0.257215
468.107674	0.266387
468.479105	0.264968
468.850477	0.271896
469.221790	0.278594
469.593043	0.289112
469.964238	0.293813
470.335373	0.293117
470.706449	0.291213
471.077467	0.291795
471.448425	0.254137
471.819324	0.229486
472.190164	0.228612
472.560945	0.257975
472.931667	0.279985
473.302330	0.284654
473.672934	0.296031
474.043479	0.284484
474.413965	0.285959
474.784393	0.289795
475.154761	0.284493
475.525070	0.281875
475.895321	0.287521
476.265513	0.281645
476.635645	0.277066
477.005719	0.276875
477.375734	0.273357
477.745691	0.266572
478.115588	0.263049
478.485427	0.256771
478.855207	0.243450
479.224928	0.225961
479.594591	0.214063
479.964194	0.217489
480.333739	0.218689
480.703226	0.220219
481.072653	0.218415
481.442022	0.214210
481.811333	0.210827
482.180584	0.214076
482.549777	0.219897
482.918912	0.222710
483.287988	0.222781
483.657005	0.222339
484.025964	0.228646
484.394864	0.226024
484.763706	0.226899
485.132489	0.231927
485.501213	0.232570
485.869879	0.230857
486.238487	0.233972
486.607036	0.231975
486.975527	0.236634
487.343959	0.232391
487.712333	0.231737
488.080648	0.232915
488.448905	0.232180
488.817104	0.233085
489.185244	0.227785
489.553326	0.224609
489.921350	0.214546
490.289315	0.197076
490.657222	0.191835
491.025070	0.193499
491.392861	0.195189
491.760593	0.201029
492.128267	0.206736
492.495883	0.211859
492.863440	0.218531
493.230939	0.224908
493.598380	0.226209
493.965763	0.228762
494.333088	0.230897
494.700354	0.232204
495.067563	0.231416
495.434713	0.234475
495.801805	0.232318
496.168839	0.233842
496.535815	0.235304
496.902733	0.235272
497.269593	0.236948
497.636395	0.234527
498.003139	0.234752
498.369825	0.238012
498.736453	0.234475
499.103023	0.235869
499.469535	0.235115
499.835989	0.235263
500.202385	0.236523
500.568723	0.239591
500.935003	0.234841
501.301226	0.239187
501.667390	0.233449
502.033497	0.231468
502.399546	0.234454
502.765537	0.236195
503.131470	0.234789
503.497345	0.230891
503.863163	0.239685
504.228923	0.232677
504.594625	0.231497
504.960269	0.236883
505.325856	0.232362
505.691385	0.236751
506.056856	0.233372
506.422270	0.232556
506.787625	0.235076
507.152924	0.232521
507.518164	0.233102
507.883347	0.234701
508.248472	0.236315
508.613540	0.231266
508.978550	0.233921
509.343503	0.234515
509.708398	0.232210
510.073236	0.229820
510.438016	0.229602
510.802738	0.230466
511.167403	0.229543
511.532010	0.231730
511.896561	0.227128
512.261053	0.225781
512.625488	0.228041
512.989866	0.228441
513.354186	0.228284
513.718449	0.230509
514.082655	0.226761
514.446803	0.229087
514.810894	0.226705
515.174927	0.229324
515.538904	0.229022
515.902822	0.225923
516.266684	0.228105
516.630488	0.229450
516.994235	0.228247
517.357925	0.227242
517.721558	0.225356
518.085133	0.224698
518.448651	0.224794
518.812112	0.227179
519.175516	0.226848
519.538863	0.224373
519.902152	0.226159
520.265385	0.223163
520.628560	0.224740
520.991678	0.225429
521.354739	0.224250
521.717743	0.225297
522.080690	0.225966
522.443580	0.223253
522.806413	0.223846
523.169189	0.223698
523.531908	0.222478
523.894569	0.225948
524.257174	0.226132
524.619722	0.223666
524.982213	0.224907
525.344647	0.223761
525.707025	0.224435
526.069345	0.223013
526.431608	0.224375
526.793815	0.222593
527.155964	0.226796
527.518057	0.225818
527.880093	0.226588
528.242072	0.225259
528.603995	0.227103
528.965860	0.228925
529.327669	0.227802
529.689421	0.228739
530.051117	0.229579
530.412755	0.227562
530.774337	0.229830
531.135862	0.230430
531.497331	0.229419
531.858743	0.232370
532.220098	0.229173
532.581396	0.231710
532.942638	0.232230
533.303824	0.233093
533.664953	0.232730
534.026025	0.235010
534.387040	0.232844
534.747999	0.232700
535.108902	0.231337
535.469748	0.236486
535.830537	0.234588
536.191270	0.234828
536.551947	0.234447
536.912567	0.234425
537.273131	0.236364
537.633638	0.236589
537.994089	0.236852
538.354483	0.237740
538.714821	0.235117
539.075103	0.234707
539.435328	0.235408
539.795497	0.239372
540.155609	0.235919
540.515665	0.234019
540.875665	0.239703
541.235609	0.238237
541.595496	0.238177
541.955328	0.235083
542.315102	0.237600
542.674821	0.238685
543.034483	0.239027
543.394090	0.238578
543.753640	0.240370
544.113134	0.235355
544.472571	0.238637
544.831953	0.235695
545.191278	0.239911
545.550548	0.238939
545.909761	0.235877
546.268918	0.236965
546.628019	0.235144
546.987064	0.237912
547.346053	0.239487
547.704986	0.237286
548.063863	0.237899
548.422684	0.238258
548.781449	0.239976
549.140158	0.237723
549.498811	0.240330
549.857408	0.243429
550.215949	0.238009
550.574434	0.241435
550.932864	0.239637
551.291237	0.237976
551.649555	0.239810
552.007817	0.239398
552.366022	0.240518
552.724173	0.240673
553.082267	0.240786
553.440305	0.237716
553.798288	0.241758
554.156215	0.238909
554.514086	0.239420
554.871902	0.242633
555.229661	0.241766
555.587365	0.242631
555.945014	0.245195
556.302606	0.242090
556.660143	0.244679
557.017625	0.241311
557.375050	0.243529
557.732421	0.240755
558.089735	0.242594
558.446994	0.242624
558.804197	0.242115
559.161345	0.241898
559.518437	0.245196
559.875474	0.243629
560.232455	0.243058
560.589381	0.244241
560.946251	0.244491
561.303065	0.242052
561.659825	0.243523
562.016528	0.245201
562.373177	0.247910
562.729770	0.245223
563.086307	0.247419
563.442789	0.245338
563.799216	0.248308
564.155587	0.247057
564.511904	0.248517
564.868164	0.248351
565.224370	0.248551
565.580520	0.250484
565.936615	0.250443
566.292654	0.253569
566.648638	0.250781
567.004567	0.251694
567.360441	0.252446
567.716260	0.255042
568.072023	0.252464
568.427732	0.253313
568.783385	0.256035
569.138982	0.254559
569.494525	0.254416
569.850013	0.257282
570.205445	0.256014
570.560823	0.258767
570.916145	0.261106
571.271412	0.259749
571.626625	0.261620
571.981782	0.261962
572.336884	0.263401
572.691931	0.263104
573.046923	0.265105
573.401860	0.266343
573.756743	0.268425
574.111570	0.267380
574.466342	0.268585
574.821059	0.267602
575.175722	0.270915
575.530330	0.271031
575.884882	0.271407
576.239380	0.273786
576.593823	0.274322
576.948211	0.274411
577.302544	0.277739
577.656823	0.277907
578.011047	0.278247
578.365216	0.279686
578.719330	0.282067
579.073389	0.281878
579.427394	0.283571
579.781344	0.285061
580.135239	0.286860
580.489080	0.287264
580.842866	0.290466
581.196597	0.290932
581.550273	0.290249
581.903895	0.292340
582.257463	0.290366
582.610975	0.294868
582.964434	0.294729
583.317837	0.297911
583.671186	0.298946
584.024481	0.299274
584.377721	0.302222
584.730906	0.304199
585.084037	0.303861
585.437113	0.306419
585.790135	0.306504
586.143103	0.310174
586.496016	0.311973
586.848874	0.310735
587.201679	0.311927
587.554428	0.316054
587.907124	0.315837
588.259765	0.317477
588.612352	0.318952
588.964884	0.323449
589.317362	0.324220
589.669786	0.325361
590.022155	0.324392
590.374470	0.325350
590.726731	0.327761
591.078937	0.333824
591.431090	0.331263
591.783188	0.335916
592.135232	0.337926
592.487222	0.338438
592.839157	0.338216
593.191038	0.340976
593.542866	0.343928
593.894639	0.348328
594.246358	0.348065
594.598022	0.349149
594.949633	0.353574
595.301190	0.355127
595.652692	0.355325
596.004141	0.353382
596.355535	0.361805
596.706876	0.364155
597.058162	0.367443
597.409395	0.365710
597.760573	0.365208
598.111698	0.369572
598.462768	0.371724
598.813785	0.373400
599.164748	0.376760
599.515657	0.377754
599.866511	0.383789
600.217312	0.379801
600.568060	0.386480
600.918753	0.384886
601.269392	0.387431
601.619978	0.392313
601.970510	0.391921
602.320988	0.393212
602.671412	0.393113
603.021783	0.396993
603.372100	0.399682
603.722363	0.401833
604.072572	0.403582
604.422728	0.405324
604.772830	0.409507
605.122878	0.410659
605.472872	0.412739
605.822813	0.413214
606.172701	0.417169
606.522534	0.416916
606.872314	0.418657
607.222041	0.422028
607.571714	0.421588
607.921333	0.425580
608.270899	0.427279
608.620411	0.426109
608.969870	0.432339
609.319276	0.433677
609.668627	0.436127
610.017926	0.436809
610.367171	0.438143
610.716362	0.440291
611.065500	0.442950
611.414585	0.444586
611.763616	0.445954
612.112594	0.449342
612.461518	0.450913
612.810389	0.451303
613.159207	0.455304
613.507971	0.459074
613.856682	0.458763
614.205340	0.461437
614.553945	0.461699
614.902496	0.467358
615.250994	0.467847
615.599439	0.470961
615.947830	0.473422
616.296169	0.476780
616.644454	0.478626
616.992686	0.481361
617.340864	0.482306
617.688990	0.487920
618.037063	0.487499
618.385082	0.491941
618.733048	0.492347
619.080961	0.495874
619.428821	0.498057
619.776628	0.500429
620.124382	0.504784
620.472083	0.507627
620.819731	0.509140
621.167326	0.515152
621.514868	0.516653
621.862357	0.521900
622.209793	0.523331
622.557176	0.527965
622.904506	0.530711
623.251783	0.534780
623.599007	0.538927
623.946179	0.540703
624.293297	0.545035
624.640363	0.549448
624.987376	0.551892
625.334336	0.555873
625.681243	0.561036
626.028097	0.563275
626.374899	0.565735
626.721647	0.569751
627.068343	0.573032
627.414987	0.576287
627.761577	0.580340
628.108115	0.581133
628.454600	0.587552
628.801032	0.589631
629.147412	0.591878
629.493739	0.595795
629.840014	0.599534
630.186236	0.600171
630.532405	0.606410
630.878521	0.607115
631.224585	0.610924
631.570597	0.615261
631.916556	0.617827
632.262462	0.619259
632.608316	0.623780
632.954117	0.626410
633.299866	0.628461
633.645562	0.631569
633.991206	0.637078
634.336797	0.639928
634.682336	0.644423
635.027823	0.647908
635.373257	0.649874
635.718639	0.655127
636.063968	0.656580
636.409245	0.661301
636.754470	0.664516
637.099642	0.667921
637.444762	0.672796
637.789829	0.674205
638.134845	0.678633
638.479808	0.681520
638.824719	0.684021
639.169577	0.687875
639.514383	0.689644
639.859137	0.694971
640.203839	0.696098
640.548489	0.698905
640.893086	0.700944
641.237632	0.705235
641.582125	0.705759
641.926566	0.710368
642.270955	0.711634
642.615292	0.713629
642.959576	0.715716
643.303809	0.717990
643.647990	0.720278
643.992118	0.723006
644.336195	0.724875
644.680219	0.728340
645.024192	0.729329
645.368112	0.729078
645.711981	0.730595
646.055797	0.729774
646.399562	0.732542
646.743274	0.733290
647.086935	0.731556
647.430544	0.734470
647.774101	0.736550
648.117606	0.737654
648.461059	0.740719
648.804460	0.743415
649.147810	0.746249
649.491108	0.750622
649.834354	0.753052
650.177548	0.757438
650.520690	0.762168
650.863781	0.764000
651.206820	0.766500
651.549807	0.770265
651.892742	0.774770
652.235626	0.776126
652.578458	0.778713
652.921238	0.782740
653.263967	0.783500
653.606644	0.786220
653.949269	0.788823
654.291843	0.791190
654.634365	0.793193
654.976836	0.795321
655.319255	0.797564
655.661622	0.800394
656.003938	0.801801
656.346203	0.803204
656.688416	0.806092
657.030577	0.808176
657.372687	0.811248
657.714746	0.812551
658.056753	0.813555
658.398708	0.815872
658.740612	0.818504
659.082465	0.819364
659.424266	0.820373
659.766016	0.821373
660.107715	0.825696
660.449362	0.825805
660.790958	0.827954
661.132503	0.830699
661.473996	0.831683
661.815438	0.832809
662.156829	0.834381
662.498168	0.837332
662.839456	0.837438
663.180693	0.839731
663.521879	0.839651
663.863013	0.842835
664.204097	0.843870
664.545129	0.844641
664.886110	0.846007
665.227040	0.846934
665.567918	0.847668
665.908746	0.848677
666.249522	0.850425
666.590248	0.852203
666.930922	0.852625
667.271545	0.854403
667.612118	0.855875
667.952639	0.857374
668.293109	0.859436
668.633528	0.861032
668.973896	0.862342
669.314213	0.864314
669.654480	0.866667
669.994695	0.867429
670.334859	0.869927
670.674973	0.871348
671.015035	0.872824
671.355047	0.873849
671.695008	0.875060
672.034918	0.876900
672.374777	0.877885
672.714585	0.879462
673.054342	0.879250
673.394049	0.881199
673.733705	0.881879
674.073310	0.883850
674.412864	0.884979
674.752368	0.886232
675.091820	0.888717
675.431223	0.890176
675.770574	0.890432
676.109875	0.893245
676.449125	0.894424
676.788324	0.896065
677.127473	0.898884
677.466571	0.900215
677.805619	0.901222
678.144616	0.903054
678.483562	0.905325
678.822458	0.906409
679.161303	0.906496
679.500098	0.908814
679.838842	0.909629
680.177535	0.910844
680.516179	0.910666
680.854771	0.911843
681.193314	0.910609
681.531805	0.909764
681.870247	0.908282
682.208638	0.907615
682.546978	0.908105
682.885268	0.909659
683.223508	0.912223
683.561697	0.913683
683.899836	0.915791
684.237925	0.917151
684.575963	0.918055
684.913951	0.918752
685.251889	0.919723
685.589776	0.919414
685.927614	0.921046
686.265401	0.920897
686.603137	0.920661
686.940824	0.920807
687.278460	0.921133
687.616046	0.920713
687.953582	0.919809
688.291068	0.920928
688.628504	0.920283
688.965889	0.920697
689.303224	0.922133
689.640510	0.924897
689.977745	0.925981
690.314930	0.928313
690.652065	0.930471
690.989150	0.932413
691.326185	0.935319
691.663170	0.936976
692.000105	0.939154
692.336990	0.941068
692.673825	0.942272
693.010610	0.942941
693.347345	0.944502
693.684030	0.945447
694.020665	0.946883
694.357251	0.948554
694.693786	0.949019
695.030272	0.948770
695.366707	0.951193
695.703093	0.951466
696.039429	0.952099
696.375716	0.953309
696.711952	0.952994
697.048139	0.954276
697.384276	0.955950
697.720363	0.955615
698.056400	0.954219
698.392388	0.955579
698.728326	0.957064
699.064214	0.958323
699.400053	0.958057
699.735842	0.960609
700.071581	0.960455
700.407270	0.961295
700.742910	0.962762
701.078501	0.963122
701.414042	0.964804
701.749533	0.963084
702.084974	0.966048
702.420366	0.965280
702.755709	0.964890
703.091002	0.967054
703.426246	0.968334
703.761440	0.967933
704.096584	0.968973
704.431679	0.968738
704.766725	0.969337
705.101721	0.970411
705.436668	0.971179
705.771565	0.970121
706.106413	0.970307
706.441212	0.971897
706.775961	0.972116
707.110661	0.970992
707.445311	0.972248
707.779913	0.972519
708.114465	0.972389
708.448967	0.973614
708.783421	0.972158
709.117825	0.971939
709.452180	0.971179
709.786485	0.970823
710.120742	0.969929
710.454949	0.969764
710.789107	0.970021
711.123216	0.968047
711.457275	0.968115
711.791286	0.968376
712.125247	0.968632
712.459159	0.967864
712.793023	0.968195
713.126837	0.970098
713.460602	0.969166
713.794318	0.970241
714.127985	0.970687
714.461602	0.972770
714.795171	0.972720
715.128691	0.973344
715.462162	0.975667
715.795584	0.976030
716.128957	0.977060
716.462281	0.977046
716.795556	0.975923
717.128782	0.977963
717.461960	0.978453
717.795088	0.978895
718.128167	0.979495
718.461198	0.981256
718.794180	0.981147
719.127113	0.980641
719.459997	0.981415
719.792833	0.980777
720.125619	0.980686
720.458357	0.981351
720.791046	0.982737
721.123686	0.982641
721.456278	0.983705
721.788821	0.982320
722.121315	0.984851
722.453761	0.984091
722.786158	0.983235
723.118506	0.983773
723.450805	0.983215
723.783056	0.983858
724.115259	0.984127
724.447412	0.984644
724.779518	0.984504
725.111574	0.984133
725.443582	0.983816
725.775542	0.984307
726.107453	0.984198
726.439315	0.984875
726.771129	0.983745
727.102895	0.983931
727.434612	0.984180
727.766281	0.984081
728.097901	0.982859
728.429473	0.984080
728.760996	0.982853
729.092471	0.984025
729.423897	0.985419
729.755276	0.983986
730.086606	0.983976
730.417887	0.984263
730.749120	0.984456
731.080305	0.984461
731.411442	0.982411
731.742530	0.982256
732.073570	0.983532
732.404562	0.984513
732.735506	0.983891
733.066401	0.984219
733.397249	0.984722
733.728048	0.985591
734.058798	0.986483
734.389501	0.987649
734.720156	0.986579
735.050762	0.988270
735.381320	0.987525
735.711831	0.986519
736.042293	0.987199
736.372707	0.989514
736.703073	0.986891
737.033391	0.987508
737.363661	0.987945
737.693883	0.987884
738.024056	0.987317
738.354182	0.988394
738.684260	0.987321
739.014290	0.987941
739.344272	0.986409
739.674207	0.987332
740.004093	0.988004
740.333931	0.987056
740.663722	0.986458
740.993464	0.986995
741.323159	0.987049
741.652806	0.987425
741.982405	0.988235
742.311956	0.989256
742.641460	0.988220
742.970915	0.988593
743.300323	0.987286
743.629683	0.988495
743.958996	0.990630
744.288260	0.988631
744.617477	0.989547
744.946647	0.989515
745.275768	0.990848
745.604842	0.989543
745.933869	0.990559
746.262847	0.991132
746.591778	0.988910
746.920662	0.990340
747.249498	0.991881
747.578286	0.991944
747.907027	0.991266
748.235720	0.989597
748.564365	0.990892
748.892963	0.990074
749.221514	0.990753
749.550017	0.990338
749.878473	0.991040
750.206881	0.991906
750.535242	0.991205
750.863555	0.990705
751.191821	0.991672
751.520039	0.990322
751.848210	0.989363
752.176334	0.991477
752.504411	0.990743
752.832440	0.989844
753.160421	0.991361
753.488356	0.991849
753.816243	0.991319
754.144082	0.990211
754.471875	0.991562
754.799620	0.992206
755.127318	0.991027
755.454969	0.991251
755.782572	0.991756
756.110129	0.992069
756.437638	0.992617
756.765100	0.993056
757.092515	0.991960
757.419882	0.991668
757.747203	0.991881
758.074477	0.992482
758.401703	0.992899
758.728882	0.992442
759.056014	0.991018
759.383099	0.991366
759.710138	0.991772
760.037129	0.991571
760.364073	0.992011
760.690970	0.991151
761.017820	0.990368
761.344623	0.991751
761.671379	0.992836
761.998088	0.991424
762.324751	0.990977
762.651366	0.990091
762.977935	0.987820
763.304456	0.986446
763.630931	0.982664
763.957359	0.983084
764.283740	0.985100
764.610074	0.987062
764.936362	0.987998
765.262602	0.989114
765.588796	0.989820
765.914943	0.991254
766.241044	0.991020
766.567097	0.992470
766.893104	0.992363
767.219064	0.991463
767.544978	0.992647
767.870845	0.994034
768.196665	0.993480
768.522438	0.993951
768.848165	0.993896
769.173846	0.994302
769.499479	0.994796
769.825066	0.995275
770.150607	0.994762
770.476101	0.994891
770.801548	0.994595
771.126949	0.994657
771.452303	0.994027
771.777611	0.995107
772.102872	0.994928
772.428087	0.994334
772.753256	0.994709
773.078378	0.996105
773.403453	0.994285
773.728482	0.996698
774.053465	0.995695
774.378401	0.994750
774.703291	0.995553
775.028135	0.997071
775.352932	0.994615
775.677683	0.994794
776.002388	0.996598
776.327046	0.996265
776.651658	0.996576
776.976224	0.995887
777.300743	0.995558
777.625216	0.994893
777.949643	0.996046
778.274024	0.995800
778.598359	0.996040
778.922647	0.995719
779.246889	0.996553
779.571086	0.995470
779.895236	0.995242
780.219339	0.996299
780.543397	0.996307
780.867409	0.996787
781.191374	0.995980
781.515294	0.996593
781.839167	0.996142
782.162995	0.996052
782.486776	0.996935
782.810511	0.996048
783.134201	0.996802
783.457844	0.997081
783.781441	0.995908
784.104993	0.995600
784.428498	0.995913
784.751958	0.996794
785.075372	0.996613
785.398739	0.995340
785.722061	0.995385
786.045337	0.995896
786.368568	0.996370
786.691752	0.995933
787.014891	0.996439
787.337983	0.995396
787.661030	0.995245
787.984031	0.995673
788.306987	0.994169
788.629897	0.993401
788.952760	0.994074
789.275579	0.994087
789.598351	0.994203
789.921078	0.996157
790.243759	0.996405
790.566395	0.994693
790.888984	0.994941
791.211529	0.996787
791.534027	0.995705
791.856480	0.995607
792.178888	0.995815
792.501249	0.996318
792.823566	0.997490
793.145836	0.996685
793.468062	0.996543
793.790241	0.996145
794.112375	0.995752
794.434464	0.996831
794.756507	0.997191
795.078505	0.996602
795.400457	0.996834
795.722364	0.995870
796.044226	0.996079
796.366042	0.994518
796.687812	0.994621
797.009538	0.994596
797.331218	0.995497
797.652852	0.996449
797.974442	0.994608
798.295986	0.995668
798.617484	0.994614
798.938938	0.995985
799.260346	0.995085
799.581709	0.996236
799.903026	0.996374
800.224299	0.995171
800.545526	0.996183
800.866708	0.994864
801.187845	0.997016
801.508936	0.997089
801.829983	0.996113
802.150984	0.997044
802.471940	0.996719
802.792851	0.995945
803.113717	0.997493
803.434538	0.997196
803.755314	0.998723
804.076045	0.996965
804.396731	0.995817
804.717372	0.995176
805.037967	0.997918
805.358518	0.997591
805.679024	0.996587
805.999485	0.996845
806.319901	0.996610
806.640272	0.997291
806.960598	0.997794
807.280879	0.996962
807.601115	0.997377
807.921306	0.997199
808.241453	0.996225
808.561554	0.997759
808.881611	0.996511
809.201623	0.996991
809.521590	0.996064
809.841513	0.996915
810.161390	0.996264
810.481223	0.996623
810.801011	0.996904
811.120755	0.998455
811.440453	0.996685
811.760107	0.997319
812.079716	0.996941
812.399281	0.997472
812.718801	0.997280
813.038276	0.996530
813.357707	0.997400
813.677093	0.998304
813.996434	0.997297
814.315731	0.997898
814.634983	0.997098
814.954191	0.997538
815.273354	0.996163
815.592473	0.995511
815.911547	0.997120
816.230577	0.995927
816.549562	0.996719
816.868502	0.994956
817.187399	0.997241
817.506250	0.996069
817.825058	0.994850
818.143821	0.995964
818.462539	0.995525
818.781213	0.995728
819.099843	0.995837
819.418429	0.994343
819.736970	0.993245
820.055466	0.992411
820.373919	0.991656
820.692327	0.989237
821.010691	0.989248
821.329011	0.983925
821.647286	0.979159
821.965517	0.973928
822.283704	0.968901
822.601847	0.966156
822.919945	0.967848
823.237999	0.970523
823.556010	0.972969
823.873976	0.975520
824.191897	0.978477
824.509775	0.981898
824.827609	0.983019
825.145398	0.985039
825.463144	0.985010
825.780845	0.985693
826.098502	0.985109
826.416116	0.984667
826.733685	0.980978
827.051210	0.977437
827.368692	0.978723
827.686129	0.981457
828.003522	0.983884
828.320872	0.985910
828.638177	0.988052
828.955439	0.990094
829.272656	0.991898
829.589830	0.991908
829.906960	0.992982
830.224046	0.993200
830.541088	0.993928
830.858086	0.993330
831.175041	0.995789
831.491952	0.994388
831.808819	0.995680
832.125642	0.994859
832.442421	0.994856
832.759157	0.994362
833.075849	0.991221
833.392497	0.988575
833.709101	0.985962
834.025662	0.985482
834.342179	0.986296
834.658653	0.989691
834.975083	0.990017
835.291469	0.991794
835.607811	0.992379
835.924110	0.993748
836.240366	0.996341
836.556578	0.995443
836.872746	0.996190
837.188871	0.996392
837.504952	0.996918
837.820990	0.997539
838.136984	0.996432
838.452935	0.997411
838.768842	0.997552
839.084706	0.998051
839.400526	0.997383
839.716303	0.992656
840.032037	0.992075
840.347727	0.992255
840.663373	0.994166
840.978977	0.993511
841.294537	0.995869
841.610054	0.996269
841.925527	0.997567
842.240957	0.998800
842.556344	0.998002
842.871687	0.997495
843.186987	0.998990
843.502244	0.999009
843.817458	0.997808
844.132629	0.997896
844.447756	0.997927
844.762840	0.999890
845.077881	0.999120
845.392879	0.998369
845.707833	0.999182
846.022745	0.999165
846.337613	0.999084
846.652438	0.998636
846.967221	0.999157
847.281960	1.000858
847.596656	1.000158
847.911309	0.999288
848.225919	0.997949
848.540485	0.999664
848.855009	1.000443
849.169490	0.999761
849.483928	0.999247
849.798323	0.999411
850.112675	1.000513
850.426984	0.999352
850.741251	0.999473
851.055474	1.000385
851.369654	0.999389
851.683792	0.999005
851.997887	0.998762
852.311938	0.999028
852.625947	0.999971
852.939914	0.998542
853.253837	1.000845
853.567718	0.999856
853.881555	0.998940
854.195350	0.999433
854.509103	1.000147
854.822812	1.000244
855.136479	0.999292
855.450103	0.999671
855.763685	1.000711
856.077224	0.998844
856.390720	0.999377
856.704173	0.999468
857.017584	0.999655
857.330953	0.999603
857.644278	0.999710
857.957561	1.000180
858.270802	1.000164
858.584000	0.998980
858.897155	0.998534
859.210268	0.998707
859.523339	0.999164
859.836367	1.000063
860.149352	1.000000
860.462295	0.999579
860.775195	0.999256
861.088054	0.998245
861.400869	0.999626
861.713642	0.999296
862.026373	0.999911
862.339062	0.998929
862.651708	0.999392
862.964312	1.000288
863.276873	0.998391
863.589392	0.999231
863.901869	0.997857
864.214303	0.999700
864.526696	0.999246
864.839045	0.999110
865.151353	0.998626
865.463619	0.998188
865.775842	0.998859
866.088023	1.000591
866.400162	0.999296
866.712258	1.000111
867.024313	0.999162
867.336325	0.999774
867.648296	0.999813
867.960224	0.999601
868.272110	0.999236
868.583954	0.997988
868.895755	0.999892
869.207515	0.999189
869.519233	1.000639
869.830909	0.998840
870.142542	0.997589
870.454134	0.999053
870.765684	0.997332
871.077191	0.997492
871.388657	0.998509
871.700081	0.998737
872.011463	0.999234
872.322803	0.997651
872.634101	0.997636
872.945357	0.997653
873.256571	0.997635
873.567744	0.997092
873.878874	0.997360
874.189963	0.996709
874.501010	0.998896
874.812015	0.997467
875.122979	0.996890
875.433900	0.997417
875.744780	0.998555
876.055618	0.997602
876.366415	0.996413
876.677169	0.996774
876.987882	0.996609
877.298554	0.997835
877.609183	0.996940
877.919771	0.997115
878.230317	0.996981
878.540822	0.995428
878.851285	0.996164
879.161707	0.995073
879.472087	0.995539
879.782425	0.992237
880.092722	0.990572
880.402977	0.986867
880.713191	0.981856
881.023363	0.974975
881.333494	0.970824
881.643583	0.970888
881.953631	0.971789
882.263637	0.970652
882.573602	0.973313
882.883526	0.976316
883.193408	0.979734
883.503248	0.980961
883.813048	0.982321
884.122806	0.985275
884.432522	0.986447
884.742197	0.988222
885.051831	0.990368
885.361424	0.991478
885.670975	0.992873
885.980485	0.992826
886.289954	0.992926
886.599382	0.992973
886.908768	0.996140
887.218113	0.994645
887.527417	0.995228
887.836680	0.996327
888.145901	0.996640
888.455082	0.997438
888.764221	0.996627
889.073319	0.995763
889.382376	0.999012
889.691392	0.996928
890.000366	0.997387
890.309300	0.996902
890.618193	0.997519
890.927044	0.997374
891.235855	0.995950
891.544625	0.997587
891.853353	0.996941
892.162041	0.996459
892.470687	0.996270
892.779293	0.996056
893.087858	0.993942
893.396381	0.994312
893.704864	0.992910
894.013306	0.991113
894.321707	0.988978
894.630068	0.986321
894.938387	0.985699
895.246665	0.985193
895.554903	0.986398
895.863100	0.989427
896.171256	0.989702
896.479371	0.990100
896.787446	0.992606
897.095480	0.993378
897.403473	0.994613
897.711425	0.994376
898.019336	0.995258
898.327207	0.995920
898.635038	0.994437
898.942827	0.996103
899.250576	0.996206
899.558284	0.996730
899.865952	0.995533
900.173579	0.997088
900.481165	0.996931
900.788711	0.996394
901.096216	0.997049
901.403681	0.998109
901.711105	0.997463
902.018489	0.997684
902.325832	0.998170
902.633135	0.996640
902.940397	0.997445
903.247619	0.995968
903.554800	0.993532
903.861941	0.989596
904.169041	0.985826
904.476101	0.982845
904.783121	0.982576
905.090100	0.984275
905.397039	0.985694
905.703938	0.987863
906.010796	0.989734
906.317614	0.992082
906.624391	0.993841
906.931129	0.995486
907.237826	0.995745
907.544483	0.995846
907.851099	0.996494
908.157675	0.997554
908.464211	0.998619
908.770707	0.996529
909.077163	0.997910
909.383578	0.998099
909.689954	0.997547
909.996289	0.998527
910.302584	0.999762
910.608839	0.999848
910.915054	0.998810
911.221229	0.999530
911.527363	0.997581
911.833458	0.998865
912.139513	0.998586
912.445527	0.997985
912.751502	0.998160
913.057436	0.997316
913.363331	0.998276
913.669186	0.997682
913.975000	0.997490
914.280775	0.995392
914.586510	0.994930
914.892205	0.992576
915.197859	0.990831
915.503475	0.988966
915.809050	0.986337
916.114585	0.983132
916.420081	0.982611
916.725536	0.983915
917.030952	0.984916
917.336328	0.986691
917.641665	0.987233
917.946961	0.989088
918.252218	0.990349
918.557435	0.991758
918.862612	0.993335
919.167750	0.994383
919.472848	0.994793
919.777906	0.996108
920.082925	0.997037
920.387904	0.997116
920.692843	0.996030
920.997743	0.996058
921.302603	0.997550
921.607423	0.996965
921.912204	0.998091
922.216946	0.998088
922.521647	0.998485
922.826310	0.998145
923.130932	0.997750
923.435516	0.999222
923.740059	0.999506
924.044564	0.998653
924.349028	0.997303
924.653454	0.999221
924.957840	0.998464
925.262186	0.999417
925.566493	0.997845
925.870761	1.000190
926.174989	0.999029
926.479178	0.999671
926.783328	0.999535
927.087438	0.999748
927.391509	0.998967
927.695541	0.999532
927.999533	1.000859
928.303486	1.001003
928.607400	1.000097
928.911275	0.999968
929.215110	1.001384
929.518906	1.000702
929.822663	1.001382
930.126381	1.000622
930.430060	0.999959
930.733699	1.001413
931.037299	0.998882
931.340861	1.000063
931.644383	0.999023
931.947866	1.001489
932.251309	1.000716
932.554714	0.999689
932.858080	1.001317
933.161407	0.999992
933.464694	1.001292
933.767943	1.000128
934.071153	1.001421
934.374323	1.000200
934.677455	1.000114
934.980548	0.999772
935.283602	1.000570
935.586617	1.000689
935.889593	1.000521
936.192530	1.000875
936.495428	1.000878
936.798287	0.999855
937.101108	1.000424
937.403890	0.999823
937.706632	1.000254
938.009336	0.999080
938.312002	0.999657
938.614628	0.999208
938.917216	0.999591
939.219765	0.997780
939.522275	0.999433
939.824747	0.998785
940.127179	0.999295
940.429573	0.999749
940.731929	0.998231
941.034246	0.997310
941.336524	0.997927
941.638763	0.998890
941.940964	0.998478
942.243126	0.999002
942.545250	0.999595
942.847335	0.999871
943.149381	1.000175
943.451389	0.999292
943.753359	0.999332
944.055290	1.001349
944.357182	1.000153
944.659036	0.999688
944.960851	1.001223
945.262628	1.000899
945.564367	1.001443
945.866067	0.999877
946.167729	1.000917
946.469352	1.000201
946.770937	0.997509
947.072484	1.001324
947.373992	0.999572
947.675462	1.000263
947.976893	0.999312
948.278286	1.001999
948.579641	1.001743
948.880958	1.000253
949.182236	0.999855
949.483476	1.001746
949.784678	1.000387
950.085841	1.001615
950.386967	1.000036
950.688054	1.000563
950.989103	0.999242
951.290114	0.999949
951.591087	1.000854
951.892021	0.999195
952.192917	1.000687
952.493776	1.000495
952.794596	1.000527
953.095378	0.999373
953.396122	0.999673
953.696828	1.000520
953.997496	1.000006
954.298126	0.999881
954.598718	1.000104
954.899272	0.999723
955.199788	1.000616
955.500266	1.000911
955.800706	1.001375
956.101108	1.000150
956.401472	1.002013
956.701798	1.000056
957.002087	1.000970
957.302337	1.000818
957.602550	1.000540
957.902724	1.000332
958.202861	1.000670
958.502960	1.000795
958.803022	1.001591
959.103045	1.000475
959.403031	1.002562
959.702979	1.002542
960.002889	1.000883
960.302762	1.000845
960.602596	1.002216
960.902393	1.000957
961.202153	1.002470
961.501875	1.001685
961.801559	1.001562
962.101205	1.000540
962.400814	1.001732
962.700385	1.002398
962.999918	1.001494
963.299414	1.001007
963.598873	1.000982
963.898293	1.002247
964.197677	0.999859
964.497022	1.001125
964.796331	1.001391
965.095601	1.002878
965.394835	1.001220
965.694030	1.002002
965.993189	1.002090
966.292309	1.001603
966.591393	1.000499
966.890439	1.002946
967.189447	1.000761
967.488419	1.000920
967.787353	1.002265
968.086249	1.002450
968.385108	1.002216
968.683930	1.003252
968.982714	1.000993
969.281462	1.001590
969.580172	1.001999
969.878844	1.003013
970.177480	1.001501
970.476078	1.001959
970.774639	1.001934
971.073162	1.001160
971.371649	1.000970
971.670098	1.001029
971.968510	1.001196
972.266885	1.000908
972.565223	1.001323
972.863524	1.001003
973.161788	1.001417
973.460014	1.002173
973.758204	1.001052
974.056356	1.001951
974.354471	1.001438
974.652550	1.003137
974.950591	1.001327
975.248595	1.002235
975.546563	1.002714
975.844493	1.001927
976.142386	1.000262
976.440243	1.003169
976.738062	1.001932
977.035845	1.001829
977.333590	1.002592
977.631299	1.001594
977.928971	1.001645
978.226606	1.001558
978.524204	1.000241
978.821765	1.002573
979.119290	1.003069
979.416777	1.000745
979.714228	1.001342
980.011642	1.002333
980.309020	1.001944
980.606360	1.002177
980.903664	1.001670
981.200931	1.001649
981.498162	1.002351
981.795356	1.001545
982.092513	1.001888
982.389633	1.002035
982.686717	1.000211
982.983764	1.000143
983.280775	1.000180
983.577749	1.001567
983.874686	1.000820
984.171587	1.000215
984.468451	1.000893
984.765279	1.002723
985.062070	1.001743
985.358824	1.001786
985.655543	1.001683
985.952224	1.002846
986.248869	1.000826
986.545478	1.003168
986.842050	1.001815
987.138586	1.001162
987.435086	1.001875
987.731549	1.003728
988.027975	1.002974
988.324366	1.001512
988.620719	1.002940
988.917037	1.002457
989.213318	1.002684
989.509563	1.002835
989.805772	1.002982
990.101944	1.002706
990.398080	1.001485
990.694180	1.003263
990.990244	1.001714
991.286271	1.001202
991.582262	1.003092
991.878217	1.001376
992.174136	1.002864
992.470019	1.002435
992.765865	1.003854
993.061676	1.001774
993.357450	1.003107
993.653188	1.003412
993.948890	1.001763
994.244556	1.001449
994.540186	1.002942
994.835780	1.002007
995.131337	1.002745
995.426859	1.002393
995.722345	1.002342
996.017795	1.002525
996.313208	1.002264
996.608586	1.001072
996.903928	1.001851
997.199234	1.002903
997.494504	1.002595
997.789738	1.000083
998.084936	1.002527
998.380099	1.001014
998.675225	1.002698
998.970316	1.002773
999.265371	1.001701
999.560390	1.002919
999.855373	1.001843
1000.150320	1.001973
1000.445232	1.001759
1000.740108	1.002099
1001.034948	1.002631
1001.329752	1.003877
1001.624521	1.002470
1001.919254	1.001720
1002.213951	1.002551
1002.508613	1.002151
1002.803239	1.001907
1003.097829	1.002614
1003.392384	1.003376
1003.686903	1.002677
1003.981386	1.001767
1004.275834	1.003498
1004.570246	1.000845
1004.864623	1.003092
1005.158964	1.003165
1005.453270	1.001815
1005.747540	1.001741
1006.041775	1.002534
1006.335974	1.003251
1006.630138	1.003000
1006.924266	1.001775
1007.218359	1.000642
1007.512416	1.004561
1007.806438	1.002528
1008.100425	1.002750
1008.394376	1.002379
1008.688292	1.002732
1008.982172	1.002223
1009.276017	1.002801
1009.569827	1.004857
1009.863602	1.001997
1010.157341	1.003463
1010.451045	1.002725
1010.744714	1.003625
1011.038347	1.002782
1011.331945	1.001587
1011.625508	1.002130
1011.919036	1.002310
1012.212528	1.003153
1012.505986	1.001661
1012.799408	1.002837
1013.092795	1.003651
1013.386147	1.002349
1013.679464	1.003039
1013.972745	1.002792
1014.265992	1.002457
1014.559204	1.002197
1014.852380	1.002718
1015.145521	1.002241
1015.438628	1.002013
1015.731699	1.002304
1016.024736	1.002417
1016.317737	1.002664
1016.610703	1.003833
1016.903635	1.002378
1017.196531	1.001867
1017.489393	1.001915
1017.782219	1.002776
1018.075011	1.003297
1018.367768	1.001568
1018.660490	1.003768
1018.953177	1.003768
1019.245829	1.003768
