Dividing Wavelength (nm)	Counts (n)	Blue Motor Position (mm): 39.900000	Red Motor Position (mm): 0.000000	
326.493990	0.998797
326.888308	0.998797
327.282561	0.998797
327.676750	1.000414
328.070874	0.999762
328.464933	1.000185
328.858929	1.001260
329.252859	1.000081
329.646726	0.999974
330.040528	0.999002
330.434265	1.000916
330.827938	0.999613
331.221547	1.000013
331.615091	1.000621
332.008571	1.000464
332.401986	0.999475
332.795338	0.999801
333.188625	1.000521
333.581847	0.999909
333.975006	0.999457
334.368100	0.999888
334.761129	0.999574
335.154095	1.000088
335.546996	0.998862
335.939833	0.999497
336.332606	0.999530
336.725315	0.997981
337.117960	1.000791
337.510540	0.998350
337.903056	0.999746
338.295508	1.001496
338.687896	1.000322
339.080220	0.999712
339.472480	0.998644
339.864676	0.998930
340.256807	0.997689
340.648875	1.000931
341.040879	0.998963
341.432818	1.000189
341.824694	0.999953
342.216506	1.000578
342.608253	0.998942
342.999937	1.000019
343.391557	0.998021
343.783113	1.000844
344.174605	0.999786
344.566033	0.998707
344.957397	1.000599
345.348697	1.000121
345.739934	1.000328
346.131106	0.998581
346.522215	0.999366
346.913260	1.000437
347.304241	0.999831
347.695159	0.999691
348.086012	0.999775
348.476802	0.999081
348.867528	0.999179
349.258191	0.998849
349.648789	0.999185
350.039324	0.999401
350.429796	0.999027
350.820203	0.999485
351.210548	1.000019
351.600828	0.999484
351.991045	0.999347
352.381198	1.000077
352.771288	0.998520
353.161314	0.999793
353.551276	0.998488
353.941175	0.997016
354.331010	0.999270
354.720782	0.998506
355.110490	0.999125
355.500135	1.000422
355.889717	0.997738
356.279235	0.998056
356.668689	1.000036
357.058080	0.999950
357.447408	0.997939
357.836672	1.000073
358.225873	0.997919
358.615010	0.997813
359.004084	0.997187
359.393095	0.999613
359.782043	0.998865
360.170927	0.999423
360.559748	0.999193
360.948505	0.997939
361.337199	0.996697
361.725830	0.999120
362.114398	0.998750
362.502903	0.997941
362.891344	0.997597
363.279722	0.997410
363.668037	0.999235
364.056289	0.997732
364.444478	0.999493
364.832603	0.997695
365.220665	0.998282
365.608665	0.997960
365.996601	0.997281
366.384474	0.997137
366.772284	0.996885
367.160031	0.996342
367.547715	0.996764
367.935336	0.995589
368.322893	0.993707
368.710388	0.994072
369.097820	0.993239
369.485189	0.990619
369.872495	0.989365
370.259738	0.986568
370.646918	0.983156
371.034035	0.981749
371.421090	0.978365
371.808081	0.973828
372.195010	0.971839
372.581875	0.965746
372.968678	0.960921
373.355418	0.957620
373.742096	0.950589
374.128710	0.946645
374.515262	0.941141
374.901751	0.936199
375.288177	0.930585
375.674540	0.924002
376.060841	0.918387
376.447079	0.910718
376.833254	0.905329
377.219367	0.899693
377.605417	0.889135
377.991404	0.885094
378.377329	0.879228
378.763191	0.872912
379.148991	0.864443
379.534727	0.856147
379.920402	0.848309
380.306013	0.845178
380.691563	0.832295
381.077049	0.825996
381.462474	0.820843
381.847835	0.810092
382.233134	0.806244
382.618371	0.806134
383.003545	0.788754
383.388657	0.785756
383.773706	0.778782
384.158693	0.774615
384.543618	0.769524
384.928480	0.761046
385.313280	0.750937
385.698017	0.750381
386.082692	0.739464
386.467305	0.737992
386.851856	0.732770
387.236344	0.727989
387.620770	0.722527
388.005133	0.717696
388.389435	0.713321
388.773674	0.711110
389.157851	0.705074
389.541965	0.704387
389.926018	0.712337
390.310008	0.701409
390.693936	0.700839
391.077802	0.696906
391.461606	0.701739
391.845348	0.694802
392.229027	0.697784
392.612645	0.700667
392.996200	0.692060
393.379694	0.690648
393.763125	0.687348
394.146494	0.696807
394.529801	0.693635
394.913047	0.692901
395.296230	0.703707
395.679351	0.703085
396.062410	0.706799
396.445408	0.715879
396.828343	0.719497
397.211217	0.722840
397.594028	0.738720
397.976778	0.741435
398.359466	0.745051
398.742092	0.751668
399.124656	0.765719
399.507158	0.766111
399.889598	0.772900
400.271977	0.776417
400.654294	0.787249
401.036549	0.796846
401.418742	0.805717
401.800874	0.807921
402.182944	0.814083
402.564952	0.820872
402.946898	0.829373
403.328783	0.838975
403.710606	0.850813
404.092367	0.849984
404.474067	0.860467
404.855705	0.867694
405.237282	0.877396
405.618797	0.880901
406.000250	0.887365
406.381642	0.890974
406.762972	0.900812
407.144240	0.906877
407.525447	0.911928
407.906593	0.917793
408.287677	0.922698
408.668700	0.931100
409.049661	0.934550
409.430560	0.939022
409.811399	0.944892
410.192176	0.947797
410.572891	0.954261
410.953545	0.956248
411.334138	0.961989
411.714669	0.964891
412.095139	0.968584
412.475547	0.971519
412.855894	0.974134
413.236180	0.977321
413.616405	0.979038
413.996568	0.981537
414.376670	0.983824
414.756711	0.985045
415.136691	0.987108
415.516609	0.987951
415.896466	0.989808
416.276262	0.990399
416.655997	0.992418
417.035670	0.993112
417.415283	0.993351
417.794834	0.994623
418.174324	0.995518
418.553753	0.995397
418.933121	0.995175
419.312428	0.997183
419.691674	0.997537
420.070859	0.997359
420.449983	0.997901
420.829045	0.997067
421.208047	0.998771
421.586988	0.997369
421.965867	0.997534
422.344686	0.998795
422.723444	0.998552
423.102141	0.998951
423.480777	0.998069
423.859352	0.998974
424.237866	0.999188
424.616319	0.999271
424.994712	0.999395
425.373044	0.999567
425.751314	0.999318
426.129524	0.999940
426.507673	0.998530
426.885762	0.998572
427.263789	0.998942
427.641756	0.999240
428.019662	0.999588
428.397508	0.999054
428.775292	0.999133
429.153016	0.998938
429.530679	1.000567
429.908282	0.999938
430.285824	0.999890
430.663305	0.999239
431.040726	1.000223
431.418086	1.000070
431.795385	0.999639
432.172624	1.000149
432.549802	0.999040
432.926920	0.998745
433.303977	1.000320
433.680974	1.000190
434.057910	0.999849
434.434786	0.998928
434.811601	1.000499
435.188355	1.000275
435.565050	1.000067
435.941683	1.000208
436.318257	0.999184
436.694770	1.000680
437.071222	1.000637
437.447614	1.000408
437.823946	1.000209
438.200218	0.999292
438.576429	0.998604
438.952580	1.000111
439.328670	0.999167
439.704700	0.999792
440.080670	0.999857
440.456580	1.000239
440.832429	1.000432
441.208218	0.999872
441.583947	1.000314
441.959616	0.999732
442.335224	1.000813
442.710773	1.000777
443.086261	0.999556
443.461689	0.999005
443.837057	0.999913
444.212365	1.000271
444.587612	1.000656
444.962800	0.999988
445.337927	1.000286
445.712995	0.999937
446.088002	0.999865
446.462949	0.998917
446.837837	1.001321
447.212664	1.000800
447.587431	1.000383
447.962139	0.999662
448.336786	0.999906
448.711374	1.000048
449.085901	1.000334
449.460369	1.000374
449.834776	0.999838
450.209124	0.999901
450.583412	1.000105
450.957640	0.999460
451.331808	1.000125
451.705917	0.999289
452.079965	1.000584
452.453954	0.999983
452.827883	0.999781
453.201752	0.999835
453.575562	0.999603
453.949311	1.000137
454.323001	0.999195
454.696632	1.000483
455.070202	0.999913
455.443713	1.000059
455.817164	0.999634
456.190556	1.000439
456.563888	1.000842
456.937160	0.999913
457.310373	0.999680
457.683526	0.999275
458.056619	1.000572
458.429653	1.000035
458.802628	0.999935
459.175542	0.999978
459.548398	1.000104
459.921194	1.000618
460.293930	1.000645
460.666607	1.000497
461.039224	0.999525
461.411782	0.999539
461.784280	0.999866
462.156719	1.000150
462.529099	0.999872
462.901419	1.000817
463.273680	0.999856
463.645882	0.999532
464.018024	1.000353
464.390106	1.000149
464.762130	1.000076
465.134094	0.999968
465.505999	1.000078
465.877845	0.999218
466.249631	0.999725
466.621358	0.998459
466.993026	0.999729
467.364634	1.000558
467.736184	0.999836
468.107674	0.999407
468.479105	0.999991
468.850477	0.999939
469.221790	1.000265
469.593043	0.999873
469.964238	0.999362
470.335373	0.999278
470.706449	0.999458
471.077467	0.999908
471.448425	0.999912
471.819324	0.999371
472.190164	0.999639
472.560945	0.999519
472.931667	1.000398
473.302330	0.999718
473.672934	1.000136
474.043479	0.999686
474.413965	0.999883
474.784393	0.999637
475.154761	0.999915
475.525070	0.999740
475.895321	1.000017
476.265513	0.999829
476.635645	0.999893
477.005719	0.999537
477.375734	0.999329
477.745691	0.999670
478.115588	0.999684
478.485427	0.999689
478.855207	0.999953
479.224928	0.999597
479.594591	0.999642
479.964194	0.999801
480.333739	1.000115
480.703226	0.999366
481.072653	0.998998
481.442022	1.000211
481.811333	0.999587
482.180584	0.999668
482.549777	0.999125
482.918912	0.999624
483.287988	0.999808
483.657005	0.999389
484.025964	0.999946
484.394864	0.999278
484.763706	0.999646
485.132489	1.000226
485.501213	1.000092
485.869879	0.999329
486.238487	0.999121
486.607036	1.000274
486.975527	0.999738
487.343959	0.998944
487.712333	0.999456
488.080648	0.999476
488.448905	0.999743
488.817104	0.999434
489.185244	0.999826
489.553326	0.999414
489.921350	0.999931
490.289315	1.000059
490.657222	0.998837
491.025070	1.000025
491.392861	0.999489
491.760593	0.999811
492.128267	0.999596
492.495883	0.998869
492.863440	0.999484
493.230939	1.000026
493.598380	1.000096
493.965763	0.999188
494.333088	0.999046
494.700354	0.998958
495.067563	0.998975
495.434713	1.000211
495.801805	0.999371
496.168839	0.999143
496.535815	0.999433
496.902733	0.999526
497.269593	0.998958
497.636395	0.998713
498.003139	0.999349
498.369825	0.999784
498.736453	0.999458
499.103023	0.999825
499.469535	0.999649
499.835989	0.999840
500.202385	0.998993
500.568723	1.000020
500.935003	0.999932
501.301226	0.999614
501.667390	0.998838
502.033497	0.999307
502.399546	0.999290
502.765537	0.999663
503.131470	0.999256
503.497345	1.000340
503.863163	0.999766
504.228923	0.999268
504.594625	0.999177
504.960269	0.999413
505.325856	1.000485
505.691385	0.999691
506.056856	0.999999
506.422270	0.999605
506.787625	0.999864
507.152924	1.000296
507.518164	0.999621
507.883347	0.999674
508.248472	0.999716
508.613540	0.998414
508.978550	0.999548
509.343503	0.999310
509.708398	0.999964
510.073236	0.999669
510.438016	0.999672
510.802738	0.999400
511.167403	0.999570
511.532010	1.000137
511.896561	0.999516
512.261053	0.999517
512.625488	0.999225
512.989866	0.999449
513.354186	0.999014
513.718449	1.000252
514.082655	0.998980
514.446803	0.999039
514.810894	0.999427
515.174927	0.999960
515.538904	0.999478
515.902822	0.999730
516.266684	0.999670
516.630488	1.000196
516.994235	1.000160
517.357925	1.000183
517.721558	0.999385
518.085133	0.998929
518.448651	0.999853
518.812112	1.000472
519.175516	0.999668
519.538863	0.999223
519.902152	1.000581
520.265385	1.000157
520.628560	0.999460
520.991678	0.999513
521.354739	1.000369
521.717743	1.000250
522.080690	0.999494
522.443580	1.000366
522.806413	0.999285
523.169189	0.999796
523.531908	0.998939
523.894569	0.998962
524.257174	0.999607
524.619722	0.999942
524.982213	0.999593
525.344647	0.999694
525.707025	0.999365
526.069345	0.999497
526.431608	0.999371
526.793815	0.999532
527.155964	0.999905
527.518057	0.999749
527.880093	0.999116
528.242072	0.999467
528.603995	0.999758
528.965860	1.000117
529.327669	0.999803
529.689421	0.999638
530.051117	0.999450
530.412755	0.999812
530.774337	0.999747
531.135862	1.000625
531.497331	0.999153
531.858743	1.000518
532.220098	0.999185
532.581396	1.000320
532.942638	0.999988
533.303824	1.000463
533.664953	0.999464
534.026025	1.000224
534.387040	0.999442
534.747999	0.999468
535.108902	0.999655
535.469748	1.000437
535.830537	1.000301
536.191270	1.000007
536.551947	0.999883
536.912567	0.999796
537.273131	1.000198
537.633638	0.999842
537.994089	1.000346
538.354483	0.999707
538.714821	0.999344
539.075103	0.999969
539.435328	1.000040
539.795497	1.000426
540.155609	0.999614
540.515665	1.000056
540.875665	0.999109
541.235609	0.999920
541.595496	0.999075
541.955328	0.999355
542.315102	0.999750
542.674821	0.999904
543.034483	1.000106
543.394090	0.999281
543.753640	1.000340
544.113134	1.000207
544.472571	1.000534
544.831953	1.000209
545.191278	1.000251
545.550548	0.999593
545.909761	0.999862
546.268918	1.000229
546.628019	1.000479
546.987064	0.999311
547.346053	0.999166
547.704986	0.999678
548.063863	0.999669
548.422684	1.000231
548.781449	1.000019
549.140158	0.999921
549.498811	0.999451
549.857408	0.999566
550.215949	0.999524
550.574434	0.999907
550.932864	0.999981
551.291237	0.999625
551.649555	1.000607
552.007817	1.000644
552.366022	1.000121
552.724173	1.000379
553.082267	1.000418
553.440305	0.999046
553.798288	0.999515
554.156215	0.999772
554.514086	0.999828
554.871902	1.000427
555.229661	0.999412
555.587365	1.000067
555.945014	1.000370
556.302606	0.999489
556.660143	1.000541
557.017625	1.000361
557.375050	0.999184
557.732421	0.999343
558.089735	0.999652
558.446994	0.999632
558.804197	1.000109
559.161345	0.999551
559.518437	1.000307
559.875474	0.999660
560.232455	1.000078
560.589381	1.000059
560.946251	0.999215
561.303065	1.000344
561.659825	0.999078
562.016528	1.000195
562.373177	1.000298
562.729770	0.999970
563.086307	0.998723
563.442789	1.000086
563.799216	0.999831
564.155587	0.999618
564.511904	0.999889
564.868164	0.999899
565.224370	0.999015
565.580520	0.999807
565.936615	0.999883
566.292654	0.999122
566.648638	1.000675
567.004567	1.000317
567.360441	0.999932
567.716260	0.999857
568.072023	0.999795
568.427732	0.999961
568.783385	0.999587
569.138982	1.000103
569.494525	0.999794
569.850013	0.999950
570.205445	0.999646
570.560823	0.999932
570.916145	0.999911
571.271412	0.999784
571.626625	0.999912
571.981782	0.999931
572.336884	1.000228
572.691931	1.000167
573.046923	1.000435
573.401860	0.999332
573.756743	1.000222
574.111570	0.999904
574.466342	1.000908
574.821059	0.999671
575.175722	1.000708
575.530330	0.999588
575.884882	1.000165
576.239380	1.000060
576.593823	0.999492
576.948211	1.000332
577.302544	0.999721
577.656823	1.000318
578.011047	0.999458
578.365216	1.000587
578.719330	1.000067
579.073389	0.999212
579.427394	0.999551
579.781344	1.000016
580.135239	0.998935
580.489080	0.999910
580.842866	1.000444
581.196597	0.999350
581.550273	0.999293
581.903895	0.999840
582.257463	0.999919
582.610975	0.999730
582.964434	0.999996
583.317837	1.000252
583.671186	1.000356
584.024481	1.000094
584.377721	0.999207
584.730906	1.000110
585.084037	1.000542
585.437113	1.000460
585.790135	0.999462
586.143103	0.999511
586.496016	0.999507
586.848874	1.000177
587.201679	0.999831
587.554428	0.999621
587.907124	1.000044
588.259765	1.000101
588.612352	1.000614
588.964884	1.000433
589.317362	1.000011
589.669786	1.000047
590.022155	0.999572
590.374470	1.000340
590.726731	0.999449
591.078937	0.999792
591.431090	1.000289
591.783188	1.000001
592.135232	1.000263
592.487222	1.000463
592.839157	0.999698
593.191038	1.000050
593.542866	0.999777
593.894639	0.998804
594.246358	1.000349
594.598022	0.999548
594.949633	1.000582
595.301190	0.999793
595.652692	0.999233
596.004141	1.000002
596.355535	0.999253
596.706876	1.000257
597.058162	0.999816
597.409395	1.000399
597.760573	1.000191
598.111698	0.999662
598.462768	0.998655
598.813785	0.999019
599.164748	0.999540
599.515657	1.000768
599.866511	1.000267
600.217312	1.000557
600.568060	0.999377
600.918753	0.999906
601.269392	1.000069
601.619978	1.000027
601.970510	0.999733
602.320988	0.999866
602.671412	0.999323
603.021783	1.000160
603.372100	1.000521
603.722363	1.000906
604.072572	1.000192
604.422728	1.000330
604.772830	0.999432
605.122878	0.999804
605.472872	0.999951
605.822813	0.999534
606.172701	1.000259
606.522534	1.000382
606.872314	1.000550
607.222041	1.000586
607.571714	1.000320
607.921333	0.999625
608.270899	0.999819
608.620411	1.000383
608.969870	1.000559
609.319276	0.999560
609.668627	1.000093
610.017926	1.000268
610.367171	1.000419
610.716362	1.000113
611.065500	0.999417
611.414585	1.000549
611.763616	0.999953
612.112594	1.000131
612.461518	0.998788
612.810389	1.000108
613.159207	0.999730
613.507971	0.999036
613.856682	1.000452
614.205340	0.998990
614.553945	0.999920
614.902496	0.999474
615.250994	1.000266
615.599439	1.000247
615.947830	0.999743
616.296169	1.000391
616.644454	1.000526
616.992686	0.999779
617.340864	1.000670
617.688990	0.999738
618.037063	0.999883
618.385082	0.999193
618.733048	0.999096
619.080961	1.000128
619.428821	1.000470
619.776628	0.999335
620.124382	1.000889
620.472083	1.000196
620.819731	1.001194
621.167326	1.000267
621.514868	1.000352
621.862357	0.999866
622.209793	1.000089
622.557176	0.999669
622.904506	0.998816
623.251783	1.000495
623.599007	0.999826
623.946179	0.999595
624.293297	1.000234
624.640363	1.000136
624.987376	0.998862
625.334336	0.999584
625.681243	0.999880
626.028097	0.999925
626.374899	1.000446
626.721647	1.001065
627.068343	0.999503
627.414987	0.999923
627.761577	0.998766
628.108115	0.999329
628.454600	0.999512
628.801032	1.000031
629.147412	1.000211
629.493739	1.000682
629.840014	0.999349
630.186236	0.999112
630.532405	0.999986
630.878521	0.999493
631.224585	0.999598
631.570597	0.999530
631.916556	0.999471
632.262462	0.999560
632.608316	0.999887
632.954117	0.998493
633.299866	0.999326
633.645562	1.000270
633.991206	1.000429
634.336797	0.999284
634.682336	1.000268
635.027823	0.999766
635.373257	0.999404
635.718639	1.000635
636.063968	0.999528
636.409245	0.998516
636.754470	0.999192
637.099642	1.000012
637.444762	0.999930
637.789829	0.999427
638.134845	0.998958
638.479808	0.999502
638.824719	0.999843
639.169577	0.999498
639.514383	1.000142
639.859137	0.999449
640.203839	0.999404
640.548489	0.999921
640.893086	0.999305
641.237632	0.999959
641.582125	0.998939
641.926566	0.999630
642.270955	0.999813
642.615292	0.998786
642.959576	0.999050
643.303809	1.000185
643.647990	0.999680
643.992118	1.000414
644.336195	0.999168
644.680219	1.000641
645.024192	0.998731
645.368112	0.998661
645.711981	0.999141
646.055797	0.999438
646.399562	0.998455
646.743274	1.000377
647.086935	0.998844
647.430544	0.998638
647.774101	0.998780
648.117606	0.999556
648.461059	0.999896
648.804460	0.999914
649.147810	0.998677
649.491108	0.999662
649.834354	0.999576
650.177548	0.999606
650.520690	0.999705
650.863781	0.999208
651.206820	0.999745
651.549807	0.999311
651.892742	0.999516
652.235626	0.999915
652.578458	1.000107
652.921238	1.000358
653.263967	1.000567
653.606644	0.999553
653.949269	1.000140
654.291843	0.999382
654.634365	1.000317
654.976836	0.999643
655.319255	0.999846
655.661622	0.999919
656.003938	0.999819
656.346203	0.998888
656.688416	1.000313
657.030577	0.998629
657.372687	0.999738
657.714746	1.000084
658.056753	0.998646
658.398708	0.999036
658.740612	1.000025
659.082465	0.999397
659.424266	1.000062
659.766016	0.998767
660.107715	0.999758
660.449362	1.000073
660.790958	0.998541
661.132503	1.000105
661.473996	0.999947
661.815438	0.999963
662.156829	0.999471
662.498168	1.000065
662.839456	0.998899
663.180693	0.999225
663.521879	0.998943
663.863013	0.999722
664.204097	0.998822
664.545129	0.999053
664.886110	0.999524
665.227040	0.999146
665.567918	0.999286
665.908746	0.999080
666.249522	0.998703
666.590248	0.998848
666.930922	0.999134
667.271545	0.998880
667.612118	0.998819
667.952639	0.999433
668.293109	0.999164
668.633528	0.998459
668.973896	0.999377
669.314213	0.998871
669.654480	0.999463
669.994695	0.998433
670.334859	0.999136
670.674973	0.999112
671.015035	0.999029
671.355047	0.999617
671.695008	0.999068
672.034918	0.998811
672.374777	0.999512
672.714585	0.998446
673.054342	0.999841
673.394049	0.999236
673.733705	0.998309
674.073310	0.998920
674.412864	0.998526
674.752368	0.998831
675.091820	1.000037
675.431223	0.999231
675.770574	0.998778
676.109875	0.999266
676.449125	0.998447
676.788324	0.998889
677.127473	0.999050
677.466571	0.999221
677.805619	0.999330
678.144616	0.999000
678.483562	0.999491
678.822458	0.999408
679.161303	0.998437
679.500098	0.998294
679.838842	0.998550
680.177535	0.999294
680.516179	0.997717
680.854771	0.999235
681.193314	0.998695
681.531805	0.997775
681.870247	0.998449
682.208638	0.998967
682.546978	0.998641
682.885268	0.998160
683.223508	0.998631
683.561697	0.998928
683.899836	0.998611
684.237925	0.997475
684.575963	0.998975
684.913951	0.998553
685.251889	0.998011
685.589776	0.998999
685.927614	0.998418
686.265401	0.998377
686.603137	0.998021
686.940824	0.998435
687.278460	0.999244
687.616046	0.997790
687.953582	0.997915
688.291068	0.998674
688.628504	0.999125
688.965889	0.998111
689.303224	0.997281
689.640510	0.997126
689.977745	0.997668
690.314930	0.998448
690.652065	0.999030
690.989150	0.998429
691.326185	0.998977
691.663170	0.998669
692.000105	0.998120
692.336990	0.998923
692.673825	0.998419
693.010610	0.998166
693.347345	0.998335
693.684030	0.998869
694.020665	0.998438
694.357251	0.998054
694.693786	0.998668
695.030272	0.997807
695.366707	0.998336
695.703093	0.997644
696.039429	0.998196
696.375716	0.999054
696.711952	0.998654
697.048139	0.999279
697.384276	0.998327
697.720363	0.999056
698.056400	0.997312
698.392388	0.997997
698.728326	0.998407
699.064214	0.999244
699.400053	0.998004
699.735842	0.998684
700.071581	0.998146
700.407270	0.998510
700.742910	0.998198
701.078501	0.998103
701.414042	0.999208
701.749533	0.997516
702.084974	0.998527
702.420366	0.998519
702.755709	0.998235
703.091002	0.999128
703.426246	0.999040
703.761440	0.999111
704.096584	0.997313
704.431679	0.997544
704.766725	0.998127
705.101721	0.997847
705.436668	0.997938
705.771565	0.997780
706.106413	0.998433
706.441212	0.998826
706.775961	0.997977
707.110661	0.998450
707.445311	0.998432
707.779913	0.999428
708.114465	0.998473
708.448967	0.998502
708.783421	0.999102
709.117825	0.998802
709.452180	0.998339
709.786485	0.998694
710.120742	0.998296
710.454949	0.998326
710.789107	0.998578
711.123216	0.997256
711.457275	0.997511
711.791286	0.998248
712.125247	0.999479
712.459159	0.998351
712.793023	0.996940
713.126837	0.998250
713.460602	0.996833
713.794318	0.997821
714.127985	0.997869
714.461602	0.998703
714.795171	0.997569
715.128691	0.997411
715.462162	0.998845
715.795584	0.998518
716.128957	0.998665
716.462281	0.998987
716.795556	0.997275
717.128782	0.998278
717.461960	0.997513
717.795088	0.997914
718.128167	0.998613
718.461198	0.997993
718.794180	0.997817
719.127113	0.997856
719.459997	0.998103
719.792833	0.998267
720.125619	0.997534
720.458357	0.998988
720.791046	0.998522
721.123686	0.998584
721.456278	0.998690
721.788821	0.998432
722.121315	0.998616
722.453761	0.998591
722.786158	0.997766
723.118506	0.998699
723.450805	0.997807
723.783056	0.998590
724.115259	0.998508
724.447412	0.997781
724.779518	0.998877
725.111574	0.997521
725.443582	0.997844
725.775542	0.998949
726.107453	0.998550
726.439315	0.998344
726.771129	0.998102
727.102895	0.998836
727.434612	0.997594
727.766281	0.998848
728.097901	0.997585
728.429473	0.998074
728.760996	0.997962
729.092471	0.998015
729.423897	0.998209
729.755276	0.997682
730.086606	0.997750
730.417887	0.998290
730.749120	0.998053
731.080305	0.998170
731.411442	0.997854
731.742530	0.997525
732.073570	0.997209
732.404562	0.998225
732.735506	0.998387
733.066401	0.997813
733.397249	0.998037
733.728048	0.998255
734.058798	0.998284
734.389501	0.999365
734.720156	0.998866
735.050762	0.999045
735.381320	0.999195
735.711831	0.997795
736.042293	0.997118
736.372707	0.999147
736.703073	0.996842
737.033391	0.997680
737.363661	0.998649
737.693883	0.997929
738.024056	0.997735
738.354182	0.998489
738.684260	0.997720
739.014290	0.998406
739.344272	0.996864
739.674207	0.998129
740.004093	0.998628
740.333931	0.997274
740.663722	0.997659
740.993464	0.998534
741.323159	0.997926
741.652806	0.997568
741.982405	0.997986
742.311956	0.997928
742.641460	0.998752
742.970915	0.998464
743.300323	0.997885
743.629683	0.998762
743.958996	0.998294
744.288260	0.996771
744.617477	0.997892
744.946647	0.997505
745.275768	0.998419
745.604842	0.997712
745.933869	0.997971
746.262847	0.998866
746.591778	0.996938
746.920662	0.998923
747.249498	0.999030
747.578286	0.999526
747.907027	0.997656
748.235720	0.997687
748.564365	0.998762
748.892963	0.997723
749.221514	0.998347
749.550017	0.997967
749.878473	0.998204
750.206881	0.999960
750.535242	0.997944
750.863555	0.998156
751.191821	0.997373
751.520039	0.998858
751.848210	0.997516
752.176334	0.997533
752.504411	0.998315
752.832440	0.997513
753.160421	0.997904
753.488356	0.998183
753.816243	0.997992
754.144082	0.997655
754.471875	0.997923
754.799620	0.998700
755.127318	0.998414
755.454969	0.998505
755.782572	0.999522
756.110129	0.998067
756.437638	0.999030
756.765100	0.998187
757.092515	0.997370
757.419882	0.997959
757.747203	0.997861
758.074477	0.999309
758.401703	0.997986
758.728882	0.998892
759.056014	0.997733
759.383099	0.997939
759.710138	0.997983
760.037129	0.998271
760.364073	0.998256
760.690970	0.998145
761.017820	0.997497
761.344623	0.998710
761.671379	0.998967
761.998088	0.998630
762.324751	0.998648
762.651366	0.997670
762.977935	0.996352
763.304456	0.997670
763.630931	0.996161
763.957359	0.996603
764.283740	0.997585
764.610074	0.998060
764.936362	0.997110
765.262602	0.997845
765.588796	0.996997
765.914943	0.996895
766.241044	0.997870
766.567097	0.998357
766.893104	0.998274
767.219064	0.997028
767.544978	0.998819
767.870845	0.998779
768.196665	0.997381
768.522438	0.998774
768.848165	0.999085
769.173846	0.998591
769.499479	0.999449
769.825066	0.999542
770.150607	0.999318
770.476101	0.998460
770.801548	0.999736
771.126949	0.999673
771.452303	0.998599
771.777611	0.999031
772.102872	0.998667
772.428087	0.998652
772.753256	0.999132
773.078378	0.998480
773.403453	0.997165
773.728482	1.000623
774.053465	0.997561
774.378401	0.999366
774.703291	0.999637
775.028135	0.999732
775.352932	0.997885
775.677683	0.999497
776.002388	0.998514
776.327046	0.999140
776.651658	1.000708
776.976224	0.999551
777.300743	0.998521
777.625216	0.998355
777.949643	0.998469
778.274024	0.997167
778.598359	0.998472
778.922647	0.999574
779.246889	0.997621
779.571086	0.999395
779.895236	0.999452
780.219339	0.999256
780.543397	0.998234
780.867409	0.999620
781.191374	0.997952
781.515294	0.999921
781.839167	0.998594
782.162995	0.999481
782.486776	0.998512
782.810511	0.999143
783.134201	1.000381
783.457844	0.999278
783.781441	0.997866
784.104993	0.998154
784.428498	0.998400
784.751958	0.999205
785.075372	0.999899
785.398739	0.998397
785.722061	0.998794
786.045337	0.998641
786.368568	0.998951
786.691752	0.999598
787.014891	0.998203
787.337983	0.998585
787.661030	0.998232
787.984031	0.999265
788.306987	0.998474
788.629897	0.997398
788.952760	0.998049
789.275579	0.998993
789.598351	0.998296
789.921078	0.999415
790.243759	0.997656
790.566395	0.997259
790.888984	0.998858
791.211529	0.999005
791.534027	0.999282
791.856480	0.998143
792.178888	0.997920
792.501249	0.998398
792.823566	0.999766
793.145836	0.998576
793.468062	0.998556
793.790241	0.999343
794.112375	0.997509
794.434464	0.999337
794.756507	0.999741
795.078505	0.998106
795.400457	0.998959
795.722364	0.999276
796.044226	0.998562
796.366042	0.998454
796.687812	0.997688
797.009538	0.997699
797.331218	0.999554
797.652852	0.999710
797.974442	0.997793
798.295986	0.998648
798.617484	0.998564
798.938938	0.998878
799.260346	0.997920
799.581709	0.998333
799.903026	1.000282
800.224299	0.997760
800.545526	0.999078
800.866708	0.999107
801.187845	0.999989
801.508936	0.999099
801.829983	0.999254
802.150984	0.999021
802.471940	0.999636
802.792851	0.998492
803.113717	0.998388
803.434538	0.998661
803.755314	0.999088
804.076045	0.999366
804.396731	0.999156
804.717372	0.997983
805.037967	0.999281
805.358518	0.999195
805.679024	0.999088
805.999485	0.998431
806.319901	0.998867
806.640272	0.999920
806.960598	0.998808
807.280879	0.998906
807.601115	0.998705
807.921306	0.999722
808.241453	0.998783
808.561554	0.999045
808.881611	0.998237
809.201623	0.998860
809.521590	0.998363
809.841513	1.000003
810.161390	0.997700
810.481223	0.998396
810.801011	0.999785
811.120755	1.000559
811.440453	0.997982
811.760107	0.999555
812.079716	0.998993
812.399281	0.999612
812.718801	0.998679
813.038276	0.999701
813.357707	0.998722
813.677093	0.999216
813.996434	0.998692
814.315731	1.000486
814.634983	0.999067
814.954191	0.999382
815.273354	0.998888
815.592473	0.998869
815.911547	0.999680
816.230577	0.999172
816.549562	0.998415
816.868502	0.998028
817.187399	1.000179
817.506250	0.999699
817.825058	0.997977
818.143821	0.998955
818.462539	0.997767
818.781213	1.000263
819.099843	0.998758
819.418429	0.998391
819.736970	0.998141
820.055466	0.997992
820.373919	0.997280
820.692327	0.995658
821.010691	0.997004
821.329011	0.995820
821.647286	0.994414
821.965517	0.994002
822.283704	0.993606
822.601847	0.993301
822.919945	0.992803
823.237999	0.993952
823.556010	0.994684
823.873976	0.994297
824.191897	0.995598
824.509775	0.996302
824.827609	0.995921
825.145398	0.997207
825.463144	0.995764
825.780845	0.995178
826.098502	0.996460
826.416116	0.996387
826.733685	0.995824
827.051210	0.994344
827.368692	0.995809
827.686129	0.994776
828.003522	0.996868
828.320872	0.997036
828.638177	0.997166
828.955439	0.998097
829.272656	0.998059
829.589830	0.997320
829.906960	0.998040
830.224046	0.998536
830.541088	0.998216
830.858086	0.998580
831.175041	0.999724
831.491952	0.997590
831.808819	0.998608
832.125642	0.998386
832.442421	0.999041
832.759157	1.000185
833.075849	0.997205
833.392497	0.996118
833.709101	0.995920
834.025662	0.996507
834.342179	0.996256
834.658653	0.998005
834.975083	0.997580
835.291469	0.998195
835.607811	0.997268
835.924110	0.998631
836.240366	1.000057
836.556578	0.999118
836.872746	0.999810
837.188871	0.998406
837.504952	0.998308
837.820990	0.999849
838.136984	0.998491
838.452935	0.998802
838.768842	0.999229
839.084706	0.999058
839.400526	0.998728
839.716303	0.997521
840.032037	0.999070
840.347727	0.997047
840.663373	0.998002
840.978977	0.998341
841.294537	0.998863
841.610054	0.999791
841.925527	0.999723
842.240957	0.999078
842.556344	0.999964
842.871687	0.999304
843.186987	0.999680
843.502244	1.000145
843.817458	0.998524
844.132629	0.998888
844.447756	1.000184
844.762840	0.999371
845.077881	1.000399
845.392879	0.998651
845.707833	0.999602
846.022745	0.999461
846.337613	0.998956
846.652438	0.997968
846.967221	0.999985
847.281960	0.999599
847.596656	0.999775
847.911309	0.999373
848.225919	0.998686
848.540485	0.999946
848.855009	1.000704
849.169490	0.999660
849.483928	0.999362
849.798323	0.997616
850.112675	1.001160
850.426984	0.999956
850.741251	0.999757
851.055474	0.998855
851.369654	0.999449
851.683792	0.999127
851.997887	0.998628
852.311938	0.999047
852.625947	0.998857
852.939914	0.999228
853.253837	1.000453
853.567718	1.000471
853.881555	1.000009
854.195350	1.000236
854.509103	0.999614
854.822812	1.000510
855.136479	1.000086
855.450103	0.999298
855.763685	0.999069
856.077224	0.999392
856.390720	0.999708
856.704173	1.000411
857.017584	0.999209
857.330953	1.000470
857.644278	0.998385
857.957561	0.999901
858.270802	0.999825
858.584000	0.999961
858.897155	0.999498
859.210268	0.999133
859.523339	1.000155
859.836367	0.999887
860.149352	0.999637
860.462295	0.999788
860.775195	0.999810
861.088054	0.998533
861.400869	0.998953
861.713642	0.997842
862.026373	1.001029
862.339062	1.000809
862.651708	1.000173
862.964312	0.999779
863.276873	0.999243
863.589392	0.998849
863.901869	0.998264
864.214303	1.000201
864.526696	0.999688
864.839045	0.999584
865.151353	0.999554
865.463619	0.999194
865.775842	0.999230
866.088023	1.000239
866.400162	0.999878
866.712258	1.000604
867.024313	0.999966
867.336325	1.000254
867.648296	1.000627
867.960224	0.999743
868.272110	0.999721
868.583954	0.999141
868.895755	1.000766
869.207515	0.999254
869.519233	1.001250
869.830909	0.999126
870.142542	0.997973
870.454134	0.999589
870.765684	0.998760
871.077191	0.998979
871.388657	0.999482
871.700081	0.999326
872.011463	1.000366
872.322803	0.999706
872.634101	0.999035
872.945357	0.998995
873.256571	0.998018
873.567744	0.999407
873.878874	0.999721
874.189963	0.998716
874.501010	1.000920
874.812015	0.999978
875.122979	0.999791
875.433900	0.999636
875.744780	0.998875
876.055618	0.998021
876.366415	0.998976
876.677169	0.999067
876.987882	0.999349
877.298554	1.000583
877.609183	0.999403
877.919771	0.999763
878.230317	1.000242
878.540822	0.998463
878.851285	0.998414
879.161707	0.999485
879.472087	1.000360
879.782425	0.997213
880.092722	0.997404
880.402977	0.996985
880.713191	0.995766
881.023363	0.994882
881.333494	0.994306
881.643583	0.996134
881.953631	0.995707
882.263637	0.994876
882.573602	0.995790
882.883526	0.995055
883.193408	0.996263
883.503248	0.996415
883.813048	0.995644
884.122806	0.997247
884.432522	0.997502
884.742197	0.998884
885.051831	0.997703
885.361424	0.998017
885.670975	1.000041
885.980485	0.998953
886.289954	0.998545
886.599382	0.997954
886.908768	0.998692
887.218113	0.997872
887.527417	0.998571
887.836680	0.999830
888.145901	0.999709
888.455082	1.000428
888.764221	0.999662
889.073319	0.999475
889.382376	0.999683
889.691392	0.999072
890.000366	0.999702
890.309300	0.999087
890.618193	0.999275
890.927044	0.998936
891.235855	0.999271
891.544625	0.998965
891.853353	0.999810
892.162041	0.998820
892.470687	0.999747
892.779293	0.998744
893.087858	0.997542
893.396381	0.999446
893.704864	0.997064
894.013306	0.998223
894.321707	0.998055
894.630068	0.996471
894.938387	0.997326
895.246665	0.997152
895.554903	0.997035
895.863100	0.997759
896.171256	0.997861
896.479371	0.998431
896.787446	0.998339
897.095480	0.998011
897.403473	1.000138
897.711425	0.998446
898.019336	0.999685
898.327207	0.999091
898.635038	0.997601
898.942827	0.999472
899.250576	0.999764
899.558284	0.999378
899.865952	0.998318
900.173579	0.997926
900.481165	0.999207
900.788711	0.998619
901.096216	0.999018
901.403681	0.999471
901.711105	0.998364
902.018489	0.998048
902.325832	0.998506
902.633135	0.999481
902.940397	1.000010
903.247619	0.998008
903.554800	0.998401
903.861941	0.998771
904.169041	0.996514
904.476101	0.997376
904.783121	0.996230
905.090100	0.997793
905.397039	0.997573
905.703938	0.997403
906.010796	0.998166
906.317614	0.998352
906.624391	0.999829
906.931129	1.000296
907.237826	0.999276
907.544483	0.999547
907.851099	0.998506
908.157675	0.999070
908.464211	0.999367
908.770707	0.998636
909.077163	0.999550
909.383578	0.998504
909.689954	0.998148
909.996289	0.999589
910.302584	0.999546
910.608839	1.001266
910.915054	0.999291
911.221229	1.000677
911.527363	0.998194
911.833458	0.999515
912.139513	0.998929
912.445527	0.999348
912.751502	0.999199
913.057436	0.999428
913.363331	1.000222
913.669186	1.000257
913.975000	0.999744
914.280775	0.999621
914.586510	0.999214
914.892205	0.999042
915.197859	0.998452
915.503475	0.998247
915.809050	0.997281
916.114585	0.995851
916.420081	0.997187
916.725536	0.997802
917.030952	0.997626
917.336328	0.997057
917.641665	0.997143
917.946961	0.997768
918.252218	0.998113
918.557435	0.997670
918.862612	0.998974
919.167750	0.999085
919.472848	0.999206
919.777906	1.000116
920.082925	1.000294
920.387904	0.999427
920.692843	0.999255
920.997743	0.998155
921.302603	0.999058
921.607423	0.999576
921.912204	0.999362
922.216946	0.999501
922.521647	0.999478
922.826310	0.998471
923.130932	1.000318
923.435516	0.999444
923.740059	0.998460
924.044564	0.998069
924.349028	0.998650
924.653454	1.000583
924.957840	0.998922
925.262186	0.999415
925.566493	0.999070
925.870761	1.000001
926.174989	0.999492
926.479178	1.000095
926.783328	0.998882
927.087438	0.999558
927.391509	0.999070
927.695541	1.000185
927.999533	1.000278
928.303486	1.001248
928.607400	0.999885
928.911275	1.000189
929.215110	1.000893
929.518906	1.001009
929.822663	0.999850
930.126381	1.001179
930.430060	0.999580
930.733699	1.000779
931.037299	1.000275
931.340861	1.000499
931.644383	0.999087
931.947866	0.999511
932.251309	1.000347
932.554714	0.999419
932.858080	1.000657
933.161407	0.998723
933.464694	1.000582
933.767943	1.001008
934.071153	1.000220
934.374323	1.002158
934.677455	0.999883
934.980548	0.999287
935.283602	0.999985
935.586617	0.999666
935.889593	1.000341
936.192530	0.999806
936.495428	0.998531
936.798287	0.999674
937.101108	0.999729
937.403890	0.998527
937.706632	1.001478
938.009336	0.999976
938.312002	0.999340
938.614628	0.999468
938.917216	0.999679
939.219765	0.999830
939.522275	0.999779
939.824747	1.000068
940.127179	0.999380
940.429573	1.001162
940.731929	0.999123
941.034246	0.999221
941.336524	0.998349
941.638763	0.999234
941.940964	0.999327
942.243126	1.000502
942.545250	1.001100
942.847335	0.999651
943.149381	1.000843
943.451389	0.998821
943.753359	0.999560
944.055290	1.000907
944.357182	1.000237
944.659036	1.000380
944.960851	0.999684
945.262628	1.000584
945.564367	1.000473
945.866067	0.999528
946.167729	0.999595
946.469352	0.999663
946.770937	0.997362
947.072484	1.000593
947.373992	0.999743
947.675462	1.000179
947.976893	0.999106
948.278286	1.001492
948.579641	0.999709
948.880958	0.998298
949.182236	1.000158
949.483476	1.000710
949.784678	1.001221
950.085841	0.999172
950.386967	0.999503
950.688054	1.000642
950.989103	0.997499
951.290114	0.997909
951.591087	0.999293
951.892021	1.000177
952.192917	1.001409
952.493776	1.000305
952.794596	0.999171
953.095378	0.999557
953.396122	1.000706
953.696828	1.000191
953.997496	0.999625
954.298126	1.000678
954.598718	0.999054
954.899272	1.001130
955.199788	0.998719
955.500266	1.000555
955.800706	1.000212
956.101108	1.000075
956.401472	1.000652
956.701798	1.000080
957.002087	1.000703
957.302337	0.999098
957.602550	0.999981
957.902724	0.999243
958.202861	0.998548
958.502960	1.000192
958.803022	1.001479
959.103045	0.999257
959.403031	1.000346
959.702979	1.000521
960.002889	0.999538
960.302762	0.999069
960.602596	1.000813
960.902393	0.999010
961.202153	1.000745
961.501875	1.000062
961.801559	1.000588
962.101205	0.998545
962.400814	1.000766
962.700385	1.000494
962.999918	1.000077
963.299414	0.999431
963.598873	1.000891
963.898293	0.999681
964.197677	0.998912
964.497022	1.000170
964.796331	1.000058
965.095601	1.000460
965.394835	0.999622
965.694030	1.000911
965.993189	1.000319
966.292309	1.000497
966.591393	0.997605
966.890439	1.001104
967.189447	1.000085
967.488419	1.000402
967.787353	0.999560
968.086249	1.000055
968.385108	1.000007
968.683930	1.000634
968.982714	0.999492
969.281462	1.001106
969.580172	1.000268
969.878844	1.002114
970.177480	0.999865
970.476078	1.000972
970.774639	1.000780
971.073162	1.000679
971.371649	1.000180
971.670098	0.999532
971.968510	1.000376
972.266885	0.999857
972.565223	1.000016
972.863524	0.999475
973.161788	0.999227
973.460014	1.001152
973.758204	0.999409
974.056356	0.999797
974.354471	0.999521
974.652550	1.000190
974.950591	0.998698
975.248595	0.999957
975.546563	1.000006
975.844493	1.000799
976.142386	0.999188
976.440243	1.001035
976.738062	0.999876
977.035845	0.999741
977.333590	1.001142
977.631299	0.999182
977.928971	1.001512
978.226606	0.998853
978.524204	1.000022
978.821765	1.001524
979.119290	1.000447
979.416777	1.000898
979.714228	1.000398
980.011642	1.001069
980.309020	0.998921
980.606360	0.999018
980.903664	1.000437
981.200931	0.999415
981.498162	0.999402
981.795356	1.000191
982.092513	0.999662
982.389633	1.000593
982.686717	0.999701
982.983764	0.998561
983.280775	0.999288
983.577749	1.000147
983.874686	0.998806
984.171587	0.999167
984.468451	0.999684
984.765279	1.001066
985.062070	0.999736
985.358824	1.000114
985.655543	1.000368
985.952224	0.999999
986.248869	0.999487
986.545478	1.001062
986.842050	0.998795
987.138586	1.000269
987.435086	0.999106
987.731549	1.001925
988.027975	1.001311
988.324366	0.998773
988.620719	1.001627
988.917037	1.000211
989.213318	1.001162
989.509563	1.000382
989.805772	1.000417
990.101944	0.999616
990.398080	1.000552
990.694180	1.000797
990.990244	0.999348
991.286271	0.999987
991.582262	1.000359
991.878217	0.999618
992.174136	1.000287
992.470019	1.000942
992.765865	0.999909
993.061676	1.000320
993.357450	1.000325
993.653188	1.000801
993.948890	1.000120
994.244556	1.000332
994.540186	0.999516
994.835780	1.000041
995.131337	1.002267
995.426859	1.000160
995.722345	0.999870
996.017795	0.998772
996.313208	0.999737
996.608586	1.000482
996.903928	1.000490
997.199234	0.999959
997.494504	1.001237
997.789738	0.999377
998.084936	0.999919
998.380099	0.999187
998.675225	1.000600
998.970316	1.000687
999.265371	1.000407
999.560390	1.000102
999.855373	0.999847
1000.150320	0.999320
1000.445232	0.999841
1000.740108	0.999163
1001.034948	0.999448
1001.329752	0.998946
1001.624521	1.000629
1001.919254	0.999673
1002.213951	0.999803
1002.508613	0.999135
1002.803239	0.999203
1003.097829	1.001453
1003.392384	1.000296
1003.686903	1.000870
1003.981386	0.998837
1004.275834	1.001201
1004.570246	0.998723
1004.864623	1.000578
1005.158964	0.999328
1005.453270	1.000294
1005.747540	0.999513
1006.041775	1.000165
1006.335974	0.999679
1006.630138	1.000096
1006.924266	0.998610
1007.218359	0.997968
1007.512416	1.001015
1007.806438	0.999996
1008.100425	1.000623
1008.394376	1.000673
1008.688292	0.999576
1008.982172	1.000072
1009.276017	1.000731
1009.569827	1.001972
1009.863602	0.998635
1010.157341	1.000040
1010.451045	1.000459
1010.744714	0.999906
1011.038347	1.000478
1011.331945	0.999302
1011.625508	1.000108
1011.919036	1.000959
1012.212528	0.999871
1012.505986	1.000310
1012.799408	1.000188
1013.092795	1.000920
1013.386147	0.999834
1013.679464	1.001658
1013.972745	0.999622
1014.265992	1.000364
1014.559204	0.998557
1014.852380	1.000422
1015.145521	0.999335
1015.438628	0.999961
1015.731699	0.999897
1016.024736	1.001083
1016.317737	1.000463
1016.610703	1.001219
1016.903635	1.000039
1017.196531	0.999584
1017.489393	0.998981
1017.782219	1.000231
1018.075011	1.000803
1018.367768	0.999724
1018.660490	0.999466
1018.953177	0.999466
1019.245829	0.999466
