Dividing Wavelength (nm)	Counts (n)	Blue Motor Position (mm): 11.900000	Red Motor Position (mm): 0.000000	
326.493990	1.002830
326.888308	1.002830
327.282561	1.002830
327.676750	1.004800
328.070874	1.004420
328.464933	1.004075
328.858929	1.004788
329.252859	1.004202
329.646726	1.004035
330.040528	1.003698
330.434265	1.005228
330.827938	1.003707
331.221547	1.004942
331.615091	1.004421
332.008571	1.004754
332.401986	1.003242
332.795338	1.003799
333.188625	1.004664
333.581847	1.004455
333.975006	1.004574
334.368100	1.004136
334.761129	1.003609
335.154095	1.003882
335.546996	1.002333
335.939833	0.997467
336.332606	0.999189
336.725315	0.998794
337.117960	1.000850
337.510540	0.998220
337.903056	0.999213
338.295508	0.999736
338.687896	1.000106
339.080220	0.999509
339.472480	0.999765
339.864676	0.998901
340.256807	0.998059
340.648875	0.999863
341.040879	0.999500
341.432818	1.000155
341.824694	0.999742
342.216506	1.001267
342.608253	0.999516
342.999937	0.997733
343.391557	1.000251
343.783113	1.000416
344.174605	1.000462
344.566033	0.999750
344.957397	1.000358
345.348697	0.999938
345.739934	1.000289
346.131106	0.999731
346.522215	0.997671
346.913260	0.999742
347.304241	0.999260
347.695159	0.999022
348.086012	0.998407
348.476802	0.998449
348.867528	0.999085
349.258191	1.000794
349.648789	0.998212
350.039324	0.999595
350.429796	0.997320
350.820203	0.998454
351.210548	0.998322
351.600828	0.998180
351.991045	0.999088
352.381198	0.998445
352.771288	0.997992
353.161314	0.999533
353.551276	0.998251
353.941175	0.997547
354.331010	0.998090
354.720782	0.998986
355.110490	0.999447
355.500135	0.998895
355.889717	0.996769
356.279235	0.998301
356.668689	0.997878
357.058080	0.998733
357.447408	0.997044
357.836672	0.997978
358.225873	0.998564
358.615010	0.998521
359.004084	0.997457
359.393095	0.998390
359.782043	0.997187
360.170927	0.997588
360.559748	0.998008
360.948505	0.997796
361.337199	0.998004
361.725830	0.997898
362.114398	0.997206
362.502903	0.996013
362.891344	0.996093
363.279722	0.996861
363.668037	0.997108
364.056289	0.997335
364.444478	0.998675
364.832603	0.997426
365.220665	0.996759
365.608665	0.996272
365.996601	0.996642
366.384474	0.996447
366.772284	0.996101
367.160031	0.995291
367.547715	0.995940
367.935336	0.995143
368.322893	0.993844
368.710388	0.992432
369.097820	0.990132
369.485189	0.987978
369.872495	0.986890
370.259738	0.985818
370.646918	0.981896
371.034035	0.980610
371.421090	0.976847
371.808081	0.971598
372.195010	0.970110
372.581875	0.963380
372.968678	0.959978
373.355418	0.955629
373.742096	0.947719
374.128710	0.943651
374.515262	0.939822
374.901751	0.933374
375.288177	0.928966
375.674540	0.921691
376.060841	0.916440
376.447079	0.909422
376.833254	0.902737
377.219367	0.897850
377.605417	0.885984
377.991404	0.883126
378.377329	0.876676
378.763191	0.870404
379.148991	0.860754
379.534727	0.853851
379.920402	0.845607
380.306013	0.841892
380.691563	0.829333
381.077049	0.822198
381.462474	0.818844
381.847835	0.806653
382.233134	0.802361
382.618371	0.802914
383.003545	0.785127
383.388657	0.783678
383.773706	0.775310
384.158693	0.771282
384.543618	0.766175
384.928480	0.758245
385.313280	0.747696
385.698017	0.747110
386.082692	0.735491
386.467305	0.734649
386.851856	0.728959
387.236344	0.722913
387.620770	0.716981
388.005133	0.711849
388.389435	0.706088
388.773674	0.704322
389.157851	0.695599
389.541965	0.693461
389.926018	0.699297
390.310008	0.685973
390.693936	0.683407
391.077802	0.675398
391.461606	0.677270
391.845348	0.666066
392.229027	0.666391
392.612645	0.663535
392.996200	0.650972
393.379694	0.644518
393.763125	0.634284
394.146494	0.638991
394.529801	0.629806
394.913047	0.622049
395.296230	0.627793
395.679351	0.618988
396.062410	0.615647
396.445408	0.618416
396.828343	0.613872
397.211217	0.608282
397.594028	0.620875
397.976778	0.611210
398.359466	0.607427
398.742092	0.603076
399.124656	0.614691
399.507158	0.602874
399.889598	0.600787
400.271977	0.591976
400.654294	0.595588
401.036549	0.594806
401.418742	0.598702
401.800874	0.584647
402.182944	0.581125
402.564952	0.573234
402.946898	0.575634
403.328783	0.575726
403.710606	0.587074
404.092367	0.561789
404.474067	0.566951
404.855705	0.566051
405.237282	0.574403
405.618797	0.560953
406.000250	0.556658
406.381642	0.546762
406.762972	0.551954
407.144240	0.550731
407.525447	0.550451
407.906593	0.543163
408.287677	0.539076
408.668700	0.547225
409.049661	0.541135
409.430560	0.536287
409.811399	0.544612
410.192176	0.526253
410.572891	0.533229
410.953545	0.522080
411.334138	0.534941
411.714669	0.527653
412.095139	0.539798
412.475547	0.523454
412.855894	0.525569
413.236180	0.524417
413.616405	0.530348
413.996568	0.520219
414.376670	0.527605
414.756711	0.531802
415.136691	0.528612
415.516609	0.519318
415.896466	0.516002
416.276262	0.512223
416.655997	0.514337
417.035670	0.495762
417.415283	0.487460
417.794834	0.492282
418.174324	0.497653
418.553753	0.506554
418.933121	0.488608
419.312428	0.482510
419.691674	0.488496
420.070859	0.476801
420.449983	0.484578
420.829045	0.473811
421.208047	0.482646
421.586988	0.476369
421.965867	0.475083
422.344686	0.464135
422.723444	0.476591
423.102141	0.492932
423.480777	0.465709
423.859352	0.486770
424.237866	0.463934
424.616319	0.464601
424.994712	0.455190
425.373044	0.466079
425.751314	0.454221
426.129524	0.470851
426.507673	0.453803
426.885762	0.447333
427.263789	0.452690
427.641756	0.462558
428.019662	0.452174
428.397508	0.451995
428.775292	0.456485
429.153016	0.448082
429.530679	0.454528
429.908282	0.447956
430.285824	0.458120
430.663305	0.436333
431.040726	0.457539
431.418086	0.457235
431.795385	0.448945
432.172624	0.448472
432.549802	0.448179
432.926920	0.447196
433.303977	0.446778
433.680974	0.443963
434.057910	0.442985
434.434786	0.442356
434.811601	0.444311
435.188355	0.427318
435.565050	0.436677
435.941683	0.437698
436.318257	0.421536
436.694770	0.422538
437.071222	0.420928
437.447614	0.424646
437.823946	0.431603
438.200218	0.420827
438.576429	0.430246
438.952580	0.423121
439.328670	0.420252
439.704700	0.426813
440.080670	0.427850
440.456580	0.409467
440.832429	0.417196
441.208218	0.427868
441.583947	0.416887
441.959616	0.416406
442.335224	0.422372
442.710773	0.412993
443.086261	0.410730
443.461689	0.424801
443.837057	0.414585
444.212365	0.404738
444.587612	0.411891
444.962800	0.401463
445.337927	0.402925
445.712995	0.429465
446.088002	0.391003
446.462949	0.401864
446.837837	0.406551
447.212664	0.395300
447.587431	0.386762
447.962139	0.357034
448.336786	0.316100
448.711374	0.326789
449.085901	0.370726
449.460369	0.374957
449.834776	0.378642
450.209124	0.357906
450.583412	0.350528
450.957640	0.343691
451.331808	0.354834
451.705917	0.378513
452.079965	0.383165
452.453954	0.371473
452.827883	0.377770
453.201752	0.372611
453.575562	0.383650
453.949311	0.372519
454.323001	0.378527
454.696632	0.374832
455.070202	0.367376
455.443713	0.359137
455.817164	0.353560
456.190556	0.349656
456.563888	0.346502
456.937160	0.343639
457.310373	0.361094
457.683526	0.359964
458.056619	0.365976
458.429653	0.366295
458.802628	0.369773
459.175542	0.364393
459.548398	0.346265
459.921194	0.339470
460.293930	0.339149
460.666607	0.316551
461.039224	0.305023
461.411782	0.300477
461.784280	0.299758
462.156719	0.303839
462.529099	0.308350
462.901419	0.324379
463.273680	0.328443
463.645882	0.328186
464.018024	0.334100
464.390106	0.327123
464.762130	0.311809
465.134094	0.294407
465.505999	0.263383
465.877845	0.233744
466.249631	0.220577
466.621358	0.228252
466.993026	0.242222
467.364634	0.248348
467.736184	0.257368
468.107674	0.266057
468.479105	0.265093
468.850477	0.271878
469.221790	0.278750
469.593043	0.288881
469.964238	0.293848
470.335373	0.293073
470.706449	0.291440
471.077467	0.292151
471.448425	0.253873
471.819324	0.229354
472.190164	0.228763
472.560945	0.257751
472.931667	0.279973
473.302330	0.284456
473.672934	0.296427
474.043479	0.284134
474.413965	0.286305
474.784393	0.289945
475.154761	0.284928
475.525070	0.281542
475.895321	0.287319
476.265513	0.281742
476.635645	0.277074
477.005719	0.277297
477.375734	0.273631
477.745691	0.266653
478.115588	0.263058
478.485427	0.256378
478.855207	0.243646
479.224928	0.225784
479.594591	0.213911
479.964194	0.217262
480.333739	0.218799
480.703226	0.220175
481.072653	0.218350
481.442022	0.214133
481.811333	0.210906
482.180584	0.214007
482.549777	0.219671
482.918912	0.222695
483.287988	0.222645
483.657005	0.222365
484.025964	0.228603
484.394864	0.225885
484.763706	0.226621
485.132489	0.231810
485.501213	0.232549
485.869879	0.230798
486.238487	0.234066
486.607036	0.231858
486.975527	0.236548
487.343959	0.232460
487.712333	0.231499
488.080648	0.232822
488.448905	0.232084
488.817104	0.233131
489.185244	0.227655
489.553326	0.224862
489.921350	0.214359
490.289315	0.197033
490.657222	0.191699
491.025070	0.193343
491.392861	0.195207
491.760593	0.201157
492.128267	0.206623
492.495883	0.211931
492.863440	0.218536
493.230939	0.225070
493.598380	0.226400
493.965763	0.228457
494.333088	0.230617
494.700354	0.232210
495.067563	0.231164
495.434713	0.234934
495.801805	0.232222
496.168839	0.233893
496.535815	0.235271
496.902733	0.235402
497.269593	0.236615
497.636395	0.234192
498.003139	0.235055
498.369825	0.237847
498.736453	0.234288
499.103023	0.236021
499.469535	0.235317
499.835989	0.235410
500.202385	0.236262
500.568723	0.239415
500.935003	0.234621
501.301226	0.238997
501.667390	0.233193
502.033497	0.231295
502.399546	0.234291
502.765537	0.236121
503.131470	0.234763
503.497345	0.230910
503.863163	0.239466
504.228923	0.232745
504.594625	0.231425
504.960269	0.236818
505.325856	0.232065
505.691385	0.236604
506.056856	0.232935
506.422270	0.232383
506.787625	0.235090
507.152924	0.232411
507.518164	0.232936
507.883347	0.234529
508.248472	0.236282
508.613540	0.231170
508.978550	0.233716
509.343503	0.234394
509.708398	0.231909
510.073236	0.229405
510.438016	0.229161
510.802738	0.230562
511.167403	0.229342
511.532010	0.231697
511.896561	0.226593
512.261053	0.225450
512.625488	0.227701
512.989866	0.228069
513.354186	0.228239
513.718449	0.230215
514.082655	0.226473
514.446803	0.228702
514.810894	0.226522
515.174927	0.229053
515.538904	0.228786
515.902822	0.225391
516.266684	0.228168
516.630488	0.229260
516.994235	0.228075
517.357925	0.226867
517.721558	0.224955
518.085133	0.224782
518.448651	0.224576
518.812112	0.226965
519.175516	0.226373
519.538863	0.224275
519.902152	0.225765
520.265385	0.222728
520.628560	0.224389
520.991678	0.224753
521.354739	0.223751
521.717743	0.224965
522.080690	0.225232
522.443580	0.222584
522.806413	0.223566
523.169189	0.223489
523.531908	0.222002
523.894569	0.225628
524.257174	0.225423
524.619722	0.223275
524.982213	0.224466
525.344647	0.223301
525.707025	0.224059
526.069345	0.222073
526.431608	0.224003
526.793815	0.221959
527.155964	0.226339
527.518057	0.225397
527.880093	0.226321
528.242072	0.224862
528.603995	0.226735
528.965860	0.228480
529.327669	0.227295
529.689421	0.228331
530.051117	0.229150
530.412755	0.227023
530.774337	0.229350
531.135862	0.229640
531.497331	0.229044
531.858743	0.231755
532.220098	0.228437
532.581396	0.231199
532.942638	0.231435
533.303824	0.232576
533.664953	0.232368
534.026025	0.234451
534.387040	0.232072
534.747999	0.231947
535.108902	0.230882
535.469748	0.235906
535.830537	0.233983
536.191270	0.234225
536.551947	0.233865
536.912567	0.234267
537.273131	0.235670
537.633638	0.235976
537.994089	0.236442
538.354483	0.237220
538.714821	0.234325
539.075103	0.234024
539.435328	0.235096
539.795497	0.238701
540.155609	0.235339
540.515665	0.233653
540.875665	0.239181
541.235609	0.237889
541.595496	0.237796
541.955328	0.234560
542.315102	0.237177
542.674821	0.238073
543.034483	0.238442
543.394090	0.237859
543.753640	0.239592
544.113134	0.234566
544.472571	0.238070
544.831953	0.234909
545.191278	0.238949
545.550548	0.238709
545.909761	0.235622
546.268918	0.236383
546.628019	0.234732
546.987064	0.237379
547.346053	0.239171
547.704986	0.236955
548.063863	0.237059
548.422684	0.237427
548.781449	0.239163
549.140158	0.236796
549.498811	0.239753
549.857408	0.242670
550.215949	0.237549
550.574434	0.240653
550.932864	0.238539
551.291237	0.237180
551.649555	0.239056
552.007817	0.238646
552.366022	0.239739
552.724173	0.239424
553.082267	0.239637
553.440305	0.236598
553.798288	0.240949
554.156215	0.237722
554.514086	0.238334
554.871902	0.241468
555.229661	0.240676
555.587365	0.241320
555.945014	0.243942
556.302606	0.240740
556.660143	0.243624
557.017625	0.239877
557.375050	0.242172
557.732421	0.239089
558.089735	0.241127
558.446994	0.241263
558.804197	0.240049
559.161345	0.240124
559.518437	0.243508
559.875474	0.241988
560.232455	0.241232
560.589381	0.242205
560.946251	0.242672
561.303065	0.239957
561.659825	0.241487
562.016528	0.242980
562.373177	0.245663
562.729770	0.242757
563.086307	0.244789
563.442789	0.242898
563.799216	0.245458
564.155587	0.244470
564.511904	0.245565
564.868164	0.245913
565.224370	0.245206
565.580520	0.247148
565.936615	0.247185
566.292654	0.250323
566.648638	0.247066
567.004567	0.248006
567.360441	0.248538
567.716260	0.250613
568.072023	0.248216
568.427732	0.249073
568.783385	0.251450
569.138982	0.249757
569.494525	0.249341
569.850013	0.252212
570.205445	0.250872
570.560823	0.253031
570.916145	0.255296
571.271412	0.253742
571.626625	0.255000
571.981782	0.255628
572.336884	0.256366
572.691931	0.256275
573.046923	0.257684
573.401860	0.258597
573.756743	0.260655
574.111570	0.259194
574.466342	0.260058
574.821059	0.258950
575.175722	0.262180
575.530330	0.261830
575.884882	0.262072
576.239380	0.263985
576.593823	0.264426
576.948211	0.264073
577.302544	0.267435
577.656823	0.267135
578.011047	0.266942
578.365216	0.268135
578.719330	0.270217
579.073389	0.269528
579.427394	0.271219
579.781344	0.271752
580.135239	0.273192
580.489080	0.273216
580.842866	0.276064
581.196597	0.276538
581.550273	0.274881
581.903895	0.275971
582.257463	0.273878
582.610975	0.277717
582.964434	0.277067
583.317837	0.279622
583.671186	0.280081
584.024481	0.280170
584.377721	0.282870
584.730906	0.283838
585.084037	0.282970
585.437113	0.285031
585.790135	0.284477
586.143103	0.287348
586.496016	0.288756
586.848874	0.286384
587.201679	0.286785
587.554428	0.290513
587.907124	0.289472
588.259765	0.290375
588.612352	0.290753
588.964884	0.294971
589.317362	0.294581
589.669786	0.294760
590.022155	0.293238
590.374470	0.292737
590.726731	0.294729
591.078937	0.299984
591.431090	0.296549
591.783188	0.300734
592.135232	0.301842
592.487222	0.301576
592.839157	0.299855
593.191038	0.302523
593.542866	0.304574
593.894639	0.307733
594.246358	0.306295
594.598022	0.305888
594.949633	0.310031
595.301190	0.310788
595.652692	0.310003
596.004141	0.306776
596.355535	0.314424
596.706876	0.315772
597.058162	0.318077
597.409395	0.315758
597.760573	0.313515
598.111698	0.316888
598.462768	0.317506
598.813785	0.319170
599.164748	0.320888
599.515657	0.321623
599.866511	0.325571
600.217312	0.321050
600.568060	0.326471
600.918753	0.322838
601.269392	0.324399
601.619978	0.328319
601.970510	0.326428
602.320988	0.326533
602.671412	0.324735
603.021783	0.327656
603.372100	0.328956
603.722363	0.329320
604.072572	0.330860
604.422728	0.330861
604.772830	0.333407
605.122878	0.333483
605.472872	0.334392
605.822813	0.333329
606.172701	0.336482
606.522534	0.334038
606.872314	0.335000
607.222041	0.336397
607.571714	0.334638
607.921333	0.336859
608.270899	0.336954
608.620411	0.334413
608.969870	0.339383
609.319276	0.339813
609.668627	0.340643
610.017926	0.339613
610.367171	0.339419
610.716362	0.340083
611.065500	0.341335
611.414585	0.341190
611.763616	0.341734
612.112594	0.343612
612.461518	0.343797
612.810389	0.342229
613.159207	0.345642
613.507971	0.347925
613.856682	0.345118
614.205340	0.347074
614.553945	0.345167
614.902496	0.349760
615.250994	0.349164
615.599439	0.350541
615.947830	0.350988
616.296169	0.353499
616.644454	0.354391
616.992686	0.355328
617.340864	0.355068
617.688990	0.359382
618.037063	0.357112
618.385082	0.360343
618.733048	0.358701
619.080961	0.361852
619.428821	0.362750
619.776628	0.363881
620.124382	0.366956
620.472083	0.368914
620.819731	0.368991
621.167326	0.373718
621.514868	0.374270
621.862357	0.379610
622.209793	0.379822
622.557176	0.383571
622.904506	0.385277
623.251783	0.388685
623.599007	0.392001
623.946179	0.392225
624.293297	0.395529
624.640363	0.399862
624.987376	0.401975
625.334336	0.404920
625.681243	0.409075
626.028097	0.410463
626.374899	0.412618
626.721647	0.414659
627.068343	0.418601
627.414987	0.421230
627.761577	0.424892
628.108115	0.424127
628.454600	0.431219
628.801032	0.431031
629.147412	0.433272
629.493739	0.435786
629.840014	0.439672
630.186236	0.439004
630.532405	0.445010
630.878521	0.444774
631.224585	0.448408
631.570597	0.452780
631.916556	0.454227
632.262462	0.454935
632.608316	0.459404
632.954117	0.461134
633.299866	0.463036
633.645562	0.465560
633.991206	0.470469
634.336797	0.474005
634.682336	0.477508
635.027823	0.480008
635.373257	0.481481
635.718639	0.486473
636.063968	0.486797
636.409245	0.492807
636.754470	0.494977
637.099642	0.498237
637.444762	0.503385
637.789829	0.504099
638.134845	0.508307
638.479808	0.511114
638.824719	0.511669
639.169577	0.517179
639.514383	0.518339
639.859137	0.523113
640.203839	0.524403
640.548489	0.526633
640.893086	0.528703
641.237632	0.532606
641.582125	0.532474
641.926566	0.536756
642.270955	0.537383
642.615292	0.539874
642.959576	0.541249
643.303809	0.543017
643.647990	0.544810
643.992118	0.545868
644.336195	0.550375
644.680219	0.551465
645.024192	0.552742
645.368112	0.550684
645.711981	0.551118
646.055797	0.549860
646.399562	0.553959
646.743274	0.551723
647.086935	0.550863
647.430544	0.552666
647.774101	0.554812
648.117606	0.555765
648.461059	0.558268
648.804460	0.561929
649.147810	0.566328
649.491108	0.569524
649.834354	0.571969
650.177548	0.577625
650.520690	0.583060
650.863781	0.585533
651.206820	0.587169
651.549807	0.591933
651.892742	0.597458
652.235626	0.598234
652.578458	0.600850
652.921238	0.606962
653.263967	0.606582
653.606644	0.610120
653.949269	0.613025
654.291843	0.615599
654.634365	0.616258
654.976836	0.620369
655.319255	0.621916
655.661622	0.625757
656.003938	0.627552
656.346203	0.630016
656.688416	0.631753
657.030577	0.634636
657.372687	0.638383
657.714746	0.638899
658.056753	0.639599
658.398708	0.644064
658.740612	0.645717
659.082465	0.645947
659.424266	0.647513
659.766016	0.648761
660.107715	0.653351
660.449362	0.653860
660.790958	0.656575
661.132503	0.658931
661.473996	0.659305
661.815438	0.660861
662.156829	0.662717
662.498168	0.665441
662.839456	0.666490
663.180693	0.667752
663.521879	0.668398
663.863013	0.671557
664.204097	0.673811
664.545129	0.672070
664.886110	0.675671
665.227040	0.675965
665.567918	0.677256
665.908746	0.678954
666.249522	0.680083
666.590248	0.681589
666.930922	0.682764
667.271545	0.684885
667.612118	0.685629
667.952639	0.688326
668.293109	0.690195
668.633528	0.692645
668.973896	0.693482
669.314213	0.695340
669.654480	0.699243
669.994695	0.700159
670.334859	0.702727
670.674973	0.705245
671.015035	0.705957
671.355047	0.708904
671.695008	0.709887
672.034918	0.711877
672.374777	0.713961
672.714585	0.716153
673.054342	0.717412
673.394049	0.719055
673.733705	0.719400
674.073310	0.722988
674.412864	0.723789
674.752368	0.726999
675.091820	0.729069
675.431223	0.733091
675.770574	0.733400
676.109875	0.736400
676.449125	0.738419
676.788324	0.740776
677.127473	0.744928
677.466571	0.746933
677.805619	0.749315
678.144616	0.751843
678.483562	0.754733
678.822458	0.756714
679.161303	0.758105
679.500098	0.760999
679.838842	0.762591
680.177535	0.763926
680.516179	0.762910
680.854771	0.764799
681.193314	0.762891
681.531805	0.759745
681.870247	0.756430
682.208638	0.754640
682.546978	0.755161
682.885268	0.757917
683.223508	0.761829
683.561697	0.765159
683.899836	0.768230
684.237925	0.770805
684.575963	0.772830
684.913951	0.775650
685.251889	0.776055
685.589776	0.776268
685.927614	0.777618
686.265401	0.777456
686.603137	0.778670
686.940824	0.778248
687.278460	0.778628
687.616046	0.778479
687.953582	0.776862
688.291068	0.778221
688.628504	0.778429
688.965889	0.779921
689.303224	0.781674
689.640510	0.785446
689.977745	0.789883
690.314930	0.794078
690.652065	0.798765
690.989150	0.801261
691.326185	0.807362
691.663170	0.811087
692.000105	0.815804
692.336990	0.819391
692.673825	0.822337
693.010610	0.825436
693.347345	0.828257
693.684030	0.832186
694.020665	0.833546
694.357251	0.837956
694.693786	0.839120
695.030272	0.839611
695.366707	0.843882
695.703093	0.845955
696.039429	0.845981
696.375716	0.849137
696.711952	0.849190
697.048139	0.851811
697.384276	0.853291
697.720363	0.853473
698.056400	0.854318
698.392388	0.856085
698.728326	0.858928
699.064214	0.860185
699.400053	0.860752
699.735842	0.865850
700.071581	0.866951
700.407270	0.868188
700.742910	0.871547
701.078501	0.872749
701.414042	0.875730
701.749533	0.876492
702.084974	0.880475
702.420366	0.880521
702.755709	0.882717
703.091002	0.885216
703.426246	0.886553
703.761440	0.886503
704.096584	0.888411
704.431679	0.889712
704.766725	0.892465
705.101721	0.893541
705.436668	0.893912
705.771565	0.894519
706.106413	0.894621
706.441212	0.895833
706.775961	0.897051
707.110661	0.895150
707.445311	0.896622
707.779913	0.897887
708.114465	0.896505
708.448967	0.896462
708.783421	0.895515
709.117825	0.892758
709.452180	0.893767
709.786485	0.892515
710.120742	0.889506
710.454949	0.889272
710.789107	0.888066
711.123216	0.885116
711.457275	0.885182
711.791286	0.883386
712.125247	0.885047
712.459159	0.885412
712.793023	0.884564
713.126837	0.889403
713.460602	0.889354
713.794318	0.891273
714.127985	0.893505
714.461602	0.898517
714.795171	0.899911
715.128691	0.904147
715.462162	0.907442
715.795584	0.909138
716.128957	0.911923
716.462281	0.912841
716.795556	0.914082
717.128782	0.917350
717.461960	0.920880
717.795088	0.920685
718.128167	0.923221
718.461198	0.924539
718.794180	0.926221
719.127113	0.927686
719.459997	0.928276
719.792833	0.931189
720.125619	0.931488
720.458357	0.933204
720.791046	0.934482
721.123686	0.934985
721.456278	0.937040
721.788821	0.937219
722.121315	0.938331
722.453761	0.939415
722.786158	0.939487
723.118506	0.939511
723.450805	0.939054
723.783056	0.941163
724.115259	0.940734
724.447412	0.941625
724.779518	0.941839
725.111574	0.940895
725.443582	0.941545
725.775542	0.941731
726.107453	0.940888
726.439315	0.941060
726.771129	0.939928
727.102895	0.939491
727.434612	0.938865
727.766281	0.938289
728.097901	0.937728
728.429473	0.939045
728.760996	0.938873
729.092471	0.939731
729.423897	0.941380
729.755276	0.941526
730.086606	0.942062
730.417887	0.941130
730.749120	0.940783
731.080305	0.939953
731.411442	0.938563
731.742530	0.940451
732.073570	0.940856
732.404562	0.940577
732.735506	0.940191
733.066401	0.942318
733.397249	0.944724
733.728048	0.947444
734.058798	0.950733
734.389501	0.953284
734.720156	0.954595
735.050762	0.956906
735.381320	0.956930
735.711831	0.957143
736.042293	0.958576
736.372707	0.959595
736.703073	0.958884
737.033391	0.959382
737.363661	0.960614
737.693883	0.960161
738.024056	0.957902
738.354182	0.959653
738.684260	0.957327
739.014290	0.956573
739.344272	0.956846
739.674207	0.956498
740.004093	0.956222
740.333931	0.956103
740.663722	0.956102
740.993464	0.957185
741.323159	0.957538
741.652806	0.959615
741.982405	0.960841
742.311956	0.962437
742.641460	0.962889
742.970915	0.963261
743.300323	0.964074
743.629683	0.965666
743.958996	0.967557
744.288260	0.967762
744.617477	0.969071
744.946647	0.969522
745.275768	0.970801
745.604842	0.970609
745.933869	0.970831
746.262847	0.973716
746.591778	0.971237
746.920662	0.973302
747.249498	0.974234
747.578286	0.974149
747.907027	0.973487
748.235720	0.971849
748.564365	0.972119
748.892963	0.972157
749.221514	0.972771
749.550017	0.973201
749.878473	0.972773
750.206881	0.975210
750.535242	0.974437
750.863555	0.974280
751.191821	0.974810
751.520039	0.975946
751.848210	0.973752
752.176334	0.974706
752.504411	0.975688
752.832440	0.975868
753.160421	0.976806
753.488356	0.977429
753.816243	0.975970
754.144082	0.976428
754.471875	0.977981
754.799620	0.977943
755.127318	0.977591
755.454969	0.977542
755.782572	0.978916
756.110129	0.977932
756.437638	0.980282
756.765100	0.978753
757.092515	0.978303
757.419882	0.977425
757.747203	0.978067
758.074477	0.979984
758.401703	0.978958
758.728882	0.978783
759.056014	0.976958
759.383099	0.977226
759.710138	0.976785
760.037129	0.977209
760.364073	0.978622
760.690970	0.978124
761.017820	0.977790
761.344623	0.978849
761.671379	0.978818
761.998088	0.977392
762.324751	0.975927
762.651366	0.973419
762.977935	0.966078
763.304456	0.962684
763.630931	0.959775
763.957359	0.962512
764.283740	0.967440
764.610074	0.971056
764.936362	0.973096
765.262602	0.975937
765.588796	0.978540
765.914943	0.978943
766.241044	0.981116
766.567097	0.981349
766.893104	0.982363
767.219064	0.982914
767.544978	0.983388
767.870845	0.985824
768.196665	0.983996
768.522438	0.985344
768.848165	0.985517
769.173846	0.986422
769.499479	0.986747
769.825066	0.987382
770.150607	0.988199
770.476101	0.987936
770.801548	0.988096
771.126949	0.989321
771.452303	0.988789
771.777611	0.989621
772.102872	0.988532
772.428087	0.987948
772.753256	0.989071
773.078378	0.990378
773.403453	0.989259
773.728482	0.991669
774.053465	0.990330
774.378401	0.990263
774.703291	0.991112
775.028135	0.991800
775.352932	0.989436
775.677683	0.991586
776.002388	0.991575
776.327046	0.991135
776.651658	0.993474
776.976224	0.991814
777.300743	0.991139
777.625216	0.991925
777.949643	0.993170
778.274024	0.992360
778.598359	0.991755
778.922647	0.991832
779.246889	0.992542
779.571086	0.992661
779.895236	0.992177
780.219339	0.993027
780.543397	0.992079
780.867409	0.992616
781.191374	0.992032
781.515294	0.993286
781.839167	0.993026
782.162995	0.992673
782.486776	0.991735
782.810511	0.992718
783.134201	0.994938
783.457844	0.993439
783.781441	0.992794
784.104993	0.993664
784.428498	0.992681
784.751958	0.994190
785.075372	0.994479
785.398739	0.992538
785.722061	0.992797
786.045337	0.993781
786.368568	0.993005
786.691752	0.993993
787.014891	0.993213
787.337983	0.991628
787.661030	0.991292
787.984031	0.991313
788.306987	0.990343
788.629897	0.988625
788.952760	0.990539
789.275579	0.991421
789.598351	0.992026
789.921078	0.992880
790.243759	0.993091
790.566395	0.992942
790.888984	0.993736
791.211529	0.993693
791.534027	0.993745
791.856480	0.993576
792.178888	0.994213
792.501249	0.994381
792.823566	0.995477
793.145836	0.994632
793.468062	0.994554
793.790241	0.995870
794.112375	0.994271
794.434464	0.994398
794.756507	0.994859
795.078505	0.994227
795.400457	0.993691
795.722364	0.994607
796.044226	0.992605
796.366042	0.991972
796.687812	0.991643
797.009538	0.992677
797.331218	0.994113
797.652852	0.994142
797.974442	0.993330
798.295986	0.994215
798.617484	0.993258
798.938938	0.994162
799.260346	0.993917
799.581709	0.993364
799.903026	0.995335
800.224299	0.994334
800.545526	0.994233
800.866708	0.995127
801.187845	0.995078
801.508936	0.995339
801.829983	0.994525
802.150984	0.995666
802.471940	0.996291
802.792851	0.995234
803.113717	0.997396
803.434538	0.995833
803.755314	0.996093
804.076045	0.996705
804.396731	0.995247
804.717372	0.993864
805.037967	0.995871
805.358518	0.995854
805.679024	0.995092
805.999485	0.995067
806.319901	0.995809
806.640272	0.996490
806.960598	0.996036
807.280879	0.995725
807.601115	0.996124
807.921306	0.996313
808.241453	0.995274
808.561554	0.995979
808.881611	0.996314
809.201623	0.995441
809.521590	0.995264
809.841513	0.996118
810.161390	0.994726
810.481223	0.994830
810.801011	0.995615
811.120755	0.997142
811.440453	0.994708
811.760107	0.996007
812.079716	0.995306
812.399281	0.995628
812.718801	0.997214
813.038276	0.996318
813.357707	0.997173
813.677093	0.997002
813.996434	0.997181
814.315731	0.997555
814.634983	0.996820
814.954191	0.996218
815.273354	0.996224
815.592473	0.996371
815.911547	0.995789
816.230577	0.994912
816.549562	0.995678
816.868502	0.994782
817.187399	0.996177
817.506250	0.995785
817.825058	0.994501
818.143821	0.994801
818.462539	0.994172
818.781213	0.994360
819.099843	0.993859
819.418429	0.992846
819.736970	0.991055
820.055466	0.989428
820.373919	0.989630
820.692327	0.987374
821.010691	0.985271
821.329011	0.980114
821.647286	0.972563
821.965517	0.965292
822.283704	0.958693
822.601847	0.956255
822.919945	0.957852
823.237999	0.963446
823.556010	0.966189
823.873976	0.969813
824.191897	0.973678
824.509775	0.977394
824.827609	0.979572
825.145398	0.981654
825.463144	0.982242
825.780845	0.982795
826.098502	0.981441
826.416116	0.979493
826.733685	0.976408
827.051210	0.973036
827.368692	0.973912
827.686129	0.975985
828.003522	0.980735
828.320872	0.981944
828.638177	0.985059
828.955439	0.988175
829.272656	0.990255
829.589830	0.989426
829.906960	0.992887
830.224046	0.992740
830.541088	0.992978
830.858086	0.993155
831.175041	0.995683
831.491952	0.993335
831.808819	0.993221
832.125642	0.993473
832.442421	0.994185
832.759157	0.993082
833.075849	0.988450
833.392497	0.986369
833.709101	0.982759
834.025662	0.982548
834.342179	0.984186
834.658653	0.987689
834.975083	0.989293
835.291469	0.990377
835.607811	0.992347
835.924110	0.991422
836.240366	0.994402
836.556578	0.994786
836.872746	0.995409
837.188871	0.995282
837.504952	0.996330
837.820990	0.996939
838.136984	0.997324
838.452935	0.997090
838.768842	0.997240
839.084706	0.996897
839.400526	0.995626
839.716303	0.991502
840.032037	0.992072
840.347727	0.990849
840.663373	0.991507
840.978977	0.993246
841.294537	0.995833
841.610054	0.996082
841.925527	0.996657
842.240957	0.997136
842.556344	0.997791
842.871687	0.998052
843.186987	0.998337
843.502244	0.998782
843.817458	0.997515
844.132629	0.997643
844.447756	0.999708
844.762840	0.999265
845.077881	0.999761
845.392879	0.997788
845.707833	0.998895
846.022745	0.999575
846.337613	0.998527
846.652438	0.998884
846.967221	0.999038
847.281960	0.998937
847.596656	0.998380
847.911309	0.999459
848.225919	0.999034
848.540485	0.998735
848.855009	1.000148
849.169490	0.998680
849.483928	0.999346
849.798323	0.998189
850.112675	0.999993
850.426984	1.000461
850.741251	0.999344
851.055474	0.999655
851.369654	0.999980
851.683792	0.999305
851.997887	0.999169
852.311938	0.999843
852.625947	0.997610
852.939914	0.999591
853.253837	0.999321
853.567718	1.000744
853.881555	0.999909
854.195350	0.999224
854.509103	0.998620
854.822812	0.999098
855.136479	0.999519
855.450103	1.000012
855.763685	0.999170
856.077224	0.999353
856.390720	0.999214
856.704173	0.999246
857.017584	0.999554
857.330953	0.999087
857.644278	0.999832
857.957561	0.998728
858.270802	0.998721
858.584000	0.999218
858.897155	0.997637
859.210268	0.999312
859.523339	0.999783
859.836367	0.998854
860.149352	0.998700
860.462295	0.998754
860.775195	0.998792
861.088054	0.997501
861.400869	0.999234
861.713642	0.998608
862.026373	0.999256
862.339062	0.999179
862.651708	0.998779
862.964312	0.999506
863.276873	0.998316
863.589392	0.999201
863.901869	0.999376
864.214303	0.999020
864.526696	0.998722
864.839045	0.999469
865.151353	0.999300
865.463619	0.997934
865.775842	0.997888
866.088023	1.000380
866.400162	0.999021
866.712258	0.999989
867.024313	0.999224
867.336325	0.999834
867.648296	0.999157
867.960224	0.999048
868.272110	0.999220
868.583954	0.999088
868.895755	0.999426
869.207515	0.997350
869.519233	0.998447
869.830909	0.997890
870.142542	0.997787
870.454134	0.998982
870.765684	0.997751
871.077191	0.998167
871.388657	0.998564
871.700081	0.998686
872.011463	0.999417
872.322803	0.997452
872.634101	0.997124
872.945357	0.997687
873.256571	0.997326
873.567744	0.998233
873.878874	0.997903
874.189963	0.996839
874.501010	0.999033
874.812015	0.997416
875.122979	0.997230
875.433900	0.998182
875.744780	0.997408
876.055618	0.996642
876.366415	0.997790
876.677169	0.997143
876.987882	0.997547
877.298554	0.997672
877.609183	0.997358
877.919771	0.997336
878.230317	0.996736
878.540822	0.996099
878.851285	0.996071
879.161707	0.995380
879.472087	0.995128
879.782425	0.991670
880.092722	0.989052
880.402977	0.985245
880.713191	0.980384
881.023363	0.973429
881.333494	0.969453
881.643583	0.968973
881.953631	0.968435
882.263637	0.968827
882.573602	0.971125
882.883526	0.974017
883.193408	0.978443
883.503248	0.979990
883.813048	0.982809
884.122806	0.985329
884.432522	0.986647
884.742197	0.988554
885.051831	0.989970
885.361424	0.990977
885.670975	0.993190
885.980485	0.993011
886.289954	0.993607
886.599382	0.993578
886.908768	0.994561
887.218113	0.994118
887.527417	0.995257
887.836680	0.996169
888.145901	0.996564
888.455082	0.997875
888.764221	0.996942
889.073319	0.997342
889.382376	0.997066
889.691392	0.995096
890.000366	0.997803
890.309300	0.997142
890.618193	0.997718
890.927044	0.996755
891.235855	0.996741
891.544625	0.995970
891.853353	0.996970
892.162041	0.996646
892.470687	0.997529
892.779293	0.995079
893.087858	0.994046
893.396381	0.994657
893.704864	0.993439
894.013306	0.990462
894.321707	0.988994
894.630068	0.985665
894.938387	0.985381
895.246665	0.985468
895.554903	0.986586
895.863100	0.987932
896.171256	0.989396
896.479371	0.991363
896.787446	0.992235
897.095480	0.992868
897.403473	0.993929
897.711425	0.994454
898.019336	0.994782
898.327207	0.995660
898.635038	0.994372
898.942827	0.996125
899.250576	0.995885
899.558284	0.997078
899.865952	0.996174
900.173579	0.997203
900.481165	0.997568
900.788711	0.996638
901.096216	0.997467
901.403681	0.997508
901.711105	0.997607
902.018489	0.996736
902.325832	0.996365
902.633135	0.997033
902.940397	0.997798
903.247619	0.995810
903.554800	0.993438
903.861941	0.988993
904.169041	0.983962
904.476101	0.982359
904.783121	0.981499
905.090100	0.983136
905.397039	0.985440
905.703938	0.987679
906.010796	0.989280
906.317614	0.991937
906.624391	0.995139
906.931129	0.995793
907.237826	0.995630
907.544483	0.997433
907.851099	0.995884
908.157675	0.996972
908.464211	0.998424
908.770707	0.996371
909.077163	0.997702
909.383578	0.999235
909.689954	0.997771
909.996289	0.998018
910.302584	0.999132
910.608839	0.998990
910.915054	0.998738
911.221229	0.999641
911.527363	0.998525
911.833458	0.998467
912.139513	0.998824
912.445527	0.998092
912.751502	0.999212
913.057436	0.997264
913.363331	0.998601
913.669186	0.998323
913.975000	0.996909
914.280775	0.996302
914.586510	0.995198
914.892205	0.993263
915.197859	0.991393
915.503475	0.989266
915.809050	0.985957
916.114585	0.983126
916.420081	0.981759
916.725536	0.983304
917.030952	0.984397
917.336328	0.985453
917.641665	0.986493
917.946961	0.988945
918.252218	0.990591
918.557435	0.991134
918.862612	0.993110
919.167750	0.993968
919.472848	0.994739
919.777906	0.996811
920.082925	0.996382
920.387904	0.995345
920.692843	0.996618
920.997743	0.996489
921.302603	0.997011
921.607423	0.997155
921.912204	0.998583
922.216946	0.998780
922.521647	0.998319
922.826310	0.997323
923.130932	0.999407
923.435516	0.998378
923.740059	0.999055
924.044564	0.999025
924.349028	0.998404
924.653454	0.998850
924.957840	0.999145
925.262186	0.999836
925.566493	0.998197
925.870761	0.999121
926.174989	0.999962
926.479178	1.000799
926.783328	0.999498
927.087438	1.000028
927.391509	0.999596
927.695541	1.000135
927.999533	1.000497
928.303486	0.999757
928.607400	0.999715
928.911275	1.000255
929.215110	1.000572
929.518906	0.999717
929.822663	1.001772
930.126381	1.001067
930.430060	0.999685
930.733699	1.001249
931.037299	0.999819
931.340861	1.000698
931.644383	0.999308
931.947866	0.999436
932.251309	1.001014
932.554714	1.000016
932.858080	0.999586
933.161407	1.000352
933.464694	1.000022
933.767943	1.001874
934.071153	0.999629
934.374323	1.002084
934.677455	1.000341
934.980548	1.000188
935.283602	1.000928
935.586617	0.998256
935.889593	1.002250
936.192530	1.001073
936.495428	1.000082
936.798287	0.999632
937.101108	1.000606
937.403890	0.999391
937.706632	1.000462
938.009336	0.999700
938.312002	0.998511
938.614628	0.999671
938.917216	0.999726
939.219765	0.999203
939.522275	0.999515
939.824747	1.000109
940.127179	0.999245
940.429573	0.999983
940.731929	0.999134
941.034246	0.999582
941.336524	0.997836
941.638763	0.999829
941.940964	0.998830
942.243126	0.999166
942.545250	0.999787
942.847335	0.999758
943.149381	1.001632
943.451389	1.000368
943.753359	0.999862
944.055290	0.999999
944.357182	0.999888
944.659036	1.000218
944.960851	0.999971
945.262628	1.000198
945.564367	1.000277
945.866067	1.000032
946.167729	1.000619
946.469352	1.000149
946.770937	0.997628
947.072484	1.001270
947.373992	1.001081
947.675462	0.999511
947.976893	0.999641
948.278286	1.001035
948.579641	1.001086
948.880958	1.000197
949.182236	1.001116
949.483476	1.000855
949.784678	1.000696
950.085841	0.999973
950.386967	0.999882
950.688054	1.001006
950.989103	1.000317
951.290114	0.999810
951.591087	1.001751
951.892021	1.000653
952.192917	1.000299
952.493776	0.999950
952.794596	0.999580
953.095378	0.999422
953.396122	0.999793
953.696828	1.000826
953.997496	1.001229
954.298126	1.001041
954.598718	0.999973
954.899272	1.000670
955.199788	1.000349
955.500266	1.001878
955.800706	1.001270
956.101108	0.999628
956.401472	1.002351
956.701798	1.000428
957.002087	1.000272
957.302337	1.000246
957.602550	1.000752
957.902724	1.001345
958.202861	1.000817
958.502960	1.000383
958.803022	1.002342
959.103045	1.001090
959.403031	1.001896
959.702979	1.000471
960.002889	1.001014
960.302762	1.000732
960.602596	1.002136
960.902393	1.001954
961.202153	1.001559
961.501875	1.001851
961.801559	1.001868
962.101205	1.001071
962.400814	1.002280
962.700385	1.001856
962.999918	1.001550
963.299414	1.000599
963.598873	1.002613
963.898293	1.002280
964.197677	1.001244
964.497022	1.001650
964.796331	1.001914
965.095601	1.002756
965.394835	1.001245
965.694030	1.002719
965.993189	1.001822
966.292309	1.002111
966.591393	1.000279
966.890439	1.001770
967.189447	1.000696
967.488419	1.001351
967.787353	1.000554
968.086249	1.003054
968.385108	1.001072
968.683930	1.001847
968.982714	1.003152
969.281462	1.001893
969.580172	1.001256
969.878844	1.002260
970.177480	1.002724
970.476078	1.003542
970.774639	1.002601
971.073162	1.001083
971.371649	1.001119
971.670098	1.001892
971.968510	1.002319
972.266885	1.000504
972.565223	1.001866
972.863524	1.001493
973.161788	1.002248
973.460014	1.003536
973.758204	1.000187
974.056356	1.001334
974.354471	1.001530
974.652550	1.001598
974.950591	1.001099
975.248595	1.001029
975.546563	1.002003
975.844493	1.002638
976.142386	1.001160
976.440243	1.002089
976.738062	1.001750
977.035845	1.000264
977.333590	1.002893
977.631299	1.001741
977.928971	1.002126
978.226606	1.001210
978.524204	1.000848
978.821765	1.002165
979.119290	1.002648
979.416777	1.002024
979.714228	1.001467
980.011642	1.002363
980.309020	1.001865
980.606360	1.001927
980.903664	1.001896
981.200931	1.000880
981.498162	1.001563
981.795356	1.000797
982.092513	1.002838
982.389633	1.001666
982.686717	1.000612
982.983764	1.000022
983.280775	1.000236
983.577749	1.001252
983.874686	0.999962
984.171587	1.000300
984.468451	1.001411
984.765279	1.002163
985.062070	1.002232
985.358824	1.000384
985.655543	1.001853
985.952224	1.002408
986.248869	1.002647
986.545478	1.002665
986.842050	1.001196
987.138586	1.001188
987.435086	1.002817
987.731549	1.003436
988.027975	1.003415
988.324366	1.001637
988.620719	1.002720
988.917037	1.003174
989.213318	1.002410
989.509563	1.002231
989.805772	1.003487
990.101944	1.003367
990.398080	1.002699
990.694180	1.003064
990.990244	1.001113
991.286271	1.001019
991.582262	1.003119
991.878217	1.002516
992.174136	1.003286
992.470019	1.002258
992.765865	1.004672
993.061676	1.002343
993.357450	1.002174
993.653188	1.002620
993.948890	1.001662
994.244556	1.001631
994.540186	1.001943
994.835780	1.000991
995.131337	1.002715
995.426859	1.003008
995.722345	1.003129
996.017795	1.001615
996.313208	1.001439
996.608586	1.001941
996.903928	1.002488
997.199234	1.002638
997.494504	1.002563
997.789738	1.000574
998.084936	1.001965
998.380099	1.002494
998.675225	1.002991
998.970316	1.003351
999.265371	1.003291
999.560390	1.003255
999.855373	1.002836
1000.150320	1.001748
1000.445232	1.002976
1000.740108	1.001542
1001.034948	1.002384
1001.329752	1.003122
1001.624521	1.002371
1001.919254	1.002989
1002.213951	1.002382
1002.508613	1.001705
1002.803239	1.001773
1003.097829	1.002917
1003.392384	1.002244
1003.686903	1.002342
1003.981386	1.002769
1004.275834	1.003046
1004.570246	1.000884
1004.864623	1.003132
1005.158964	1.002173
1005.453270	1.001758
1005.747540	1.003823
1006.041775	1.003489
1006.335974	1.002918
1006.630138	1.003639
1006.924266	1.001036
1007.218359	1.001403
1007.512416	1.004088
1007.806438	1.003673
1008.100425	1.002713
1008.394376	1.002771
1008.688292	1.003179
1008.982172	1.002417
1009.276017	1.002817
1009.569827	1.003362
1009.863602	1.002034
1010.157341	1.002703
1010.451045	1.002381
1010.744714	1.003531
1011.038347	1.003297
1011.331945	1.001712
1011.625508	1.003732
1011.919036	1.001973
1012.212528	1.003620
1012.505986	1.003078
1012.799408	1.003433
1013.092795	1.003327
1013.386147	1.002501
1013.679464	1.004836
1013.972745	1.003763
1014.265992	1.002739
1014.559204	1.002456
1014.852380	1.003060
1015.145521	1.002670
1015.438628	1.003357
1015.731699	1.002743
1016.024736	1.004212
1016.317737	1.002866
1016.610703	1.003683
1016.903635	1.002748
1017.196531	1.002411
1017.489393	1.002614
1017.782219	1.002910
1018.075011	1.002560
1018.367768	1.002440
1018.660490	1.002559
1018.953177	1.002559
1019.245829	1.002559
