Dividing Wavelength (nm)	Counts (n)	Blue Motor Position (mm): 42.700000	Red Motor Position (mm): 0.000000	
326.493990	1.000306
326.888308	1.000306
327.282561	1.000306
327.676750	1.000423
328.070874	1.000188
328.464933	1.001063
328.858929	1.000429
329.252859	0.998305
329.646726	0.999763
330.040528	0.999661
330.434265	1.000302
330.827938	0.998657
331.221547	1.000313
331.615091	1.000615
332.008571	1.001637
332.401986	0.999304
332.795338	0.999808
333.188625	1.000727
333.581847	0.999432
333.975006	1.001170
334.368100	1.000653
334.761129	0.999423
335.154095	1.000386
335.546996	1.000083
335.939833	0.998575
336.332606	1.000809
336.725315	0.998582
337.117960	1.000574
337.510540	0.999508
337.903056	1.000226
338.295508	1.000314
338.687896	1.000883
339.080220	1.000461
339.472480	0.999688
339.864676	1.000625
340.256807	0.998119
340.648875	1.001235
341.040879	1.000618
341.432818	0.999352
341.824694	0.999379
342.216506	1.000804
342.608253	1.000116
342.999937	0.999039
343.391557	0.999808
343.783113	1.001396
344.174605	1.000042
344.566033	0.999614
344.957397	0.999054
345.348697	1.000692
345.739934	1.000680
346.131106	0.999381
346.522215	0.998123
346.913260	0.998992
347.304241	0.998682
347.695159	0.999456
348.086012	0.999933
348.476802	0.999861
348.867528	0.998513
349.258191	1.000723
349.648789	1.000223
350.039324	0.999945
350.429796	0.998858
350.820203	0.998758
351.210548	0.999813
351.600828	0.999308
351.991045	0.999979
352.381198	1.000263
352.771288	0.999251
353.161314	0.999229
353.551276	0.999268
353.941175	0.998003
354.331010	1.000637
354.720782	0.997800
355.110490	0.999323
355.500135	0.998482
355.889717	0.998582
356.279235	0.998787
356.668689	0.999753
357.058080	0.999236
357.447408	0.999090
357.836672	0.998918
358.225873	0.999100
358.615010	0.998813
359.004084	0.998251
359.393095	0.999277
359.782043	0.998630
360.170927	0.998968
360.559748	0.999657
360.948505	0.998742
361.337199	0.999961
361.725830	0.999798
362.114398	0.997844
362.502903	0.997900
362.891344	0.997741
363.279722	0.998566
363.668037	0.999627
364.056289	0.998828
364.444478	0.999579
364.832603	0.998449
365.220665	0.999202
365.608665	0.997520
365.996601	0.998287
366.384474	0.996994
366.772284	0.999218
367.160031	0.997249
367.547715	0.997247
367.935336	0.996708
368.322893	0.995922
368.710388	0.994971
369.097820	0.992096
369.485189	0.989219
369.872495	0.989506
370.259738	0.986971
370.646918	0.984412
371.034035	0.981464
371.421090	0.979155
371.808081	0.972761
372.195010	0.971793
372.581875	0.966028
372.968678	0.962315
373.355418	0.957501
373.742096	0.951734
374.128710	0.946860
374.515262	0.942227
374.901751	0.936540
375.288177	0.931686
375.674540	0.925310
376.060841	0.919197
376.447079	0.912214
376.833254	0.906148
377.219367	0.901194
377.605417	0.890238
377.991404	0.886026
378.377329	0.880570
378.763191	0.873953
379.148991	0.866396
379.534727	0.858437
379.920402	0.850629
380.306013	0.847889
380.691563	0.836729
381.077049	0.831092
381.462474	0.828687
381.847835	0.818919
382.233134	0.817405
382.618371	0.819680
383.003545	0.806073
383.388657	0.806914
383.773706	0.802250
384.158693	0.802697
384.543618	0.801825
384.928480	0.797184
385.313280	0.792451
385.698017	0.795721
386.082692	0.790965
386.467305	0.793974
386.851856	0.795252
387.236344	0.796007
387.620770	0.796871
388.005133	0.798978
388.389435	0.800776
388.773674	0.805180
389.157851	0.805762
389.541965	0.810418
389.926018	0.821461
390.310008	0.820303
390.693936	0.825144
391.077802	0.827704
391.461606	0.835290
391.845348	0.837422
392.229027	0.844463
392.612645	0.851641
392.996200	0.852399
393.379694	0.856850
393.763125	0.861190
394.146494	0.870179
394.529801	0.874615
394.913047	0.879376
395.296230	0.888515
395.679351	0.892206
396.062410	0.899295
396.445408	0.907430
396.828343	0.913418
397.211217	0.918709
397.594028	0.926340
397.976778	0.931859
398.359466	0.936629
398.742092	0.942066
399.124656	0.946688
399.507158	0.950293
399.889598	0.956189
400.271977	0.958923
400.654294	0.962930
401.036549	0.967374
401.418742	0.970189
401.800874	0.972785
402.182944	0.974853
402.564952	0.977466
402.946898	0.980257
403.328783	0.983654
403.710606	0.985188
404.092367	0.986548
404.474067	0.989114
404.855705	0.990154
405.237282	0.991016
405.618797	0.992084
406.000250	0.992658
406.381642	0.993293
406.762972	0.995194
407.144240	0.996511
407.525447	0.994476
407.906593	0.995764
408.287677	0.996380
408.668700	0.997592
409.049661	0.997441
409.430560	0.997133
409.811399	0.997038
410.192176	0.997937
410.572891	0.999502
410.953545	0.998741
411.334138	0.998629
411.714669	0.998255
412.095139	0.999022
412.475547	0.999088
412.855894	0.999331
413.236180	0.997979
413.616405	0.998639
413.996568	0.999345
414.376670	0.998951
414.756711	0.998562
415.136691	0.999559
415.516609	0.998401
415.896466	0.999643
416.276262	0.998697
416.655997	0.998622
417.035670	0.999300
417.415283	0.999485
417.794834	0.999560
418.174324	0.999810
418.553753	0.999508
418.933121	0.999266
419.312428	0.999517
419.691674	0.999740
420.070859	0.999572
420.449983	0.999610
420.829045	0.999366
421.208047	0.999906
421.586988	0.999415
421.965867	0.998741
422.344686	1.000078
422.723444	0.998603
423.102141	0.999320
423.480777	0.999482
423.859352	0.998626
424.237866	0.999283
424.616319	0.999780
424.994712	0.999704
425.373044	1.000276
425.751314	1.000131
426.129524	1.000535
426.507673	0.999214
426.885762	0.999588
427.263789	0.998959
427.641756	0.999403
428.019662	0.999276
428.397508	0.999602
428.775292	0.999779
429.153016	0.999903
429.530679	0.999263
429.908282	1.000079
430.285824	0.999468
430.663305	0.999771
431.040726	0.999998
431.418086	1.000012
431.795385	0.999548
432.172624	1.000388
432.549802	1.000073
432.926920	0.999890
433.303977	1.000010
433.680974	1.000116
434.057910	0.999730
434.434786	0.998842
434.811601	1.000062
435.188355	1.000052
435.565050	0.999849
435.941683	0.999152
436.318257	0.998871
436.694770	0.999488
437.071222	1.000266
437.447614	1.000010
437.823946	1.000485
438.200218	0.998986
438.576429	0.999378
438.952580	0.999663
439.328670	0.999221
439.704700	0.999134
440.080670	0.999627
440.456580	0.999918
440.832429	0.999995
441.208218	0.999997
441.583947	0.999989
441.959616	0.999455
442.335224	1.000316
442.710773	1.000420
443.086261	1.000099
443.461689	0.998713
443.837057	0.999560
444.212365	1.000618
444.587612	1.000835
444.962800	0.999834
445.337927	1.000215
445.712995	0.999417
446.088002	0.999875
446.462949	0.999848
446.837837	1.001643
447.212664	1.000008
447.587431	1.000454
447.962139	0.999587
448.336786	0.999643
448.711374	0.999709
449.085901	0.999755
449.460369	0.999445
449.834776	0.999318
450.209124	1.000447
450.583412	0.999913
450.957640	0.999230
451.331808	0.999529
451.705917	0.999265
452.079965	1.000717
452.453954	1.000554
452.827883	1.000069
453.201752	1.000517
453.575562	0.999802
453.949311	1.000054
454.323001	0.999496
454.696632	0.999671
455.070202	1.000221
455.443713	0.999492
455.817164	1.000079
456.190556	1.000203
456.563888	1.001065
456.937160	0.999454
457.310373	0.999513
457.683526	1.000289
458.056619	0.999922
458.429653	0.998990
458.802628	0.998953
459.175542	1.000160
459.548398	1.000112
459.921194	1.000570
460.293930	1.000441
460.666607	1.000627
461.039224	0.999832
461.411782	0.999780
461.784280	0.999694
462.156719	1.000617
462.529099	1.000446
462.901419	1.000082
463.273680	0.999597
463.645882	0.999410
464.018024	0.999944
464.390106	0.999938
464.762130	0.999756
465.134094	0.999881
465.505999	1.000038
465.877845	0.999711
466.249631	0.998989
466.621358	0.999400
466.993026	0.999610
467.364634	0.999843
467.736184	0.999738
468.107674	0.999429
468.479105	0.999653
468.850477	0.999642
469.221790	0.999940
469.593043	0.999223
469.964238	0.999649
470.335373	0.999928
470.706449	0.999937
471.077467	0.999792
471.448425	0.999812
471.819324	0.999708
472.190164	1.000312
472.560945	1.000484
472.931667	1.000395
473.302330	1.000353
473.672934	1.000444
474.043479	0.999332
474.413965	1.000212
474.784393	1.000782
475.154761	0.999003
475.525070	0.999856
475.895321	1.000118
476.265513	1.001024
476.635645	1.000910
477.005719	1.000924
477.375734	0.999972
477.745691	0.999635
478.115588	0.999232
478.485427	0.999620
478.855207	1.000167
479.224928	1.000309
479.594591	1.000293
479.964194	0.999293
480.333739	0.999950
480.703226	0.999534
481.072653	0.999574
481.442022	1.000661
481.811333	1.000095
482.180584	0.999811
482.549777	0.999557
482.918912	1.000323
483.287988	1.000456
483.657005	0.999816
484.025964	1.000252
484.394864	1.000110
484.763706	0.999054
485.132489	0.999805
485.501213	1.000080
485.869879	0.999839
486.238487	0.998995
486.607036	0.999808
486.975527	0.999650
487.343959	0.999258
487.712333	1.000054
488.080648	0.999749
488.448905	1.000389
488.817104	0.999601
489.185244	0.999583
489.553326	1.000055
489.921350	0.999426
490.289315	0.999828
490.657222	0.999363
491.025070	1.000626
491.392861	1.000137
491.760593	0.999894
492.128267	0.999802
492.495883	0.999328
492.863440	1.000087
493.230939	0.999967
493.598380	1.000173
493.965763	0.999161
494.333088	0.999322
494.700354	0.999749
495.067563	0.999438
495.434713	0.999727
495.801805	1.000125
496.168839	1.000230
496.535815	1.000604
496.902733	0.999892
497.269593	0.999444
497.636395	0.999079
498.003139	0.999827
498.369825	1.000466
498.736453	0.999763
499.103023	0.999832
499.469535	1.000026
499.835989	1.000268
500.202385	0.999893
500.568723	0.999252
500.935003	0.999436
501.301226	1.000319
501.667390	0.999680
502.033497	0.999640
502.399546	0.999456
502.765537	0.999390
503.131470	0.999523
503.497345	0.999687
503.863163	0.999564
504.228923	0.999740
504.594625	0.999145
504.960269	0.999959
505.325856	1.000444
505.691385	0.999969
506.056856	0.999890
506.422270	1.000230
506.787625	0.999530
507.152924	0.999718
507.518164	1.000125
507.883347	1.000078
508.248472	0.999585
508.613540	0.999644
508.978550	0.999994
509.343503	0.999810
509.708398	1.000649
510.073236	1.000162
510.438016	0.999337
510.802738	0.999916
511.167403	0.999801
511.532010	1.000039
511.896561	0.999814
512.261053	0.999835
512.625488	0.999856
512.989866	1.000101
513.354186	0.999532
513.718449	0.999987
514.082655	0.999065
514.446803	0.999595
514.810894	0.999935
515.174927	1.000059
515.538904	1.000017
515.902822	1.000222
516.266684	0.999713
516.630488	1.000337
516.994235	1.000209
517.357925	1.000599
517.721558	0.999688
518.085133	1.000162
518.448651	0.999839
518.812112	1.000246
519.175516	0.999607
519.538863	0.999123
519.902152	0.999995
520.265385	0.999947
520.628560	0.999613
520.991678	0.999305
521.354739	1.000464
521.717743	0.999533
522.080690	0.999846
522.443580	0.999698
522.806413	0.999321
523.169189	0.999793
523.531908	0.999546
523.894569	0.999608
524.257174	0.999901
524.619722	1.000072
524.982213	1.000491
525.344647	0.999953
525.707025	0.999135
526.069345	0.999033
526.431608	1.000469
526.793815	0.999952
527.155964	1.000124
527.518057	1.000467
527.880093	0.999905
528.242072	0.999831
528.603995	0.999537
528.965860	1.000487
529.327669	1.000076
529.689421	0.998863
530.051117	1.000531
530.412755	1.000093
530.774337	0.999824
531.135862	0.999711
531.497331	0.999271
531.858743	1.000611
532.220098	0.999314
532.581396	0.999659
532.942638	1.000195
533.303824	1.000316
533.664953	0.999566
534.026025	1.000445
534.387040	1.000475
534.747999	0.999583
535.108902	0.999487
535.469748	1.000342
535.830537	0.999817
536.191270	1.000122
536.551947	0.999152
536.912567	0.999616
537.273131	1.000169
537.633638	0.999865
537.994089	1.000004
538.354483	0.999729
538.714821	1.000227
539.075103	0.999362
539.435328	0.999839
539.795497	1.000064
540.155609	1.000234
540.515665	1.000767
540.875665	0.999695
541.235609	0.999723
541.595496	0.999116
541.955328	1.000237
542.315102	1.000361
542.674821	1.000691
543.034483	0.999905
543.394090	0.999276
543.753640	1.000328
544.113134	0.999189
544.472571	1.000056
544.831953	0.999845
545.191278	1.000215
545.550548	0.999666
545.909761	0.999277
546.268918	0.999828
546.628019	1.000306
546.987064	0.999621
547.346053	0.999318
547.704986	1.000017
548.063863	0.999516
548.422684	1.000387
548.781449	1.000247
549.140158	1.000069
549.498811	0.999801
549.857408	0.998748
550.215949	0.999211
550.574434	0.999685
550.932864	0.999712
551.291237	0.999647
551.649555	1.000595
552.007817	1.000226
552.366022	1.000135
552.724173	1.000661
553.082267	1.000702
553.440305	0.998920
553.798288	0.999544
554.156215	0.999215
554.514086	0.999643
554.871902	0.999752
555.229661	0.999513
555.587365	0.999153
555.945014	1.000348
556.302606	0.999606
556.660143	0.999966
557.017625	1.000422
557.375050	0.999534
557.732421	0.999614
558.089735	0.998973
558.446994	0.999433
558.804197	0.999765
559.161345	0.999500
559.518437	0.999343
559.875474	0.999778
560.232455	1.000004
560.589381	0.999821
560.946251	0.999118
561.303065	0.999800
561.659825	0.999117
562.016528	1.000031
562.373177	0.999332
562.729770	0.999225
563.086307	0.998789
563.442789	1.000108
563.799216	0.999299
564.155587	1.000023
564.511904	1.000697
564.868164	0.999032
565.224370	1.000312
565.580520	1.000263
565.936615	0.999584
566.292654	1.000275
566.648638	1.000353
567.004567	0.999575
567.360441	0.999902
567.716260	0.999757
568.072023	0.999660
568.427732	1.000278
568.783385	0.999842
569.138982	0.999645
569.494525	0.999477
569.850013	1.000445
570.205445	0.999435
570.560823	0.999840
570.916145	0.999461
571.271412	0.999943
571.626625	0.999547
571.981782	0.999410
572.336884	0.999835
572.691931	0.999802
573.046923	0.999946
573.401860	0.999373
573.756743	0.999755
574.111570	0.999311
574.466342	1.000976
574.821059	1.000506
575.175722	1.000241
575.530330	1.000255
575.884882	0.999521
576.239380	0.999704
576.593823	0.999591
576.948211	0.999988
577.302544	0.999424
577.656823	0.999655
578.011047	0.998804
578.365216	1.000438
578.719330	0.999801
579.073389	0.999099
579.427394	0.999636
579.781344	1.000159
580.135239	0.999302
580.489080	0.999994
580.842866	0.999971
581.196597	1.000069
581.550273	0.999557
581.903895	0.999977
582.257463	0.999783
582.610975	1.000484
582.964434	1.000650
583.317837	1.000068
583.671186	0.999812
584.024481	0.999431
584.377721	0.999616
584.730906	1.000176
585.084037	0.999734
585.437113	1.000967
585.790135	0.999904
586.143103	1.000100
586.496016	1.000202
586.848874	0.999745
587.201679	0.999272
587.554428	1.000058
587.907124	0.999810
588.259765	0.999912
588.612352	0.999998
588.964884	0.999667
589.317362	1.000135
589.669786	0.999552
590.022155	0.999325
590.374470	0.999517
590.726731	0.999292
591.078937	0.999572
591.431090	1.000272
591.783188	0.999135
592.135232	1.000619
592.487222	0.999729
592.839157	0.999317
593.191038	0.999913
593.542866	1.000003
593.894639	0.998831
594.246358	0.999741
594.598022	0.999681
594.949633	0.999750
595.301190	0.999551
595.652692	0.999299
596.004141	0.999278
596.355535	0.999546
596.706876	0.999750
597.058162	0.999724
597.409395	0.999660
597.760573	0.999603
598.111698	0.999216
598.462768	0.998910
598.813785	0.998955
599.164748	0.999151
599.515657	0.999639
599.866511	1.000399
600.217312	0.999868
600.568060	0.999153
600.918753	1.000228
601.269392	0.999797
601.619978	0.999861
601.970510	0.999668
602.320988	1.000108
602.671412	0.999581
603.021783	1.000070
603.372100	1.000456
603.722363	1.000126
604.072572	0.999210
604.422728	0.999383
604.772830	0.999522
605.122878	1.000157
605.472872	0.999855
605.822813	0.998786
606.172701	1.000111
606.522534	0.999825
606.872314	1.000190
607.222041	0.999922
607.571714	0.999558
607.921333	0.999537
608.270899	0.999090
608.620411	0.999332
608.969870	1.000777
609.319276	0.999810
609.668627	0.999759
610.017926	0.999793
610.367171	0.999545
610.716362	0.999473
611.065500	0.999495
611.414585	0.999953
611.763616	0.999275
612.112594	0.999924
612.461518	0.999188
612.810389	0.999651
613.159207	0.999156
613.507971	0.999102
613.856682	1.000283
614.205340	0.998836
614.553945	0.999464
614.902496	0.999039
615.250994	0.999584
615.599439	1.000007
615.947830	0.999514
616.296169	0.999552
616.644454	0.999797
616.992686	0.999653
617.340864	1.000359
617.688990	0.999394
618.037063	0.999324
618.385082	0.999103
618.733048	0.998674
619.080961	0.999561
619.428821	0.999602
619.776628	0.999005
620.124382	1.000371
620.472083	1.000012
620.819731	1.000863
621.167326	0.999969
621.514868	1.000032
621.862357	0.999104
622.209793	0.999572
622.557176	0.999083
622.904506	0.999003
623.251783	0.999305
623.599007	0.999969
623.946179	0.999294
624.293297	1.000768
624.640363	0.999799
624.987376	0.998281
625.334336	0.999767
625.681243	0.999698
626.028097	0.999511
626.374899	0.999377
626.721647	1.000252
627.068343	0.999428
627.414987	0.999962
627.761577	0.998490
628.108115	0.998832
628.454600	1.000443
628.801032	0.999709
629.147412	0.999669
629.493739	0.999640
629.840014	0.998833
630.186236	0.999559
630.532405	0.999537
630.878521	0.998704
631.224585	0.999457
631.570597	0.998205
631.916556	0.999035
632.262462	0.997680
632.608316	0.999468
632.954117	0.999099
633.299866	0.999146
633.645562	0.999155
633.991206	0.999505
634.336797	0.998805
634.682336	1.000308
635.027823	0.999285
635.373257	1.000146
635.718639	0.999555
636.063968	0.998916
636.409245	0.998493
636.754470	0.999427
637.099642	1.000282
637.444762	0.999367
637.789829	0.999576
638.134845	0.999283
638.479808	0.999964
638.824719	0.999696
639.169577	0.999100
639.514383	0.998877
639.859137	0.998865
640.203839	0.999065
640.548489	0.999161
640.893086	0.999215
641.237632	0.999066
641.582125	0.997926
641.926566	0.999459
642.270955	0.999823
642.615292	0.998997
642.959576	0.999363
643.303809	0.999839
643.647990	0.999126
643.992118	0.999665
644.336195	0.998471
644.680219	0.999912
645.024192	0.999623
645.368112	0.998357
645.711981	0.998556
646.055797	0.999476
646.399562	0.998272
646.743274	0.999687
647.086935	0.998540
647.430544	0.999193
647.774101	0.998154
648.117606	0.999210
648.461059	1.000370
648.804460	0.999092
649.147810	0.999368
649.491108	0.999672
649.834354	0.998885
650.177548	0.999356
650.520690	0.998766
650.863781	0.998477
651.206820	0.999539
651.549807	0.999147
651.892742	0.999197
652.235626	0.999150
652.578458	0.999982
652.921238	0.999472
653.263967	0.999564
653.606644	0.998706
653.949269	0.999845
654.291843	0.998416
654.634365	0.999869
654.976836	0.998431
655.319255	1.000221
655.661622	0.999692
656.003938	0.999405
656.346203	0.998639
656.688416	1.000121
657.030577	0.998743
657.372687	0.999291
657.714746	0.998761
658.056753	0.999262
658.398708	0.998057
658.740612	0.999592
659.082465	0.998990
659.424266	0.999129
659.766016	0.998798
660.107715	0.999565
660.449362	0.999009
660.790958	0.998378
661.132503	0.999307
661.473996	0.998302
661.815438	0.999582
662.156829	0.999139
662.498168	0.999226
662.839456	0.998041
663.180693	0.999290
663.521879	0.998575
663.863013	0.999213
664.204097	0.998640
664.545129	0.998919
664.886110	0.999468
665.227040	0.998461
665.567918	0.999271
665.908746	0.998726
666.249522	0.998262
666.590248	0.998675
666.930922	0.998659
667.271545	0.999161
667.612118	0.998972
667.952639	0.998951
668.293109	0.999028
668.633528	0.998435
668.973896	0.999059
669.314213	0.997929
669.654480	0.998591
669.994695	0.998126
670.334859	0.998550
670.674973	0.998526
671.015035	0.998164
671.355047	0.998518
671.695008	0.998344
672.034918	0.998649
672.374777	0.999522
672.714585	0.998858
673.054342	0.999071
673.394049	0.998433
673.733705	0.998507
674.073310	0.998904
674.412864	0.998707
674.752368	0.998236
675.091820	0.999524
675.431223	0.998922
675.770574	0.998793
676.109875	0.998857
676.449125	0.997929
676.788324	0.998565
677.127473	0.999391
677.466571	0.998797
677.805619	0.999405
678.144616	0.998947
678.483562	0.998886
678.822458	0.999166
679.161303	0.998085
679.500098	0.999798
679.838842	0.998737
680.177535	0.999400
680.516179	0.998039
680.854771	0.998654
681.193314	0.999080
681.531805	0.998520
681.870247	0.998476
682.208638	0.999201
682.546978	0.998023
682.885268	0.998029
683.223508	0.997852
683.561697	0.998541
683.899836	0.998562
684.237925	0.998104
684.575963	0.998371
684.913951	0.998132
685.251889	0.998595
685.589776	0.998537
685.927614	0.998410
686.265401	0.998128
686.603137	0.998049
686.940824	0.997823
687.278460	0.998589
687.616046	0.998562
687.953582	0.998310
688.291068	0.998464
688.628504	0.998023
688.965889	0.998002
689.303224	0.997246
689.640510	0.997709
689.977745	0.997500
690.314930	0.998480
690.652065	0.997774
690.989150	0.997468
691.326185	0.998671
691.663170	0.998875
692.000105	0.998929
692.336990	0.998176
692.673825	0.998451
693.010610	0.997782
693.347345	0.998646
693.684030	0.997797
694.020665	0.998277
694.357251	0.998135
694.693786	0.998761
695.030272	0.997273
695.366707	0.998150
695.703093	0.997947
696.039429	0.997772
696.375716	0.998032
696.711952	0.998043
697.048139	0.998492
697.384276	0.998768
697.720363	0.998559
698.056400	0.996776
698.392388	0.998002
698.728326	0.997997
699.064214	0.998933
699.400053	0.998321
699.735842	0.998765
700.071581	0.997752
700.407270	0.998091
700.742910	0.998373
701.078501	0.998028
701.414042	0.998561
701.749533	0.997381
702.084974	0.998478
702.420366	0.997921
702.755709	0.998110
703.091002	0.998558
703.426246	0.998691
703.761440	0.998345
704.096584	0.997295
704.431679	0.997693
704.766725	0.998806
705.101721	0.999014
705.436668	0.997680
705.771565	0.997386
706.106413	0.996969
706.441212	0.998076
706.775961	0.997850
707.110661	0.996652
707.445311	0.997965
707.779913	0.999308
708.114465	0.999838
708.448967	0.998460
708.783421	0.998667
709.117825	0.998332
709.452180	0.998270
709.786485	0.998911
710.120742	0.997591
710.454949	0.997599
710.789107	0.998633
711.123216	0.997613
711.457275	0.997591
711.791286	0.997664
712.125247	0.998855
712.459159	0.997661
712.793023	0.996955
713.126837	0.998336
713.460602	0.997589
713.794318	0.997257
714.127985	0.998029
714.461602	0.997356
714.795171	0.998041
715.128691	0.997918
715.462162	0.999040
715.795584	0.998542
716.128957	0.998566
716.462281	0.998743
716.795556	0.998546
717.128782	0.999333
717.461960	0.997628
717.795088	0.998326
718.128167	0.998421
718.461198	0.997227
718.794180	0.998054
719.127113	0.998140
719.459997	0.997649
719.792833	0.997889
720.125619	0.998377
720.458357	0.998625
720.791046	0.998686
721.123686	0.998214
721.456278	0.998290
721.788821	0.998208
722.121315	0.999077
722.453761	0.998093
722.786158	0.997823
723.118506	0.998570
723.450805	0.997098
723.783056	0.999347
724.115259	0.997964
724.447412	0.998948
724.779518	0.997829
725.111574	0.997695
725.443582	0.998112
725.775542	0.997830
726.107453	0.997929
726.439315	0.998798
726.771129	0.998959
727.102895	0.998519
727.434612	0.998422
727.766281	0.998631
728.097901	0.997877
728.429473	0.998650
728.760996	0.998100
729.092471	0.997310
729.423897	0.998775
729.755276	0.997700
730.086606	0.998102
730.417887	0.998268
730.749120	0.998125
731.080305	0.997655
731.411442	0.998118
731.742530	0.997233
732.073570	0.996646
732.404562	0.998567
732.735506	0.998041
733.066401	0.997646
733.397249	0.998040
733.728048	0.998405
734.058798	0.998051
734.389501	0.998506
734.720156	0.997173
735.050762	0.998398
735.381320	0.997629
735.711831	0.998097
736.042293	0.997633
736.372707	0.998541
736.703073	0.996717
737.033391	0.997957
737.363661	0.998184
737.693883	0.997542
738.024056	0.997448
738.354182	0.997716
738.684260	0.997399
739.014290	0.998191
739.344272	0.997385
739.674207	0.997860
740.004093	0.997909
740.333931	0.997659
740.663722	0.997976
740.993464	0.997625
741.323159	0.997210
741.652806	0.998052
741.982405	0.998857
742.311956	0.999147
742.641460	0.997544
742.970915	0.997159
743.300323	0.997693
743.629683	0.997196
743.958996	0.998759
744.288260	0.997966
744.617477	0.998311
744.946647	0.998210
745.275768	0.998791
745.604842	0.997241
745.933869	0.997836
746.262847	0.998023
746.591778	0.997593
746.920662	0.998998
747.249498	0.998376
747.578286	0.998688
747.907027	0.998622
748.235720	0.999028
748.564365	0.997887
748.892963	0.997109
749.221514	0.998073
749.550017	0.996995
749.878473	0.998864
750.206881	1.000186
750.535242	0.998291
750.863555	0.997204
751.191821	0.997976
751.520039	0.998596
751.848210	0.996975
752.176334	0.997992
752.504411	0.998237
752.832440	0.997463
753.160421	0.998323
753.488356	0.997904
753.816243	0.998012
754.144082	0.997847
754.471875	0.998620
754.799620	0.999315
755.127318	0.998905
755.454969	0.998473
755.782572	1.000602
756.110129	0.997393
756.437638	0.998829
756.765100	0.998655
757.092515	0.997948
757.419882	0.999777
757.747203	0.997765
758.074477	0.998615
758.401703	0.998237
758.728882	0.998451
759.056014	0.997728
759.383099	0.997925
759.710138	0.998176
760.037129	0.997787
760.364073	0.998743
760.690970	0.997794
761.017820	0.997217
761.344623	0.998531
761.671379	0.998422
761.998088	0.998456
762.324751	0.998422
762.651366	0.997210
762.977935	0.997303
763.304456	0.997474
763.630931	0.995921
763.957359	0.995745
764.283740	0.997013
764.610074	0.997739
764.936362	0.997166
765.262602	0.997914
765.588796	0.997809
765.914943	0.997919
766.241044	0.998214
766.567097	0.996857
766.893104	0.998637
767.219064	0.998271
767.544978	0.998625
767.870845	0.997890
768.196665	0.997869
768.522438	0.998115
768.848165	0.999195
769.173846	0.998515
769.499479	0.999272
769.825066	0.998555
770.150607	0.998935
770.476101	0.998097
770.801548	0.998587
771.126949	0.998522
771.452303	0.998332
771.777611	0.999182
772.102872	0.998533
772.428087	0.997618
772.753256	0.999317
773.078378	0.998470
773.403453	0.997843
773.728482	0.999895
774.053465	0.998774
774.378401	0.997938
774.703291	0.999795
775.028135	0.999136
775.352932	0.998127
775.677683	0.998766
776.002388	0.999061
776.327046	0.998663
776.651658	1.000321
776.976224	0.998578
777.300743	0.998426
777.625216	0.997984
777.949643	0.999142
778.274024	0.998004
778.598359	0.998929
778.922647	0.998331
779.246889	0.999116
779.571086	0.999035
779.895236	0.999111
780.219339	0.999603
780.543397	0.998278
780.867409	0.998506
781.191374	0.999987
781.515294	0.999641
781.839167	0.999144
782.162995	0.999171
782.486776	0.998162
782.810511	0.998881
783.134201	0.998459
783.457844	0.998379
783.781441	0.999306
784.104993	0.997983
784.428498	0.999338
784.751958	1.000000
785.075372	0.999551
785.398739	0.998042
785.722061	0.997371
786.045337	0.998036
786.368568	0.998748
786.691752	0.998544
787.014891	0.998733
787.337983	0.998061
787.661030	0.997692
787.984031	0.998948
788.306987	0.998542
788.629897	0.997682
788.952760	0.998804
789.275579	0.998456
789.598351	0.997602
789.921078	0.998989
790.243759	0.997956
790.566395	0.998507
790.888984	0.997530
791.211529	0.999114
791.534027	0.998283
791.856480	0.998885
792.178888	0.998231
792.501249	0.998521
792.823566	0.999507
793.145836	0.998409
793.468062	0.998789
793.790241	0.999226
794.112375	0.998166
794.434464	0.998849
794.756507	0.998547
795.078505	0.999025
795.400457	0.999429
795.722364	0.998830
796.044226	0.998753
796.366042	0.999253
796.687812	0.997299
797.009538	0.998190
797.331218	0.999539
797.652852	0.999402
797.974442	0.999002
798.295986	0.998928
798.617484	0.998546
798.938938	0.999994
799.260346	0.998417
799.581709	0.998342
799.903026	0.999075
800.224299	0.998766
800.545526	0.998066
800.866708	0.998157
801.187845	0.999156
801.508936	0.998977
801.829983	0.998855
802.150984	0.999235
802.471940	0.999145
802.792851	0.998672
803.113717	1.001106
803.434538	0.999632
803.755314	0.999069
804.076045	1.000491
804.396731	0.998946
804.717372	0.997375
805.037967	0.998981
805.358518	0.999130
805.679024	0.998653
805.999485	0.998753
806.319901	0.999248
806.640272	0.998716
806.960598	0.999552
807.280879	0.997995
807.601115	0.998983
807.921306	1.000450
808.241453	0.999090
808.561554	0.998623
808.881611	0.998800
809.201623	0.997739
809.521590	0.999166
809.841513	0.998674
810.161390	0.997916
810.481223	0.998567
810.801011	0.999704
811.120755	1.000004
811.440453	0.998535
811.760107	0.998885
812.079716	0.998659
812.399281	0.998764
812.718801	0.998821
813.038276	0.999011
813.357707	0.998923
813.677093	0.998831
813.996434	0.998998
814.315731	1.000259
814.634983	0.999339
814.954191	1.000124
815.273354	0.998363
815.592473	0.998778
815.911547	0.999601
816.230577	0.998454
816.549562	0.999238
816.868502	0.997422
817.187399	0.999247
817.506250	0.999337
817.825058	0.997223
818.143821	0.999765
818.462539	0.998575
818.781213	0.998701
819.099843	0.999000
819.418429	0.998178
819.736970	0.998873
820.055466	0.997301
820.373919	0.997102
820.692327	0.996580
821.010691	0.997145
821.329011	0.995153
821.647286	0.995584
821.965517	0.993927
822.283704	0.993187
822.601847	0.993794
822.919945	0.993829
823.237999	0.994011
823.556010	0.994516
823.873976	0.995573
824.191897	0.995536
824.509775	0.996145
824.827609	0.996323
825.145398	0.996570
825.463144	0.994873
825.780845	0.995649
826.098502	0.996863
826.416116	0.997443
826.733685	0.996251
827.051210	0.995296
827.368692	0.994773
827.686129	0.995490
828.003522	0.997181
828.320872	0.997588
828.638177	0.998222
828.955439	0.998498
829.272656	0.997955
829.589830	0.998107
829.906960	0.998444
830.224046	0.998181
830.541088	0.998877
830.858086	0.997632
831.175041	0.999867
831.491952	0.999198
831.808819	0.998969
832.125642	0.998356
832.442421	0.999039
832.759157	0.999113
833.075849	0.997251
833.392497	0.996756
833.709101	0.995961
834.025662	0.997666
834.342179	0.997582
834.658653	0.997274
834.975083	0.998610
835.291469	0.998385
835.607811	0.997412
835.924110	0.998205
836.240366	0.999994
836.556578	0.999013
836.872746	0.999400
837.188871	0.998174
837.504952	0.997814
837.820990	0.999593
838.136984	0.998037
838.452935	0.998397
838.768842	0.999698
839.084706	0.998845
839.400526	0.998979
839.716303	0.997727
840.032037	0.998559
840.347727	0.998776
840.663373	0.997626
840.978977	0.999169
841.294537	0.998516
841.610054	1.000036
841.925527	0.998957
842.240957	0.999760
842.556344	0.999370
842.871687	0.998409
843.186987	0.998789
843.502244	0.999131
843.817458	0.998649
844.132629	0.998678
844.447756	0.998785
844.762840	0.999225
845.077881	1.000401
845.392879	0.997790
845.707833	0.997860
846.022745	0.999758
846.337613	0.999367
846.652438	0.998453
846.967221	0.998818
847.281960	0.999272
847.596656	1.000357
847.911309	0.999328
848.225919	0.998307
848.540485	0.999393
848.855009	1.000544
849.169490	0.999251
849.483928	0.999399
849.798323	0.998291
850.112675	0.999511
850.426984	0.999779
850.741251	0.998963
851.055474	0.999758
851.369654	0.999509
851.683792	0.999205
851.997887	0.999736
852.311938	1.000003
852.625947	0.997990
852.939914	0.997928
853.253837	1.001063
853.567718	1.000093
853.881555	0.999329
854.195350	0.999884
854.509103	0.998962
854.822812	0.999491
855.136479	0.999200
855.450103	0.999066
855.763685	0.999479
856.077224	0.998854
856.390720	0.999019
856.704173	0.999607
857.017584	1.001145
857.330953	0.999620
857.644278	0.999690
857.957561	0.999396
858.270802	1.000839
858.584000	0.999533
858.897155	0.999255
859.210268	0.999730
859.523339	0.999811
859.836367	0.999729
860.149352	0.999684
860.462295	0.998261
860.775195	0.998935
861.088054	0.997711
861.400869	0.998906
861.713642	0.997448
862.026373	0.999643
862.339062	1.000354
862.651708	0.999277
862.964312	0.999461
863.276873	0.999818
863.589392	0.999844
863.901869	0.998669
864.214303	0.999801
864.526696	0.999370
864.839045	1.000103
865.151353	0.999560
865.463619	0.999072
865.775842	0.999350
866.088023	1.000398
866.400162	0.998885
866.712258	1.001385
867.024313	0.999672
867.336325	1.000031
867.648296	1.000705
867.960224	0.999875
868.272110	0.999568
868.583954	1.000109
868.895755	1.000781
869.207515	1.000125
869.519233	1.000180
869.830909	0.998352
870.142542	0.998746
870.454134	0.998843
870.765684	0.999940
871.077191	1.000019
871.388657	0.999580
871.700081	1.000433
872.011463	0.999940
872.322803	0.999143
872.634101	0.998252
872.945357	0.999344
873.256571	0.999351
873.567744	0.999593
873.878874	0.999982
874.189963	0.997990
874.501010	1.000375
874.812015	0.999054
875.122979	1.000129
875.433900	1.000099
875.744780	0.999275
876.055618	0.998401
876.366415	0.998544
876.677169	0.999996
876.987882	0.999523
877.298554	1.000850
877.609183	0.998766
877.919771	0.998547
878.230317	1.000175
878.540822	0.998788
878.851285	0.999067
879.161707	0.998408
879.472087	1.001137
879.782425	0.998012
880.092722	0.998452
880.402977	0.997641
880.713191	0.996143
881.023363	0.995593
881.333494	0.994222
881.643583	0.995701
881.953631	0.994799
882.263637	0.994648
882.573602	0.995422
882.883526	0.995638
883.193408	0.997078
883.503248	0.996382
883.813048	0.996712
884.122806	0.997604
884.432522	0.997744
884.742197	0.999194
885.051831	0.998266
885.361424	0.997844
885.670975	0.998569
885.980485	0.999050
886.289954	0.997522
886.599382	0.998170
886.908768	0.999529
887.218113	0.997981
887.527417	0.998269
887.836680	0.998820
888.145901	0.999106
888.455082	1.001200
888.764221	1.000375
889.073319	0.998492
889.382376	0.999767
889.691392	0.999053
890.000366	1.000132
890.309300	0.998912
890.618193	0.999194
890.927044	0.999193
891.235855	0.999172
891.544625	0.999482
891.853353	0.999472
892.162041	0.998663
892.470687	0.999504
892.779293	0.998863
893.087858	0.998163
893.396381	0.999330
893.704864	0.998301
894.013306	0.998196
894.321707	0.997908
894.630068	0.997366
894.938387	0.997092
895.246665	0.998459
895.554903	0.997945
895.863100	0.997681
896.171256	0.997902
896.479371	0.998168
896.787446	0.997416
897.095480	0.998725
897.403473	0.998159
897.711425	0.998612
898.019336	0.998915
898.327207	0.999561
898.635038	0.998529
898.942827	0.999486
899.250576	0.998237
899.558284	0.998909
899.865952	0.998448
900.173579	0.999258
900.481165	0.999661
900.788711	0.998231
901.096216	0.998378
901.403681	1.000125
901.711105	0.999354
902.018489	0.998145
902.325832	0.999474
902.633135	0.998940
902.940397	0.999198
903.247619	0.998601
903.554800	0.998756
903.861941	0.999253
904.169041	0.997564
904.476101	0.998151
904.783121	0.997207
905.090100	0.998788
905.397039	0.998117
905.703938	0.998601
906.010796	0.998553
906.317614	0.998456
906.624391	0.999293
906.931129	0.999243
907.237826	0.999210
907.544483	0.999440
907.851099	0.999861
908.157675	0.998933
908.464211	0.999228
908.770707	0.998678
909.077163	0.999421
909.383578	0.998872
909.689954	0.999478
909.996289	0.999459
910.302584	0.999077
910.608839	1.001141
910.915054	1.000171
911.221229	1.000577
911.527363	0.999132
911.833458	1.000358
912.139513	0.999421
912.445527	1.000040
912.751502	0.999744
913.057436	0.998269
913.363331	0.999823
913.669186	1.000815
913.975000	0.999820
914.280775	0.999466
914.586510	0.999203
914.892205	0.999278
915.197859	0.998138
915.503475	0.998918
915.809050	0.998207
916.114585	0.996492
916.420081	0.998034
916.725536	0.997283
917.030952	0.998199
917.336328	0.997284
917.641665	0.998264
917.946961	0.997219
918.252218	0.998063
918.557435	0.999109
918.862612	0.998732
919.167750	0.999199
919.472848	0.999561
919.777906	1.000043
920.082925	0.999920
920.387904	0.999330
920.692843	0.999544
920.997743	0.998561
921.302603	0.999628
921.607423	0.998484
921.912204	0.999399
922.216946	1.000173
922.521647	0.999280
922.826310	0.999237
923.130932	0.999017
923.435516	0.999195
923.740059	0.998562
924.044564	0.999021
924.349028	0.998969
924.653454	0.998649
924.957840	0.999179
925.262186	0.999910
925.566493	0.999819
925.870761	0.998549
926.174989	0.999260
926.479178	0.999300
926.783328	0.999442
927.087438	0.998862
927.391509	0.999097
927.695541	1.000155
927.999533	1.000394
928.303486	0.999094
928.607400	0.999666
928.911275	0.999535
929.215110	1.000001
929.518906	1.000875
929.822663	1.000711
930.126381	1.000053
930.430060	0.999833
930.733699	0.999711
931.037299	0.999605
931.340861	1.000512
931.644383	0.999425
931.947866	1.000386
932.251309	0.999850
932.554714	0.999971
932.858080	1.000351
933.161407	0.998542
933.464694	1.000229
933.767943	0.999669
934.071153	0.999433
934.374323	1.000672
934.677455	1.000102
934.980548	0.999351
935.283602	1.000494
935.586617	0.999662
935.889593	1.000498
936.192530	0.999862
936.495428	0.999074
936.798287	0.999125
937.101108	1.000193
937.403890	0.998938
937.706632	1.000553
938.009336	0.999766
938.312002	0.999821
938.614628	0.999492
938.917216	0.999090
939.219765	0.999434
939.522275	0.999766
939.824747	0.999929
940.127179	0.999333
940.429573	1.000995
940.731929	0.998665
941.034246	0.998465
941.336524	0.999529
941.638763	0.999336
941.940964	0.998901
942.243126	1.000388
942.545250	1.000187
942.847335	0.999044
943.149381	0.999750
943.451389	0.999253
943.753359	0.999872
944.055290	1.000674
944.357182	1.000128
944.659036	0.999828
944.960851	1.000603
945.262628	0.999936
945.564367	1.000169
945.866067	1.000331
946.167729	0.999764
946.469352	0.999781
946.770937	0.998083
947.072484	1.001456
947.373992	0.998790
947.675462	0.999613
947.976893	0.999626
948.278286	1.002070
948.579641	1.000703
948.880958	0.999592
949.182236	0.999174
949.483476	0.999563
949.784678	1.000246
950.085841	0.998629
950.386967	0.999057
950.688054	1.000791
950.989103	0.998667
951.290114	0.998339
951.591087	1.000835
951.892021	1.000387
952.192917	1.000123
952.493776	1.001018
952.794596	0.999640
953.095378	0.999665
953.396122	0.999424
953.696828	0.999818
953.997496	0.999954
954.298126	0.999853
954.598718	0.999270
954.899272	1.000020
955.199788	0.998492
955.500266	1.000366
955.800706	0.999668
956.101108	0.999543
956.401472	1.001818
956.701798	0.999913
957.002087	1.000194
957.302337	0.998596
957.602550	0.999784
957.902724	0.999170
958.202861	0.998732
958.502960	0.999146
958.803022	1.000271
959.103045	0.999442
959.403031	0.998993
959.702979	1.000494
960.002889	0.999447
960.302762	0.998543
960.602596	1.000006
960.902393	0.999930
961.202153	1.000610
961.501875	1.000960
961.801559	0.999410
962.101205	0.999521
962.400814	0.999599
962.700385	1.000486
962.999918	1.000199
963.299414	0.998513
963.598873	1.000455
963.898293	0.999903
964.197677	0.999986
964.497022	0.999334
964.796331	1.000014
965.095601	1.000628
965.394835	0.999892
965.694030	0.999563
965.993189	0.999858
966.292309	1.001136
966.591393	0.999808
966.890439	1.000881
967.189447	0.999011
967.488419	0.999409
967.787353	0.999256
968.086249	1.000269
968.385108	0.999496
968.683930	1.001839
968.982714	0.999594
969.281462	1.000128
969.580172	0.999989
969.878844	1.001589
970.177480	1.000210
970.476078	1.001153
970.774639	1.000981
971.073162	0.999343
971.371649	0.999698
971.670098	0.999314
971.968510	0.999585
972.266885	0.998997
972.565223	0.999892
972.863524	0.998381
973.161788	1.000703
973.460014	0.999953
973.758204	0.998636
974.056356	1.000338
974.354471	0.999636
974.652550	1.001804
974.950591	0.999230
975.248595	0.999014
975.546563	0.999622
975.844493	1.000322
976.142386	0.998886
976.440243	0.999484
976.738062	0.999692
977.035845	0.999223
977.333590	1.000334
977.631299	1.000609
977.928971	0.999513
978.226606	0.999402
978.524204	0.999842
978.821765	1.000623
979.119290	1.000136
979.416777	0.999957
979.714228	0.999103
980.011642	0.999974
980.309020	0.999219
980.606360	0.998953
980.903664	0.999563
981.200931	0.999406
981.498162	0.998922
981.795356	0.999245
982.092513	1.000498
982.389633	1.001804
982.686717	0.999741
982.983764	1.000031
983.280775	0.999392
983.577749	1.001094
983.874686	0.998246
984.171587	0.998888
984.468451	0.999401
984.765279	1.000708
985.062070	0.999984
985.358824	0.999955
985.655543	1.000333
985.952224	1.000703
986.248869	0.999321
986.545478	1.001695
986.842050	1.000947
987.138586	0.998889
987.435086	0.999174
987.731549	1.001136
988.027975	1.000159
988.324366	1.000383
988.620719	1.001223
988.917037	0.999817
989.213318	1.000061
989.509563	0.999863
989.805772	1.001135
990.101944	0.999933
990.398080	1.000259
990.694180	1.001116
990.990244	0.999857
991.286271	0.999163
991.582262	1.000109
991.878217	0.999968
992.174136	1.000871
992.470019	1.000593
992.765865	1.001898
993.061676	0.999867
993.357450	1.000279
993.653188	1.001515
993.948890	0.999655
994.244556	1.000013
994.540186	0.999740
994.835780	0.999558
995.131337	1.001228
995.426859	1.000042
995.722345	1.000481
996.017795	0.999232
996.313208	0.999444
996.608586	0.999277
996.903928	1.001333
997.199234	0.999707
997.494504	0.999993
997.789738	0.998305
998.084936	1.000026
998.380099	0.998971
998.675225	1.000975
998.970316	0.999766
999.265371	1.000100
999.560390	1.000558
999.855373	0.999451
1000.150320	1.000478
1000.445232	0.998888
1000.740108	1.000419
1001.034948	0.999405
1001.329752	1.000307
1001.624521	0.999287
1001.919254	0.999046
1002.213951	1.000001
1002.508613	0.999547
1002.803239	0.999066
1003.097829	1.000283
1003.392384	0.999728
1003.686903	1.000537
1003.981386	0.999509
1004.275834	1.000922
1004.570246	1.000238
1004.864623	0.999949
1005.158964	0.999262
1005.453270	0.999937
1005.747540	0.999780
1006.041775	1.000911
1006.335974	0.999644
1006.630138	1.000258
1006.924266	1.000042
1007.218359	0.998360
1007.512416	1.001084
1007.806438	0.998958
1008.100425	1.001653
1008.394376	0.999981
1008.688292	0.999921
1008.982172	0.999958
1009.276017	1.000360
1009.569827	1.002063
1009.863602	0.998494
1010.157341	1.001235
1010.451045	0.998985
1010.744714	1.000848
1011.038347	1.001373
1011.331945	0.998837
1011.625508	0.999434
1011.919036	1.000729
1012.212528	1.000883
1012.505986	1.000084
1012.799408	1.000317
1013.092795	1.001088
1013.386147	1.000148
1013.679464	0.999837
1013.972745	0.999340
1014.265992	0.999828
1014.559204	1.000455
1014.852380	1.001317
1015.145521	1.000380
1015.438628	0.999984
1015.731699	0.999526
1016.024736	1.000419
1016.317737	0.999474
1016.610703	1.000301
1016.903635	1.000570
1017.196531	0.998719
1017.489393	1.000198
1017.782219	0.999391
1018.075011	1.000213
1018.367768	0.999215
1018.660490	0.999488
1018.953177	0.999488
1019.245829	0.999488
