Dividing Wavelength (nm)	Counts (n)	Blue Motor Position (mm): 5.700000	Red Motor Position (mm): 0.000000	
326.493990	1.005362
326.888308	1.005362
327.282561	1.005362
327.676750	1.006693
328.070874	1.007793
328.464933	1.006917
328.858929	1.006081
329.252859	1.005051
329.646726	1.005317
330.040528	1.005138
330.434265	1.006806
330.827938	1.005184
331.221547	1.006279
331.615091	1.006269
332.008571	1.006591
332.401986	1.005817
332.795338	1.005087
333.188625	1.006806
333.581847	1.003755
333.975006	1.006193
334.368100	1.005891
334.761129	1.004637
335.154095	1.005409
335.546996	1.003415
335.939833	0.998220
336.332606	0.999139
336.725315	0.997712
337.117960	1.000398
337.510540	0.997775
337.903056	0.999566
338.295508	0.999586
338.687896	0.999702
339.080220	0.998954
339.472480	0.998583
339.864676	0.998962
340.256807	0.998898
340.648875	0.998655
341.040879	0.997792
341.432818	0.998927
341.824694	0.998791
342.216506	0.998991
342.608253	0.997641
342.999937	0.998626
343.391557	0.998951
343.783113	1.000277
344.174605	0.998943
344.566033	0.999182
344.957397	0.998633
345.348697	0.999753
345.739934	0.999046
346.131106	0.998517
346.522215	0.997438
346.913260	0.998259
347.304241	0.999338
347.695159	0.998825
348.086012	0.997781
348.476802	0.998103
348.867528	0.998410
349.258191	0.998922
349.648789	0.998321
350.039324	0.997984
350.429796	0.998996
350.820203	0.997577
351.210548	0.998887
351.600828	0.997923
351.991045	0.997995
352.381198	0.998072
352.771288	0.999070
353.161314	0.999654
353.551276	0.996695
353.941175	0.996672
354.331010	0.997892
354.720782	0.998564
355.110490	0.998140
355.500135	0.998954
355.889717	0.996761
356.279235	0.998665
356.668689	0.997980
357.058080	0.997903
357.447408	0.996889
357.836672	0.997864
358.225873	0.997624
358.615010	0.997379
359.004084	0.997071
359.393095	0.997888
359.782043	0.998897
360.170927	0.998209
360.559748	0.998486
360.948505	0.997443
361.337199	0.997585
361.725830	0.997143
362.114398	0.997368
362.502903	0.996279
362.891344	0.994882
363.279722	0.997422
363.668037	0.996768
364.056289	0.996729
364.444478	0.997447
364.832603	0.995741
365.220665	0.997261
365.608665	0.996534
365.996601	0.996613
366.384474	0.996251
366.772284	0.995964
367.160031	0.994122
367.547715	0.995403
367.935336	0.993625
368.322893	0.994082
368.710388	0.992363
369.097820	0.990101
369.485189	0.988332
369.872495	0.986456
370.259738	0.983931
370.646918	0.982147
371.034035	0.978603
371.421090	0.975372
371.808081	0.971532
372.195010	0.969395
372.581875	0.963876
372.968678	0.958702
373.355418	0.955457
373.742096	0.947145
374.128710	0.943501
374.515262	0.938172
374.901751	0.933683
375.288177	0.928360
375.674540	0.921816
376.060841	0.915202
376.447079	0.908358
376.833254	0.902403
377.219367	0.897483
377.605417	0.886613
377.991404	0.882416
378.377329	0.876301
378.763191	0.870468
379.148991	0.861550
379.534727	0.854188
379.920402	0.845905
380.306013	0.841701
380.691563	0.829003
381.077049	0.822518
381.462474	0.818764
381.847835	0.807622
382.233134	0.803014
382.618371	0.802681
383.003545	0.783784
383.388657	0.782874
383.773706	0.776101
384.158693	0.771770
384.543618	0.766179
384.928480	0.757302
385.313280	0.747681
385.698017	0.746556
386.082692	0.734965
386.467305	0.734308
386.851856	0.727873
387.236344	0.723535
387.620770	0.717688
388.005133	0.711583
388.389435	0.706018
388.773674	0.704781
389.157851	0.695581
389.541965	0.693198
389.926018	0.699188
390.310008	0.685807
390.693936	0.682418
391.077802	0.675908
391.461606	0.677653
391.845348	0.665927
392.229027	0.666654
392.612645	0.664587
392.996200	0.650529
393.379694	0.643852
393.763125	0.634116
394.146494	0.638705
394.529801	0.629651
394.913047	0.621755
395.296230	0.627155
395.679351	0.619106
396.062410	0.615410
396.445408	0.618531
396.828343	0.614365
397.211217	0.608505
397.594028	0.620340
397.976778	0.611272
398.359466	0.607578
398.742092	0.602622
399.124656	0.615202
399.507158	0.602935
399.889598	0.600060
400.271977	0.591011
400.654294	0.595691
401.036549	0.594200
401.418742	0.598835
401.800874	0.584555
402.182944	0.581494
402.564952	0.572976
402.946898	0.575020
403.328783	0.575596
403.710606	0.586627
404.092367	0.561704
404.474067	0.567129
404.855705	0.566180
405.237282	0.574000
405.618797	0.560262
406.000250	0.556381
406.381642	0.546259
406.762972	0.551707
407.144240	0.550273
407.525447	0.550212
407.906593	0.543103
408.287677	0.538545
408.668700	0.546666
409.049661	0.541215
409.430560	0.535493
409.811399	0.544367
410.192176	0.526286
410.572891	0.533482
410.953545	0.521727
411.334138	0.535135
411.714669	0.527487
412.095139	0.539760
412.475547	0.523056
412.855894	0.525388
413.236180	0.524455
413.616405	0.529283
413.996568	0.520111
414.376670	0.526411
414.756711	0.531266
415.136691	0.528445
415.516609	0.519713
415.896466	0.516507
416.276262	0.512548
416.655997	0.513785
417.035670	0.495579
417.415283	0.487315
417.794834	0.492315
418.174324	0.497276
418.553753	0.506218
418.933121	0.488298
419.312428	0.482763
419.691674	0.488519
420.070859	0.476747
420.449983	0.484883
420.829045	0.473631
421.208047	0.482897
421.586988	0.475138
421.965867	0.474315
422.344686	0.463297
422.723444	0.475742
423.102141	0.492364
423.480777	0.465694
423.859352	0.486533
424.237866	0.463944
424.616319	0.464356
424.994712	0.455106
425.373044	0.465538
425.751314	0.453794
426.129524	0.470238
426.507673	0.453464
426.885762	0.447419
427.263789	0.452911
427.641756	0.462179
428.019662	0.452898
428.397508	0.452311
428.775292	0.456059
429.153016	0.447989
429.530679	0.454535
429.908282	0.447724
430.285824	0.457733
430.663305	0.436573
431.040726	0.457364
431.418086	0.457513
431.795385	0.449139
432.172624	0.447916
432.549802	0.448007
432.926920	0.447338
433.303977	0.446359
433.680974	0.443431
434.057910	0.442388
434.434786	0.441921
434.811601	0.445052
435.188355	0.426964
435.565050	0.436268
435.941683	0.437305
436.318257	0.421532
436.694770	0.422465
437.071222	0.420430
437.447614	0.424292
437.823946	0.430981
438.200218	0.420783
438.576429	0.430509
438.952580	0.423565
439.328670	0.419992
439.704700	0.426428
440.080670	0.427849
440.456580	0.409078
440.832429	0.417114
441.208218	0.428188
441.583947	0.417223
441.959616	0.416726
442.335224	0.421813
442.710773	0.412695
443.086261	0.410901
443.461689	0.424586
443.837057	0.414656
444.212365	0.404541
444.587612	0.412067
444.962800	0.401432
445.337927	0.403036
445.712995	0.429060
446.088002	0.390845
446.462949	0.401558
446.837837	0.406622
447.212664	0.394956
447.587431	0.386557
447.962139	0.356738
448.336786	0.316003
448.711374	0.326491
449.085901	0.370950
449.460369	0.375176
449.834776	0.378400
450.209124	0.357928
450.583412	0.350440
450.957640	0.343269
451.331808	0.354697
451.705917	0.378312
452.079965	0.383263
452.453954	0.371260
452.827883	0.377848
453.201752	0.372430
453.575562	0.383644
453.949311	0.372530
454.323001	0.379001
454.696632	0.374702
455.070202	0.366650
455.443713	0.358853
455.817164	0.353584
456.190556	0.349544
456.563888	0.346212
456.937160	0.343804
457.310373	0.361180
457.683526	0.359986
458.056619	0.365890
458.429653	0.366001
458.802628	0.369677
459.175542	0.363881
459.548398	0.346104
459.921194	0.338860
460.293930	0.338755
460.666607	0.316699
461.039224	0.304916
461.411782	0.300355
461.784280	0.299875
462.156719	0.303691
462.529099	0.308390
462.901419	0.324240
463.273680	0.328671
463.645882	0.328347
464.018024	0.334207
464.390106	0.326712
464.762130	0.311644
465.134094	0.294416
465.505999	0.263232
465.877845	0.233432
466.249631	0.220730
466.621358	0.227840
466.993026	0.241785
467.364634	0.248401
467.736184	0.256909
468.107674	0.265827
468.479105	0.265059
468.850477	0.271713
469.221790	0.278562
469.593043	0.288786
469.964238	0.293628
470.335373	0.292994
470.706449	0.291496
471.077467	0.291874
471.448425	0.253834
471.819324	0.229256
472.190164	0.228718
472.560945	0.257526
472.931667	0.280283
473.302330	0.284281
473.672934	0.296242
474.043479	0.284278
474.413965	0.286171
474.784393	0.289267
475.154761	0.284470
475.525070	0.281593
475.895321	0.287174
476.265513	0.281427
476.635645	0.276714
477.005719	0.276627
477.375734	0.273226
477.745691	0.266330
478.115588	0.262854
478.485427	0.256428
478.855207	0.243327
479.224928	0.225452
479.594591	0.213926
479.964194	0.217327
480.333739	0.218625
480.703226	0.219783
481.072653	0.218407
481.442022	0.214079
481.811333	0.210593
482.180584	0.213983
482.549777	0.219533
482.918912	0.222854
483.287988	0.222517
483.657005	0.221991
484.025964	0.228599
484.394864	0.225707
484.763706	0.226395
485.132489	0.231473
485.501213	0.232398
485.869879	0.230603
486.238487	0.233525
486.607036	0.231822
486.975527	0.236526
487.343959	0.231993
487.712333	0.231202
488.080648	0.232768
488.448905	0.231765
488.817104	0.232900
489.185244	0.227684
489.553326	0.224415
489.921350	0.214302
490.289315	0.196646
490.657222	0.191486
491.025070	0.193206
491.392861	0.194995
491.760593	0.200605
492.128267	0.206604
492.495883	0.211854
492.863440	0.218266
493.230939	0.224549
493.598380	0.226457
493.965763	0.228242
494.333088	0.230266
494.700354	0.232034
495.067563	0.230800
495.434713	0.234364
495.801805	0.232141
496.168839	0.233642
496.535815	0.235006
496.902733	0.235074
497.269593	0.236658
497.636395	0.234291
498.003139	0.234359
498.369825	0.237499
498.736453	0.234030
499.103023	0.235488
499.469535	0.235109
499.835989	0.234935
500.202385	0.236125
500.568723	0.239507
500.935003	0.234524
501.301226	0.238622
501.667390	0.232770
502.033497	0.230976
502.399546	0.234025
502.765537	0.236051
503.131470	0.234416
503.497345	0.230688
503.863163	0.239325
504.228923	0.232394
504.594625	0.231103
504.960269	0.236453
505.325856	0.231790
505.691385	0.236260
506.056856	0.232648
506.422270	0.232426
506.787625	0.234943
507.152924	0.232046
507.518164	0.232576
507.883347	0.234275
508.248472	0.235966
508.613540	0.230974
508.978550	0.233636
509.343503	0.234009
509.708398	0.231791
510.073236	0.229331
510.438016	0.228956
510.802738	0.230103
511.167403	0.229096
511.532010	0.231122
511.896561	0.226552
512.261053	0.224842
512.625488	0.227225
512.989866	0.227535
513.354186	0.227844
513.718449	0.229959
514.082655	0.225985
514.446803	0.228375
514.810894	0.226256
515.174927	0.229004
515.538904	0.228367
515.902822	0.225161
516.266684	0.227428
516.630488	0.228689
516.994235	0.227597
517.357925	0.226507
517.721558	0.224656
518.085133	0.224220
518.448651	0.224128
518.812112	0.226331
519.175516	0.226040
519.538863	0.223477
519.902152	0.225315
520.265385	0.222203
520.628560	0.223796
520.991678	0.224277
521.354739	0.223178
521.717743	0.224103
522.080690	0.224843
522.443580	0.222235
522.806413	0.222761
523.169189	0.222448
523.531908	0.221219
523.894569	0.224797
524.257174	0.224885
524.619722	0.222172
524.982213	0.223601
525.344647	0.222423
525.707025	0.223334
526.069345	0.221391
526.431608	0.223202
526.793815	0.220951
527.155964	0.225326
527.518057	0.224271
527.880093	0.225284
528.242072	0.223900
528.603995	0.225927
528.965860	0.227493
529.327669	0.226398
529.689421	0.227178
530.051117	0.228163
530.412755	0.225799
530.774337	0.227811
531.135862	0.228452
531.497331	0.227857
531.858743	0.230878
532.220098	0.226917
532.581396	0.230055
532.942638	0.230331
533.303824	0.231288
533.664953	0.231008
534.026025	0.233040
534.387040	0.231000
534.747999	0.230631
535.108902	0.229613
535.469748	0.234875
535.830537	0.232524
536.191270	0.232812
536.551947	0.232239
536.912567	0.232370
537.273131	0.234228
537.633638	0.234625
537.994089	0.234894
538.354483	0.235646
538.714821	0.232967
539.075103	0.232569
539.435328	0.233221
539.795497	0.237055
540.155609	0.233838
540.515665	0.231879
540.875665	0.237359
541.235609	0.235919
541.595496	0.236124
541.955328	0.232830
542.315102	0.235441
542.674821	0.236538
543.034483	0.236507
543.394090	0.236155
543.753640	0.237719
544.113134	0.232651
544.472571	0.236232
544.831953	0.232960
545.191278	0.237410
545.550548	0.236658
545.909761	0.233517
546.268918	0.234543
546.628019	0.232784
546.987064	0.235363
547.346053	0.236960
547.704986	0.234675
548.063863	0.235087
548.422684	0.235288
548.781449	0.237123
549.140158	0.235204
549.498811	0.237817
549.857408	0.240849
550.215949	0.235430
550.574434	0.238216
550.932864	0.236604
551.291237	0.235335
551.649555	0.236654
552.007817	0.236340
552.366022	0.237296
552.724173	0.237572
553.082267	0.237814
553.440305	0.234815
553.798288	0.239042
554.156215	0.235284
554.514086	0.236432
554.871902	0.239571
555.229661	0.238686
555.587365	0.239223
555.945014	0.241952
556.302606	0.238609
556.660143	0.241337
557.017625	0.237818
557.375050	0.239738
557.732421	0.237018
558.089735	0.239227
558.446994	0.239056
558.804197	0.238321
559.161345	0.237968
559.518437	0.241400
559.875474	0.239507
560.232455	0.238896
560.589381	0.240229
560.946251	0.240376
561.303065	0.237722
561.659825	0.239056
562.016528	0.240932
562.373177	0.243324
562.729770	0.240871
563.086307	0.242409
563.442789	0.240831
563.799216	0.243486
564.155587	0.242292
564.511904	0.243411
564.868164	0.243331
565.224370	0.243186
565.580520	0.244971
565.936615	0.244884
566.292654	0.248070
566.648638	0.245090
567.004567	0.245928
567.360441	0.246252
567.716260	0.248403
568.072023	0.246007
568.427732	0.246838
568.783385	0.249164
569.138982	0.247192
569.494525	0.247039
569.850013	0.249863
570.205445	0.248397
570.560823	0.250906
570.916145	0.253199
571.271412	0.251232
571.626625	0.252793
571.981782	0.253440
572.336884	0.253862
572.691931	0.253510
573.046923	0.255244
573.401860	0.255808
573.756743	0.258298
574.111570	0.256681
574.466342	0.257682
574.821059	0.256623
575.175722	0.259416
575.530330	0.258970
575.884882	0.259089
576.239380	0.261227
576.593823	0.261704
576.948211	0.261421
577.302544	0.264446
577.656823	0.264238
578.011047	0.264144
578.365216	0.265073
578.719330	0.267317
579.073389	0.266492
579.427394	0.268067
579.781344	0.268914
580.135239	0.270046
580.489080	0.270117
580.842866	0.273050
581.196597	0.273160
581.550273	0.271484
581.903895	0.272730
582.257463	0.270442
582.610975	0.273957
582.964434	0.273650
583.317837	0.275578
583.671186	0.276359
584.024481	0.276324
584.377721	0.278421
584.730906	0.279538
585.084037	0.278864
585.437113	0.280697
585.790135	0.279885
586.143103	0.283269
586.496016	0.284106
586.848874	0.281361
587.201679	0.282036
587.554428	0.285700
587.907124	0.284283
588.259765	0.285221
588.612352	0.285378
588.964884	0.289496
589.317362	0.288931
589.669786	0.288826
590.022155	0.287084
590.374470	0.286796
590.726731	0.288554
591.078937	0.294027
591.431090	0.290151
591.783188	0.294319
592.135232	0.294893
592.487222	0.294297
592.839157	0.292812
593.191038	0.295040
593.542866	0.296844
593.894639	0.299972
594.246358	0.298257
594.598022	0.297946
594.949633	0.301774
595.301190	0.302617
595.652692	0.301221
596.004141	0.297348
596.355535	0.305784
596.706876	0.306377
597.058162	0.308884
597.409395	0.305821
597.760573	0.303689
598.111698	0.306938
598.462768	0.307088
598.813785	0.308408
599.164748	0.309775
599.515657	0.310175
599.866511	0.313870
600.217312	0.308876
600.568060	0.314400
600.918753	0.310548
601.269392	0.311474
601.619978	0.314891
601.970510	0.312630
602.320988	0.312868
602.671412	0.310440
603.021783	0.313001
603.372100	0.314096
603.722363	0.313871
604.072572	0.315006
604.422728	0.314297
604.772830	0.316572
605.122878	0.316408
605.472872	0.316766
605.822813	0.315028
606.172701	0.317875
606.522534	0.315043
606.872314	0.315292
607.222041	0.315961
607.571714	0.314382
607.921333	0.316051
608.270899	0.315411
608.620411	0.312139
608.969870	0.316273
609.319276	0.316350
609.668627	0.315925
610.017926	0.314540
610.367171	0.313093
610.716362	0.313872
611.065500	0.313913
611.414585	0.312866
611.763616	0.313073
612.112594	0.313930
612.461518	0.312806
612.810389	0.310795
613.159207	0.312833
613.507971	0.314903
613.856682	0.310692
614.205340	0.311967
614.553945	0.309302
614.902496	0.312824
615.250994	0.311204
615.599439	0.311544
615.947830	0.310712
616.296169	0.312311
616.644454	0.311975
616.992686	0.311478
617.340864	0.309603
617.688990	0.313186
618.037063	0.309763
618.385082	0.311449
618.733048	0.308126
619.080961	0.310610
619.428821	0.310203
619.776628	0.310148
620.124382	0.312406
620.472083	0.312053
620.819731	0.311748
621.167326	0.315249
621.514868	0.315099
621.862357	0.319308
622.209793	0.318940
622.557176	0.321646
622.904506	0.322377
623.251783	0.324802
623.599007	0.326959
623.946179	0.326456
624.293297	0.328698
624.640363	0.332595
624.987376	0.332955
625.334336	0.335382
625.681243	0.337996
626.028097	0.338276
626.374899	0.339652
626.721647	0.339824
627.068343	0.342763
627.414987	0.344060
627.761577	0.345385
628.108115	0.344445
628.454600	0.349858
628.801032	0.347143
629.147412	0.349102
629.493739	0.349964
629.840014	0.352573
630.186236	0.349641
630.532405	0.356029
630.878521	0.352739
631.224585	0.354985
631.570597	0.358726
631.916556	0.357549
632.262462	0.357014
632.608316	0.359559
632.954117	0.360376
633.299866	0.360850
633.645562	0.361568
633.991206	0.365834
634.336797	0.368596
634.682336	0.371255
635.027823	0.372580
635.373257	0.373301
635.718639	0.377289
636.063968	0.376553
636.409245	0.382537
636.754470	0.382492
637.099642	0.385036
637.444762	0.388431
637.789829	0.387827
638.134845	0.390655
638.479808	0.391827
638.824719	0.391858
639.169577	0.395771
639.514383	0.394584
639.859137	0.399151
640.203839	0.399092
640.548489	0.399565
640.893086	0.400551
641.237632	0.402302
641.582125	0.400842
641.926566	0.402810
642.270955	0.402633
642.615292	0.403150
642.959576	0.401967
643.303809	0.402655
643.647990	0.402037
643.992118	0.402385
644.336195	0.405933
644.680219	0.404756
645.024192	0.405129
645.368112	0.398845
645.711981	0.397677
646.055797	0.393021
646.399562	0.395400
646.743274	0.388196
647.086935	0.384808
647.430544	0.385201
647.774101	0.383648
648.117606	0.383338
648.461059	0.384041
648.804460	0.386693
649.147810	0.391485
649.491108	0.393607
649.834354	0.395252
650.177548	0.400143
650.520690	0.405472
650.863781	0.406532
651.206820	0.406078
651.549807	0.411025
651.892742	0.415153
652.235626	0.414387
652.578458	0.415038
652.921238	0.422023
653.263967	0.419303
653.606644	0.422892
653.949269	0.423088
654.291843	0.426501
654.634365	0.423939
654.976836	0.426451
655.319255	0.427437
655.661622	0.428377
656.003938	0.428685
656.346203	0.431535
656.688416	0.429608
657.030577	0.432344
657.372687	0.435192
657.714746	0.436049
658.056753	0.432616
658.398708	0.436105
658.740612	0.437753
659.082465	0.433846
659.424266	0.434066
659.766016	0.433498
660.107715	0.436730
660.449362	0.435643
660.790958	0.435822
661.132503	0.437650
661.473996	0.433863
661.815438	0.435402
662.156829	0.435378
662.498168	0.436522
662.839456	0.437643
663.180693	0.435632
663.521879	0.434563
663.863013	0.435546
664.204097	0.434438
664.545129	0.431421
664.886110	0.431191
665.227040	0.429206
665.567918	0.431550
665.908746	0.429431
666.249522	0.429201
666.590248	0.430361
666.930922	0.427991
667.271545	0.427523
667.612118	0.427657
667.952639	0.429288
668.293109	0.427605
668.633528	0.430401
668.973896	0.430236
669.314213	0.431185
669.654480	0.432897
669.994695	0.432792
670.334859	0.433377
670.674973	0.433894
671.015035	0.434112
671.355047	0.433884
671.695008	0.434379
672.034918	0.436749
672.374777	0.436589
672.714585	0.437145
673.054342	0.437104
673.394049	0.437393
673.733705	0.435557
674.073310	0.436129
674.412864	0.439411
674.752368	0.439712
675.091820	0.439440
675.431223	0.444448
675.770574	0.443364
676.109875	0.447207
676.449125	0.446878
676.788324	0.449904
677.127473	0.454985
677.466571	0.455095
677.805619	0.456059
678.144616	0.457526
678.483562	0.459653
678.822458	0.461787
679.161303	0.462717
679.500098	0.463620
679.838842	0.464993
680.177535	0.463912
680.516179	0.462633
680.854771	0.461907
681.193314	0.455199
681.531805	0.446629
681.870247	0.435239
682.208638	0.427645
682.546978	0.426352
682.885268	0.428473
683.223508	0.434430
683.561697	0.438504
683.899836	0.441091
684.237925	0.444110
684.575963	0.447082
684.913951	0.450245
685.251889	0.445349
685.589776	0.448092
685.927614	0.449681
686.265401	0.444523
686.603137	0.445932
686.940824	0.439587
687.278460	0.438593
687.616046	0.436968
687.953582	0.432902
688.291068	0.433794
688.628504	0.428920
688.965889	0.431345
689.303224	0.435166
689.640510	0.439795
689.977745	0.445227
690.314930	0.452887
690.652065	0.457811
690.989150	0.465168
691.326185	0.472376
691.663170	0.476801
692.000105	0.484149
692.336990	0.490958
692.673825	0.492938
693.010610	0.499844
693.347345	0.506560
693.684030	0.507282
694.020665	0.511517
694.357251	0.520532
694.693786	0.520488
695.030272	0.523704
695.366707	0.528036
695.703093	0.531289
696.039429	0.529099
696.375716	0.531692
696.711952	0.533281
697.048139	0.535620
697.384276	0.538021
697.720363	0.536522
698.056400	0.534266
698.392388	0.541088
698.728326	0.543472
699.064214	0.545841
699.400053	0.546513
699.735842	0.551151
700.071581	0.553763
700.407270	0.555946
700.742910	0.559476
701.078501	0.565934
701.414042	0.565818
701.749533	0.569643
702.084974	0.578723
702.420366	0.571417
702.755709	0.578207
703.091002	0.585914
703.426246	0.580193
703.761440	0.585021
704.096584	0.589828
704.431679	0.587261
704.766725	0.589175
705.101721	0.591175
705.436668	0.587145
705.771565	0.593823
706.106413	0.590104
706.441212	0.585934
706.775961	0.585705
707.110661	0.586994
707.445311	0.583476
707.779913	0.581083
708.114465	0.579786
708.448967	0.576206
708.783421	0.568674
709.117825	0.563363
709.452180	0.562893
709.786485	0.556500
710.120742	0.546563
710.454949	0.548543
710.789107	0.540258
711.123216	0.530973
711.457275	0.532610
711.791286	0.524649
712.125247	0.523035
712.459159	0.533815
712.793023	0.525639
713.126837	0.530376
713.460602	0.530471
713.794318	0.539167
714.127985	0.538183
714.461602	0.548994
714.795171	0.552052
715.128691	0.560258
715.462162	0.567530
715.795584	0.573392
716.128957	0.576011
716.462281	0.583047
716.795556	0.586427
717.128782	0.591411
717.461960	0.600793
717.795088	0.600063
718.128167	0.605879
718.461198	0.614146
718.794180	0.614981
719.127113	0.617793
719.459997	0.620828
719.792833	0.627995
720.125619	0.628744
720.458357	0.634825
720.791046	0.633973
721.123686	0.638440
721.456278	0.644663
721.788821	0.641594
722.121315	0.647674
722.453761	0.649941
722.786158	0.648371
723.118506	0.645237
723.450805	0.652538
723.783056	0.649628
724.115259	0.646311
724.447412	0.646919
724.779518	0.647136
725.111574	0.645597
725.443582	0.641703
725.775542	0.643992
726.107453	0.635678
726.439315	0.636114
726.771129	0.634226
727.102895	0.627411
727.434612	0.619733
727.766281	0.618004
728.097901	0.617669
728.429473	0.617648
728.760996	0.615812
729.092471	0.616068
729.423897	0.620286
729.755276	0.617996
730.086606	0.618244
730.417887	0.613990
730.749120	0.603359
731.080305	0.594041
731.411442	0.590214
731.742530	0.594684
732.073570	0.594258
732.404562	0.586992
732.735506	0.587959
733.066401	0.593310
733.397249	0.601784
733.728048	0.613679
734.058798	0.626531
734.389501	0.637562
734.720156	0.647572
735.050762	0.655052
735.381320	0.655809
735.711831	0.664531
736.042293	0.669594
736.372707	0.666501
736.703073	0.670557
737.033391	0.671788
737.363661	0.669456
737.693883	0.664722
738.024056	0.663565
738.354182	0.663771
738.684260	0.653460
739.014290	0.649987
739.344272	0.649985
739.674207	0.643650
740.004093	0.642811
740.333931	0.643717
740.663722	0.642813
740.993464	0.644192
741.323159	0.647204
741.652806	0.653150
741.982405	0.657430
742.311956	0.662858
742.641460	0.665022
742.970915	0.667962
743.300323	0.675211
743.629683	0.681670
743.958996	0.685232
744.288260	0.688819
744.617477	0.694710
744.946647	0.696984
745.275768	0.702660
745.604842	0.701581
745.933869	0.711575
746.262847	0.713126
746.591778	0.705523
746.920662	0.711991
747.249498	0.719098
747.578286	0.709896
747.907027	0.705902
748.235720	0.706625
748.564365	0.702320
748.892963	0.700535
749.221514	0.705009
749.550017	0.708713
749.878473	0.709709
750.206881	0.716573
750.535242	0.715792
750.863555	0.715618
751.191821	0.717980
751.520039	0.720885
751.848210	0.724378
752.176334	0.718692
752.504411	0.717197
752.832440	0.725067
753.160421	0.729264
753.488356	0.727213
753.816243	0.724170
754.144082	0.732649
754.471875	0.737101
754.799620	0.733774
755.127318	0.733767
755.454969	0.734614
755.782572	0.734222
756.110129	0.737377
756.437638	0.740588
756.765100	0.737598
757.092515	0.735270
757.419882	0.734172
757.747203	0.738776
758.074477	0.739416
758.401703	0.736001
758.728882	0.731235
759.056014	0.729907
759.383099	0.729810
759.710138	0.729910
760.037129	0.725952
760.364073	0.720967
760.690970	0.723453
761.017820	0.727341
761.344623	0.724103
761.671379	0.715124
761.998088	0.704650
762.324751	0.680134
762.651366	0.637044
762.977935	0.570246
763.304456	0.517900
763.630931	0.508099
763.957359	0.547260
764.283740	0.591674
764.610074	0.620079
764.936362	0.651331
765.262602	0.679015
765.588796	0.700164
765.914943	0.716682
766.241044	0.735872
766.567097	0.741319
766.893104	0.753025
767.219064	0.759136
767.544978	0.765517
767.870845	0.778679
768.196665	0.782971
768.522438	0.781852
768.848165	0.782595
769.173846	0.791742
769.499479	0.796673
769.825066	0.800413
770.150607	0.804489
770.476101	0.800321
770.801548	0.800979
771.126949	0.813149
771.452303	0.817598
771.777611	0.815115
772.102872	0.814637
772.428087	0.820336
772.753256	0.823288
773.078378	0.825603
773.403453	0.834053
773.728482	0.839225
774.053465	0.831681
774.378401	0.836421
774.703291	0.844825
775.028135	0.844742
775.352932	0.844646
775.677683	0.849164
776.002388	0.850456
776.327046	0.847847
776.651658	0.853505
776.976224	0.855542
777.300743	0.855379
777.625216	0.856940
777.949643	0.860020
778.274024	0.859482
778.598359	0.861031
778.922647	0.859361
779.246889	0.859968
779.571086	0.863894
779.895236	0.867452
780.219339	0.864078
780.543397	0.859498
780.867409	0.859113
781.191374	0.861402
781.515294	0.861934
781.839167	0.862281
782.162995	0.864905
782.486776	0.861828
782.810511	0.862985
783.134201	0.867173
783.457844	0.865205
783.781441	0.867097
784.104993	0.873478
784.428498	0.873278
784.751958	0.869811
785.075372	0.871580
785.398739	0.874824
785.722061	0.870663
786.045337	0.866252
786.368568	0.871837
786.691752	0.874746
787.014891	0.859983
787.337983	0.850213
787.661030	0.843723
787.984031	0.824493
788.306987	0.812486
788.629897	0.813219
788.952760	0.819327
789.275579	0.823767
789.598351	0.839702
789.921078	0.853082
790.243759	0.854549
790.566395	0.858696
790.888984	0.866961
791.211529	0.871661
791.534027	0.873259
791.856480	0.877133
792.178888	0.881485
792.501249	0.883976
792.823566	0.886007
793.145836	0.884333
793.468062	0.888091
793.790241	0.888213
794.112375	0.886288
794.434464	0.882616
794.756507	0.881561
795.078505	0.879413
795.400457	0.875152
795.722364	0.863507
796.044226	0.856018
796.366042	0.854562
796.687812	0.856873
797.009538	0.853398
797.331218	0.857687
797.652852	0.862673
797.974442	0.865939
798.295986	0.868354
798.617484	0.869107
798.938938	0.873415
799.260346	0.878542
799.581709	0.880249
799.903026	0.883528
800.224299	0.883796
800.545526	0.886330
800.866708	0.890746
801.187845	0.894672
801.508936	0.894096
801.829983	0.891638
802.150984	0.895943
802.471940	0.899927
802.792851	0.899348
803.113717	0.901320
803.434538	0.899011
803.755314	0.901977
804.076045	0.903077
804.396731	0.903363
804.717372	0.900992
805.037967	0.905533
805.358518	0.902865
805.679024	0.898164
805.999485	0.900852
806.319901	0.899240
806.640272	0.902338
806.960598	0.899848
807.280879	0.895327
807.601115	0.895407
807.921306	0.899779
808.241453	0.899551
808.561554	0.897491
808.881611	0.896932
809.201623	0.898888
809.521590	0.899298
809.841513	0.901495
810.161390	0.897752
810.481223	0.901038
810.801011	0.904329
811.120755	0.906604
811.440453	0.904182
811.760107	0.905412
812.079716	0.903824
812.399281	0.907168
812.718801	0.909751
813.038276	0.909855
813.357707	0.910252
813.677093	0.907729
813.996434	0.909827
814.315731	0.912598
814.634983	0.913314
814.954191	0.912655
815.273354	0.906947
815.592473	0.904711
815.911547	0.903783
816.230577	0.901254
816.549562	0.899170
816.868502	0.897424
817.187399	0.897174
817.506250	0.890864
817.825058	0.892100
818.143821	0.888930
818.462539	0.883534
818.781213	0.876538
819.099843	0.865297
819.418429	0.848418
819.736970	0.830950
820.055466	0.810712
820.373919	0.784854
820.692327	0.751087
821.010691	0.716397
821.329011	0.635499
821.647286	0.518674
821.965517	0.403396
822.283704	0.360338
822.601847	0.361377
822.919945	0.397854
823.237999	0.432688
823.556010	0.480198
823.873976	0.536984
824.191897	0.587787
824.509775	0.632130
824.827609	0.677583
825.145398	0.700610
825.463144	0.701983
825.780845	0.684721
826.098502	0.667356
826.416116	0.620689
826.733685	0.575987
827.051210	0.566864
827.368692	0.582017
827.686129	0.620195
828.003522	0.674584
828.320872	0.723584
828.638177	0.766759
828.955439	0.800626
829.272656	0.822063
829.589830	0.839825
829.906960	0.855713
830.224046	0.869065
830.541088	0.878786
830.858086	0.884871
831.175041	0.890413
831.491952	0.889806
831.808819	0.885257
832.125642	0.877394
832.442421	0.864941
832.759157	0.841610
833.075849	0.794036
833.392497	0.729031
833.709101	0.688401
834.025662	0.698846
834.342179	0.730460
834.658653	0.770048
834.975083	0.806303
835.291469	0.834416
835.607811	0.855384
835.924110	0.874104
836.240366	0.891023
836.556578	0.904134
836.872746	0.911165
837.188871	0.918148
837.504952	0.923425
837.820990	0.926291
838.136984	0.930116
838.452935	0.933914
838.768842	0.935131
839.084706	0.927895
839.400526	0.901729
839.716303	0.859923
840.032037	0.839282
840.347727	0.840456
840.663373	0.859672
840.978977	0.881619
841.294537	0.905238
841.610054	0.920891
841.925527	0.929377
842.240957	0.936118
842.556344	0.943680
842.871687	0.949734
843.186987	0.952689
843.502244	0.955405
843.817458	0.955122
844.132629	0.959816
844.447756	0.963644
844.762840	0.964394
845.077881	0.965061
845.392879	0.962443
845.707833	0.966331
846.022745	0.968113
846.337613	0.968296
846.652438	0.968693
846.967221	0.969623
847.281960	0.969707
847.596656	0.971136
847.911309	0.970019
848.225919	0.970942
848.540485	0.973113
848.855009	0.973569
849.169490	0.973439
849.483928	0.972600
849.798323	0.972886
850.112675	0.974279
850.426984	0.972783
850.741251	0.975052
851.055474	0.973894
851.369654	0.973669
851.683792	0.971942
851.997887	0.973693
852.311938	0.975028
852.625947	0.973909
852.939914	0.972461
853.253837	0.972836
853.567718	0.974087
853.881555	0.976158
854.195350	0.973163
854.509103	0.973422
854.822812	0.974559
855.136479	0.973943
855.450103	0.973840
855.763685	0.973782
856.077224	0.974216
856.390720	0.974537
856.704173	0.974632
857.017584	0.972329
857.330953	0.972123
857.644278	0.970720
857.957561	0.971211
858.270802	0.973592
858.584000	0.972370
858.897155	0.971645
859.210268	0.971097
859.523339	0.973959
859.836367	0.975249
860.149352	0.973950
860.462295	0.974379
860.775195	0.974439
861.088054	0.973061
861.400869	0.974500
861.713642	0.974725
862.026373	0.976512
862.339062	0.975807
862.651708	0.974188
862.964312	0.972592
863.276873	0.974498
863.589392	0.971959
863.901869	0.969379
864.214303	0.969342
864.526696	0.967963
864.839045	0.967551
865.151353	0.966487
865.463619	0.964639
865.775842	0.967418
866.088023	0.967623
866.400162	0.965738
866.712258	0.967119
867.024313	0.967469
867.336325	0.969311
867.648296	0.968077
867.960224	0.966274
868.272110	0.967350
868.583954	0.968912
868.895755	0.968263
869.207515	0.965454
869.519233	0.964083
869.830909	0.964168
870.142542	0.966663
870.454134	0.965681
870.765684	0.963750
871.077191	0.962866
871.388657	0.962840
871.700081	0.963732
872.011463	0.963565
872.322803	0.962880
872.634101	0.959999
872.945357	0.957715
873.256571	0.956059
873.567744	0.957517
873.878874	0.957201
874.189963	0.956552
874.501010	0.957287
874.812015	0.953357
875.122979	0.955127
875.433900	0.956120
875.744780	0.957459
876.055618	0.954960
876.366415	0.952585
876.677169	0.952947
876.987882	0.955129
877.298554	0.955133
877.609183	0.951558
877.919771	0.948737
878.230317	0.946665
878.540822	0.943737
878.851285	0.938879
879.161707	0.930985
879.472087	0.918244
879.782425	0.899560
880.092722	0.865252
880.402977	0.812026
880.713191	0.748987
881.023363	0.686907
881.333494	0.653055
881.643583	0.625721
881.953631	0.625337
882.263637	0.653648
882.573602	0.694393
882.883526	0.720937
883.193408	0.746671
883.503248	0.769451
883.813048	0.796622
884.122806	0.828092
884.432522	0.851391
884.742197	0.871639
885.051831	0.882272
885.361424	0.893869
885.670975	0.906281
885.980485	0.915406
886.289954	0.922806
886.599382	0.927145
886.908768	0.931756
887.218113	0.936840
887.527417	0.942631
887.836680	0.945477
888.145901	0.946537
888.455082	0.950837
888.764221	0.954560
889.073319	0.956267
889.382376	0.957654
889.691392	0.955691
890.000366	0.957228
890.309300	0.957708
890.618193	0.956839
890.927044	0.956359
891.235855	0.955696
891.544625	0.955795
891.853353	0.956138
892.162041	0.952055
892.470687	0.946592
892.779293	0.941950
893.087858	0.936291
893.396381	0.928281
893.704864	0.914126
894.013306	0.889711
894.321707	0.863712
894.630068	0.848708
894.938387	0.842290
895.246665	0.846149
895.554903	0.857123
895.863100	0.870913
896.171256	0.888645
896.479371	0.908238
896.787446	0.920717
897.095480	0.928160
897.403473	0.931219
897.711425	0.935763
898.019336	0.942649
898.327207	0.947252
898.635038	0.947240
898.942827	0.949280
899.250576	0.952183
899.558284	0.956651
899.865952	0.958303
900.173579	0.959047
900.481165	0.959707
900.788711	0.962118
901.096216	0.964920
901.403681	0.967332
901.711105	0.965676
902.018489	0.967042
902.325832	0.967083
902.633135	0.964662
902.940397	0.959118
903.247619	0.944961
903.554800	0.920572
903.861941	0.880039
904.169041	0.841784
904.476101	0.824147
904.783121	0.825542
905.090100	0.841310
905.397039	0.863679
905.703938	0.886127
906.010796	0.907523
906.317614	0.924006
906.624391	0.938377
906.931129	0.947366
907.237826	0.956005
907.544483	0.962024
907.851099	0.967795
908.157675	0.970206
908.464211	0.974006
908.770707	0.975818
909.077163	0.978863
909.383578	0.978572
909.689954	0.980210
909.996289	0.980825
910.302584	0.982338
910.608839	0.984201
910.915054	0.982423
911.221229	0.983011
911.527363	0.981655
911.833458	0.982632
912.139513	0.981399
912.445527	0.981588
912.751502	0.978029
913.057436	0.976236
913.363331	0.974742
913.669186	0.970596
913.975000	0.965002
914.280775	0.959564
914.586510	0.951413
914.892205	0.937372
915.197859	0.915675
915.503475	0.887790
915.809050	0.867066
916.114585	0.860545
916.420081	0.857899
916.725536	0.855408
917.030952	0.863897
917.336328	0.876575
917.641665	0.892203
917.946961	0.907947
918.252218	0.919710
918.557435	0.930199
918.862612	0.937832
919.167750	0.944152
919.472848	0.951476
919.777906	0.955408
920.082925	0.961503
920.387904	0.965035
920.692843	0.966047
920.997743	0.967292
921.302603	0.971582
921.607423	0.973393
921.912204	0.975276
922.216946	0.977431
922.521647	0.977816
922.826310	0.978031
923.130932	0.982128
923.435516	0.983845
923.740059	0.983434
924.044564	0.983846
924.349028	0.984491
924.653454	0.986847
924.957840	0.987393
925.262186	0.989778
925.566493	0.989011
925.870761	0.989939
926.174989	0.990311
926.479178	0.992876
926.783328	0.992139
927.087438	0.992044
927.391509	0.992926
927.695541	0.993890
927.999533	0.994224
928.303486	0.993359
928.607400	0.995187
928.911275	0.994500
929.215110	0.995814
929.518906	0.995458
929.822663	0.995666
930.126381	0.995725
930.430060	0.995863
930.733699	0.994996
931.037299	0.995281
931.340861	0.993827
931.644383	0.993769
931.947866	0.994219
932.251309	0.994765
932.554714	0.995057
932.858080	0.994869
933.161407	0.994199
933.464694	0.994999
933.767943	0.995698
934.071153	0.996823
934.374323	0.996921
934.677455	0.995017
934.980548	0.995709
935.283602	0.997315
935.586617	0.996855
935.889593	0.998068
936.192530	0.995706
936.495428	0.996525
936.798287	0.995117
937.101108	0.996215
937.403890	0.993525
937.706632	0.994658
938.009336	0.991442
938.312002	0.989925
938.614628	0.988005
938.917216	0.987082
939.219765	0.986548
939.522275	0.986527
939.824747	0.987092
940.127179	0.988774
940.429573	0.989370
940.731929	0.987903
941.034246	0.988685
941.336524	0.988859
941.638763	0.990467
941.940964	0.989815
942.243126	0.991043
942.545250	0.991987
942.847335	0.992466
943.149381	0.993304
943.451389	0.992563
943.753359	0.993266
944.055290	0.996346
944.357182	0.994475
944.659036	0.994281
944.960851	0.996223
945.262628	0.995159
945.564367	0.994121
945.866067	0.994550
946.167729	0.994464
946.469352	0.994150
946.770937	0.992569
947.072484	0.995247
947.373992	0.995155
947.675462	0.995187
947.976893	0.994195
948.278286	0.997308
948.579641	0.995915
948.880958	0.996063
949.182236	0.996435
949.483476	0.996860
949.784678	0.996822
950.085841	0.996021
950.386967	0.995273
950.688054	0.995692
950.989103	0.994424
951.290114	0.994309
951.591087	0.994383
951.892021	0.993558
952.192917	0.993656
952.493776	0.994187
952.794596	0.992347
953.095378	0.990711
953.396122	0.992956
953.696828	0.993620
953.997496	0.994892
954.298126	0.995518
954.598718	0.994416
954.899272	0.995858
955.199788	0.994984
955.500266	0.997466
955.800706	0.996150
956.101108	0.997029
956.401472	0.998709
956.701798	0.998831
957.002087	0.999200
957.302337	0.998026
957.602550	0.999734
957.902724	0.999431
958.202861	0.999062
958.502960	0.999592
958.803022	1.001247
959.103045	1.001257
959.403031	1.000974
959.702979	1.000528
960.002889	1.000194
960.302762	1.000586
960.602596	1.001875
960.902393	1.000712
961.202153	1.001852
961.501875	1.002343
961.801559	1.001280
962.101205	1.001358
962.400814	1.002430
962.700385	1.001331
962.999918	1.002360
963.299414	1.000980
963.598873	1.001669
963.898293	1.001293
964.197677	1.001893
964.497022	1.002357
964.796331	1.002726
965.095601	1.002775
965.394835	1.002136
965.694030	1.002621
965.993189	1.002634
966.292309	1.002898
966.591393	1.001847
966.890439	1.001889
967.189447	1.002118
967.488419	1.002640
967.787353	1.002040
968.086249	1.002343
968.385108	1.002723
968.683930	1.002807
968.982714	1.001020
969.281462	1.002274
969.580172	1.001790
969.878844	1.002558
970.177480	1.001272
970.476078	1.002351
970.774639	1.002539
971.073162	1.001220
971.371649	1.001951
971.670098	1.001956
971.968510	1.001652
972.266885	1.001105
972.565223	1.001710
972.863524	1.000367
973.161788	1.000771
973.460014	1.002070
973.758204	1.001258
974.056356	1.000779
974.354471	1.001427
974.652550	1.002642
974.950591	1.001255
975.248595	1.000845
975.546563	1.001657
975.844493	1.002432
976.142386	1.001607
976.440243	1.002670
976.738062	1.001781
977.035845	1.000590
977.333590	1.002431
977.631299	1.002101
977.928971	1.002121
978.226606	1.002236
978.524204	1.002005
978.821765	1.002456
979.119290	1.003221
979.416777	1.002409
979.714228	1.002776
980.011642	1.002869
980.309020	1.001965
980.606360	1.001432
980.903664	1.002089
981.200931	0.999616
981.498162	1.001099
981.795356	1.000830
982.092513	0.999217
982.389633	0.999025
982.686717	0.996552
982.983764	0.996542
983.280775	0.995044
983.577749	0.996807
983.874686	0.994876
984.171587	0.996499
984.468451	0.997283
984.765279	0.999648
985.062070	0.999746
985.358824	1.000529
985.655543	1.001674
985.952224	1.001585
986.248869	1.003024
986.545478	1.003152
986.842050	1.002848
987.138586	1.001555
987.435086	1.001908
987.731549	1.003992
988.027975	1.003853
988.324366	1.002615
988.620719	1.004381
988.917037	1.003184
989.213318	1.004675
989.509563	1.003685
989.805772	1.003406
990.101944	1.003243
990.398080	1.002610
990.694180	1.004412
990.990244	1.002812
991.286271	1.003737
991.582262	1.004386
991.878217	1.002505
992.174136	1.003665
992.470019	1.003460
992.765865	1.005353
993.061676	1.002950
993.357450	1.003249
993.653188	1.004770
993.948890	1.003407
994.244556	1.003458
994.540186	1.004074
994.835780	1.003072
995.131337	1.003449
995.426859	1.002349
995.722345	1.002177
996.017795	1.000741
996.313208	1.002104
996.608586	1.001150
996.903928	1.002465
997.199234	1.001758
997.494504	1.003123
997.789738	1.001199
998.084936	1.002319
998.380099	1.002061
998.675225	1.002924
998.970316	1.002795
999.265371	1.002404
999.560390	1.002913
999.855373	1.003300
1000.150320	1.003230
1000.445232	1.003161
1000.740108	1.003260
1001.034948	1.002694
1001.329752	1.004911
1001.624521	1.003225
1001.919254	1.004278
1002.213951	1.004703
1002.508613	1.003061
1002.803239	1.003302
1003.097829	1.004595
1003.392384	1.003905
1003.686903	1.005036
1003.981386	1.002887
1004.275834	1.004525
1004.570246	1.003560
1004.864623	1.004931
1005.158964	1.004501
1005.453270	1.004790
1005.747540	1.001472
1006.041775	1.004400
1006.335974	1.003702
1006.630138	1.004255
1006.924266	1.003118
1007.218359	1.002631
1007.512416	1.004987
1007.806438	1.003446
1008.100425	1.004356
1008.394376	1.004238
1008.688292	1.004011
1008.982172	1.003095
1009.276017	1.004669
1009.569827	1.004414
1009.863602	1.003704
1010.157341	1.005156
1010.451045	1.003013
1010.744714	1.005767
1011.038347	1.004399
1011.331945	1.003321
1011.625508	1.002893
1011.919036	1.003666
1012.212528	1.005098
1012.505986	1.004416
1012.799408	1.004559
1013.092795	1.004757
1013.386147	1.004525
1013.679464	1.004772
1013.972745	1.003597
1014.265992	1.003055
1014.559204	1.003350
1014.852380	1.004852
1015.145521	1.003889
1015.438628	1.003730
1015.731699	1.003590
1016.024736	1.004123
1016.317737	1.004066
1016.610703	1.004133
1016.903635	1.004168
1017.196531	1.004521
1017.489393	1.003847
1017.782219	1.003290
1018.075011	1.003612
1018.367768	1.003597
1018.660490	1.004390
1018.953177	1.004390
1019.245829	1.004390
