Dividing Wavelength (nm)	Counts (n)	Blue Motor Position (mm): 24.500000	Red Motor Position (mm): 0.000000	
326.493990	1.001945
326.888308	1.001945
327.282561	1.001945
327.676750	1.002592
328.070874	1.002567
328.464933	1.003736
328.858929	1.003035
329.252859	1.002618
329.646726	1.001822
330.040528	1.001712
330.434265	1.001101
330.827938	1.000679
331.221547	1.001445
331.615091	1.002648
332.008571	1.003710
332.401986	1.002321
332.795338	1.001224
333.188625	1.002651
333.581847	1.001535
333.975006	1.003133
334.368100	1.002462
334.761129	1.001575
335.154095	1.002091
335.546996	1.002191
335.939833	0.999532
336.332606	1.000981
336.725315	0.999471
337.117960	0.999976
337.510540	0.999766
337.903056	0.999687
338.295508	1.000618
338.687896	1.000436
339.080220	1.000743
339.472480	0.999641
339.864676	1.000446
340.256807	0.999609
340.648875	1.000990
341.040879	0.999698
341.432818	0.999612
341.824694	0.999988
342.216506	1.000187
342.608253	0.999362
342.999937	0.999555
343.391557	1.000215
343.783113	1.001045
344.174605	0.999797
344.566033	0.999621
344.957397	1.000676
345.348697	1.001508
345.739934	0.999638
346.131106	0.999332
346.522215	0.999191
346.913260	0.999799
347.304241	0.999382
347.695159	1.000352
348.086012	0.999661
348.476802	0.999563
348.867528	0.998452
349.258191	1.001120
349.648789	0.999423
350.039324	1.001367
350.429796	0.998943
350.820203	0.999349
351.210548	0.998891
351.600828	1.001348
351.991045	0.997762
352.381198	0.999328
352.771288	0.999261
353.161314	0.999673
353.551276	0.999135
353.941175	0.997231
354.331010	0.998906
354.720782	0.998294
355.110490	0.998681
355.500135	0.999284
355.889717	0.999297
356.279235	0.998810
356.668689	0.999836
357.058080	0.998300
357.447408	0.998041
357.836672	0.998097
358.225873	0.997524
358.615010	0.999035
359.004084	0.997820
359.393095	0.998139
359.782043	0.998511
360.170927	0.999531
360.559748	0.999029
360.948505	0.998214
361.337199	0.997788
361.725830	0.998781
362.114398	0.999146
362.502903	0.999030
362.891344	0.997403
363.279722	0.997882
363.668037	0.998462
364.056289	0.997381
364.444478	0.999435
364.832603	0.997269
365.220665	0.997638
365.608665	0.997915
365.996601	0.998180
366.384474	0.997638
366.772284	0.998191
367.160031	0.996370
367.547715	0.996546
367.935336	0.995061
368.322893	0.993648
368.710388	0.993691
369.097820	0.990660
369.485189	0.989571
369.872495	0.988198
370.259738	0.985583
370.646918	0.981533
371.034035	0.980730
371.421090	0.978043
371.808081	0.972671
372.195010	0.970320
372.581875	0.965171
372.968678	0.960128
373.355418	0.957025
373.742096	0.949487
374.128710	0.945089
374.515262	0.941134
374.901751	0.934182
375.288177	0.929104
375.674540	0.922565
376.060841	0.915981
376.447079	0.910801
376.833254	0.903782
377.219367	0.898266
377.605417	0.886659
377.991404	0.883680
378.377329	0.877390
378.763191	0.871387
379.148991	0.862339
379.534727	0.854472
379.920402	0.846203
380.306013	0.842705
380.691563	0.830720
381.077049	0.823677
381.462474	0.819586
381.847835	0.808959
382.233134	0.802712
382.618371	0.804496
383.003545	0.786099
383.388657	0.783560
383.773706	0.776425
384.158693	0.772255
384.543618	0.767387
384.928480	0.758687
385.313280	0.748496
385.698017	0.747702
386.082692	0.736167
386.467305	0.734749
386.851856	0.729420
387.236344	0.724291
387.620770	0.718644
388.005133	0.712691
388.389435	0.707271
388.773674	0.704871
389.157851	0.697080
389.541965	0.693947
389.926018	0.700431
390.310008	0.687201
390.693936	0.684754
391.077802	0.676364
391.461606	0.678108
391.845348	0.667080
392.229027	0.666994
392.612645	0.664970
392.996200	0.651535
393.379694	0.644435
393.763125	0.634183
394.146494	0.640214
394.529801	0.630487
394.913047	0.622338
395.296230	0.628334
395.679351	0.619367
396.062410	0.616602
396.445408	0.619163
396.828343	0.614795
397.211217	0.609531
397.594028	0.621682
397.976778	0.611938
398.359466	0.609317
398.742092	0.603957
399.124656	0.615683
399.507158	0.603322
399.889598	0.601524
400.271977	0.592078
400.654294	0.596482
401.036549	0.594862
401.418742	0.599590
401.800874	0.585314
402.182944	0.581970
402.564952	0.573719
402.946898	0.575696
403.328783	0.576919
403.710606	0.586939
404.092367	0.562880
404.474067	0.567970
404.855705	0.566451
405.237282	0.575886
405.618797	0.561412
406.000250	0.557676
406.381642	0.547346
406.762972	0.552437
407.144240	0.550785
407.525447	0.550990
407.906593	0.543880
408.287677	0.539463
408.668700	0.547307
409.049661	0.541823
409.430560	0.536826
409.811399	0.545202
410.192176	0.527093
410.572891	0.534155
410.953545	0.522764
411.334138	0.536685
411.714669	0.528133
412.095139	0.541343
412.475547	0.524630
412.855894	0.526690
413.236180	0.526037
413.616405	0.530804
413.996568	0.520971
414.376670	0.527727
414.756711	0.531921
415.136691	0.529036
415.516609	0.520914
415.896466	0.517894
416.276262	0.513231
416.655997	0.515219
417.035670	0.496508
417.415283	0.488036
417.794834	0.493107
418.174324	0.498295
418.553753	0.507592
418.933121	0.489930
419.312428	0.483663
419.691674	0.489296
420.070859	0.477181
420.449983	0.485646
420.829045	0.474784
421.208047	0.483416
421.586988	0.477314
421.965867	0.475392
422.344686	0.464331
422.723444	0.477104
423.102141	0.494310
423.480777	0.466935
423.859352	0.487767
424.237866	0.464806
424.616319	0.465833
424.994712	0.456922
425.373044	0.466627
425.751314	0.454711
426.129524	0.471262
426.507673	0.454538
426.885762	0.448355
427.263789	0.453502
427.641756	0.463589
428.019662	0.453699
428.397508	0.453369
428.775292	0.457252
429.153016	0.448981
429.530679	0.455648
429.908282	0.448951
430.285824	0.459232
430.663305	0.437671
431.040726	0.458434
431.418086	0.458342
431.795385	0.450145
432.172624	0.449455
432.549802	0.449535
432.926920	0.448260
433.303977	0.448347
433.680974	0.445651
434.057910	0.443941
434.434786	0.443210
434.811601	0.446050
435.188355	0.428137
435.565050	0.437652
435.941683	0.438849
436.318257	0.422485
436.694770	0.424072
437.071222	0.422093
437.447614	0.425987
437.823946	0.433070
438.200218	0.422310
438.576429	0.431554
438.952580	0.425142
439.328670	0.421512
439.704700	0.427941
440.080670	0.429485
440.456580	0.410353
440.832429	0.418510
441.208218	0.429484
441.583947	0.418364
441.959616	0.417994
442.335224	0.423326
442.710773	0.414148
443.086261	0.412793
443.461689	0.426182
443.837057	0.416062
444.212365	0.405300
444.587612	0.413644
444.962800	0.403098
445.337927	0.404902
445.712995	0.431224
446.088002	0.392545
446.462949	0.403426
446.837837	0.408154
447.212664	0.397068
447.587431	0.388408
447.962139	0.359113
448.336786	0.317795
448.711374	0.328244
449.085901	0.372678
449.460369	0.377607
449.834776	0.380627
450.209124	0.360064
450.583412	0.352643
450.957640	0.346005
451.331808	0.357920
451.705917	0.381283
452.079965	0.385880
452.453954	0.374608
452.827883	0.381052
453.201752	0.376772
453.575562	0.387402
453.949311	0.377023
454.323001	0.383010
454.696632	0.379496
455.070202	0.372468
455.443713	0.364945
455.817164	0.359989
456.190556	0.356720
456.563888	0.353999
456.937160	0.351950
457.310373	0.370092
457.683526	0.369748
458.056619	0.375749
458.429653	0.377059
458.802628	0.381454
459.175542	0.376546
459.548398	0.360289
459.921194	0.354303
460.293930	0.355509
460.666607	0.334977
461.039224	0.325238
461.411782	0.321931
461.784280	0.322358
462.156719	0.327267
462.529099	0.332996
462.901419	0.350150
463.273680	0.355791
463.645882	0.356115
464.018024	0.364173
464.390106	0.359038
464.762130	0.346090
465.134094	0.333765
465.505999	0.308224
465.877845	0.283789
466.249631	0.272609
466.621358	0.280918
466.993026	0.296287
467.364634	0.303615
467.736184	0.314561
468.107674	0.326745
468.479105	0.329462
468.850477	0.337973
469.221790	0.347677
469.593043	0.359964
469.964238	0.368493
470.335373	0.371634
470.706449	0.373956
471.077467	0.378180
471.448425	0.350452
471.819324	0.333169
472.190164	0.335903
472.560945	0.365503
472.931667	0.390090
473.302330	0.397669
473.672934	0.413296
474.043479	0.407975
474.413965	0.414362
474.784393	0.423570
475.154761	0.423884
475.525070	0.427567
475.895321	0.437575
476.265513	0.438462
476.635645	0.440047
477.005719	0.447334
477.375734	0.450222
477.745691	0.451013
478.115588	0.455520
478.485427	0.457380
478.855207	0.454418
479.224928	0.449944
479.594591	0.447424
479.964194	0.457346
480.333739	0.463323
480.703226	0.472622
481.072653	0.478829
481.442022	0.484929
481.811333	0.489198
482.180584	0.499365
482.549777	0.511190
482.918912	0.520456
483.287988	0.528374
483.657005	0.535043
484.025964	0.547443
484.394864	0.553423
484.763706	0.561928
485.132489	0.572131
485.501213	0.580878
485.869879	0.587173
486.238487	0.597839
486.607036	0.603487
486.975527	0.615515
487.343959	0.620040
487.712333	0.628159
488.080648	0.635657
488.448905	0.644059
488.817104	0.652295
489.185244	0.657505
489.553326	0.664031
489.921350	0.667451
490.289315	0.664930
490.657222	0.669136
491.025070	0.678797
491.392861	0.686672
491.760593	0.698563
492.128267	0.709505
492.495883	0.719107
492.863440	0.729416
493.230939	0.739694
493.598380	0.747327
493.965763	0.755363
494.333088	0.761113
494.700354	0.770579
495.067563	0.775432
495.434713	0.784221
495.801805	0.788897
496.168839	0.795792
496.535815	0.803665
496.902733	0.808212
497.269593	0.815698
497.636395	0.819865
498.003139	0.827000
498.369825	0.833218
498.736453	0.837405
499.103023	0.843351
499.469535	0.848748
499.835989	0.854026
500.202385	0.858773
500.568723	0.865114
500.935003	0.868251
501.301226	0.875168
501.667390	0.877325
502.033497	0.881762
502.399546	0.887319
502.765537	0.892253
503.131470	0.896445
503.497345	0.899919
503.863163	0.904820
504.228923	0.908322
504.594625	0.911109
504.960269	0.915973
505.325856	0.919637
505.691385	0.923256
506.056856	0.925855
506.422270	0.929354
506.787625	0.932708
507.152924	0.935386
507.518164	0.937794
507.883347	0.941137
508.248472	0.943969
508.613540	0.945285
508.978550	0.948863
509.343503	0.950743
509.708398	0.953731
510.073236	0.955939
510.438016	0.956940
510.802738	0.958698
511.167403	0.960803
511.532010	0.963738
511.896561	0.964685
512.261053	0.965316
512.625488	0.968034
512.989866	0.969385
513.354186	0.970100
513.718449	0.972719
514.082655	0.972922
514.446803	0.974461
514.810894	0.976573
515.174927	0.977513
515.538904	0.978654
515.902822	0.978953
516.266684	0.979896
516.630488	0.980592
516.994235	0.981874
517.357925	0.982476
517.721558	0.983089
518.085133	0.983849
518.448651	0.984052
518.812112	0.986427
519.175516	0.985499
519.538863	0.986054
519.902152	0.987283
520.265385	0.987290
520.628560	0.987287
520.991678	0.988151
521.354739	0.988918
521.717743	0.989108
522.080690	0.988645
522.443580	0.989432
522.806413	0.989052
523.169189	0.989864
523.531908	0.989474
523.894569	0.990313
524.257174	0.990153
524.619722	0.990461
524.982213	0.991101
525.344647	0.990507
525.707025	0.990797
526.069345	0.990773
526.431608	0.992177
526.793815	0.992270
527.155964	0.992358
527.518057	0.992929
527.880093	0.992641
528.242072	0.992730
528.603995	0.992812
528.965860	0.993091
529.327669	0.992873
529.689421	0.992314
530.051117	0.993202
530.412755	0.993727
530.774337	0.993010
531.135862	0.993774
531.497331	0.993420
531.858743	0.993767
532.220098	0.993601
532.581396	0.994148
532.942638	0.994596
533.303824	0.994235
533.664953	0.993933
534.026025	0.994546
534.387040	0.993788
534.747999	0.993883
535.108902	0.993675
535.469748	0.994756
535.830537	0.994413
536.191270	0.993756
536.551947	0.994257
536.912567	0.993994
537.273131	0.994254
537.633638	0.993846
537.994089	0.994527
538.354483	0.994914
538.714821	0.993963
539.075103	0.993869
539.435328	0.995190
539.795497	0.994765
540.155609	0.994236
540.515665	0.994626
540.875665	0.993682
541.235609	0.994861
541.595496	0.994213
541.955328	0.994662
542.315102	0.995167
542.674821	0.995132
543.034483	0.994677
543.394090	0.994111
543.753640	0.994914
544.113134	0.994217
544.472571	0.995784
544.831953	0.995292
545.191278	0.994900
545.550548	0.994413
545.909761	0.994377
546.268918	0.995496
546.628019	0.995207
546.987064	0.994687
547.346053	0.994717
547.704986	0.994420
548.063863	0.994497
548.422684	0.995254
548.781449	0.995089
549.140158	0.995280
549.498811	0.994333
549.857408	0.994198
550.215949	0.994073
550.574434	0.994513
550.932864	0.995264
551.291237	0.994231
551.649555	0.995048
552.007817	0.995623
552.366022	0.994972
552.724173	0.995083
553.082267	0.994610
553.440305	0.994488
553.798288	0.994018
554.156215	0.994813
554.514086	0.995478
554.871902	0.995091
555.229661	0.994481
555.587365	0.994405
555.945014	0.995391
556.302606	0.994655
556.660143	0.995753
557.017625	0.995706
557.375050	0.994162
557.732421	0.995800
558.089735	0.994828
558.446994	0.994566
558.804197	0.995857
559.161345	0.994424
559.518437	0.994333
559.875474	0.994939
560.232455	0.994821
560.589381	0.995474
560.946251	0.995578
561.303065	0.995041
561.659825	0.995162
562.016528	0.995271
562.373177	0.994604
562.729770	0.995102
563.086307	0.993952
563.442789	0.995088
563.799216	0.994418
564.155587	0.994750
564.511904	0.995358
564.868164	0.994249
565.224370	0.994691
565.580520	0.994568
565.936615	0.995647
566.292654	0.994920
566.648638	0.995744
567.004567	0.994728
567.360441	0.995504
567.716260	0.995018
568.072023	0.994548
568.427732	0.995535
568.783385	0.994811
569.138982	0.995276
569.494525	0.994816
569.850013	0.995821
570.205445	0.995499
570.560823	0.994498
570.916145	0.994504
571.271412	0.994313
571.626625	0.995507
571.981782	0.995099
572.336884	0.994659
572.691931	0.995486
573.046923	0.995522
573.401860	0.994905
573.756743	0.995058
574.111570	0.994869
574.466342	0.995804
574.821059	0.995187
575.175722	0.995078
575.530330	0.995366
575.884882	0.995335
576.239380	0.995490
576.593823	0.994408
576.948211	0.995270
577.302544	0.995051
577.656823	0.995638
578.011047	0.995097
578.365216	0.995949
578.719330	0.995458
579.073389	0.994622
579.427394	0.995500
579.781344	0.995839
580.135239	0.994785
580.489080	0.994720
580.842866	0.994635
581.196597	0.994772
581.550273	0.994837
581.903895	0.995503
582.257463	0.994686
582.610975	0.994976
582.964434	0.994811
583.317837	0.995034
583.671186	0.995450
584.024481	0.994702
584.377721	0.994167
584.730906	0.994895
585.084037	0.995647
585.437113	0.995841
585.790135	0.995897
586.143103	0.995739
586.496016	0.994982
586.848874	0.995475
587.201679	0.995178
587.554428	0.995372
587.907124	0.995869
588.259765	0.996083
588.612352	0.996506
588.964884	0.995822
589.317362	0.995232
589.669786	0.995405
590.022155	0.995226
590.374470	0.994777
590.726731	0.994892
591.078937	0.995661
591.431090	0.995022
591.783188	0.995159
592.135232	0.995449
592.487222	0.995098
592.839157	0.994492
593.191038	0.995190
593.542866	0.995198
593.894639	0.994616
594.246358	0.994784
594.598022	0.995163
594.949633	0.995409
595.301190	0.995122
595.652692	0.994948
596.004141	0.994769
596.355535	0.995022
596.706876	0.995454
597.058162	0.995007
597.409395	0.995295
597.760573	0.995638
598.111698	0.995179
598.462768	0.993735
598.813785	0.994995
599.164748	0.994245
599.515657	0.994087
599.866511	0.996028
600.217312	0.996238
600.568060	0.994023
600.918753	0.995613
601.269392	0.995890
601.619978	0.995568
601.970510	0.994389
602.320988	0.995104
602.671412	0.995230
603.021783	0.995783
603.372100	0.996032
603.722363	0.995841
604.072572	0.994948
604.422728	0.995147
604.772830	0.995630
605.122878	0.995839
605.472872	0.996150
605.822813	0.994599
606.172701	0.995692
606.522534	0.995598
606.872314	0.995910
607.222041	0.996111
607.571714	0.995137
607.921333	0.995566
608.270899	0.995929
608.620411	0.995653
608.969870	0.995879
609.319276	0.995618
609.668627	0.995520
610.017926	0.995486
610.367171	0.995867
610.716362	0.995390
611.065500	0.995087
611.414585	0.995365
611.763616	0.994840
612.112594	0.994948
612.461518	0.994369
612.810389	0.995559
613.159207	0.995262
613.507971	0.995111
613.856682	0.996298
614.205340	0.994509
614.553945	0.995324
614.902496	0.995319
615.250994	0.995806
615.599439	0.995971
615.947830	0.995097
616.296169	0.995108
616.644454	0.995719
616.992686	0.995206
617.340864	0.995501
617.688990	0.994712
618.037063	0.995325
618.385082	0.995804
618.733048	0.994919
619.080961	0.995061
619.428821	0.995117
619.776628	0.994654
620.124382	0.995548
620.472083	0.995278
620.819731	0.996116
621.167326	0.995128
621.514868	0.995662
621.862357	0.995807
622.209793	0.995220
622.557176	0.995076
622.904506	0.995132
623.251783	0.995445
623.599007	0.995881
623.946179	0.994820
624.293297	0.995934
624.640363	0.995963
624.987376	0.995170
625.334336	0.995208
625.681243	0.995636
626.028097	0.995560
626.374899	0.995999
626.721647	0.996325
627.068343	0.995036
627.414987	0.996145
627.761577	0.995685
628.108115	0.995073
628.454600	0.996038
628.801032	0.995380
629.147412	0.995281
629.493739	0.996110
629.840014	0.995911
630.186236	0.994872
630.532405	0.995355
630.878521	0.995129
631.224585	0.995341
631.570597	0.995760
631.916556	0.996426
632.262462	0.994484
632.608316	0.996159
632.954117	0.995163
633.299866	0.995391
633.645562	0.995501
633.991206	0.995899
634.336797	0.995826
634.682336	0.995754
635.027823	0.996416
635.373257	0.995920
635.718639	0.996097
636.063968	0.995229
636.409245	0.995488
636.754470	0.995660
637.099642	0.996176
637.444762	0.996338
637.789829	0.995909
638.134845	0.995372
638.479808	0.995370
638.824719	0.995727
639.169577	0.995729
639.514383	0.996331
639.859137	0.995765
640.203839	0.995379
640.548489	0.995239
640.893086	0.995282
641.237632	0.995823
641.582125	0.995789
641.926566	0.996861
642.270955	0.995879
642.615292	0.995424
642.959576	0.995630
643.303809	0.996626
643.647990	0.995919
643.992118	0.996550
644.336195	0.995476
644.680219	0.996272
645.024192	0.995842
645.368112	0.994394
645.711981	0.995595
646.055797	0.995832
646.399562	0.995129
646.743274	0.995648
647.086935	0.994803
647.430544	0.995593
647.774101	0.995142
648.117606	0.996065
648.461059	0.996123
648.804460	0.995220
649.147810	0.994797
649.491108	0.996457
649.834354	0.995899
650.177548	0.996250
650.520690	0.995903
650.863781	0.994898
651.206820	0.995184
651.549807	0.995194
651.892742	0.996077
652.235626	0.995899
652.578458	0.995767
652.921238	0.996480
653.263967	0.995719
653.606644	0.995083
653.949269	0.996246
654.291843	0.995013
654.634365	0.996479
654.976836	0.995162
655.319255	0.996808
655.661622	0.995768
656.003938	0.996394
656.346203	0.994776
656.688416	0.996697
657.030577	0.995712
657.372687	0.995287
657.714746	0.995238
658.056753	0.995215
658.398708	0.994467
658.740612	0.995763
659.082465	0.996202
659.424266	0.995211
659.766016	0.994652
660.107715	0.996024
660.449362	0.995413
660.790958	0.994889
661.132503	0.996013
661.473996	0.995712
661.815438	0.995773
662.156829	0.996519
662.498168	0.996414
662.839456	0.995014
663.180693	0.995715
663.521879	0.996173
663.863013	0.996392
664.204097	0.995687
664.545129	0.995634
664.886110	0.996457
665.227040	0.995315
665.567918	0.995208
665.908746	0.995130
666.249522	0.995576
666.590248	0.994845
666.930922	0.995128
667.271545	0.995732
667.612118	0.994986
667.952639	0.995756
668.293109	0.996550
668.633528	0.994795
668.973896	0.994914
669.314213	0.995196
669.654480	0.995460
669.994695	0.994854
670.334859	0.996046
670.674973	0.994874
671.015035	0.994827
671.355047	0.995305
671.695008	0.994863
672.034918	0.995520
672.374777	0.995454
672.714585	0.994833
673.054342	0.996497
673.394049	0.995663
673.733705	0.995692
674.073310	0.994964
674.412864	0.995216
674.752368	0.995439
675.091820	0.995485
675.431223	0.995513
675.770574	0.995116
676.109875	0.995010
676.449125	0.994855
676.788324	0.995159
677.127473	0.995698
677.466571	0.995594
677.805619	0.995426
678.144616	0.995860
678.483562	0.996081
678.822458	0.995613
679.161303	0.994644
679.500098	0.996080
679.838842	0.995353
680.177535	0.994492
680.516179	0.995143
680.854771	0.994665
681.193314	0.995212
681.531805	0.994585
681.870247	0.995845
682.208638	0.994741
682.546978	0.994545
682.885268	0.994278
683.223508	0.994796
683.561697	0.994917
683.899836	0.995506
684.237925	0.994839
684.575963	0.994886
684.913951	0.994838
685.251889	0.994961
685.589776	0.994990
685.927614	0.995092
686.265401	0.994823
686.603137	0.994339
686.940824	0.995094
687.278460	0.995708
687.616046	0.994367
687.953582	0.994874
688.291068	0.994774
688.628504	0.994157
688.965889	0.993413
689.303224	0.993073
689.640510	0.994190
689.977745	0.994461
690.314930	0.994820
690.652065	0.995388
690.989150	0.994224
691.326185	0.995109
691.663170	0.995269
692.000105	0.995394
692.336990	0.995234
692.673825	0.995750
693.010610	0.994862
693.347345	0.996110
693.684030	0.995375
694.020665	0.994981
694.357251	0.994451
694.693786	0.995147
695.030272	0.994291
695.366707	0.995590
695.703093	0.994560
696.039429	0.994771
696.375716	0.996669
696.711952	0.995571
697.048139	0.995514
697.384276	0.995917
697.720363	0.996113
698.056400	0.994401
698.392388	0.994995
698.728326	0.995189
699.064214	0.996008
699.400053	0.994721
699.735842	0.995390
700.071581	0.995821
700.407270	0.995264
700.742910	0.995825
701.078501	0.995327
701.414042	0.995643
701.749533	0.993934
702.084974	0.995457
702.420366	0.994951
702.755709	0.995003
703.091002	0.996221
703.426246	0.996331
703.761440	0.995566
704.096584	0.995070
704.431679	0.994577
704.766725	0.995111
705.101721	0.995400
705.436668	0.995442
705.771565	0.995395
706.106413	0.994744
706.441212	0.996558
706.775961	0.995663
707.110661	0.995285
707.445311	0.995289
707.779913	0.996704
708.114465	0.995700
708.448967	0.996107
708.783421	0.995872
709.117825	0.996271
709.452180	0.995441
709.786485	0.995422
710.120742	0.994909
710.454949	0.994488
710.789107	0.995325
711.123216	0.994521
711.457275	0.994221
711.791286	0.994756
712.125247	0.995409
712.459159	0.994520
712.793023	0.994689
713.126837	0.994966
713.460602	0.994573
713.794318	0.994136
714.127985	0.994145
714.461602	0.995371
714.795171	0.995026
715.128691	0.994446
715.462162	0.994862
715.795584	0.994729
716.128957	0.996460
716.462281	0.995029
716.795556	0.994398
717.128782	0.994979
717.461960	0.995201
717.795088	0.995618
718.128167	0.996095
718.461198	0.995167
718.794180	0.995960
719.127113	0.995418
719.459997	0.995295
719.792833	0.994751
720.125619	0.995072
720.458357	0.995223
720.791046	0.996264
721.123686	0.995291
721.456278	0.995599
721.788821	0.995469
722.121315	0.996296
722.453761	0.995461
722.786158	0.996254
723.118506	0.996347
723.450805	0.995266
723.783056	0.996869
724.115259	0.994862
724.447412	0.996876
724.779518	0.995796
725.111574	0.995270
725.443582	0.994826
725.775542	0.995486
726.107453	0.996472
726.439315	0.996475
726.771129	0.995541
727.102895	0.995610
727.434612	0.995434
727.766281	0.994937
728.097901	0.995243
728.429473	0.996437
728.760996	0.994492
729.092471	0.995484
729.423897	0.994822
729.755276	0.995207
730.086606	0.994355
730.417887	0.995451
730.749120	0.994623
731.080305	0.994668
731.411442	0.994837
731.742530	0.993910
732.073570	0.994634
732.404562	0.994921
732.735506	0.994049
733.066401	0.994367
733.397249	0.995169
733.728048	0.995015
734.058798	0.995310
734.389501	0.995847
734.720156	0.995634
735.050762	0.996050
735.381320	0.995834
735.711831	0.994989
736.042293	0.995369
736.372707	0.997246
736.703073	0.994623
737.033391	0.995654
737.363661	0.996196
737.693883	0.995644
738.024056	0.995413
738.354182	0.996632
738.684260	0.995856
739.014290	0.995255
739.344272	0.995510
739.674207	0.995751
740.004093	0.995213
740.333931	0.994869
740.663722	0.994923
740.993464	0.995544
741.323159	0.994952
741.652806	0.995605
741.982405	0.995484
742.311956	0.995219
742.641460	0.994483
742.970915	0.994938
743.300323	0.994649
743.629683	0.996129
743.958996	0.996608
744.288260	0.995334
744.617477	0.995209
744.946647	0.995938
745.275768	0.996801
745.604842	0.995865
745.933869	0.995552
746.262847	0.996587
746.591778	0.995228
746.920662	0.997038
747.249498	0.997117
747.578286	0.997202
747.907027	0.996479
748.235720	0.994942
748.564365	0.996279
748.892963	0.995051
749.221514	0.995210
749.550017	0.996293
749.878473	0.996259
750.206881	0.997027
750.535242	0.996679
750.863555	0.995143
751.191821	0.996120
751.520039	0.995410
751.848210	0.993987
752.176334	0.995860
752.504411	0.996477
752.832440	0.996306
753.160421	0.996237
753.488356	0.997090
753.816243	0.995693
754.144082	0.996020
754.471875	0.996181
754.799620	0.997127
755.127318	0.995062
755.454969	0.996646
755.782572	0.997732
756.110129	0.995750
756.437638	0.997673
756.765100	0.996913
757.092515	0.995853
757.419882	0.996279
757.747203	0.995805
758.074477	0.997097
758.401703	0.996856
758.728882	0.996881
759.056014	0.995718
759.383099	0.996048
759.710138	0.996086
760.037129	0.995925
760.364073	0.997301
760.690970	0.996227
761.017820	0.994969
761.344623	0.996540
761.671379	0.995990
761.998088	0.995938
762.324751	0.995808
762.651366	0.993764
762.977935	0.993137
763.304456	0.992885
763.630931	0.991155
763.957359	0.990903
764.283740	0.991726
764.610074	0.993044
764.936362	0.994320
765.262602	0.994506
765.588796	0.994956
765.914943	0.995047
766.241044	0.995479
766.567097	0.995470
766.893104	0.995657
767.219064	0.994629
767.544978	0.996727
767.870845	0.995957
768.196665	0.995997
768.522438	0.996803
768.848165	0.997957
769.173846	0.997248
769.499479	0.997469
769.825066	0.997284
770.150607	0.998317
770.476101	0.997233
770.801548	0.998020
771.126949	0.998055
771.452303	0.997367
771.777611	0.998038
772.102872	0.998020
772.428087	0.997134
772.753256	0.997949
773.078378	0.997493
773.403453	0.996941
773.728482	0.999000
774.053465	0.996155
774.378401	0.998539
774.703291	0.997991
775.028135	0.998498
775.352932	0.995955
775.677683	0.998431
776.002388	0.997415
776.327046	0.996547
776.651658	0.999134
776.976224	0.998090
777.300743	0.996752
777.625216	0.997674
777.949643	0.998117
778.274024	0.997353
778.598359	0.997447
778.922647	0.998001
779.246889	0.998846
779.571086	0.998147
779.895236	0.997242
780.219339	0.998063
780.543397	0.997068
780.867409	0.998279
781.191374	0.996862
781.515294	0.998127
781.839167	0.998450
782.162995	0.997750
782.486776	0.998226
782.810511	0.997867
783.134201	0.998661
783.457844	0.998010
783.781441	0.997766
784.104993	0.998004
784.428498	0.998427
784.751958	0.999313
785.075372	0.998854
785.398739	0.997166
785.722061	0.997655
786.045337	0.998355
786.368568	0.998075
786.691752	0.997889
787.014891	0.998232
787.337983	0.996270
787.661030	0.997046
787.984031	0.997664
788.306987	0.997634
788.629897	0.995912
788.952760	0.997335
789.275579	0.997317
789.598351	0.996982
789.921078	0.998863
790.243759	0.997190
790.566395	0.997577
790.888984	0.998636
791.211529	0.998058
791.534027	0.998113
791.856480	0.997636
792.178888	0.997480
792.501249	0.997241
792.823566	0.999216
793.145836	0.997793
793.468062	0.999247
793.790241	0.999523
794.112375	0.997207
794.434464	0.997647
794.756507	0.999008
795.078505	0.998448
795.400457	0.998671
795.722364	0.998901
796.044226	0.997321
796.366042	0.997044
796.687812	0.995778
797.009538	0.997446
797.331218	0.998674
797.652852	0.998524
797.974442	0.997316
798.295986	0.998056
798.617484	0.997149
798.938938	0.998239
799.260346	0.997097
799.581709	0.997901
799.903026	0.998498
800.224299	0.997588
800.545526	0.997710
800.866708	0.997522
801.187845	0.998986
801.508936	0.998397
801.829983	0.997571
802.150984	0.998245
802.471940	0.999213
802.792851	0.997589
803.113717	0.998722
803.434538	0.999354
803.755314	0.998785
804.076045	0.998402
804.396731	0.997622
804.717372	0.997826
805.037967	0.999329
805.358518	0.998460
805.679024	0.998527
805.999485	0.997777
806.319901	0.998640
806.640272	0.999502
806.960598	0.997507
807.280879	0.998151
807.601115	0.998629
807.921306	0.998853
808.241453	0.998276
808.561554	0.998101
808.881611	0.999086
809.201623	0.998679
809.521590	0.997824
809.841513	0.999083
810.161390	0.998482
810.481223	0.998468
810.801011	0.998193
811.120755	0.999403
811.440453	0.998317
811.760107	0.998663
812.079716	0.998195
812.399281	0.998600
812.718801	0.998776
813.038276	0.998052
813.357707	0.998563
813.677093	0.997931
813.996434	0.998501
814.315731	0.999376
814.634983	0.999195
814.954191	0.999572
815.273354	0.998404
815.592473	0.997946
815.911547	0.999088
816.230577	0.997693
816.549562	0.998623
816.868502	0.997489
817.187399	0.999234
817.506250	0.998803
817.825058	0.997479
818.143821	0.997749
818.462539	0.996808
818.781213	0.998320
819.099843	0.998059
819.418429	0.997266
819.736970	0.997079
820.055466	0.994588
820.373919	0.994922
820.692327	0.993118
821.010691	0.992450
821.329011	0.988635
821.647286	0.986189
821.965517	0.982626
822.283704	0.978852
822.601847	0.977494
822.919945	0.978873
823.237999	0.981310
823.556010	0.982852
823.873976	0.984941
824.191897	0.986242
824.509775	0.988758
824.827609	0.989774
825.145398	0.990968
825.463144	0.989710
825.780845	0.990104
826.098502	0.989889
826.416116	0.990055
826.733685	0.987153
827.051210	0.985609
827.368692	0.986819
827.686129	0.987611
828.003522	0.989572
828.320872	0.990586
828.638177	0.993618
828.955439	0.995051
829.272656	0.994460
829.589830	0.995409
829.906960	0.996259
830.224046	0.996149
830.541088	0.996770
830.858086	0.996899
831.175041	0.997746
831.491952	0.997796
831.808819	0.998071
832.125642	0.996990
832.442421	0.996839
832.759157	0.997115
833.075849	0.994487
833.392497	0.992896
833.709101	0.990308
834.025662	0.990296
834.342179	0.990247
834.658653	0.993349
834.975083	0.993601
835.291469	0.994858
835.607811	0.995879
835.924110	0.996558
836.240366	0.998214
836.556578	0.997412
836.872746	0.997972
837.188871	0.997903
837.504952	0.998232
837.820990	0.997620
838.136984	0.997686
838.452935	0.998752
838.768842	0.998730
839.084706	0.998055
839.400526	0.998424
839.716303	0.996015
840.032037	0.996445
840.347727	0.994954
840.663373	0.996046
840.978977	0.996510
841.294537	0.998690
841.610054	0.997751
841.925527	0.999482
842.240957	1.000046
842.556344	0.998817
842.871687	0.999218
843.186987	0.999363
843.502244	1.000142
843.817458	0.998626
844.132629	0.999062
844.447756	1.000090
844.762840	1.000815
845.077881	1.000178
845.392879	0.999051
845.707833	0.999500
846.022745	0.999924
846.337613	0.999637
846.652438	0.999773
846.967221	0.999662
847.281960	0.999569
847.596656	0.999922
847.911309	1.001090
848.225919	0.999670
848.540485	1.000343
848.855009	1.001664
849.169490	1.000263
849.483928	0.998725
849.798323	0.999793
850.112675	1.000901
850.426984	1.000101
850.741251	1.000726
851.055474	1.000649
851.369654	1.001112
851.683792	0.999158
851.997887	0.999492
852.311938	1.000118
852.625947	0.999119
852.939914	0.999327
853.253837	1.001058
853.567718	1.000453
853.881555	0.999783
854.195350	1.000278
854.509103	1.001361
854.822812	1.000463
855.136479	1.000564
855.450103	1.000724
855.763685	1.000305
856.077224	1.000010
856.390720	0.999270
856.704173	1.001010
857.017584	0.999675
857.330953	1.000332
857.644278	1.000602
857.957561	1.000074
858.270802	1.000554
858.584000	1.000004
858.897155	0.999371
859.210268	1.000885
859.523339	1.000755
859.836367	1.000378
860.149352	0.999664
860.462295	1.000153
860.775195	1.000707
861.088054	0.999625
861.400869	0.999630
861.713642	0.999545
862.026373	1.001726
862.339062	1.001191
862.651708	0.999938
862.964312	1.001283
863.276873	0.999818
863.589392	1.000430
863.901869	0.999342
864.214303	0.999799
864.526696	0.999566
864.839045	1.000908
865.151353	0.999558
865.463619	0.999283
865.775842	1.000267
866.088023	1.001491
866.400162	1.000581
866.712258	1.000444
867.024313	1.000594
867.336325	1.000691
867.648296	1.000280
867.960224	1.000888
868.272110	1.000555
868.583954	1.000062
868.895755	1.001241
869.207515	0.999828
869.519233	1.000855
869.830909	0.999825
870.142542	0.999124
870.454134	0.999626
870.765684	0.998928
871.077191	1.000267
871.388657	1.000288
871.700081	1.000108
872.011463	1.000528
872.322803	0.999071
872.634101	0.998246
872.945357	0.999969
873.256571	0.999223
873.567744	0.999561
873.878874	0.998958
874.189963	0.999044
874.501010	1.000559
874.812015	0.998637
875.122979	0.999546
875.433900	0.999222
875.744780	0.998578
876.055618	0.998027
876.366415	0.998043
876.677169	0.998460
876.987882	0.999330
877.298554	0.999900
877.609183	0.998643
877.919771	0.998503
878.230317	0.998068
878.540822	0.997665
878.851285	0.997304
879.161707	0.997600
879.472087	0.998435
879.782425	0.995407
880.092722	0.993725
880.402977	0.991010
880.713191	0.986162
881.023363	0.982297
881.333494	0.980048
881.643583	0.980621
881.953631	0.982080
882.263637	0.981399
882.573602	0.982584
882.883526	0.984687
883.193408	0.986708
883.503248	0.987635
883.813048	0.988894
884.122806	0.990629
884.432522	0.992602
884.742197	0.993505
885.051831	0.994236
885.361424	0.995739
885.670975	0.996630
885.980485	0.997276
886.289954	0.996512
886.599382	0.995944
886.908768	0.998201
887.218113	0.996828
887.527417	0.997448
887.836680	0.998824
888.145901	0.999198
888.455082	0.999727
888.764221	0.999120
889.073319	0.998033
889.382376	0.999099
889.691392	0.997529
890.000366	0.999475
890.309300	0.999433
890.618193	0.999127
890.927044	0.998524
891.235855	0.999560
891.544625	0.999232
891.853353	0.998705
892.162041	0.997813
892.470687	0.998356
892.779293	0.998463
893.087858	0.996321
893.396381	0.996097
893.704864	0.995695
894.013306	0.993961
894.321707	0.992943
894.630068	0.991296
894.938387	0.990315
895.246665	0.990748
895.554903	0.991579
895.863100	0.992745
896.171256	0.993550
896.479371	0.993689
896.787446	0.995465
897.095480	0.995469
897.403473	0.996649
897.711425	0.997312
898.019336	0.998074
898.327207	0.997892
898.635038	0.998104
898.942827	0.998720
899.250576	0.997075
899.558284	0.998600
899.865952	0.997312
900.173579	0.998869
900.481165	0.999124
900.788711	0.998472
901.096216	0.999598
901.403681	0.999121
901.711105	0.998716
902.018489	0.997839
902.325832	0.999421
902.633135	0.999329
902.940397	0.998077
903.247619	0.999261
903.554800	0.996073
903.861941	0.993877
904.169041	0.990193
904.476101	0.988736
904.783121	0.988426
905.090100	0.989803
905.397039	0.990529
905.703938	0.992808
906.010796	0.994231
906.317614	0.994705
906.624391	0.997361
906.931129	0.997431
907.237826	0.997784
907.544483	0.998856
907.851099	0.998260
908.157675	0.998196
908.464211	0.999478
908.770707	0.998124
909.077163	0.999624
909.383578	1.000085
909.689954	0.998084
909.996289	0.999804
910.302584	0.999830
910.608839	1.001318
910.915054	0.999311
911.221229	1.000259
911.527363	1.000189
911.833458	1.000876
912.139513	0.998934
912.445527	1.000653
912.751502	1.000714
913.057436	0.999723
913.363331	0.999909
913.669186	1.000661
913.975000	0.998390
914.280775	0.998382
914.586510	0.997102
914.892205	0.995357
915.197859	0.994831
915.503475	0.993010
915.809050	0.991652
916.114585	0.988284
916.420081	0.990089
916.725536	0.989268
917.030952	0.989462
917.336328	0.990413
917.641665	0.991984
917.946961	0.992608
918.252218	0.994063
918.557435	0.994795
918.862612	0.996494
919.167750	0.996365
919.472848	0.997458
919.777906	0.998293
920.082925	0.999832
920.387904	0.997942
920.692843	0.998205
920.997743	0.998409
921.302603	0.999225
921.607423	0.997833
921.912204	0.999782
922.216946	1.000141
922.521647	0.999055
922.826310	0.999986
923.130932	1.000403
923.435516	0.999816
923.740059	0.999971
924.044564	0.999294
924.349028	0.999602
924.653454	0.999981
924.957840	0.999616
925.262186	0.999730
925.566493	1.000777
925.870761	0.999016
926.174989	0.999763
926.479178	1.000308
926.783328	0.999911
927.087438	1.000845
927.391509	1.000307
927.695541	0.999586
927.999533	1.001070
928.303486	1.000239
928.607400	1.000795
928.911275	1.001608
929.215110	1.001448
929.518906	1.000197
929.822663	1.001848
930.126381	1.001318
930.430060	1.000880
930.733699	1.000603
931.037299	1.001319
931.340861	1.001567
931.644383	0.999669
931.947866	1.001395
932.251309	1.000499
932.554714	1.000970
932.858080	1.001478
933.161407	1.000256
933.464694	1.001133
933.767943	1.000629
934.071153	1.000790
934.374323	1.001216
934.677455	0.999827
934.980548	1.000419
935.283602	1.000792
935.586617	0.999768
935.889593	1.001718
936.192530	1.001193
936.495428	1.000865
936.798287	0.999482
937.101108	1.000633
937.403890	1.000813
937.706632	1.001747
938.009336	1.000815
938.312002	0.999846
938.614628	1.001025
938.917216	0.998528
939.219765	0.999756
939.522275	1.000153
939.824747	0.999867
940.127179	0.999336
940.429573	1.000957
940.731929	0.999128
941.034246	0.999254
941.336524	0.998806
941.638763	1.000799
941.940964	1.000009
942.243126	1.000517
942.545250	1.001330
942.847335	1.001064
943.149381	1.000123
943.451389	0.999976
943.753359	1.000819
944.055290	1.001967
944.357182	1.000011
944.659036	1.001689
944.960851	1.000622
945.262628	1.000779
945.564367	1.001955
945.866067	1.001347
946.167729	1.001238
946.469352	1.001117
946.770937	0.998582
947.072484	1.001085
947.373992	1.001427
947.675462	1.000096
947.976893	0.999430
948.278286	1.002681
948.579641	1.001763
948.880958	1.000604
949.182236	1.001469
949.483476	1.001502
949.784678	1.001719
950.085841	0.999666
950.386967	0.999463
950.688054	1.000961
950.989103	1.000710
951.290114	0.999774
951.591087	1.000853
951.892021	1.000878
952.192917	0.999958
952.493776	1.000800
952.794596	1.000655
953.095378	1.000147
953.396122	1.000490
953.696828	0.999746
953.997496	1.000950
954.298126	1.001695
954.598718	1.000142
954.899272	1.001887
955.199788	1.000057
955.500266	1.000844
955.800706	1.000940
956.101108	1.001127
956.401472	1.002969
956.701798	1.000636
957.002087	1.001041
957.302337	1.000499
957.602550	1.001146
957.902724	1.001020
958.202861	1.000707
958.502960	0.999952
958.803022	1.001748
959.103045	1.001898
959.403031	1.001065
959.702979	1.001791
960.002889	1.000785
960.302762	0.999976
960.602596	1.001792
960.902393	1.001263
961.202153	1.001751
961.501875	1.002461
961.801559	1.002187
962.101205	0.999673
962.400814	1.002149
962.700385	1.002138
962.999918	1.001282
963.299414	1.001021
963.598873	1.001529
963.898293	1.000033
964.197677	1.000952
964.497022	1.002734
964.796331	1.002098
965.095601	1.002347
965.394835	1.000865
965.694030	1.003227
965.993189	1.001117
966.292309	1.002084
966.591393	0.999723
966.890439	1.002753
967.189447	1.001215
967.488419	1.001496
967.787353	1.000574
968.086249	1.001565
968.385108	1.001335
968.683930	1.002164
968.982714	1.002300
969.281462	1.001908
969.580172	1.001382
969.878844	1.001251
970.177480	1.001799
970.476078	1.001967
970.774639	1.002211
971.073162	1.001858
971.371649	1.001229
971.670098	1.001360
971.968510	1.000995
972.266885	1.000202
972.565223	1.002373
972.863524	1.001416
973.161788	1.001427
973.460014	1.002561
973.758204	1.001527
974.056356	1.002700
974.354471	1.000527
974.652550	1.002371
974.950591	1.001695
975.248595	1.000196
975.546563	1.002773
975.844493	1.002594
976.142386	1.000666
976.440243	1.002758
976.738062	1.000061
977.035845	1.001075
977.333590	1.002239
977.631299	1.000125
977.928971	1.000454
978.226606	1.000670
978.524204	1.001436
978.821765	1.002639
979.119290	1.003217
979.416777	1.000918
979.714228	1.002044
980.011642	1.002233
980.309020	1.001491
980.606360	1.000128
980.903664	1.002353
981.200931	1.001145
981.498162	1.001705
981.795356	1.000848
982.092513	1.002281
982.389633	1.002682
982.686717	0.999728
982.983764	0.999475
983.280775	1.001415
983.577749	1.001093
983.874686	1.001377
984.171587	1.001656
984.468451	1.001170
984.765279	1.001263
985.062070	1.000873
985.358824	1.000267
985.655543	1.001076
985.952224	1.002464
986.248869	1.000728
986.545478	1.003011
986.842050	1.001838
987.138586	1.000076
987.435086	1.000431
987.731549	1.002127
988.027975	1.002187
988.324366	1.001468
988.620719	1.003003
988.917037	1.002118
989.213318	1.002335
989.509563	1.001965
989.805772	1.002163
990.101944	1.002630
990.398080	1.002277
990.694180	1.003956
990.990244	1.001388
991.286271	1.001850
991.582262	1.003093
991.878217	1.002763
992.174136	1.002015
992.470019	1.002868
992.765865	1.003361
993.061676	1.001688
993.357450	1.002824
993.653188	1.001883
993.948890	1.001149
994.244556	1.002412
994.540186	1.002601
994.835780	1.001719
995.131337	1.003697
995.426859	1.000711
995.722345	1.001772
996.017795	1.000872
996.313208	1.002314
996.608586	1.001292
996.903928	1.002046
997.199234	1.000957
997.494504	1.003256
997.789738	0.999767
998.084936	1.001995
998.380099	1.000943
998.675225	1.002968
998.970316	1.003123
999.265371	1.002672
999.560390	1.001440
999.855373	1.001729
1000.150320	1.000926
1000.445232	1.002881
1000.740108	1.002274
1001.034948	1.000970
1001.329752	1.001303
1001.624521	1.002140
1001.919254	1.001468
1002.213951	1.002803
1002.508613	1.001534
1002.803239	1.001612
1003.097829	1.002065
1003.392384	1.003123
1003.686903	1.003264
1003.981386	1.001158
1004.275834	1.002221
1004.570246	1.001503
1004.864623	1.002694
1005.158964	1.002378
1005.453270	1.002481
1005.747540	1.001780
1006.041775	1.002758
1006.335974	1.002770
1006.630138	1.002425
1006.924266	1.000896
1007.218359	0.999687
1007.512416	1.001896
1007.806438	1.002733
1008.100425	1.002357
1008.394376	1.003261
1008.688292	1.001225
1008.982172	1.000582
1009.276017	1.002491
1009.569827	1.002127
1009.863602	1.001550
1010.157341	1.002699
1010.451045	1.001451
1010.744714	1.003807
1011.038347	1.003122
1011.331945	1.000816
1011.625508	1.001802
1011.919036	1.002241
1012.212528	1.002049
1012.505986	1.001708
1012.799408	1.003040
1013.092795	1.001732
1013.386147	1.001552
1013.679464	1.002815
1013.972745	1.001498
1014.265992	1.001161
1014.559204	1.000757
1014.852380	1.002306
1015.145521	1.001536
1015.438628	1.002910
1015.731699	1.001368
1016.024736	1.002770
1016.317737	1.001699
1016.610703	1.002503
1016.903635	1.001868
1017.196531	1.001039
1017.489393	1.001765
1017.782219	1.001296
1018.075011	1.000575
1018.367768	1.001070
1018.660490	1.001463
1018.953177	1.001463
1019.245829	1.001463
