Dividing Wavelength (nm)	Counts (n)	Blue Motor Position (mm): 12.700000	Red Motor Position (mm): 0.000000	
326.493990	1.003478
326.888308	1.003478
327.282561	1.003478
327.676750	1.004661
328.070874	1.004991
328.464933	1.005123
328.858929	1.004027
329.252859	1.004561
329.646726	1.004209
330.040528	1.004770
330.434265	1.003514
330.827938	1.002941
331.221547	1.003726
331.615091	1.004843
332.008571	1.004621
332.401986	1.003601
332.795338	1.003516
333.188625	1.004129
333.581847	1.004160
333.975006	1.004396
334.368100	1.005091
334.761129	1.003136
335.154095	1.003042
335.546996	1.002267
335.939833	0.998875
336.332606	0.999487
336.725315	0.999088
337.117960	0.998972
337.510540	0.999810
337.903056	0.998527
338.295508	1.001840
338.687896	0.999693
339.080220	0.999816
339.472480	0.998096
339.864676	0.999828
340.256807	0.998421
340.648875	1.000135
341.040879	0.999570
341.432818	0.999930
341.824694	1.000179
342.216506	1.000231
342.608253	0.998782
342.999937	0.999634
343.391557	0.998848
343.783113	1.001043
344.174605	0.999776
344.566033	0.998282
344.957397	0.999879
345.348697	0.999686
345.739934	0.998958
346.131106	0.998672
346.522215	0.998190
346.913260	0.998239
347.304241	0.998035
347.695159	0.998558
348.086012	0.998598
348.476802	0.998728
348.867528	0.998090
349.258191	1.000086
349.648789	0.998426
350.039324	0.998068
350.429796	0.998206
350.820203	0.999204
351.210548	0.999805
351.600828	0.998523
351.991045	0.998631
352.381198	0.998628
352.771288	0.998455
353.161314	0.998322
353.551276	0.998036
353.941175	0.997327
354.331010	1.000100
354.720782	0.998419
355.110490	0.998703
355.500135	0.998742
355.889717	0.997754
356.279235	0.997350
356.668689	0.998293
357.058080	0.998008
357.447408	0.997543
357.836672	0.998995
358.225873	0.998535
358.615010	0.997381
359.004084	0.998050
359.393095	0.998223
359.782043	0.998869
360.170927	0.998882
360.559748	0.998689
360.948505	0.997702
361.337199	0.997343
361.725830	0.997178
362.114398	0.997417
362.502903	0.996988
362.891344	0.995998
363.279722	0.997719
363.668037	0.998291
364.056289	0.996552
364.444478	0.998524
364.832603	0.997332
365.220665	0.996982
365.608665	0.996341
365.996601	0.996824
366.384474	0.996455
366.772284	0.996476
367.160031	0.996145
367.547715	0.996148
367.935336	0.994254
368.322893	0.994278
368.710388	0.992739
369.097820	0.991565
369.485189	0.989963
369.872495	0.986253
370.259738	0.984978
370.646918	0.982017
371.034035	0.978761
371.421090	0.975780
371.808081	0.971201
372.195010	0.969103
372.581875	0.963249
372.968678	0.959203
373.355418	0.956318
373.742096	0.949074
374.128710	0.944613
374.515262	0.940370
374.901751	0.932962
375.288177	0.928756
375.674540	0.922276
376.060841	0.915492
376.447079	0.908666
376.833254	0.902384
377.219367	0.898192
377.605417	0.887366
377.991404	0.882334
378.377329	0.876935
378.763191	0.869857
379.148991	0.862308
379.534727	0.853519
379.920402	0.846418
380.306013	0.842216
380.691563	0.829540
381.077049	0.822878
381.462474	0.818404
381.847835	0.807244
382.233134	0.802028
382.618371	0.802817
383.003545	0.785587
383.388657	0.783027
383.773706	0.775128
384.158693	0.771910
384.543618	0.766608
384.928480	0.756695
385.313280	0.747223
385.698017	0.747020
386.082692	0.735866
386.467305	0.734144
386.851856	0.728093
387.236344	0.723016
387.620770	0.717927
388.005133	0.712114
388.389435	0.706001
388.773674	0.704053
389.157851	0.695930
389.541965	0.693562
389.926018	0.699479
390.310008	0.686052
390.693936	0.683921
391.077802	0.675502
391.461606	0.676335
391.845348	0.666928
392.229027	0.665552
392.612645	0.664004
392.996200	0.651369
393.379694	0.643562
393.763125	0.634698
394.146494	0.638752
394.529801	0.629585
394.913047	0.621944
395.296230	0.627252
395.679351	0.618497
396.062410	0.616042
396.445408	0.617889
396.828343	0.614032
397.211217	0.608815
397.594028	0.620955
397.976778	0.611027
398.359466	0.608287
398.742092	0.603460
399.124656	0.614974
399.507158	0.603196
399.889598	0.600711
400.271977	0.591988
400.654294	0.595581
401.036549	0.595281
401.418742	0.598221
401.800874	0.584713
402.182944	0.581448
402.564952	0.573316
402.946898	0.574952
403.328783	0.576169
403.710606	0.586605
404.092367	0.561696
404.474067	0.566987
404.855705	0.566347
405.237282	0.574289
405.618797	0.560955
406.000250	0.556725
406.381642	0.546937
406.762972	0.551860
407.144240	0.549857
407.525447	0.549716
407.906593	0.543140
408.287677	0.538298
408.668700	0.546909
409.049661	0.541469
409.430560	0.536414
409.811399	0.544064
410.192176	0.526435
410.572891	0.533885
410.953545	0.521665
411.334138	0.535364
411.714669	0.527384
412.095139	0.539553
412.475547	0.523673
412.855894	0.525559
413.236180	0.524862
413.616405	0.530451
413.996568	0.520564
414.376670	0.526455
414.756711	0.531764
415.136691	0.528515
415.516609	0.519451
415.896466	0.515772
416.276262	0.512284
416.655997	0.514002
417.035670	0.496095
417.415283	0.487521
417.794834	0.491933
418.174324	0.496852
418.553753	0.505994
418.933121	0.489044
419.312428	0.482796
419.691674	0.488940
420.070859	0.476969
420.449983	0.484483
420.829045	0.473751
421.208047	0.482903
421.586988	0.475402
421.965867	0.474112
422.344686	0.463362
422.723444	0.475646
423.102141	0.492844
423.480777	0.465131
423.859352	0.486435
424.237866	0.463851
424.616319	0.464483
424.994712	0.455550
425.373044	0.466005
425.751314	0.453948
426.129524	0.470475
426.507673	0.453481
426.885762	0.447790
427.263789	0.452786
427.641756	0.462357
428.019662	0.453007
428.397508	0.452072
428.775292	0.456294
429.153016	0.448460
429.530679	0.454528
429.908282	0.448091
430.285824	0.458068
430.663305	0.436504
431.040726	0.457402
431.418086	0.457195
431.795385	0.449011
432.172624	0.448097
432.549802	0.448445
432.926920	0.447169
433.303977	0.447403
433.680974	0.444426
434.057910	0.442766
434.434786	0.441952
434.811601	0.444449
435.188355	0.427264
435.565050	0.436768
435.941683	0.437405
436.318257	0.421394
436.694770	0.422700
437.071222	0.420475
437.447614	0.425054
437.823946	0.430823
438.200218	0.420528
438.576429	0.430267
438.952580	0.423847
439.328670	0.420660
439.704700	0.426285
440.080670	0.427608
440.456580	0.409494
440.832429	0.417870
441.208218	0.427576
441.583947	0.416838
441.959616	0.416755
442.335224	0.422779
442.710773	0.412776
443.086261	0.410650
443.461689	0.424619
443.837057	0.414504
444.212365	0.404996
444.587612	0.411968
444.962800	0.401646
445.337927	0.403227
445.712995	0.429116
446.088002	0.390991
446.462949	0.401521
446.837837	0.406891
447.212664	0.395143
447.587431	0.386850
447.962139	0.356710
448.336786	0.316008
448.711374	0.326564
449.085901	0.370784
449.460369	0.375464
449.834776	0.378720
450.209124	0.357673
450.583412	0.350253
450.957640	0.343456
451.331808	0.355067
451.705917	0.378265
452.079965	0.382924
452.453954	0.371180
452.827883	0.378078
453.201752	0.372990
453.575562	0.384072
453.949311	0.372682
454.323001	0.378289
454.696632	0.374518
455.070202	0.366947
455.443713	0.359082
455.817164	0.353867
456.190556	0.349474
456.563888	0.346498
456.937160	0.343866
457.310373	0.361173
457.683526	0.360345
458.056619	0.365642
458.429653	0.366633
458.802628	0.369888
459.175542	0.364331
459.548398	0.346631
459.921194	0.339674
460.293930	0.339225
460.666607	0.316611
461.039224	0.304992
461.411782	0.300713
461.784280	0.300050
462.156719	0.303911
462.529099	0.308445
462.901419	0.324502
463.273680	0.328763
463.645882	0.328327
464.018024	0.334134
464.390106	0.326984
464.762130	0.310885
465.134094	0.294404
465.505999	0.263379
465.877845	0.233819
466.249631	0.220655
466.621358	0.228122
466.993026	0.242264
467.364634	0.248568
467.736184	0.257111
468.107674	0.265722
468.479105	0.265087
468.850477	0.271822
469.221790	0.278645
469.593043	0.288957
469.964238	0.294105
470.335373	0.292980
470.706449	0.291513
471.077467	0.291719
471.448425	0.253985
471.819324	0.229278
472.190164	0.228779
472.560945	0.257893
472.931667	0.280051
473.302330	0.284537
473.672934	0.296260
474.043479	0.284426
474.413965	0.286428
474.784393	0.289678
475.154761	0.284797
475.525070	0.281589
475.895321	0.287496
476.265513	0.281743
476.635645	0.277203
477.005719	0.276988
477.375734	0.273685
477.745691	0.267020
478.115588	0.263251
478.485427	0.256579
478.855207	0.243651
479.224928	0.225883
479.594591	0.214204
479.964194	0.217689
480.333739	0.218799
480.703226	0.219983
481.072653	0.218387
481.442022	0.214182
481.811333	0.210885
482.180584	0.214071
482.549777	0.219659
482.918912	0.223129
483.287988	0.222630
483.657005	0.222482
484.025964	0.228531
484.394864	0.225970
484.763706	0.226647
485.132489	0.231641
485.501213	0.232581
485.869879	0.230814
486.238487	0.234113
486.607036	0.231891
486.975527	0.236666
487.343959	0.232319
487.712333	0.231702
488.080648	0.233072
488.448905	0.232047
488.817104	0.233442
489.185244	0.227589
489.553326	0.224658
489.921350	0.214720
490.289315	0.196821
490.657222	0.191842
491.025070	0.193224
491.392861	0.195327
491.760593	0.201160
492.128267	0.206684
492.495883	0.212046
492.863440	0.218564
493.230939	0.224863
493.598380	0.226147
493.965763	0.228571
494.333088	0.230523
494.700354	0.231945
495.067563	0.231155
495.434713	0.234447
495.801805	0.232498
496.168839	0.233954
496.535815	0.235225
496.902733	0.235257
497.269593	0.236799
497.636395	0.234453
498.003139	0.234650
498.369825	0.237874
498.736453	0.234275
499.103023	0.235964
499.469535	0.235259
499.835989	0.235497
500.202385	0.236262
500.568723	0.239645
500.935003	0.234724
501.301226	0.239093
501.667390	0.233207
502.033497	0.231269
502.399546	0.234271
502.765537	0.236363
503.131470	0.234753
503.497345	0.231171
503.863163	0.239625
504.228923	0.232944
504.594625	0.231426
504.960269	0.236830
505.325856	0.232065
505.691385	0.236343
506.056856	0.233030
506.422270	0.232644
506.787625	0.235103
507.152924	0.232662
507.518164	0.232743
507.883347	0.234591
508.248472	0.236541
508.613540	0.231134
508.978550	0.234151
509.343503	0.234341
509.708398	0.232203
510.073236	0.229488
510.438016	0.229546
510.802738	0.230474
511.167403	0.229544
511.532010	0.231900
511.896561	0.226941
512.261053	0.225373
512.625488	0.227982
512.989866	0.228093
513.354186	0.228394
513.718449	0.230415
514.082655	0.226646
514.446803	0.228991
514.810894	0.226808
515.174927	0.229354
515.538904	0.228968
515.902822	0.225832
516.266684	0.228070
516.630488	0.229155
516.994235	0.228235
517.357925	0.227050
517.721558	0.225341
518.085133	0.224951
518.448651	0.224955
518.812112	0.227367
519.175516	0.226691
519.538863	0.224239
519.902152	0.226030
520.265385	0.223054
520.628560	0.224745
520.991678	0.225151
521.354739	0.223783
521.717743	0.225217
522.080690	0.225855
522.443580	0.223120
522.806413	0.224022
523.169189	0.223531
523.531908	0.222219
523.894569	0.225574
524.257174	0.225656
524.619722	0.223777
524.982213	0.224530
525.344647	0.223320
525.707025	0.224464
526.069345	0.222536
526.431608	0.224636
526.793815	0.222336
527.155964	0.226642
527.518057	0.225511
527.880093	0.226453
528.242072	0.225077
528.603995	0.227083
528.965860	0.228900
529.327669	0.227849
529.689421	0.228566
530.051117	0.229315
530.412755	0.227352
530.774337	0.229450
531.135862	0.230042
531.497331	0.228983
531.858743	0.232416
532.220098	0.229048
532.581396	0.231331
532.942638	0.231943
533.303824	0.233039
533.664953	0.232941
534.026025	0.234499
534.387040	0.232397
534.747999	0.232270
535.108902	0.231378
535.469748	0.236554
535.830537	0.234461
536.191270	0.234540
536.551947	0.233941
536.912567	0.234353
537.273131	0.235898
537.633638	0.236412
537.994089	0.236459
538.354483	0.237476
538.714821	0.234702
539.075103	0.234573
539.435328	0.235472
539.795497	0.239017
540.155609	0.235631
540.515665	0.233897
540.875665	0.239477
541.235609	0.238162
541.595496	0.238162
541.955328	0.234568
542.315102	0.237573
542.674821	0.238712
543.034483	0.238611
543.394090	0.238272
543.753640	0.240128
544.113134	0.235337
544.472571	0.238434
544.831953	0.235281
545.191278	0.239505
545.550548	0.238643
545.909761	0.235744
546.268918	0.236777
546.628019	0.234674
546.987064	0.237727
547.346053	0.239382
547.704986	0.237113
548.063863	0.237148
548.422684	0.237743
548.781449	0.239360
549.140158	0.237502
549.498811	0.239877
549.857408	0.243059
550.215949	0.237731
550.574434	0.241210
550.932864	0.238952
551.291237	0.237573
551.649555	0.239349
552.007817	0.238759
552.366022	0.239667
552.724173	0.239967
553.082267	0.240312
553.440305	0.237197
553.798288	0.241606
554.156215	0.238123
554.514086	0.238556
554.871902	0.242154
555.229661	0.241099
555.587365	0.241740
555.945014	0.244611
556.302606	0.241106
556.660143	0.243968
557.017625	0.240599
557.375050	0.242807
557.732421	0.239787
558.089735	0.241624
558.446994	0.241648
558.804197	0.240876
559.161345	0.240878
559.518437	0.244054
559.875474	0.242502
560.232455	0.242158
560.589381	0.242832
560.946251	0.243103
561.303065	0.240433
561.659825	0.241983
562.016528	0.243841
562.373177	0.246146
562.729770	0.243737
563.086307	0.245714
563.442789	0.243424
563.799216	0.246376
564.155587	0.245074
564.511904	0.246655
564.868164	0.246607
565.224370	0.246600
565.580520	0.248143
565.936615	0.248254
566.292654	0.251267
566.648638	0.248274
567.004567	0.249296
567.360441	0.249950
567.716260	0.251982
568.072023	0.249542
568.427732	0.250747
568.783385	0.253377
569.138982	0.251445
569.494525	0.250929
569.850013	0.254240
570.205445	0.252721
570.560823	0.255150
570.916145	0.257199
571.271412	0.255463
571.626625	0.257437
571.981782	0.257602
572.336884	0.258523
572.691931	0.258274
573.046923	0.260146
573.401860	0.261015
573.756743	0.262959
574.111570	0.261898
574.466342	0.262521
574.821059	0.261795
575.175722	0.265083
575.530330	0.264654
575.884882	0.265025
576.239380	0.267089
576.593823	0.267552
576.948211	0.267356
577.302544	0.270897
577.656823	0.270777
578.011047	0.271007
578.365216	0.271973
578.719330	0.274195
579.073389	0.273922
579.427394	0.275267
579.781344	0.276377
580.135239	0.277931
580.489080	0.277976
580.842866	0.281125
581.196597	0.281532
581.550273	0.280292
581.903895	0.281723
582.257463	0.279867
582.610975	0.283694
582.964434	0.283409
583.317837	0.286024
583.671186	0.286689
584.024481	0.286885
584.377721	0.289459
584.730906	0.290878
585.084037	0.290112
585.437113	0.292363
585.790135	0.292214
586.143103	0.295676
586.496016	0.296853
586.848874	0.294858
587.201679	0.295766
587.554428	0.299586
587.907124	0.299179
588.259765	0.299895
588.612352	0.301052
588.964884	0.305142
589.317362	0.305266
589.669786	0.305666
590.022155	0.304315
590.374470	0.304692
590.726731	0.306606
591.078937	0.312054
591.431090	0.309224
591.783188	0.313592
592.135232	0.314722
592.487222	0.314847
592.839157	0.313888
593.191038	0.316447
593.542866	0.318913
593.894639	0.323270
594.246358	0.322186
594.598022	0.322096
594.949633	0.326369
595.301190	0.327514
595.652692	0.326889
596.004141	0.324348
596.355535	0.332420
596.706876	0.333887
597.058162	0.336675
597.409395	0.334949
597.760573	0.333534
598.111698	0.337179
598.462768	0.338322
598.813785	0.340434
599.164748	0.342573
599.515657	0.343610
599.866511	0.348439
600.217312	0.344101
600.568060	0.350141
600.918753	0.347551
601.269392	0.349390
601.619978	0.353798
601.970510	0.352673
602.320988	0.353476
602.671412	0.352409
603.021783	0.355768
603.372100	0.357984
603.722363	0.359031
604.072572	0.360658
604.422728	0.361536
604.772830	0.365051
605.122878	0.365608
605.472872	0.366824
605.822813	0.367369
606.172701	0.370375
606.522534	0.369538
606.872314	0.370593
607.222041	0.372640
607.571714	0.372054
607.921333	0.375038
608.270899	0.376331
608.620411	0.374104
608.969870	0.379622
609.319276	0.380662
609.668627	0.382444
610.017926	0.382287
610.367171	0.382815
610.716362	0.384225
611.065500	0.386463
611.414585	0.387159
611.763616	0.388871
612.112594	0.390888
612.461518	0.392390
612.810389	0.391800
613.159207	0.395240
613.507971	0.398782
613.856682	0.396777
614.205340	0.399601
614.553945	0.399119
614.902496	0.404002
615.250994	0.404387
615.599439	0.406636
615.947830	0.407962
616.296169	0.410600
616.644454	0.412670
616.992686	0.414276
617.340864	0.415037
617.688990	0.420059
618.037063	0.418669
618.385082	0.422724
618.733048	0.422698
619.080961	0.426086
619.428821	0.427999
619.776628	0.429529
620.124382	0.433330
620.472083	0.436697
620.819731	0.436957
621.167326	0.441974
621.514868	0.443502
621.862357	0.448533
622.209793	0.449566
622.557176	0.453955
622.904506	0.456140
623.251783	0.459977
623.599007	0.464009
623.946179	0.465192
624.293297	0.469272
624.640363	0.473717
624.987376	0.476278
625.334336	0.479938
625.681243	0.484413
626.028097	0.486514
626.374899	0.489161
626.721647	0.492138
627.068343	0.496184
627.414987	0.499332
627.761577	0.502952
628.108115	0.503766
628.454600	0.510705
628.801032	0.511428
629.147412	0.514353
629.493739	0.517737
629.840014	0.521321
630.186236	0.521862
630.532405	0.527828
630.878521	0.528222
631.224585	0.532219
631.570597	0.536650
631.916556	0.538819
632.262462	0.540065
632.608316	0.544887
632.954117	0.547186
633.299866	0.549426
633.645562	0.552396
633.991206	0.557720
634.336797	0.561333
634.682336	0.566280
635.027823	0.568776
635.373257	0.570770
635.718639	0.575484
636.063968	0.576633
636.409245	0.582402
636.754470	0.585183
637.099642	0.588425
637.444762	0.592994
637.789829	0.593956
638.134845	0.598392
638.479808	0.601529
638.824719	0.603581
639.169577	0.608471
639.514383	0.609032
639.859137	0.614773
640.203839	0.615507
640.548489	0.619033
640.893086	0.621496
641.237632	0.625424
641.582125	0.626221
641.926566	0.629882
642.270955	0.631683
642.615292	0.633638
642.959576	0.635601
643.303809	0.637882
643.647990	0.640491
643.992118	0.642558
644.336195	0.645711
644.680219	0.647771
645.024192	0.648566
645.368112	0.647737
645.711981	0.649120
646.055797	0.648435
646.399562	0.651891
646.743274	0.650381
647.086935	0.650303
647.430544	0.652155
647.774101	0.653916
648.117606	0.655468
648.461059	0.658365
648.804460	0.662487
649.147810	0.665688
649.491108	0.669407
649.834354	0.672877
650.177548	0.678141
650.520690	0.682404
650.863781	0.685666
651.206820	0.687759
651.549807	0.691642
651.892742	0.696474
652.235626	0.697382
652.578458	0.700484
652.921238	0.705852
653.263967	0.706870
653.606644	0.708908
653.949269	0.712689
654.291843	0.714364
654.634365	0.716121
654.976836	0.719895
655.319255	0.721652
655.661622	0.724709
656.003938	0.726607
656.346203	0.729192
656.688416	0.731192
657.030577	0.733450
657.372687	0.737208
657.714746	0.738657
658.056753	0.738841
658.398708	0.742301
658.740612	0.745172
659.082465	0.745644
659.424266	0.747139
659.766016	0.748257
660.107715	0.752492
660.449362	0.752944
660.790958	0.755261
661.132503	0.758453
661.473996	0.758468
661.815438	0.760682
662.156829	0.762911
662.498168	0.764609
662.839456	0.765506
663.180693	0.767058
663.521879	0.768275
663.863013	0.770204
664.204097	0.771793
664.545129	0.771899
664.886110	0.774767
665.227040	0.775866
665.567918	0.775996
665.908746	0.778221
666.249522	0.779079
666.590248	0.780599
666.930922	0.781108
667.271545	0.783197
667.612118	0.784954
667.952639	0.786704
668.293109	0.789209
668.633528	0.790874
668.973896	0.792778
669.314213	0.793952
669.654480	0.796895
669.994695	0.797993
670.334859	0.801378
670.674973	0.803725
671.015035	0.804303
671.355047	0.806091
671.695008	0.807457
672.034918	0.809440
672.374777	0.810515
672.714585	0.812689
673.054342	0.814279
673.394049	0.815254
673.733705	0.816932
674.073310	0.819390
674.412864	0.820922
674.752368	0.823030
675.091820	0.825658
675.431223	0.828068
675.770574	0.829211
676.109875	0.831780
676.449125	0.833113
676.788324	0.835716
677.127473	0.839539
677.466571	0.840626
677.805619	0.842570
678.144616	0.846418
678.483562	0.846990
678.822458	0.849722
679.161303	0.850513
679.500098	0.853207
679.838842	0.853538
680.177535	0.854871
680.516179	0.855010
680.854771	0.856187
681.193314	0.855386
681.531805	0.853806
681.870247	0.852088
682.208638	0.850188
682.546978	0.850535
682.885268	0.852627
683.223508	0.855524
683.561697	0.859098
683.899836	0.860409
684.237925	0.861627
684.575963	0.863927
684.913951	0.865709
685.251889	0.865589
685.589776	0.866014
685.927614	0.867324
686.265401	0.868484
686.603137	0.867756
686.940824	0.867404
687.278460	0.867728
687.616046	0.867839
687.953582	0.865979
688.291068	0.867543
688.628504	0.868070
688.965889	0.869178
689.303224	0.870512
689.640510	0.873507
689.977745	0.876334
690.314930	0.879861
690.652065	0.882694
690.989150	0.884212
691.326185	0.888753
691.663170	0.891102
692.000105	0.894263
692.336990	0.897413
692.673825	0.899059
693.010610	0.901024
693.347345	0.903017
693.684030	0.905949
694.020665	0.906959
694.357251	0.909076
694.693786	0.910417
695.030272	0.911494
695.366707	0.914375
695.703093	0.914721
696.039429	0.915166
696.375716	0.917506
696.711952	0.917992
697.048139	0.918815
697.384276	0.919632
697.720363	0.920552
698.056400	0.920208
698.392388	0.921839
698.728326	0.922577
699.064214	0.925805
699.400053	0.925388
699.735842	0.928621
700.071581	0.928398
700.407270	0.930037
700.742910	0.931828
701.078501	0.933232
701.414042	0.935867
701.749533	0.935668
702.084974	0.937510
702.420366	0.937826
702.755709	0.939475
703.091002	0.941208
703.426246	0.941411
703.761440	0.941830
704.096584	0.942556
704.431679	0.943689
704.766725	0.944382
705.101721	0.946640
705.436668	0.946893
705.771565	0.947681
706.106413	0.946888
706.441212	0.947450
706.775961	0.948704
707.110661	0.947589
707.445311	0.949214
707.779913	0.948712
708.114465	0.949194
708.448967	0.948017
708.783421	0.948717
709.117825	0.946754
709.452180	0.948000
709.786485	0.947437
710.120742	0.945449
710.454949	0.944280
710.789107	0.944484
711.123216	0.942534
711.457275	0.941680
711.791286	0.941810
712.125247	0.942858
712.459159	0.942414
712.793023	0.942148
713.126837	0.945640
713.460602	0.944246
713.794318	0.945117
714.127985	0.947267
714.461602	0.950060
714.795171	0.950959
715.128691	0.952600
715.462162	0.955166
715.795584	0.955929
716.128957	0.957718
716.462281	0.958261
716.795556	0.958639
717.128782	0.961533
717.461960	0.962135
717.795088	0.962756
718.128167	0.963811
718.461198	0.964416
718.794180	0.965455
719.127113	0.965992
719.459997	0.966805
719.792833	0.966279
720.125619	0.967242
720.458357	0.968349
720.791046	0.969941
721.123686	0.969017
721.456278	0.969782
721.788821	0.969932
722.121315	0.971126
722.453761	0.971776
722.786158	0.972151
723.118506	0.971010
723.450805	0.971253
723.783056	0.973063
724.115259	0.971616
724.447412	0.973454
724.779518	0.972632
725.111574	0.972439
725.443582	0.972335
725.775542	0.972127
726.107453	0.971771
726.439315	0.973067
726.771129	0.971950
727.102895	0.972010
727.434612	0.972085
727.766281	0.970554
728.097901	0.970892
728.429473	0.971839
728.760996	0.970415
729.092471	0.971687
729.423897	0.972560
729.755276	0.972686
730.086606	0.972707
730.417887	0.973981
730.749120	0.973006
731.080305	0.971731
731.411442	0.971142
731.742530	0.970675
732.073570	0.972525
732.404562	0.973002
732.735506	0.971442
733.066401	0.972216
733.397249	0.973076
733.728048	0.975479
734.058798	0.977091
734.389501	0.977899
734.720156	0.978793
735.050762	0.979912
735.381320	0.979697
735.711831	0.979104
736.042293	0.980099
736.372707	0.981918
736.703073	0.979513
737.033391	0.980505
737.363661	0.981362
737.693883	0.981320
738.024056	0.980393
738.354182	0.980550
738.684260	0.980243
739.014290	0.980159
739.344272	0.979214
739.674207	0.979721
740.004093	0.979747
740.333931	0.978508
740.663722	0.979653
740.993464	0.980284
741.323159	0.979777
741.652806	0.981271
741.982405	0.980583
742.311956	0.981962
742.641460	0.981559
742.970915	0.982082
743.300323	0.982545
743.629683	0.982559
743.958996	0.984437
744.288260	0.983361
744.617477	0.985074
744.946647	0.984673
745.275768	0.986147
745.604842	0.985009
745.933869	0.985014
746.262847	0.986921
746.591778	0.985214
746.920662	0.987003
747.249498	0.987542
747.578286	0.986398
747.907027	0.986358
748.235720	0.986534
748.564365	0.986327
748.892963	0.985529
749.221514	0.986220
749.550017	0.986236
749.878473	0.986423
750.206881	0.988726
750.535242	0.986675
750.863555	0.987318
751.191821	0.986927
751.520039	0.987020
751.848210	0.985863
752.176334	0.987182
752.504411	0.987492
752.832440	0.987651
753.160421	0.987114
753.488356	0.988088
753.816243	0.987312
754.144082	0.987810
754.471875	0.988458
754.799620	0.988871
755.127318	0.987446
755.454969	0.988006
755.782572	0.989487
756.110129	0.988313
756.437638	0.990456
756.765100	0.989655
757.092515	0.988176
757.419882	0.988624
757.747203	0.988228
758.074477	0.989114
758.401703	0.988914
758.728882	0.988726
759.056014	0.988705
759.383099	0.988686
759.710138	0.988211
760.037129	0.987562
760.364073	0.988800
760.690970	0.987176
761.017820	0.987115
761.344623	0.988841
761.671379	0.989240
761.998088	0.988254
762.324751	0.987270
762.651366	0.985377
762.977935	0.982592
763.304456	0.981338
763.630931	0.978025
763.957359	0.978111
764.283740	0.980177
764.610074	0.983771
764.936362	0.985181
765.262602	0.986376
765.588796	0.987266
765.914943	0.988062
766.241044	0.988405
766.567097	0.989834
766.893104	0.990057
767.219064	0.988936
767.544978	0.990567
767.870845	0.990406
768.196665	0.991471
768.522438	0.992324
768.848165	0.991557
769.173846	0.993465
769.499479	0.992180
769.825066	0.992264
770.150607	0.992548
770.476101	0.993063
770.801548	0.993401
771.126949	0.993221
771.452303	0.993680
771.777611	0.992845
772.102872	0.992645
772.428087	0.992668
772.753256	0.993791
773.078378	0.993882
773.403453	0.993158
773.728482	0.995898
774.053465	0.993689
774.378401	0.993056
774.703291	0.994311
775.028135	0.995032
775.352932	0.993923
775.677683	0.995772
776.002388	0.995474
776.327046	0.994548
776.651658	0.996498
776.976224	0.995041
777.300743	0.994337
777.625216	0.994091
777.949643	0.995032
778.274024	0.995116
778.598359	0.995026
778.922647	0.994986
779.246889	0.995901
779.571086	0.995016
779.895236	0.995921
780.219339	0.995264
780.543397	0.994616
780.867409	0.995653
781.191374	0.994064
781.515294	0.996424
781.839167	0.995091
782.162995	0.995880
782.486776	0.994860
782.810511	0.994966
783.134201	0.996148
783.457844	0.995695
783.781441	0.994886
784.104993	0.994559
784.428498	0.995032
784.751958	0.996747
785.075372	0.996459
785.398739	0.994858
785.722061	0.995054
786.045337	0.995630
786.368568	0.995627
786.691752	0.995176
787.014891	0.995304
787.337983	0.994603
787.661030	0.993457
787.984031	0.993770
788.306987	0.994055
788.629897	0.991465
788.952760	0.993698
789.275579	0.994201
789.598351	0.993362
789.921078	0.995151
790.243759	0.995570
790.566395	0.993843
790.888984	0.995277
791.211529	0.995935
791.534027	0.995223
791.856480	0.996070
792.178888	0.995324
792.501249	0.995928
792.823566	0.996571
793.145836	0.996270
793.468062	0.996018
793.790241	0.995715
794.112375	0.995870
794.434464	0.996845
794.756507	0.996300
795.078505	0.996154
795.400457	0.996320
795.722364	0.995918
796.044226	0.994849
796.366042	0.994172
796.687812	0.993763
797.009538	0.993582
797.331218	0.994814
797.652852	0.995658
797.974442	0.994965
798.295986	0.995409
798.617484	0.994288
798.938938	0.995398
799.260346	0.995322
799.581709	0.994381
799.903026	0.996579
800.224299	0.995580
800.545526	0.995250
800.866708	0.994679
801.187845	0.996414
801.508936	0.996677
801.829983	0.995930
802.150984	0.996508
802.471940	0.996439
802.792851	0.996098
803.113717	0.997358
803.434538	0.997519
803.755314	0.997355
804.076045	0.997016
804.396731	0.996188
804.717372	0.995438
805.037967	0.997300
805.358518	0.997603
805.679024	0.995447
805.999485	0.997313
806.319901	0.995842
806.640272	0.996572
806.960598	0.997249
807.280879	0.995491
807.601115	0.997448
807.921306	0.997430
808.241453	0.995339
808.561554	0.996426
808.881611	0.996790
809.201623	0.996114
809.521590	0.996389
809.841513	0.996166
810.161390	0.996312
810.481223	0.996193
810.801011	0.996081
811.120755	0.997750
811.440453	0.995843
811.760107	0.997059
812.079716	0.996515
812.399281	0.996496
812.718801	0.995700
813.038276	0.996520
813.357707	0.996308
813.677093	0.997005
813.996434	0.997162
814.315731	0.998451
814.634983	0.997755
814.954191	0.997583
815.273354	0.996417
815.592473	0.996493
815.911547	0.996165
816.230577	0.996201
816.549562	0.996770
816.868502	0.996076
817.187399	0.996455
817.506250	0.996409
817.825058	0.995440
818.143821	0.996199
818.462539	0.995507
818.781213	0.994972
819.099843	0.995198
819.418429	0.993411
819.736970	0.993190
820.055466	0.991116
820.373919	0.990969
820.692327	0.988028
821.010691	0.987520
821.329011	0.983141
821.647286	0.978319
821.965517	0.973006
822.283704	0.967086
822.601847	0.964682
822.919945	0.966037
823.237999	0.969149
823.556010	0.971384
823.873976	0.974304
824.191897	0.977944
824.509775	0.980579
824.827609	0.982090
825.145398	0.984967
825.463144	0.983762
825.780845	0.984531
826.098502	0.983824
826.416116	0.983684
826.733685	0.979755
827.051210	0.976555
827.368692	0.977760
827.686129	0.980013
828.003522	0.983066
828.320872	0.985933
828.638177	0.988161
828.955439	0.989780
829.272656	0.991293
829.589830	0.992328
829.906960	0.992703
830.224046	0.993639
830.541088	0.993560
830.858086	0.994177
831.175041	0.995283
831.491952	0.994714
831.808819	0.994327
832.125642	0.994660
832.442421	0.994465
832.759157	0.994307
833.075849	0.991100
833.392497	0.989395
833.709101	0.985282
834.025662	0.984906
834.342179	0.985623
834.658653	0.988848
834.975083	0.990072
835.291469	0.990160
835.607811	0.992579
835.924110	0.994216
836.240366	0.995619
836.556578	0.995380
836.872746	0.996812
837.188871	0.995786
837.504952	0.995617
837.820990	0.996807
838.136984	0.997276
838.452935	0.997191
838.768842	0.998385
839.084706	0.997449
839.400526	0.997113
839.716303	0.992852
840.032037	0.992955
840.347727	0.990962
840.663373	0.993570
840.978977	0.993782
841.294537	0.996182
841.610054	0.995948
841.925527	0.997631
842.240957	0.996624
842.556344	0.997355
842.871687	0.997612
843.186987	0.998103
843.502244	0.998246
843.817458	0.998690
844.132629	0.997976
844.447756	1.000061
844.762840	0.998450
845.077881	1.000494
845.392879	0.997159
845.707833	0.998217
846.022745	0.998771
846.337613	0.998626
846.652438	0.998526
846.967221	0.998896
847.281960	0.999461
847.596656	0.999126
847.911309	1.000747
848.225919	0.999489
848.540485	0.999909
848.855009	0.998914
849.169490	0.999589
849.483928	0.999280
849.798323	0.997811
850.112675	1.000153
850.426984	0.999998
850.741251	0.999941
851.055474	0.998891
851.369654	0.999385
851.683792	0.999405
851.997887	0.998933
852.311938	1.000268
852.625947	0.998170
852.939914	0.998850
853.253837	1.000797
853.567718	1.000715
853.881555	0.999603
854.195350	0.999564
854.509103	0.999808
854.822812	0.999978
855.136479	0.999825
855.450103	1.000252
855.763685	0.999016
856.077224	0.998772
856.390720	0.999310
856.704173	0.999821
857.017584	0.999740
857.330953	0.998605
857.644278	0.999609
857.957561	1.000068
858.270802	0.998765
858.584000	0.998100
858.897155	0.998447
859.210268	0.999740
859.523339	0.999530
859.836367	0.999027
860.149352	0.999229
860.462295	0.999122
860.775195	0.999904
861.088054	0.997514
861.400869	1.000224
861.713642	0.998186
862.026373	0.999572
862.339062	0.999463
862.651708	0.999114
862.964312	0.999902
863.276873	0.999347
863.589392	0.999689
863.901869	0.997719
864.214303	0.999200
864.526696	0.999192
864.839045	0.997857
865.151353	0.997584
865.463619	0.998044
865.775842	0.999460
866.088023	1.000048
866.400162	0.998799
866.712258	1.000298
867.024313	1.000675
867.336325	0.999341
867.648296	0.998723
867.960224	0.997885
868.272110	0.999679
868.583954	0.998454
868.895755	0.999603
869.207515	0.998321
869.519233	0.998905
869.830909	0.998509
870.142542	0.997676
870.454134	0.998486
870.765684	0.997537
871.077191	0.998658
871.388657	0.998935
871.700081	0.997742
872.011463	0.998843
872.322803	0.997743
872.634101	0.996812
872.945357	0.997823
873.256571	0.996634
873.567744	0.998676
873.878874	0.998131
874.189963	0.996790
874.501010	0.999261
874.812015	0.997319
875.122979	0.997801
875.433900	0.997636
875.744780	0.998094
876.055618	0.996811
876.366415	0.996268
876.677169	0.997337
876.987882	0.997431
877.298554	0.998278
877.609183	0.996797
877.919771	0.997288
878.230317	0.997019
878.540822	0.995106
878.851285	0.995927
879.161707	0.995291
879.472087	0.995528
879.782425	0.991396
880.092722	0.989974
880.402977	0.986081
880.713191	0.982231
881.023363	0.975255
881.333494	0.972258
881.643583	0.971842
881.953631	0.971111
882.263637	0.971178
882.573602	0.973935
882.883526	0.975810
883.193408	0.978316
883.503248	0.980523
883.813048	0.982784
884.122806	0.985253
884.432522	0.986243
884.742197	0.990158
885.051831	0.989680
885.361424	0.991082
885.670975	0.992867
885.980485	0.992154
886.289954	0.993671
886.599382	0.993628
886.908768	0.995749
887.218113	0.994715
887.527417	0.994973
887.836680	0.996856
888.145901	0.997551
888.455082	0.998122
888.764221	0.997831
889.073319	0.996730
889.382376	0.997579
889.691392	0.996083
890.000366	0.996732
890.309300	0.996328
890.618193	0.997573
890.927044	0.997366
891.235855	0.996162
891.544625	0.997164
891.853353	0.996573
892.162041	0.997253
892.470687	0.996907
892.779293	0.994995
893.087858	0.993410
893.396381	0.994810
893.704864	0.992818
894.013306	0.992016
894.321707	0.989800
894.630068	0.986095
894.938387	0.986919
895.246665	0.985885
895.554903	0.987213
895.863100	0.989365
896.171256	0.990244
896.479371	0.990054
896.787446	0.991647
897.095480	0.993934
897.403473	0.994582
897.711425	0.994982
898.019336	0.995753
898.327207	0.995823
898.635038	0.995237
898.942827	0.996068
899.250576	0.995546
899.558284	0.996829
899.865952	0.995661
900.173579	0.996613
900.481165	0.996573
900.788711	0.996151
901.096216	0.996999
901.403681	0.999111
901.711105	0.997648
902.018489	0.997263
902.325832	0.996962
902.633135	0.996477
902.940397	0.996227
903.247619	0.995256
903.554800	0.993388
903.861941	0.989010
904.169041	0.985670
904.476101	0.983157
904.783121	0.982875
905.090100	0.984385
905.397039	0.985937
905.703938	0.988617
906.010796	0.991172
906.317614	0.992250
906.624391	0.992994
906.931129	0.995335
907.237826	0.996047
907.544483	0.996519
907.851099	0.995879
908.157675	0.997861
908.464211	0.998066
908.770707	0.997757
909.077163	0.997432
909.383578	0.998224
909.689954	0.997390
909.996289	0.998278
910.302584	0.998452
910.608839	0.999385
910.915054	0.998601
911.221229	0.999859
911.527363	0.997893
911.833458	0.998152
912.139513	0.998370
912.445527	0.999099
912.751502	0.998781
913.057436	0.997860
913.363331	0.998468
913.669186	0.998561
913.975000	0.997726
914.280775	0.995690
914.586510	0.994158
914.892205	0.992294
915.197859	0.991172
915.503475	0.989420
915.809050	0.986632
916.114585	0.982377
916.420081	0.983546
916.725536	0.983190
917.030952	0.985797
917.336328	0.985947
917.641665	0.987393
917.946961	0.988363
918.252218	0.990270
918.557435	0.992144
918.862612	0.992768
919.167750	0.994200
919.472848	0.995821
919.777906	0.995045
920.082925	0.996769
920.387904	0.996492
920.692843	0.996441
920.997743	0.996464
921.302603	0.996953
921.607423	0.996942
921.912204	0.997566
922.216946	0.998789
922.521647	0.997765
922.826310	0.998735
923.130932	0.999446
923.435516	0.999264
923.740059	0.999603
924.044564	0.998765
924.349028	0.998155
924.653454	0.998726
924.957840	0.998727
925.262186	0.997747
925.566493	0.999738
925.870761	0.999697
926.174989	0.999521
926.479178	1.001249
926.783328	1.000116
927.087438	0.998923
927.391509	0.999264
927.695541	1.000109
927.999533	0.999322
928.303486	0.999455
928.607400	0.999666
928.911275	0.998817
929.215110	1.001511
929.518906	0.999707
929.822663	1.001815
930.126381	1.000599
930.430060	1.001050
930.733699	1.001382
931.037299	1.000360
931.340861	1.000861
931.644383	0.999533
931.947866	0.999977
932.251309	1.001256
932.554714	0.999031
932.858080	1.000332
933.161407	1.000155
933.464694	0.999927
933.767943	0.999638
934.071153	1.000544
934.374323	0.999971
934.677455	1.001029
934.980548	1.000732
935.283602	1.001582
935.586617	0.999949
935.889593	1.000917
936.192530	1.001652
936.495428	0.999280
936.798287	1.000032
937.101108	0.999933
937.403890	1.000262
937.706632	1.001056
938.009336	0.999917
938.312002	0.999224
938.614628	0.999663
938.917216	0.998544
939.219765	0.998667
939.522275	0.999587
939.824747	0.998285
940.127179	0.998991
940.429573	1.000167
940.731929	0.999116
941.034246	0.998746
941.336524	0.998841
941.638763	0.999840
941.940964	0.999265
942.243126	0.998777
942.545250	0.999882
942.847335	0.999432
943.149381	1.000761
943.451389	0.999075
943.753359	1.000329
944.055290	1.000614
944.357182	1.000534
944.659036	0.999651
944.960851	1.000062
945.262628	0.999882
945.564367	1.000340
945.866067	0.998699
946.167729	1.001315
946.469352	1.000363
946.770937	0.998985
947.072484	1.000726
947.373992	1.000340
947.675462	1.000179
947.976893	0.999732
948.278286	1.002108
948.579641	1.000249
948.880958	0.999669
949.182236	1.001027
949.483476	1.000839
949.784678	1.001242
950.085841	1.000164
950.386967	0.999442
950.688054	1.000150
950.989103	0.999677
951.290114	0.999070
951.591087	1.000311
951.892021	0.999482
952.192917	1.000334
952.493776	1.000629
952.794596	0.999260
953.095378	1.000088
953.396122	0.999904
953.696828	1.000833
953.997496	1.000042
954.298126	1.001308
954.598718	0.998713
954.899272	0.998670
955.199788	1.000416
955.500266	1.000709
955.800706	1.000807
956.101108	1.000437
956.401472	1.001133
956.701798	1.000098
957.002087	1.000568
957.302337	1.001689
957.602550	1.001038
957.902724	0.999907
958.202861	1.000680
958.502960	1.001074
958.803022	1.002326
959.103045	1.001259
959.403031	1.001723
959.702979	1.002282
960.002889	1.001344
960.302762	1.000736
960.602596	1.003169
960.902393	1.002887
961.202153	1.001845
961.501875	1.002087
961.801559	1.001086
962.101205	1.001049
962.400814	1.002156
962.700385	1.002926
962.999918	1.001778
963.299414	1.001446
963.598873	1.002106
963.898293	1.001779
964.197677	1.000295
964.497022	1.001662
964.796331	1.001055
965.095601	1.002271
965.394835	1.002173
965.694030	1.002300
965.993189	1.001737
966.292309	1.001091
966.591393	1.001171
966.890439	1.001875
967.189447	1.001263
967.488419	1.002728
967.787353	1.001059
968.086249	1.001094
968.385108	1.002600
968.683930	1.002308
968.982714	1.001843
969.281462	1.001940
969.580172	1.001513
969.878844	1.003103
970.177480	1.002355
970.476078	1.002755
970.774639	1.002193
971.073162	1.001677
971.371649	1.001941
971.670098	1.001452
971.968510	1.000656
972.266885	1.001997
972.565223	1.001871
972.863524	1.000681
973.161788	1.000505
973.460014	1.003773
973.758204	1.001442
974.056356	1.001520
974.354471	1.001786
974.652550	1.002436
974.950591	1.000434
975.248595	1.001108
975.546563	1.001946
975.844493	1.003386
976.142386	1.001634
976.440243	1.003636
976.738062	1.001916
977.035845	1.001865
977.333590	1.003187
977.631299	1.000350
977.928971	1.001943
978.226606	1.001621
978.524204	1.001785
978.821765	1.002442
979.119290	1.003813
979.416777	1.001976
979.714228	1.002399
980.011642	1.002400
980.309020	1.001942
980.606360	1.001550
980.903664	1.001001
981.200931	1.000739
981.498162	1.001612
981.795356	1.002690
982.092513	1.001360
982.389633	1.002648
982.686717	1.000327
982.983764	1.002381
983.280775	1.000151
983.577749	1.002550
983.874686	1.000380
984.171587	1.000393
984.468451	1.000667
984.765279	1.002827
985.062070	1.001713
985.358824	1.002188
985.655543	1.001553
985.952224	1.001849
986.248869	1.001752
986.545478	1.003822
986.842050	1.001467
987.138586	1.001773
987.435086	1.001403
987.731549	1.003254
988.027975	1.002402
988.324366	1.002362
988.620719	1.003063
988.917037	1.002061
989.213318	1.003418
989.509563	1.002127
989.805772	1.003106
990.101944	1.002325
990.398080	1.003381
990.694180	1.003636
990.990244	1.001858
991.286271	1.002144
991.582262	1.003740
991.878217	1.001643
992.174136	1.003216
992.470019	1.001915
992.765865	1.004314
993.061676	1.003119
993.357450	1.002384
993.653188	1.002418
993.948890	1.001875
994.244556	1.001627
994.540186	1.002134
994.835780	1.001940
995.131337	1.004183
995.426859	1.002303
995.722345	1.001727
996.017795	1.002414
996.313208	1.001139
996.608586	1.001582
996.903928	1.002142
997.199234	1.001711
997.494504	1.003312
997.789738	1.000913
998.084936	1.003261
998.380099	1.001377
998.675225	1.001591
998.970316	1.002771
999.265371	1.003029
999.560390	1.002404
999.855373	1.002548
1000.150320	1.002597
1000.445232	1.003606
1000.740108	1.001620
1001.034948	1.002332
1001.329752	1.003409
1001.624521	1.002068
1001.919254	1.002751
1002.213951	1.002324
1002.508613	1.002405
1002.803239	1.001853
1003.097829	1.002754
1003.392384	1.001033
1003.686903	1.004092
1003.981386	1.002920
1004.275834	1.003208
1004.570246	1.002257
1004.864623	1.003430
1005.158964	1.002180
1005.453270	1.002540
1005.747540	1.002699
1006.041775	1.003819
1006.335974	1.002676
1006.630138	1.002844
1006.924266	1.001688
1007.218359	1.000678
1007.512416	1.003377
1007.806438	1.002416
1008.100425	1.003377
1008.394376	1.002559
1008.688292	1.002988
1008.982172	1.002644
1009.276017	1.003187
1009.569827	1.003904
1009.863602	1.001730
1010.157341	1.003343
1010.451045	1.001716
1010.744714	1.003593
1011.038347	1.003512
1011.331945	1.002036
1011.625508	1.001992
1011.919036	1.002710
1012.212528	1.002783
1012.505986	1.001326
1012.799408	1.002527
1013.092795	1.003115
1013.386147	1.003425
1013.679464	1.003199
1013.972745	1.003020
1014.265992	1.001852
1014.559204	1.001187
1014.852380	1.003997
1015.145521	1.002992
1015.438628	1.002748
1015.731699	1.002016
1016.024736	1.003178
1016.317737	1.003799
1016.610703	1.002675
1016.903635	1.002170
1017.196531	1.003395
1017.489393	1.003029
1017.782219	1.002626
1018.075011	1.002181
1018.367768	1.002003
1018.660490	1.004093
1018.953177	1.004093
1019.245829	1.004093
