Dividing Wavelength (nm)	Counts (n)	Blue Motor Position (mm): 7.200000	Red Motor Position (mm): 0.000000	
326.493990	1.003870
326.888308	1.003870
327.282561	1.003870
327.676750	1.006240
328.070874	1.005990
328.464933	1.006582
328.858929	1.006772
329.252859	1.006256
329.646726	1.004901
330.040528	1.005530
330.434265	1.005792
330.827938	1.004322
331.221547	1.004562
331.615091	1.005876
332.008571	1.005910
332.401986	1.004911
332.795338	1.004326
333.188625	1.006092
333.581847	1.004254
333.975006	1.005345
334.368100	1.004660
334.761129	1.005126
335.154095	1.006020
335.546996	1.004129
335.939833	0.998874
336.332606	0.998225
336.725315	0.997504
337.117960	0.998791
337.510540	0.997769
337.903056	0.997976
338.295508	0.998995
338.687896	0.999073
339.080220	0.997208
339.472480	0.997984
339.864676	0.998567
340.256807	0.997510
340.648875	0.998937
341.040879	0.997696
341.432818	0.999025
341.824694	0.998518
342.216506	0.999238
342.608253	0.998785
342.999937	0.997424
343.391557	0.998850
343.783113	0.999538
344.174605	0.998083
344.566033	0.998558
344.957397	0.998857
345.348697	0.999450
345.739934	0.998804
346.131106	0.998668
346.522215	0.997734
346.913260	0.998304
347.304241	0.997719
347.695159	0.998896
348.086012	0.998646
348.476802	0.998226
348.867528	0.997503
349.258191	0.999272
349.648789	0.998340
350.039324	0.999211
350.429796	0.998956
350.820203	0.998055
351.210548	0.998163
351.600828	0.998717
351.991045	0.997885
352.381198	0.999012
352.771288	0.997148
353.161314	0.999084
353.551276	0.997091
353.941175	0.995958
354.331010	0.998458
354.720782	0.997013
355.110490	0.997144
355.500135	0.999307
355.889717	0.996426
356.279235	0.997721
356.668689	0.998126
357.058080	0.997298
357.447408	0.996361
357.836672	0.995876
358.225873	0.997620
358.615010	0.997044
359.004084	0.996375
359.393095	0.996842
359.782043	0.997109
360.170927	0.996906
360.559748	0.997100
360.948505	0.996854
361.337199	0.996021
361.725830	0.996837
362.114398	0.997055
362.502903	0.996999
362.891344	0.995616
363.279722	0.996836
363.668037	0.996830
364.056289	0.995478
364.444478	0.997583
364.832603	0.996582
365.220665	0.995985
365.608665	0.996556
365.996601	0.995739
366.384474	0.995718
366.772284	0.995344
367.160031	0.994914
367.547715	0.994700
367.935336	0.993811
368.322893	0.993276
368.710388	0.992184
369.097820	0.989447
369.485189	0.987593
369.872495	0.985984
370.259738	0.985010
370.646918	0.980754
371.034035	0.978502
371.421090	0.977127
371.808081	0.970692
372.195010	0.968708
372.581875	0.963838
372.968678	0.958874
373.355418	0.955900
373.742096	0.947887
374.128710	0.943702
374.515262	0.938479
374.901751	0.933449
375.288177	0.928019
375.674540	0.921906
376.060841	0.915414
376.447079	0.909348
376.833254	0.902107
377.219367	0.896840
377.605417	0.885743
377.991404	0.881920
378.377329	0.876763
378.763191	0.870092
379.148991	0.860813
379.534727	0.853682
379.920402	0.846453
380.306013	0.841509
380.691563	0.829390
381.077049	0.822466
381.462474	0.817757
381.847835	0.806233
382.233134	0.802100
382.618371	0.802582
383.003545	0.784283
383.388657	0.782526
383.773706	0.774761
384.158693	0.771486
384.543618	0.765687
384.928480	0.756113
385.313280	0.747133
385.698017	0.747409
386.082692	0.734804
386.467305	0.734054
386.851856	0.728854
387.236344	0.722440
387.620770	0.717386
388.005133	0.711254
388.389435	0.705670
388.773674	0.703503
389.157851	0.695831
389.541965	0.692143
389.926018	0.699689
390.310008	0.685640
390.693936	0.683350
391.077802	0.675443
391.461606	0.676966
391.845348	0.665904
392.229027	0.665844
392.612645	0.663279
392.996200	0.650544
393.379694	0.643511
393.763125	0.634487
394.146494	0.638831
394.529801	0.629556
394.913047	0.620905
395.296230	0.627175
395.679351	0.618390
396.062410	0.614702
396.445408	0.617640
396.828343	0.612955
397.211217	0.608612
397.594028	0.620939
397.976778	0.610253
398.359466	0.608023
398.742092	0.602450
399.124656	0.614991
399.507158	0.602825
399.889598	0.599812
400.271977	0.591930
400.654294	0.594741
401.036549	0.593729
401.418742	0.598244
401.800874	0.583976
402.182944	0.581109
402.564952	0.572427
402.946898	0.574768
403.328783	0.575565
403.710606	0.586848
404.092367	0.561755
404.474067	0.566474
404.855705	0.565455
405.237282	0.574258
405.618797	0.560350
406.000250	0.556172
406.381642	0.546920
406.762972	0.551277
407.144240	0.550009
407.525447	0.549834
407.906593	0.542862
408.287677	0.537939
408.668700	0.546649
409.049661	0.541221
409.430560	0.535403
409.811399	0.544213
410.192176	0.525982
410.572891	0.533620
410.953545	0.520698
411.334138	0.534561
411.714669	0.527204
412.095139	0.539765
412.475547	0.523582
412.855894	0.525353
413.236180	0.524494
413.616405	0.530242
413.996568	0.520089
414.376670	0.526750
414.756711	0.531498
415.136691	0.528654
415.516609	0.519506
415.896466	0.515850
416.276262	0.511562
416.655997	0.513942
417.035670	0.495354
417.415283	0.486916
417.794834	0.491606
418.174324	0.497477
418.553753	0.506364
418.933121	0.488762
419.312428	0.482629
419.691674	0.488113
420.070859	0.476392
420.449983	0.483684
420.829045	0.473437
421.208047	0.482405
421.586988	0.475444
421.965867	0.474272
422.344686	0.462947
422.723444	0.475770
423.102141	0.492878
423.480777	0.465426
423.859352	0.486200
424.237866	0.463583
424.616319	0.464188
424.994712	0.455577
425.373044	0.465506
425.751314	0.453626
426.129524	0.470625
426.507673	0.453976
426.885762	0.446866
427.263789	0.452868
427.641756	0.462212
428.019662	0.452501
428.397508	0.451696
428.775292	0.456363
429.153016	0.448158
429.530679	0.454332
429.908282	0.447486
430.285824	0.457799
430.663305	0.436090
431.040726	0.457011
431.418086	0.457219
431.795385	0.448942
432.172624	0.448049
432.549802	0.448298
432.926920	0.447316
433.303977	0.446828
433.680974	0.443764
434.057910	0.442414
434.434786	0.441525
434.811601	0.444496
435.188355	0.426775
435.565050	0.436409
435.941683	0.436950
436.318257	0.420946
436.694770	0.422176
437.071222	0.420264
437.447614	0.424805
437.823946	0.431664
438.200218	0.420538
438.576429	0.429898
438.952580	0.423252
439.328670	0.419927
439.704700	0.426372
440.080670	0.427743
440.456580	0.409083
440.832429	0.416834
441.208218	0.427882
441.583947	0.416999
441.959616	0.416367
442.335224	0.421779
442.710773	0.412547
443.086261	0.410866
443.461689	0.424726
443.837057	0.413836
444.212365	0.404204
444.587612	0.411357
444.962800	0.401526
445.337927	0.403015
445.712995	0.428835
446.088002	0.390683
446.462949	0.401330
446.837837	0.406173
447.212664	0.394612
447.587431	0.386457
447.962139	0.356846
448.336786	0.315688
448.711374	0.326178
449.085901	0.370592
449.460369	0.375273
449.834776	0.378489
450.209124	0.357582
450.583412	0.350387
450.957640	0.343267
451.331808	0.354921
451.705917	0.377723
452.079965	0.382916
452.453954	0.371004
452.827883	0.377754
453.201752	0.372610
453.575562	0.383847
453.949311	0.372331
454.323001	0.378297
454.696632	0.374303
455.070202	0.367234
455.443713	0.359089
455.817164	0.353263
456.190556	0.349445
456.563888	0.346036
456.937160	0.343875
457.310373	0.360892
457.683526	0.359788
458.056619	0.365766
458.429653	0.365907
458.802628	0.369637
459.175542	0.363705
459.548398	0.346427
459.921194	0.338938
460.293930	0.339221
460.666607	0.316169
461.039224	0.304964
461.411782	0.300276
461.784280	0.299631
462.156719	0.303752
462.529099	0.308108
462.901419	0.324220
463.273680	0.328595
463.645882	0.328009
464.018024	0.334251
464.390106	0.326627
464.762130	0.311118
465.134094	0.294361
465.505999	0.263319
465.877845	0.233885
466.249631	0.220487
466.621358	0.227767
466.993026	0.241848
467.364634	0.248126
467.736184	0.257031
468.107674	0.265622
468.479105	0.264778
468.850477	0.271899
469.221790	0.278396
469.593043	0.288450
469.964238	0.293341
470.335373	0.292467
470.706449	0.290840
471.077467	0.291445
471.448425	0.253701
471.819324	0.229015
472.190164	0.228697
472.560945	0.257632
472.931667	0.279892
473.302330	0.283992
473.672934	0.295997
474.043479	0.284049
474.413965	0.285933
474.784393	0.289197
475.154761	0.284404
475.525070	0.281466
475.895321	0.287455
476.265513	0.281548
476.635645	0.276822
477.005719	0.276578
477.375734	0.273493
477.745691	0.266164
478.115588	0.262882
478.485427	0.256385
478.855207	0.243296
479.224928	0.225456
479.594591	0.213958
479.964194	0.217270
480.333739	0.217976
480.703226	0.220053
481.072653	0.218188
481.442022	0.214073
481.811333	0.210477
482.180584	0.214076
482.549777	0.219393
482.918912	0.222631
483.287988	0.222207
483.657005	0.222014
484.025964	0.228424
484.394864	0.225527
484.763706	0.226495
485.132489	0.231645
485.501213	0.232225
485.869879	0.230487
486.238487	0.233445
486.607036	0.231537
486.975527	0.236239
487.343959	0.231937
487.712333	0.231016
488.080648	0.232683
488.448905	0.231971
488.817104	0.233186
489.185244	0.227485
489.553326	0.224380
489.921350	0.214107
490.289315	0.196603
490.657222	0.191409
491.025070	0.193166
491.392861	0.194905
491.760593	0.200672
492.128267	0.206468
492.495883	0.211930
492.863440	0.218068
493.230939	0.224619
493.598380	0.225974
493.965763	0.228249
494.333088	0.230606
494.700354	0.231852
495.067563	0.230925
495.434713	0.234279
495.801805	0.231889
496.168839	0.233360
496.535815	0.235232
496.902733	0.234709
497.269593	0.236457
497.636395	0.234080
498.003139	0.234361
498.369825	0.237479
498.736453	0.234047
499.103023	0.235498
499.469535	0.234807
499.835989	0.235468
500.202385	0.235891
500.568723	0.239095
500.935003	0.234463
501.301226	0.238633
501.667390	0.232968
502.033497	0.231220
502.399546	0.233876
502.765537	0.235954
503.131470	0.234326
503.497345	0.230740
503.863163	0.239472
504.228923	0.232194
504.594625	0.230882
504.960269	0.236381
505.325856	0.231811
505.691385	0.236206
506.056856	0.232804
506.422270	0.232531
506.787625	0.234443
507.152924	0.232227
507.518164	0.232525
507.883347	0.234124
508.248472	0.235975
508.613540	0.230966
508.978550	0.233507
509.343503	0.233888
509.708398	0.231585
510.073236	0.228916
510.438016	0.228876
510.802738	0.230085
511.167403	0.228666
511.532010	0.231287
511.896561	0.226641
512.261053	0.225000
512.625488	0.227190
512.989866	0.227486
513.354186	0.227951
513.718449	0.229633
514.082655	0.226123
514.446803	0.228178
514.810894	0.225840
515.174927	0.228862
515.538904	0.228304
515.902822	0.225232
516.266684	0.227464
516.630488	0.228629
516.994235	0.227595
517.357925	0.226240
517.721558	0.224370
518.085133	0.224166
518.448651	0.224017
518.812112	0.226342
519.175516	0.226039
519.538863	0.223678
519.902152	0.225580
520.265385	0.221999
520.628560	0.223732
520.991678	0.224356
521.354739	0.222978
521.717743	0.224309
522.080690	0.224835
522.443580	0.222150
522.806413	0.222927
523.169189	0.222494
523.531908	0.221218
523.894569	0.224764
524.257174	0.224594
524.619722	0.222275
524.982213	0.223396
525.344647	0.222235
525.707025	0.223476
526.069345	0.221503
526.431608	0.223158
526.793815	0.221060
527.155964	0.225197
527.518057	0.224058
527.880093	0.225308
528.242072	0.223657
528.603995	0.225793
528.965860	0.227224
529.327669	0.226163
529.689421	0.227071
530.051117	0.227960
530.412755	0.225819
530.774337	0.228253
531.135862	0.228631
531.497331	0.227870
531.858743	0.230796
532.220098	0.227259
532.581396	0.229906
532.942638	0.230171
533.303824	0.231621
533.664953	0.231216
534.026025	0.232819
534.387040	0.230806
534.747999	0.230752
535.108902	0.229563
535.469748	0.234668
535.830537	0.232225
536.191270	0.233066
536.551947	0.232381
536.912567	0.232397
537.273131	0.234161
537.633638	0.234393
537.994089	0.234703
538.354483	0.235761
538.714821	0.232583
539.075103	0.232578
539.435328	0.233571
539.795497	0.237207
540.155609	0.233738
540.515665	0.232039
540.875665	0.237488
541.235609	0.235893
541.595496	0.235790
541.955328	0.232596
542.315102	0.235267
542.674821	0.236651
543.034483	0.236449
543.394090	0.235768
543.753640	0.237983
544.113134	0.232834
544.472571	0.236180
544.831953	0.233039
545.191278	0.237440
545.550548	0.236707
545.909761	0.233669
546.268918	0.234213
546.628019	0.232642
546.987064	0.235289
547.346053	0.236765
547.704986	0.234910
548.063863	0.235198
548.422684	0.235525
548.781449	0.237442
549.140158	0.235221
549.498811	0.237748
549.857408	0.240885
550.215949	0.235638
550.574434	0.238770
550.932864	0.236883
551.291237	0.235047
551.649555	0.237033
552.007817	0.236457
552.366022	0.237550
552.724173	0.237426
553.082267	0.237923
553.440305	0.234937
553.798288	0.238941
554.156215	0.235987
554.514086	0.236411
554.871902	0.239706
555.229661	0.238852
555.587365	0.239536
555.945014	0.242118
556.302606	0.238914
556.660143	0.241588
557.017625	0.237867
557.375050	0.240201
557.732421	0.237052
558.089735	0.239292
558.446994	0.239211
558.804197	0.238219
559.161345	0.238116
559.518437	0.241795
559.875474	0.239750
560.232455	0.239019
560.589381	0.240285
560.946251	0.240322
561.303065	0.237907
561.659825	0.239301
562.016528	0.240847
562.373177	0.243331
562.729770	0.240696
563.086307	0.242576
563.442789	0.240814
563.799216	0.243679
564.155587	0.242247
564.511904	0.243906
564.868164	0.243502
565.224370	0.243427
565.580520	0.244987
565.936615	0.245033
566.292654	0.247994
566.648638	0.244931
567.004567	0.245863
567.360441	0.246672
567.716260	0.248426
568.072023	0.246228
568.427732	0.247017
568.783385	0.249399
569.138982	0.247697
569.494525	0.247221
569.850013	0.250102
570.205445	0.248705
570.560823	0.251163
570.916145	0.253239
571.271412	0.251322
571.626625	0.252970
571.981782	0.253501
572.336884	0.254131
572.691931	0.253961
573.046923	0.255157
573.401860	0.256540
573.756743	0.258045
574.111570	0.256806
574.466342	0.257458
574.821059	0.256310
575.175722	0.259359
575.530330	0.259269
575.884882	0.259338
576.239380	0.261396
576.593823	0.261647
576.948211	0.261656
577.302544	0.264728
577.656823	0.264378
578.011047	0.264064
578.365216	0.265091
578.719330	0.267418
579.073389	0.266567
579.427394	0.268055
579.781344	0.269100
580.135239	0.270162
580.489080	0.269964
580.842866	0.273307
581.196597	0.273036
581.550273	0.271392
581.903895	0.272687
582.257463	0.270409
582.610975	0.274341
582.964434	0.273591
583.317837	0.275768
583.671186	0.276103
584.024481	0.276274
584.377721	0.278651
584.730906	0.279309
585.084037	0.278822
585.437113	0.280547
585.790135	0.280196
586.143103	0.283066
586.496016	0.284063
586.848874	0.281664
587.201679	0.282112
587.554428	0.285632
587.907124	0.284300
588.259765	0.285152
588.612352	0.285493
588.964884	0.289640
589.317362	0.288987
589.669786	0.288831
590.022155	0.287282
590.374470	0.286793
590.726731	0.288677
591.078937	0.293876
591.431090	0.290010
591.783188	0.294241
592.135232	0.294962
592.487222	0.294238
592.839157	0.292934
593.191038	0.294911
593.542866	0.296807
593.894639	0.300202
594.246358	0.298662
594.598022	0.297829
594.949633	0.301813
595.301190	0.302320
595.652692	0.301189
596.004141	0.297448
596.355535	0.305454
596.706876	0.306727
597.058162	0.308323
597.409395	0.305675
597.760573	0.303679
598.111698	0.306894
598.462768	0.307079
598.813785	0.308482
599.164748	0.309601
599.515657	0.309828
599.866511	0.313874
600.217312	0.309096
600.568060	0.313914
600.918753	0.310768
601.269392	0.311565
601.619978	0.314921
601.970510	0.312420
602.320988	0.312363
602.671412	0.310190
603.021783	0.312847
603.372100	0.314113
603.722363	0.313987
604.072572	0.314471
604.422728	0.314274
604.772830	0.316782
605.122878	0.316201
605.472872	0.316891
605.822813	0.315385
606.172701	0.317882
606.522534	0.315229
606.872314	0.315683
607.222041	0.316327
607.571714	0.314240
607.921333	0.315759
608.270899	0.315088
608.620411	0.311903
608.969870	0.316213
609.319276	0.316336
609.668627	0.315907
610.017926	0.314818
610.367171	0.313075
610.716362	0.313938
611.065500	0.313807
611.414585	0.312854
611.763616	0.313027
612.112594	0.314095
612.461518	0.312709
612.810389	0.310709
613.159207	0.313223
613.507971	0.314794
613.856682	0.310823
614.205340	0.312088
614.553945	0.309418
614.902496	0.312976
615.250994	0.311111
615.599439	0.311640
615.947830	0.310918
616.296169	0.311983
616.644454	0.311507
616.992686	0.311455
617.340864	0.309351
617.688990	0.313117
618.037063	0.309637
618.385082	0.311502
618.733048	0.308149
619.080961	0.310804
619.428821	0.309948
619.776628	0.309909
620.124382	0.312051
620.472083	0.312637
620.819731	0.311456
621.167326	0.315572
621.514868	0.315464
621.862357	0.319426
622.209793	0.318640
622.557176	0.321289
622.904506	0.322494
623.251783	0.325305
623.599007	0.326901
623.946179	0.326284
624.293297	0.328783
624.640363	0.332500
624.987376	0.333187
625.334336	0.335287
625.681243	0.338112
626.028097	0.338228
626.374899	0.339724
626.721647	0.339949
627.068343	0.342821
627.414987	0.343978
627.761577	0.346150
628.108115	0.344590
628.454600	0.349945
628.801032	0.346997
629.147412	0.348885
629.493739	0.350039
629.840014	0.352773
630.186236	0.349702
630.532405	0.355888
630.878521	0.352871
631.224585	0.355242
631.570597	0.358810
631.916556	0.357449
632.262462	0.356980
632.608316	0.359468
632.954117	0.360210
633.299866	0.361662
633.645562	0.361439
633.991206	0.366134
634.336797	0.368611
634.682336	0.371598
635.027823	0.372984
635.373257	0.373213
635.718639	0.377381
636.063968	0.376291
636.409245	0.382269
636.754470	0.382758
637.099642	0.384973
637.444762	0.388747
637.789829	0.387286
638.134845	0.390944
638.479808	0.391512
638.824719	0.391519
639.169577	0.396095
639.514383	0.394862
639.859137	0.399273
640.203839	0.398597
640.548489	0.399446
640.893086	0.400622
641.237632	0.402356
641.582125	0.400967
641.926566	0.402693
642.270955	0.402769
642.615292	0.403022
642.959576	0.402264
643.303809	0.403222
643.647990	0.402106
643.992118	0.402510
644.336195	0.406069
644.680219	0.404032
645.024192	0.405123
645.368112	0.398871
645.711981	0.397653
646.055797	0.393123
646.399562	0.395529
646.743274	0.388004
647.086935	0.385067
647.430544	0.385285
647.774101	0.383901
648.117606	0.383457
648.461059	0.384316
648.804460	0.386416
649.147810	0.391888
649.491108	0.393207
649.834354	0.394961
650.177548	0.400510
650.520690	0.405663
650.863781	0.406917
651.206820	0.406065
651.549807	0.410899
651.892742	0.415078
652.235626	0.414564
652.578458	0.415568
652.921238	0.421979
653.263967	0.419551
653.606644	0.423284
653.949269	0.423352
654.291843	0.427272
654.634365	0.424418
654.976836	0.426499
655.319255	0.427181
655.661622	0.428846
656.003938	0.428798
656.346203	0.431338
656.688416	0.429714
657.030577	0.432812
657.372687	0.435671
657.714746	0.435928
658.056753	0.433172
658.398708	0.436195
658.740612	0.438440
659.082465	0.433568
659.424266	0.434986
659.766016	0.434019
660.107715	0.437288
660.449362	0.435908
660.790958	0.436511
661.132503	0.437402
661.473996	0.434344
661.815438	0.435975
662.156829	0.436149
662.498168	0.436759
662.839456	0.437962
663.180693	0.435757
663.521879	0.435221
663.863013	0.436227
664.204097	0.434999
664.545129	0.432003
664.886110	0.432358
665.227040	0.429884
665.567918	0.431798
665.908746	0.430437
666.249522	0.430220
666.590248	0.431299
666.930922	0.428687
667.271545	0.428079
667.612118	0.428553
667.952639	0.429511
668.293109	0.428686
668.633528	0.431345
668.973896	0.431573
669.314213	0.431362
669.654480	0.433228
669.994695	0.432930
670.334859	0.434509
670.674973	0.435063
671.015035	0.434538
671.355047	0.435200
671.695008	0.435528
672.034918	0.437736
672.374777	0.437238
672.714585	0.437851
673.054342	0.438308
673.394049	0.438682
673.733705	0.435866
674.073310	0.437030
674.412864	0.439970
674.752368	0.440600
675.091820	0.440874
675.431223	0.445559
675.770574	0.445238
676.109875	0.448853
676.449125	0.447981
676.788324	0.450473
677.127473	0.456286
677.466571	0.455971
677.805619	0.457374
678.144616	0.459261
678.483562	0.460955
678.822458	0.463315
679.161303	0.463726
679.500098	0.464627
679.838842	0.466020
680.177535	0.464950
680.516179	0.464472
680.854771	0.463572
681.193314	0.456847
681.531805	0.447991
681.870247	0.436916
682.208638	0.429209
682.546978	0.428105
682.885268	0.430598
683.223508	0.436780
683.561697	0.440751
683.899836	0.443394
684.237925	0.446303
684.575963	0.449273
684.913951	0.452542
685.251889	0.448396
685.589776	0.450609
685.927614	0.452789
686.265401	0.447584
686.603137	0.449120
686.940824	0.443111
687.278460	0.441664
687.616046	0.441364
687.953582	0.436676
688.291068	0.437193
688.628504	0.432970
688.965889	0.435114
689.303224	0.439340
689.640510	0.443504
689.977745	0.449091
690.314930	0.457062
690.652065	0.461663
690.989150	0.468806
691.326185	0.476087
691.663170	0.480376
692.000105	0.487504
692.336990	0.494659
692.673825	0.497387
693.010610	0.503507
693.347345	0.509902
693.684030	0.511770
694.020665	0.515972
694.357251	0.524505
694.693786	0.524619
695.030272	0.527861
695.366707	0.531935
695.703093	0.536253
696.039429	0.533056
696.375716	0.535398
696.711952	0.538083
697.048139	0.539714
697.384276	0.542545
697.720363	0.540815
698.056400	0.539698
698.392388	0.545594
698.728326	0.548712
699.064214	0.550974
699.400053	0.551882
699.735842	0.555883
700.071581	0.558893
700.407270	0.562127
700.742910	0.564856
701.078501	0.570356
701.414042	0.571450
701.749533	0.574321
702.084974	0.583422
702.420366	0.576178
702.755709	0.583318
703.091002	0.590875
703.426246	0.585353
703.761440	0.590205
704.096584	0.594851
704.431679	0.592399
704.766725	0.594729
705.101721	0.596500
705.436668	0.593014
705.771565	0.598950
706.106413	0.595645
706.441212	0.592269
706.775961	0.591852
707.110661	0.593262
707.445311	0.591258
707.779913	0.587545
708.114465	0.586688
708.448967	0.583463
708.783421	0.575909
709.117825	0.570844
709.452180	0.570781
709.786485	0.564643
710.120742	0.554619
710.454949	0.557239
710.789107	0.549489
711.123216	0.540510
711.457275	0.541964
711.791286	0.534601
712.125247	0.534414
712.459159	0.544144
712.793023	0.535385
713.126837	0.541243
713.460602	0.541350
713.794318	0.549656
714.127985	0.549126
714.461602	0.559555
714.795171	0.562172
715.128691	0.570667
715.462162	0.577034
715.795584	0.582844
716.128957	0.586736
716.462281	0.592367
716.795556	0.596175
717.128782	0.601837
717.461960	0.611062
717.795088	0.609649
718.128167	0.616034
718.461198	0.623686
718.794180	0.625472
719.127113	0.627491
719.459997	0.630915
719.792833	0.636943
720.125619	0.638077
720.458357	0.643772
720.791046	0.643992
721.123686	0.647731
721.456278	0.654249
721.788821	0.652287
722.121315	0.657031
722.453761	0.661494
722.786158	0.659401
723.118506	0.655380
723.450805	0.662199
723.783056	0.659452
724.115259	0.657772
724.447412	0.657040
724.779518	0.657998
725.111574	0.656840
725.443582	0.653231
725.775542	0.655137
726.107453	0.647461
726.439315	0.648408
726.771129	0.647111
727.102895	0.640526
727.434612	0.633820
727.766281	0.631870
728.097901	0.630718
728.429473	0.629995
728.760996	0.628746
729.092471	0.629965
729.423897	0.633299
729.755276	0.632725
730.086606	0.633519
730.417887	0.627763
730.749120	0.618230
731.080305	0.610510
731.411442	0.607486
731.742530	0.610357
732.073570	0.609977
732.404562	0.604199
732.735506	0.605735
733.066401	0.609795
733.397249	0.618657
733.728048	0.630055
734.058798	0.642925
734.389501	0.652711
734.720156	0.662020
735.050762	0.670386
735.381320	0.671585
735.711831	0.677851
736.042293	0.684353
736.372707	0.681556
736.703073	0.685024
737.033391	0.686528
737.363661	0.684334
737.693883	0.680563
738.024056	0.679132
738.354182	0.679989
738.684260	0.669847
739.014290	0.665924
739.344272	0.666847
739.674207	0.661093
740.004093	0.660559
740.333931	0.660695
740.663722	0.661533
740.993464	0.662592
741.323159	0.665849
741.652806	0.671639
741.982405	0.675947
742.311956	0.680722
742.641460	0.682734
742.970915	0.686050
743.300323	0.692744
743.629683	0.698880
743.958996	0.701455
744.288260	0.705948
744.617477	0.711910
744.946647	0.712894
745.275768	0.719211
745.604842	0.718707
745.933869	0.727468
746.262847	0.728548
746.591778	0.723952
746.920662	0.729348
747.249498	0.734472
747.578286	0.728435
747.907027	0.723956
748.235720	0.723331
748.564365	0.720540
748.892963	0.719636
749.221514	0.723137
749.550017	0.727477
749.878473	0.727971
750.206881	0.734986
750.535242	0.734709
750.863555	0.733862
751.191821	0.735064
751.520039	0.738796
751.848210	0.741446
752.176334	0.736618
752.504411	0.735995
752.832440	0.742661
753.160421	0.745864
753.488356	0.745886
753.816243	0.743499
754.144082	0.751651
754.471875	0.754543
754.799620	0.751342
755.127318	0.751921
755.454969	0.752768
755.782572	0.752344
756.110129	0.755799
756.437638	0.759710
756.765100	0.756954
757.092515	0.754715
757.419882	0.753874
757.747203	0.758570
758.074477	0.758634
758.401703	0.755592
758.728882	0.750638
759.056014	0.748667
759.383099	0.748938
759.710138	0.748694
760.037129	0.745764
760.364073	0.741630
760.690970	0.743704
761.017820	0.747012
761.344623	0.744437
761.671379	0.736402
761.998088	0.726438
762.324751	0.704381
762.651366	0.663085
762.977935	0.600609
763.304456	0.553730
763.630931	0.546063
763.957359	0.582396
764.283740	0.622975
764.610074	0.650786
764.936362	0.680824
765.262602	0.706035
765.588796	0.725634
765.914943	0.741877
766.241044	0.757124
766.567097	0.764002
766.893104	0.772896
767.219064	0.778477
767.544978	0.785350
767.870845	0.797157
768.196665	0.800914
768.522438	0.800430
768.848165	0.800789
769.173846	0.809857
769.499479	0.814387
769.825066	0.817806
770.150607	0.821363
770.476101	0.817433
770.801548	0.820385
771.126949	0.829556
771.452303	0.833956
771.777611	0.832850
772.102872	0.831633
772.428087	0.836712
772.753256	0.840883
773.078378	0.842582
773.403453	0.849051
773.728482	0.854413
774.053465	0.848280
774.378401	0.850957
774.703291	0.859618
775.028135	0.860223
775.352932	0.859079
775.677683	0.864000
776.002388	0.864484
776.327046	0.864499
776.651658	0.868030
776.976224	0.869654
777.300743	0.868188
777.625216	0.871807
777.949643	0.874070
778.274024	0.872122
778.598359	0.874760
778.922647	0.873454
779.246889	0.875830
779.571086	0.878186
779.895236	0.879936
780.219339	0.878769
780.543397	0.874446
780.867409	0.874418
781.191374	0.876888
781.515294	0.877274
781.839167	0.877346
782.162995	0.878517
782.486776	0.877063
782.810511	0.877298
783.134201	0.882199
783.457844	0.880866
783.781441	0.882087
784.104993	0.887283
784.428498	0.887460
784.751958	0.885395
785.075372	0.885665
785.398739	0.888917
785.722061	0.885036
786.045337	0.882885
786.368568	0.885286
786.691752	0.888552
787.014891	0.875603
787.337983	0.867478
787.661030	0.859780
787.984031	0.843973
788.306987	0.834777
788.629897	0.833691
788.952760	0.840724
789.275579	0.844304
789.598351	0.857855
789.921078	0.869941
790.243759	0.872118
790.566395	0.875408
790.888984	0.882652
791.211529	0.887383
791.534027	0.890007
791.856480	0.892896
792.178888	0.896531
792.501249	0.896488
792.823566	0.901141
793.145836	0.900168
793.468062	0.901814
793.790241	0.902095
794.112375	0.900308
794.434464	0.897945
794.756507	0.896563
795.078505	0.894635
795.400457	0.889867
795.722364	0.879062
796.044226	0.874129
796.366042	0.872108
796.687812	0.874683
797.009538	0.871187
797.331218	0.876192
797.652852	0.879510
797.974442	0.883409
798.295986	0.884976
798.617484	0.885353
798.938938	0.890318
799.260346	0.894157
799.581709	0.896317
799.903026	0.898687
800.224299	0.898868
800.545526	0.901768
800.866708	0.904477
801.187845	0.909243
801.508936	0.909603
801.829983	0.907031
802.150984	0.910896
802.471940	0.913576
802.792851	0.914536
803.113717	0.914594
803.434538	0.913174
803.755314	0.914517
804.076045	0.915506
804.396731	0.915276
804.717372	0.914886
805.037967	0.918301
805.358518	0.915382
805.679024	0.913047
805.999485	0.912971
806.319901	0.913263
806.640272	0.915529
806.960598	0.913497
807.280879	0.910742
807.601115	0.909754
807.921306	0.913214
808.241453	0.913925
808.561554	0.912604
808.881611	0.911427
809.201623	0.911925
809.521590	0.913104
809.841513	0.914407
810.161390	0.913409
810.481223	0.915123
810.801011	0.917273
811.120755	0.919215
811.440453	0.917867
811.760107	0.918932
812.079716	0.918434
812.399281	0.921243
812.718801	0.922609
813.038276	0.922909
813.357707	0.924017
813.677093	0.922863
813.996434	0.923143
814.315731	0.926331
814.634983	0.926911
814.954191	0.927191
815.273354	0.921678
815.592473	0.919853
815.911547	0.919979
816.230577	0.916501
816.549562	0.915985
816.868502	0.913593
817.187399	0.913531
817.506250	0.909009
817.825058	0.908803
818.143821	0.907392
818.462539	0.903141
818.781213	0.895762
819.099843	0.886998
819.418429	0.872183
819.736970	0.857360
820.055466	0.839804
820.373919	0.818669
820.692327	0.791587
821.010691	0.760054
821.329011	0.685908
821.647286	0.576748
821.965517	0.471047
822.283704	0.429148
822.601847	0.432840
822.919945	0.473036
823.237999	0.512263
823.556010	0.555337
823.873976	0.606964
824.191897	0.653649
824.509775	0.692431
824.827609	0.730065
825.145398	0.751162
825.463144	0.752463
825.780845	0.736989
826.098502	0.719331
826.416116	0.678579
826.733685	0.637321
827.051210	0.630666
827.368692	0.644843
827.686129	0.681412
828.003522	0.729110
828.320872	0.771750
828.638177	0.809186
828.955439	0.835893
829.272656	0.854487
829.589830	0.868837
829.906960	0.882201
830.224046	0.892455
830.541088	0.901322
830.858086	0.906308
831.175041	0.911854
831.491952	0.910026
831.808819	0.907006
832.125642	0.901562
832.442421	0.890755
832.759157	0.871189
833.075849	0.829174
833.392497	0.773087
833.709101	0.738370
834.025662	0.749385
834.342179	0.778057
834.658653	0.812120
834.975083	0.843556
835.291469	0.866698
835.607811	0.884732
835.924110	0.898407
836.240366	0.913250
836.556578	0.922680
836.872746	0.929528
837.188871	0.934852
837.504952	0.938639
837.820990	0.942160
838.136984	0.943825
838.452935	0.946791
838.768842	0.948316
839.084706	0.942003
839.400526	0.920670
839.716303	0.884483
840.032037	0.864947
840.347727	0.870323
840.663373	0.887829
840.978977	0.906167
841.294537	0.925003
841.610054	0.938091
841.925527	0.944649
842.240957	0.950540
842.556344	0.956768
842.871687	0.960241
843.186987	0.962350
843.502244	0.965772
843.817458	0.965429
844.132629	0.968347
844.447756	0.972754
844.762840	0.972097
845.077881	0.972498
845.392879	0.971167
845.707833	0.973799
846.022745	0.975648
846.337613	0.975502
846.652438	0.975836
846.967221	0.976383
847.281960	0.977134
847.596656	0.977878
847.911309	0.976675
848.225919	0.977122
848.540485	0.979146
848.855009	0.980197
849.169490	0.979343
849.483928	0.978400
849.798323	0.978079
850.112675	0.980281
850.426984	0.979771
850.741251	0.980603
851.055474	0.979297
851.369654	0.979006
851.683792	0.977908
851.997887	0.981037
852.311938	0.979779
852.625947	0.978417
852.939914	0.978231
853.253837	0.980894
853.567718	0.981174
853.881555	0.980554
854.195350	0.979440
854.509103	0.980136
854.822812	0.981008
855.136479	0.980633
855.450103	0.979719
855.763685	0.979701
856.077224	0.981305
856.390720	0.981137
856.704173	0.981167
857.017584	0.979099
857.330953	0.978253
857.644278	0.977824
857.957561	0.979531
858.270802	0.979944
858.584000	0.979038
858.897155	0.977733
859.210268	0.977935
859.523339	0.980866
859.836367	0.981380
860.149352	0.980426
860.462295	0.980101
860.775195	0.980316
861.088054	0.979907
861.400869	0.981631
861.713642	0.980262
862.026373	0.983178
862.339062	0.981696
862.651708	0.979830
862.964312	0.979586
863.276873	0.980153
863.589392	0.979055
863.901869	0.977132
864.214303	0.977324
864.526696	0.975288
864.839045	0.975593
865.151353	0.975213
865.463619	0.974290
865.775842	0.975378
866.088023	0.976138
866.400162	0.975796
866.712258	0.976364
867.024313	0.975645
867.336325	0.977231
867.648296	0.977180
867.960224	0.975334
868.272110	0.976946
868.583954	0.976517
868.895755	0.977269
869.207515	0.974236
869.519233	0.974523
869.830909	0.973088
870.142542	0.975373
870.454134	0.974831
870.765684	0.972767
871.077191	0.973584
871.388657	0.972932
871.700081	0.973078
872.011463	0.973769
872.322803	0.971275
872.634101	0.970653
872.945357	0.969051
873.256571	0.967557
873.567744	0.967835
873.878874	0.968136
874.189963	0.967873
874.501010	0.968338
874.812015	0.965804
875.122979	0.967495
875.433900	0.968494
875.744780	0.968972
876.055618	0.966466
876.366415	0.966508
876.677169	0.966428
876.987882	0.966862
877.298554	0.968506
877.609183	0.965440
877.919771	0.963746
878.230317	0.962559
878.540822	0.959327
878.851285	0.956552
879.161707	0.951159
879.472087	0.944325
879.782425	0.929177
880.092722	0.900982
880.402977	0.857920
880.713191	0.800840
881.023363	0.745415
881.333494	0.711632
881.643583	0.689225
881.953631	0.693482
882.263637	0.721933
882.573602	0.758073
882.883526	0.782547
883.193408	0.805195
883.503248	0.824953
883.813048	0.849045
884.122806	0.872108
884.432522	0.891290
884.742197	0.906474
885.051831	0.916029
885.361424	0.924606
885.670975	0.933544
885.980485	0.940113
886.289954	0.944707
886.599382	0.947942
886.908768	0.951063
887.218113	0.955366
887.527417	0.957814
887.836680	0.962485
888.145901	0.963407
888.455082	0.966458
888.764221	0.968752
889.073319	0.969100
889.382376	0.970235
889.691392	0.969469
890.000366	0.970274
890.309300	0.970478
890.618193	0.970108
890.927044	0.969172
891.235855	0.968792
891.544625	0.968545
891.853353	0.967775
892.162041	0.966584
892.470687	0.962287
892.779293	0.958561
893.087858	0.955472
893.396381	0.948635
893.704864	0.938131
894.013306	0.919116
894.321707	0.898930
894.630068	0.885806
894.938387	0.882056
895.246665	0.887668
895.554903	0.896843
895.863100	0.908514
896.171256	0.921421
896.479371	0.936446
896.787446	0.945229
897.095480	0.949592
897.403473	0.951927
897.711425	0.955912
898.019336	0.961087
898.327207	0.964526
898.635038	0.963143
898.942827	0.964953
899.250576	0.966957
899.558284	0.969930
899.865952	0.970348
900.173579	0.971638
900.481165	0.972239
900.788711	0.973267
901.096216	0.974851
901.403681	0.976677
901.711105	0.977516
902.018489	0.978423
902.325832	0.977047
902.633135	0.975661
902.940397	0.972314
903.247619	0.963087
903.554800	0.943924
903.861941	0.910484
904.169041	0.879786
904.476101	0.865906
904.783121	0.868368
905.090100	0.882825
905.397039	0.903394
905.703938	0.920457
906.010796	0.934997
906.317614	0.947593
906.624391	0.956210
906.931129	0.963991
907.237826	0.969078
907.544483	0.974091
907.851099	0.977746
908.157675	0.978604
908.464211	0.982376
908.770707	0.983015
909.077163	0.985739
909.383578	0.986187
909.689954	0.985644
909.996289	0.986183
910.302584	0.988880
910.608839	0.989832
910.915054	0.988314
911.221229	0.988557
911.527363	0.987425
911.833458	0.987951
912.139513	0.986370
912.445527	0.988272
912.751502	0.986546
913.057436	0.984232
913.363331	0.984124
913.669186	0.981692
913.975000	0.977085
914.280775	0.972872
914.586510	0.966744
914.892205	0.956222
915.197859	0.938957
915.503475	0.918863
915.809050	0.902493
916.114585	0.895315
916.420081	0.894185
916.725536	0.895120
917.030952	0.902026
917.336328	0.912283
917.641665	0.923049
917.946961	0.935121
918.252218	0.943708
918.557435	0.949974
918.862612	0.956913
919.167750	0.962139
919.472848	0.965871
919.777906	0.970635
920.082925	0.974018
920.387904	0.976798
920.692843	0.976734
920.997743	0.978004
921.302603	0.980073
921.607423	0.982170
921.912204	0.983244
922.216946	0.985547
922.521647	0.985769
922.826310	0.986215
923.130932	0.988384
923.435516	0.988844
923.740059	0.989145
924.044564	0.987988
924.349028	0.990553
924.653454	0.992215
924.957840	0.992690
925.262186	0.991669
925.566493	0.992769
925.870761	0.993451
926.174989	0.993222
926.479178	0.996003
926.783328	0.995446
927.087438	0.995408
927.391509	0.994114
927.695541	0.996832
927.999533	0.997580
928.303486	0.996624
928.607400	0.996749
928.911275	0.997293
929.215110	0.997391
929.518906	0.998291
929.822663	0.997904
930.126381	0.997376
930.430060	0.997016
930.733699	0.997000
931.037299	0.997091
931.340861	0.996496
931.644383	0.996023
931.947866	0.997407
932.251309	0.998058
932.554714	0.996297
932.858080	0.996282
933.161407	0.996769
933.464694	0.996836
933.767943	0.997087
934.071153	0.997380
934.374323	0.997797
934.677455	0.997749
934.980548	0.997242
935.283602	0.997926
935.586617	0.997944
935.889593	0.999044
936.192530	0.998228
936.495428	0.998090
936.798287	0.996674
937.101108	0.996927
937.403890	0.996125
937.706632	0.996744
938.009336	0.995325
938.312002	0.992998
938.614628	0.993004
938.917216	0.990756
939.219765	0.990491
939.522275	0.991500
939.824747	0.992125
940.127179	0.991842
940.429573	0.993958
940.731929	0.992002
941.034246	0.992908
941.336524	0.992082
941.638763	0.993577
941.940964	0.992915
942.243126	0.994291
942.545250	0.995435
942.847335	0.996143
943.149381	0.995404
943.451389	0.995296
943.753359	0.996049
944.055290	0.997485
944.357182	0.997309
944.659036	0.997540
944.960851	0.997727
945.262628	0.996781
945.564367	0.997738
945.866067	0.996222
946.167729	0.996782
946.469352	0.996275
946.770937	0.994923
947.072484	0.998135
947.373992	0.996648
947.675462	0.995978
947.976893	0.996545
948.278286	0.998606
948.579641	0.998594
948.880958	0.996533
949.182236	0.998390
949.483476	0.997209
949.784678	0.997730
950.085841	0.997564
950.386967	0.996942
950.688054	0.998247
950.989103	0.996468
951.290114	0.996651
951.591087	0.996753
951.892021	0.996943
952.192917	0.996450
952.493776	0.996304
952.794596	0.995991
953.095378	0.994165
953.396122	0.995631
953.696828	0.996672
953.997496	0.996634
954.298126	0.997726
954.598718	0.996674
954.899272	0.997956
955.199788	0.996196
955.500266	0.999518
955.800706	0.998790
956.101108	0.998050
956.401472	1.001383
956.701798	0.998293
957.002087	0.999467
957.302337	0.999923
957.602550	1.000497
957.902724	1.000241
958.202861	1.000880
958.502960	0.998938
958.803022	1.001497
959.103045	1.001068
959.403031	1.002745
959.702979	1.001778
960.002889	1.001121
960.302762	1.000686
960.602596	1.002358
960.902393	1.001196
961.202153	1.001578
961.501875	1.002158
961.801559	1.001833
962.101205	1.001238
962.400814	1.002821
962.700385	1.003321
962.999918	1.001391
963.299414	1.000761
963.598873	1.001468
963.898293	1.001918
964.197677	1.001742
964.497022	1.001060
964.796331	1.001786
965.095601	1.002889
965.394835	1.002107
965.694030	1.002901
965.993189	1.001142
966.292309	1.002638
966.591393	1.000648
966.890439	1.003150
967.189447	1.000804
967.488419	1.001768
967.787353	1.001851
968.086249	1.002347
968.385108	1.001256
968.683930	1.003273
968.982714	1.002533
969.281462	1.001806
969.580172	1.000928
969.878844	1.002975
970.177480	1.002591
970.476078	1.002804
970.774639	1.002799
971.073162	1.001278
971.371649	1.002343
971.670098	1.001737
971.968510	1.001279
972.266885	1.000584
972.565223	1.002256
972.863524	1.001113
973.161788	1.001939
973.460014	1.001093
973.758204	1.001115
974.056356	1.001809
974.354471	1.001198
974.652550	1.001192
974.950591	1.001814
975.248595	1.000608
975.546563	1.002202
975.844493	1.002454
976.142386	1.001034
976.440243	1.002787
976.738062	1.002973
977.035845	1.001545
977.333590	1.003164
977.631299	1.001803
977.928971	1.002932
978.226606	1.001980
978.524204	1.000949
978.821765	1.002627
979.119290	1.003200
979.416777	1.002239
979.714228	1.002753
980.011642	1.002862
980.309020	1.002243
980.606360	1.002311
980.903664	1.001688
981.200931	1.000828
981.498162	1.002051
981.795356	1.000851
982.092513	1.000325
982.389633	1.000221
982.686717	0.998624
982.983764	0.997361
983.280775	0.997458
983.577749	0.999012
983.874686	0.998827
984.171587	0.998823
984.468451	0.999593
984.765279	1.000693
985.062070	1.001046
985.358824	1.000628
985.655543	1.001172
985.952224	1.001630
986.248869	1.002039
986.545478	1.003158
986.842050	1.002238
987.138586	1.001446
987.435086	1.002940
987.731549	1.003540
988.027975	1.003467
988.324366	1.002129
988.620719	1.003743
988.917037	1.002096
989.213318	1.002855
989.509563	1.003708
989.805772	1.002643
990.101944	1.003201
990.398080	1.003997
990.694180	1.004426
990.990244	1.002911
991.286271	1.002598
991.582262	1.003072
991.878217	1.001335
992.174136	1.003834
992.470019	1.002456
992.765865	1.004270
993.061676	1.003869
993.357450	1.003644
993.653188	1.004036
993.948890	1.004244
994.244556	1.002274
994.540186	1.003028
994.835780	1.001658
995.131337	1.003954
995.426859	1.001594
995.722345	1.001575
996.017795	1.001647
996.313208	1.001664
996.608586	1.001291
996.903928	1.002442
997.199234	1.001101
997.494504	1.003154
997.789738	1.000190
998.084936	1.003265
998.380099	1.002443
998.675225	1.001483
998.970316	1.002414
999.265371	1.003326
999.560390	1.002652
999.855373	1.002616
1000.150320	1.003365
1000.445232	1.004201
1000.740108	1.003044
1001.034948	1.002402
1001.329752	1.004432
1001.624521	1.002515
1001.919254	1.003405
1002.213951	1.003315
1002.508613	1.003139
1002.803239	1.001805
1003.097829	1.003548
1003.392384	1.003723
1003.686903	1.003359
1003.981386	1.002544
1004.275834	1.005376
1004.570246	1.001927
1004.864623	1.004333
1005.158964	1.003971
1005.453270	1.003801
1005.747540	1.003546
1006.041775	1.003877
1006.335974	1.002799
1006.630138	1.003918
1006.924266	1.001529
1007.218359	1.001546
1007.512416	1.003864
1007.806438	1.003840
1008.100425	1.003765
1008.394376	1.003418
1008.688292	1.003532
1008.982172	1.002832
1009.276017	1.003802
1009.569827	1.003996
1009.863602	1.003115
1010.157341	1.004059
1010.451045	1.002698
1010.744714	1.004749
1011.038347	1.003632
1011.331945	1.003726
1011.625508	1.003748
1011.919036	1.003302
1012.212528	1.003762
1012.505986	1.003439
1012.799408	1.003914
1013.092795	1.003285
1013.386147	1.003623
1013.679464	1.005036
1013.972745	1.003013
1014.265992	1.003241
1014.559204	1.003736
1014.852380	1.004282
1015.145521	1.003311
1015.438628	1.003444
1015.731699	1.003486
1016.024736	1.003636
1016.317737	1.003595
1016.610703	1.004821
1016.903635	1.003692
1017.196531	1.003908
1017.489393	1.003050
1017.782219	1.003357
1018.075011	1.002894
1018.367768	1.001732
1018.660490	1.004054
1018.953177	1.004054
1019.245829	1.004054
