Dividing Wavelength (nm)	Counts (n)	Blue Motor Position (mm): 19.200000	Red Motor Position (mm): 0.000000	
326.493990	1.001070
326.888308	1.001070
327.282561	1.001070
327.676750	1.003514
328.070874	1.002497
328.464933	1.002737
328.858929	1.002789
329.252859	1.002496
329.646726	1.002597
330.040528	1.001510
330.434265	1.002463
330.827938	1.002111
331.221547	1.002587
331.615091	1.002961
332.008571	1.003728
332.401986	1.000923
332.795338	1.002497
333.188625	1.002723
333.581847	1.002359
333.975006	1.001783
334.368100	1.001876
334.761129	1.001731
335.154095	1.002428
335.546996	1.001669
335.939833	0.998777
336.332606	1.000372
336.725315	0.998627
337.117960	1.000530
337.510540	0.998196
337.903056	0.999627
338.295508	1.000494
338.687896	1.000624
339.080220	0.999214
339.472480	0.998996
339.864676	0.999145
340.256807	0.999171
340.648875	0.999334
341.040879	0.998092
341.432818	1.000640
341.824694	0.999367
342.216506	1.000314
342.608253	0.999622
342.999937	0.997813
343.391557	0.999584
343.783113	1.000419
344.174605	0.998771
344.566033	0.996955
344.957397	0.998462
345.348697	0.999350
345.739934	0.999132
346.131106	0.999077
346.522215	0.997998
346.913260	0.999463
347.304241	0.998294
347.695159	0.998262
348.086012	0.998860
348.476802	0.999264
348.867528	0.998023
349.258191	0.999005
349.648789	0.997674
350.039324	0.998038
350.429796	0.999336
350.820203	0.998206
351.210548	0.999173
351.600828	0.998994
351.991045	0.997985
352.381198	0.999435
352.771288	0.998027
353.161314	0.999417
353.551276	0.998028
353.941175	0.996250
354.331010	0.997981
354.720782	0.997834
355.110490	0.998229
355.500135	0.998153
355.889717	0.997162
356.279235	0.998071
356.668689	0.998602
357.058080	0.998647
357.447408	0.998388
357.836672	0.998786
358.225873	0.997345
358.615010	0.998793
359.004084	0.997964
359.393095	0.997715
359.782043	0.998132
360.170927	0.998518
360.559748	0.998546
360.948505	0.996966
361.337199	0.997234
361.725830	0.997875
362.114398	0.997126
362.502903	0.996408
362.891344	0.996519
363.279722	0.996087
363.668037	0.997991
364.056289	0.997225
364.444478	0.998707
364.832603	0.997638
365.220665	0.997188
365.608665	0.996775
365.996601	0.996416
366.384474	0.995530
366.772284	0.996889
367.160031	0.994901
367.547715	0.995490
367.935336	0.993832
368.322893	0.992799
368.710388	0.992774
369.097820	0.990717
369.485189	0.989065
369.872495	0.986391
370.259738	0.984947
370.646918	0.982483
371.034035	0.979830
371.421090	0.977089
371.808081	0.971084
372.195010	0.968711
372.581875	0.963064
372.968678	0.959725
373.355418	0.956312
373.742096	0.947856
374.128710	0.943959
374.515262	0.938923
374.901751	0.934213
375.288177	0.928460
375.674540	0.922128
376.060841	0.916212
376.447079	0.909879
376.833254	0.902831
377.219367	0.896568
377.605417	0.885460
377.991404	0.882243
378.377329	0.876880
378.763191	0.870863
379.148991	0.860769
379.534727	0.853443
379.920402	0.845654
380.306013	0.841828
380.691563	0.829211
381.077049	0.822847
381.462474	0.818142
381.847835	0.806874
382.233134	0.802932
382.618371	0.802915
383.003545	0.785334
383.388657	0.782981
383.773706	0.776069
384.158693	0.772315
384.543618	0.766681
384.928480	0.756856
385.313280	0.747470
385.698017	0.745949
386.082692	0.735551
386.467305	0.733780
386.851856	0.728875
387.236344	0.723899
387.620770	0.718018
388.005133	0.711544
388.389435	0.706447
388.773674	0.703504
389.157851	0.695680
389.541965	0.693375
389.926018	0.699654
390.310008	0.686685
390.693936	0.682849
391.077802	0.676256
391.461606	0.677302
391.845348	0.666391
392.229027	0.665684
392.612645	0.664090
392.996200	0.650940
393.379694	0.644118
393.763125	0.634267
394.146494	0.638889
394.529801	0.629624
394.913047	0.621008
395.296230	0.627425
395.679351	0.619137
396.062410	0.616247
396.445408	0.617726
396.828343	0.613661
397.211217	0.608363
397.594028	0.621006
397.976778	0.611533
398.359466	0.607368
398.742092	0.603459
399.124656	0.615135
399.507158	0.603436
399.889598	0.600287
400.271977	0.591381
400.654294	0.595682
401.036549	0.594161
401.418742	0.599034
401.800874	0.584345
402.182944	0.580969
402.564952	0.572286
402.946898	0.575200
403.328783	0.575640
403.710606	0.587344
404.092367	0.562428
404.474067	0.567115
404.855705	0.565901
405.237282	0.574645
405.618797	0.560942
406.000250	0.556297
406.381642	0.546361
406.762972	0.551960
407.144240	0.550054
407.525447	0.550405
407.906593	0.543030
408.287677	0.538385
408.668700	0.546997
409.049661	0.541666
409.430560	0.535948
409.811399	0.544795
410.192176	0.526575
410.572891	0.533708
410.953545	0.521518
411.334138	0.535754
411.714669	0.527532
412.095139	0.539318
412.475547	0.523807
412.855894	0.525447
413.236180	0.525074
413.616405	0.530274
413.996568	0.520951
414.376670	0.526401
414.756711	0.531852
415.136691	0.528689
415.516609	0.519346
415.896466	0.516410
416.276262	0.512260
416.655997	0.513905
417.035670	0.495958
417.415283	0.486847
417.794834	0.491975
418.174324	0.497770
418.553753	0.506450
418.933121	0.488672
419.312428	0.482584
419.691674	0.488856
420.070859	0.476924
420.449983	0.484919
420.829045	0.474189
421.208047	0.482859
421.586988	0.476271
421.965867	0.474841
422.344686	0.463147
422.723444	0.476413
423.102141	0.493839
423.480777	0.465755
423.859352	0.486645
424.237866	0.464267
424.616319	0.464607
424.994712	0.455578
425.373044	0.465839
425.751314	0.454029
426.129524	0.470626
426.507673	0.453921
426.885762	0.447493
427.263789	0.452935
427.641756	0.462909
428.019662	0.453201
428.397508	0.452814
428.775292	0.456476
429.153016	0.448876
429.530679	0.455008
429.908282	0.447807
430.285824	0.458031
430.663305	0.436382
431.040726	0.457778
431.418086	0.457284
431.795385	0.449438
432.172624	0.448437
432.549802	0.448430
432.926920	0.447382
433.303977	0.447341
433.680974	0.444180
434.057910	0.443018
434.434786	0.441851
434.811601	0.444712
435.188355	0.427550
435.565050	0.436547
435.941683	0.437615
436.318257	0.421087
436.694770	0.422411
437.071222	0.420693
437.447614	0.425125
437.823946	0.431731
438.200218	0.421149
438.576429	0.430570
438.952580	0.423782
439.328670	0.420281
439.704700	0.426734
440.080670	0.428294
440.456580	0.409482
440.832429	0.417262
441.208218	0.428183
441.583947	0.417275
441.959616	0.416512
442.335224	0.423019
442.710773	0.412696
443.086261	0.411032
443.461689	0.424983
443.837057	0.414693
444.212365	0.404485
444.587612	0.411840
444.962800	0.401912
445.337927	0.403214
445.712995	0.429532
446.088002	0.391373
446.462949	0.401849
446.837837	0.406546
447.212664	0.395475
447.587431	0.386901
447.962139	0.357112
448.336786	0.316479
448.711374	0.327042
449.085901	0.371151
449.460369	0.375507
449.834776	0.378973
450.209124	0.357969
450.583412	0.351125
450.957640	0.343459
451.331808	0.355563
451.705917	0.378822
452.079965	0.383406
452.453954	0.371853
452.827883	0.378430
453.201752	0.372994
453.575562	0.384346
453.949311	0.372749
454.323001	0.378896
454.696632	0.375027
455.070202	0.367484
455.443713	0.359249
455.817164	0.354388
456.190556	0.349959
456.563888	0.346832
456.937160	0.344154
457.310373	0.361621
457.683526	0.360375
458.056619	0.366106
458.429653	0.366371
458.802628	0.370108
459.175542	0.364245
459.548398	0.346525
459.921194	0.339606
460.293930	0.339555
460.666607	0.317390
461.039224	0.305629
461.411782	0.300876
461.784280	0.300259
462.156719	0.304116
462.529099	0.308891
462.901419	0.324655
463.273680	0.328955
463.645882	0.328677
464.018024	0.334736
464.390106	0.327345
464.762130	0.311818
465.134094	0.294875
465.505999	0.264047
465.877845	0.234085
466.249631	0.221172
466.621358	0.228658
466.993026	0.242368
467.364634	0.248936
467.736184	0.257782
468.107674	0.266590
468.479105	0.265424
468.850477	0.272148
469.221790	0.279345
469.593043	0.289318
469.964238	0.294305
470.335373	0.293508
470.706449	0.291974
471.077467	0.292246
471.448425	0.254231
471.819324	0.229852
472.190164	0.229252
472.560945	0.258549
472.931667	0.280521
473.302330	0.284980
473.672934	0.296704
474.043479	0.284979
474.413965	0.286859
474.784393	0.290056
475.154761	0.285271
475.525070	0.282368
475.895321	0.287928
476.265513	0.282076
476.635645	0.277867
477.005719	0.277397
477.375734	0.274001
477.745691	0.267360
478.115588	0.263546
478.485427	0.257330
478.855207	0.244196
479.224928	0.226514
479.594591	0.214812
479.964194	0.218134
480.333739	0.219363
480.703226	0.220764
481.072653	0.219104
481.442022	0.215149
481.811333	0.211475
482.180584	0.215040
482.549777	0.220493
482.918912	0.223786
483.287988	0.223504
483.657005	0.223206
484.025964	0.229312
484.394864	0.227097
484.763706	0.227626
485.132489	0.232474
485.501213	0.233428
485.869879	0.231943
486.238487	0.235051
486.607036	0.232879
486.975527	0.237615
487.343959	0.233423
487.712333	0.232446
488.080648	0.233939
488.448905	0.233066
488.817104	0.234653
489.185244	0.229157
489.553326	0.226123
489.921350	0.215888
490.289315	0.198277
490.657222	0.193368
491.025070	0.195009
491.392861	0.196822
491.760593	0.202651
492.128267	0.208682
492.495883	0.214109
492.863440	0.220594
493.230939	0.227251
493.598380	0.228788
493.965763	0.231104
494.333088	0.233175
494.700354	0.234960
495.067563	0.234147
495.434713	0.238000
495.801805	0.235847
496.168839	0.237730
496.535815	0.239473
496.902733	0.239063
497.269593	0.241473
497.636395	0.239412
498.003139	0.239821
498.369825	0.243445
498.736453	0.240685
499.103023	0.242170
499.469535	0.242222
499.835989	0.242742
500.202385	0.243965
500.568723	0.247930
500.935003	0.243593
501.301226	0.248417
501.667390	0.243365
502.033497	0.242204
502.399546	0.245571
502.765537	0.248370
503.131470	0.247320
503.497345	0.244113
503.863163	0.253702
504.228923	0.247655
504.594625	0.246939
504.960269	0.253381
505.325856	0.249516
505.691385	0.254732
506.056856	0.252550
506.422270	0.253013
506.787625	0.256482
507.152924	0.255063
507.518164	0.256449
507.883347	0.259325
508.248472	0.262268
508.613540	0.258646
508.978550	0.262625
509.343503	0.264233
509.708398	0.263700
510.073236	0.262635
510.438016	0.263681
510.802738	0.266405
511.167403	0.267026
511.532010	0.271264
511.896561	0.267779
512.261053	0.268429
512.625488	0.272846
512.989866	0.275069
513.354186	0.276883
513.718449	0.281164
514.082655	0.279347
514.446803	0.283944
514.810894	0.284129
515.174927	0.289228
515.538904	0.290813
515.902822	0.290640
516.266684	0.294966
516.630488	0.299052
516.994235	0.299955
517.357925	0.302692
517.721558	0.302952
518.085133	0.305986
518.448651	0.308355
518.812112	0.313504
519.175516	0.316259
519.538863	0.317057
519.902152	0.321549
520.265385	0.322253
520.628560	0.326378
520.991678	0.331158
521.354739	0.332849
521.717743	0.337125
522.080690	0.340709
522.443580	0.342791
522.806413	0.347008
523.169189	0.349893
523.531908	0.352472
523.894569	0.359724
524.257174	0.363478
524.619722	0.365923
524.982213	0.369633
525.344647	0.374398
525.707025	0.378062
526.069345	0.380677
526.431608	0.387266
526.793815	0.389745
527.155964	0.397398
527.518057	0.400289
527.880093	0.405722
528.242072	0.408346
528.603995	0.415282
528.965860	0.421152
529.327669	0.425032
529.689421	0.429728
530.051117	0.435318
530.412755	0.439383
530.774337	0.444012
531.135862	0.450955
531.497331	0.453801
531.858743	0.461812
532.220098	0.463745
532.581396	0.470644
532.942638	0.475194
533.303824	0.481295
533.664953	0.486540
534.026025	0.492403
534.387040	0.496356
534.747999	0.500347
535.108902	0.505400
535.469748	0.513963
535.830537	0.517216
536.191270	0.522610
536.551947	0.527257
536.912567	0.532542
537.273131	0.538713
537.633638	0.543381
537.994089	0.549553
538.354483	0.555529
538.714821	0.557827
539.075103	0.562734
539.435328	0.568963
539.795497	0.575756
540.155609	0.579265
540.515665	0.582691
540.875665	0.591535
541.235609	0.595784
541.595496	0.600296
541.955328	0.605434
542.315102	0.610749
542.674821	0.617101
543.034483	0.621977
543.394090	0.626892
543.753640	0.632854
544.113134	0.635661
544.472571	0.642118
544.831953	0.646455
545.191278	0.653295
545.550548	0.656924
545.909761	0.660745
546.268918	0.667253
546.628019	0.670917
546.987064	0.677670
547.346053	0.681656
547.704986	0.686907
548.063863	0.691530
548.422684	0.695947
548.781449	0.702344
549.140158	0.705807
549.498811	0.712032
549.857408	0.716358
550.215949	0.720687
550.574434	0.726138
550.932864	0.731255
551.291237	0.733523
551.649555	0.740613
552.007817	0.744385
552.366022	0.748448
552.724173	0.753406
553.082267	0.756806
553.440305	0.761947
553.798288	0.765302
554.156215	0.769879
554.514086	0.774871
554.871902	0.779596
555.229661	0.783221
555.587365	0.787361
555.945014	0.791880
556.302606	0.795169
556.660143	0.799600
557.017625	0.803429
557.375050	0.807157
557.732421	0.810210
558.089735	0.814579
558.446994	0.817994
558.804197	0.821933
559.161345	0.825743
559.518437	0.829484
559.875474	0.833912
560.232455	0.836827
560.589381	0.840122
560.946251	0.844822
561.303065	0.846705
561.659825	0.850468
562.016528	0.853896
562.373177	0.857075
562.729770	0.860598
563.086307	0.863570
563.442789	0.866608
563.799216	0.870785
564.155587	0.872832
564.511904	0.877162
564.868164	0.878740
565.224370	0.881609
565.580520	0.885699
565.936615	0.886596
566.292654	0.891286
566.648638	0.893165
567.004567	0.895512
567.360441	0.898904
567.716260	0.901153
568.072023	0.903149
568.427732	0.906102
568.783385	0.908101
569.138982	0.910706
569.494525	0.912585
569.850013	0.915457
570.205445	0.917449
570.560823	0.919380
570.916145	0.921897
571.271412	0.924005
571.626625	0.925660
571.981782	0.927681
572.336884	0.930328
572.691931	0.931226
573.046923	0.934334
573.401860	0.935028
573.756743	0.937559
574.111570	0.938584
574.466342	0.941358
574.821059	0.941629
575.175722	0.944501
575.530330	0.945481
575.884882	0.946801
576.239380	0.948875
576.593823	0.949612
576.948211	0.951380
577.302544	0.952194
577.656823	0.954716
578.011047	0.954396
578.365216	0.957371
578.719330	0.957445
579.073389	0.958076
579.427394	0.960045
579.781344	0.961503
580.135239	0.961775
580.489080	0.962931
580.842866	0.963770
581.196597	0.965001
581.550273	0.965955
581.903895	0.966954
582.257463	0.967745
582.610975	0.968912
582.964434	0.969506
583.317837	0.971573
583.671186	0.971675
584.024481	0.971387
584.377721	0.971884
584.730906	0.973785
585.084037	0.974925
585.437113	0.975822
585.790135	0.975409
586.143103	0.976984
586.496016	0.977005
586.848874	0.978036
587.201679	0.978521
587.554428	0.978519
587.907124	0.979349
588.259765	0.980636
588.612352	0.980657
588.964884	0.980589
589.317362	0.981138
589.669786	0.980930
590.022155	0.981724
590.374470	0.982331
590.726731	0.982318
591.078937	0.983320
591.431090	0.983240
591.783188	0.983761
592.135232	0.984762
592.487222	0.984477
592.839157	0.984748
593.191038	0.984899
593.542866	0.985896
593.894639	0.985506
594.246358	0.986367
594.598022	0.986350
594.949633	0.986338
595.301190	0.987202
595.652692	0.986526
596.004141	0.986946
596.355535	0.986831
596.706876	0.988292
597.058162	0.987989
597.409395	0.988891
597.760573	0.987848
598.111698	0.988202
598.462768	0.988666
598.813785	0.987927
599.164748	0.988900
599.515657	0.988509
599.866511	0.989434
600.217312	0.990224
600.568060	0.989262
600.918753	0.989809
601.269392	0.990108
601.619978	0.990304
601.970510	0.990090
602.320988	0.989809
602.671412	0.989351
603.021783	0.990676
603.372100	0.990846
603.722363	0.990654
604.072572	0.990031
604.422728	0.991076
604.772830	0.990921
605.122878	0.991323
605.472872	0.990713
605.822813	0.990217
606.172701	0.990973
606.522534	0.991481
606.872314	0.991111
607.222041	0.991160
607.571714	0.991316
607.921333	0.991609
608.270899	0.991177
608.620411	0.991303
608.969870	0.992004
609.319276	0.991907
609.668627	0.992548
610.017926	0.991226
610.367171	0.991593
610.716362	0.991791
611.065500	0.991356
611.414585	0.991880
611.763616	0.991270
612.112594	0.991731
612.461518	0.990876
612.810389	0.992025
613.159207	0.991577
613.507971	0.991056
613.856682	0.992046
614.205340	0.990795
614.553945	0.991387
614.902496	0.991500
615.250994	0.992027
615.599439	0.991717
615.947830	0.991912
616.296169	0.992027
616.644454	0.992141
616.992686	0.991828
617.340864	0.992306
617.688990	0.992306
618.037063	0.991835
618.385082	0.992445
618.733048	0.991890
619.080961	0.992256
619.428821	0.992263
619.776628	0.991530
620.124382	0.992575
620.472083	0.993198
620.819731	0.993640
621.167326	0.992510
621.514868	0.992894
621.862357	0.992275
622.209793	0.992488
622.557176	0.992270
622.904506	0.992154
623.251783	0.992252
623.599007	0.992929
623.946179	0.992312
624.293297	0.993495
624.640363	0.992796
624.987376	0.992477
625.334336	0.992462
625.681243	0.993428
626.028097	0.992934
626.374899	0.992725
626.721647	0.993426
627.068343	0.992901
627.414987	0.993091
627.761577	0.992451
628.108115	0.992663
628.454600	0.993402
628.801032	0.992648
629.147412	0.992735
629.493739	0.993940
629.840014	0.993157
630.186236	0.992684
630.532405	0.993248
630.878521	0.992725
631.224585	0.992874
631.570597	0.993191
631.916556	0.993141
632.262462	0.991318
632.608316	0.993699
632.954117	0.992912
633.299866	0.993124
633.645562	0.992782
633.991206	0.993342
634.336797	0.993332
634.682336	0.993751
635.027823	0.993114
635.373257	0.993062
635.718639	0.994136
636.063968	0.992762
636.409245	0.993509
636.754470	0.993201
637.099642	0.993043
637.444762	0.992964
637.789829	0.992765
638.134845	0.993523
638.479808	0.994092
638.824719	0.994099
639.169577	0.993378
639.514383	0.993477
639.859137	0.993341
640.203839	0.993373
640.548489	0.993699
640.893086	0.992700
641.237632	0.993482
641.582125	0.993230
641.926566	0.993896
642.270955	0.993972
642.615292	0.993123
642.959576	0.993554
643.303809	0.993574
643.647990	0.993848
643.992118	0.993723
644.336195	0.993266
644.680219	0.993137
645.024192	0.993271
645.368112	0.992744
645.711981	0.993066
646.055797	0.993431
646.399562	0.992312
646.743274	0.994488
647.086935	0.992875
647.430544	0.993495
647.774101	0.992581
648.117606	0.993451
648.461059	0.993953
648.804460	0.993383
649.147810	0.992698
649.491108	0.992789
649.834354	0.993378
650.177548	0.993201
650.520690	0.993120
650.863781	0.991663
651.206820	0.993192
651.549807	0.993284
651.892742	0.993066
652.235626	0.993967
652.578458	0.992880
652.921238	0.994020
653.263967	0.994216
653.606644	0.993236
653.949269	0.994474
654.291843	0.992362
654.634365	0.993693
654.976836	0.992945
655.319255	0.993761
655.661622	0.994049
656.003938	0.993472
656.346203	0.992988
656.688416	0.993643
657.030577	0.992812
657.372687	0.994099
657.714746	0.992970
658.056753	0.994268
658.398708	0.992474
658.740612	0.994442
659.082465	0.992928
659.424266	0.993223
659.766016	0.992755
660.107715	0.993900
660.449362	0.993846
660.790958	0.993666
661.132503	0.993621
661.473996	0.993162
661.815438	0.993799
662.156829	0.993261
662.498168	0.994536
662.839456	0.992415
663.180693	0.994135
663.521879	0.993432
663.863013	0.993610
664.204097	0.992980
664.545129	0.993720
664.886110	0.993976
665.227040	0.993333
665.567918	0.993225
665.908746	0.992321
666.249522	0.992699
666.590248	0.993156
666.930922	0.992811
667.271545	0.993337
667.612118	0.993558
667.952639	0.992709
668.293109	0.993187
668.633528	0.992825
668.973896	0.993205
669.314213	0.992170
669.654480	0.992923
669.994695	0.992380
670.334859	0.993173
670.674973	0.993058
671.015035	0.993197
671.355047	0.992426
671.695008	0.992639
672.034918	0.993034
672.374777	0.993263
672.714585	0.993830
673.054342	0.993150
673.394049	0.992129
673.733705	0.992975
674.073310	0.992879
674.412864	0.993489
674.752368	0.992986
675.091820	0.993649
675.431223	0.993855
675.770574	0.992038
676.109875	0.993198
676.449125	0.992888
676.788324	0.992544
677.127473	0.993562
677.466571	0.993046
677.805619	0.992840
678.144616	0.993532
678.483562	0.994163
678.822458	0.993336
679.161303	0.992371
679.500098	0.993245
679.838842	0.993286
680.177535	0.993728
680.516179	0.992850
680.854771	0.993698
681.193314	0.992904
681.531805	0.992995
681.870247	0.993619
682.208638	0.992822
682.546978	0.992134
682.885268	0.992847
683.223508	0.993030
683.561697	0.991851
683.899836	0.992966
684.237925	0.992564
684.575963	0.993419
684.913951	0.993396
685.251889	0.992614
685.589776	0.992473
685.927614	0.993263
686.265401	0.991936
686.603137	0.992633
686.940824	0.992710
687.278460	0.993244
687.616046	0.992045
687.953582	0.992837
688.291068	0.992808
688.628504	0.992065
688.965889	0.992405
689.303224	0.991871
689.640510	0.992611
689.977745	0.992608
690.314930	0.992540
690.652065	0.992352
690.989150	0.992047
691.326185	0.993374
691.663170	0.992971
692.000105	0.993207
692.336990	0.992137
692.673825	0.993427
693.010610	0.993167
693.347345	0.993493
693.684030	0.993362
694.020665	0.992407
694.357251	0.992115
694.693786	0.993244
695.030272	0.992772
695.366707	0.993338
695.703093	0.992644
696.039429	0.992664
696.375716	0.993505
696.711952	0.992997
697.048139	0.993683
697.384276	0.993296
697.720363	0.993213
698.056400	0.992636
698.392388	0.993341
698.728326	0.993761
699.064214	0.993928
699.400053	0.993121
699.735842	0.994475
700.071581	0.992829
700.407270	0.993993
700.742910	0.994775
701.078501	0.993089
701.414042	0.994171
701.749533	0.992627
702.084974	0.993281
702.420366	0.994392
702.755709	0.992507
703.091002	0.994424
703.426246	0.994684
703.761440	0.993841
704.096584	0.993429
704.431679	0.993198
704.766725	0.992950
705.101721	0.993977
705.436668	0.993616
705.771565	0.993749
706.106413	0.993020
706.441212	0.993941
706.775961	0.995049
707.110661	0.993609
707.445311	0.993519
707.779913	0.994708
708.114465	0.993724
708.448967	0.994521
708.783421	0.993843
709.117825	0.993174
709.452180	0.994130
709.786485	0.993586
710.120742	0.993403
710.454949	0.992469
710.789107	0.992770
711.123216	0.991937
711.457275	0.992621
711.791286	0.993886
712.125247	0.993932
712.459159	0.991897
712.793023	0.993006
713.126837	0.992719
713.460602	0.991603
713.794318	0.992173
714.127985	0.992492
714.461602	0.993761
714.795171	0.992301
715.128691	0.993072
715.462162	0.993213
715.795584	0.993117
716.128957	0.993589
716.462281	0.994093
716.795556	0.992719
717.128782	0.993926
717.461960	0.992827
717.795088	0.994269
718.128167	0.995204
718.461198	0.994011
718.794180	0.995189
719.127113	0.993889
719.459997	0.994614
719.792833	0.993838
720.125619	0.993552
720.458357	0.994288
720.791046	0.994453
721.123686	0.993626
721.456278	0.994126
721.788821	0.993770
722.121315	0.994547
722.453761	0.994192
722.786158	0.992823
723.118506	0.993580
723.450805	0.992980
723.783056	0.994760
724.115259	0.993754
724.447412	0.993862
724.779518	0.993654
725.111574	0.993357
725.443582	0.993899
725.775542	0.994392
726.107453	0.993865
726.439315	0.993756
726.771129	0.993409
727.102895	0.994023
727.434612	0.994208
727.766281	0.993165
728.097901	0.993524
728.429473	0.994165
728.760996	0.992318
729.092471	0.994000
729.423897	0.993846
729.755276	0.993417
730.086606	0.993113
730.417887	0.993603
730.749120	0.993846
731.080305	0.993175
731.411442	0.992337
731.742530	0.991990
732.073570	0.992109
732.404562	0.993013
732.735506	0.992459
733.066401	0.993219
733.397249	0.993092
733.728048	0.992567
734.058798	0.993921
734.389501	0.994260
734.720156	0.993941
735.050762	0.995152
735.381320	0.994069
735.711831	0.993526
736.042293	0.994181
736.372707	0.994942
736.703073	0.993233
737.033391	0.994230
737.363661	0.993480
737.693883	0.993647
738.024056	0.993390
738.354182	0.993629
738.684260	0.992967
739.014290	0.993213
739.344272	0.993525
739.674207	0.993677
740.004093	0.995732
740.333931	0.993516
740.663722	0.992649
740.993464	0.993763
741.323159	0.992963
741.652806	0.993594
741.982405	0.993150
742.311956	0.994291
742.641460	0.993724
742.970915	0.993403
743.300323	0.993148
743.629683	0.993282
743.958996	0.996081
744.288260	0.993275
744.617477	0.994323
744.946647	0.993495
745.275768	0.995347
745.604842	0.994611
745.933869	0.993569
746.262847	0.995353
746.591778	0.992860
746.920662	0.994533
747.249498	0.995041
747.578286	0.995833
747.907027	0.994039
748.235720	0.994807
748.564365	0.994428
748.892963	0.993058
749.221514	0.993871
749.550017	0.993643
749.878473	0.994437
750.206881	0.995038
750.535242	0.994563
750.863555	0.993017
751.191821	0.994433
751.520039	0.994525
751.848210	0.993579
752.176334	0.994499
752.504411	0.994040
752.832440	0.993624
753.160421	0.995077
753.488356	0.995098
753.816243	0.994120
754.144082	0.993767
754.471875	0.994547
754.799620	0.995604
755.127318	0.994851
755.454969	0.994616
755.782572	0.995784
756.110129	0.994693
756.437638	0.995263
756.765100	0.995020
757.092515	0.995133
757.419882	0.994555
757.747203	0.994903
758.074477	0.995655
758.401703	0.994480
758.728882	0.995491
759.056014	0.993872
759.383099	0.995094
759.710138	0.994206
760.037129	0.994221
760.364073	0.994230
760.690970	0.994473
761.017820	0.993648
761.344623	0.994015
761.671379	0.995876
761.998088	0.993977
762.324751	0.993778
762.651366	0.993324
762.977935	0.991762
763.304456	0.991942
763.630931	0.988447
763.957359	0.988340
764.283740	0.990144
764.610074	0.991313
764.936362	0.991792
765.262602	0.993123
765.588796	0.993880
765.914943	0.993499
766.241044	0.993358
766.567097	0.993881
766.893104	0.994616
767.219064	0.993951
767.544978	0.994505
767.870845	0.994716
768.196665	0.994993
768.522438	0.995419
768.848165	0.995483
769.173846	0.995431
769.499479	0.995749
769.825066	0.995886
770.150607	0.995599
770.476101	0.996193
770.801548	0.996581
771.126949	0.996050
771.452303	0.995580
771.777611	0.997027
772.102872	0.995817
772.428087	0.995260
772.753256	0.996432
773.078378	0.996986
773.403453	0.996099
773.728482	0.997306
774.053465	0.995769
774.378401	0.996286
774.703291	0.995972
775.028135	0.998638
775.352932	0.994841
775.677683	0.997037
776.002388	0.996731
776.327046	0.996024
776.651658	0.998517
776.976224	0.996964
777.300743	0.995235
777.625216	0.996546
777.949643	0.996632
778.274024	0.995962
778.598359	0.997333
778.922647	0.997283
779.246889	0.997062
779.571086	0.997193
779.895236	0.996862
780.219339	0.997704
780.543397	0.996544
780.867409	0.997459
781.191374	0.997025
781.515294	0.997767
781.839167	0.996431
782.162995	0.996909
782.486776	0.995446
782.810511	0.997363
783.134201	0.997696
783.457844	0.997596
783.781441	0.996485
784.104993	0.995668
784.428498	0.997404
784.751958	0.998624
785.075372	0.998098
785.398739	0.996832
785.722061	0.995495
786.045337	0.996990
786.368568	0.996288
786.691752	0.997296
787.014891	0.995973
787.337983	0.995938
787.661030	0.995692
787.984031	0.996891
788.306987	0.995552
788.629897	0.994093
788.952760	0.995586
789.275579	0.995947
789.598351	0.995441
789.921078	0.996573
790.243759	0.996725
790.566395	0.996774
790.888984	0.996839
791.211529	0.997238
791.534027	0.996258
791.856480	0.997115
792.178888	0.995924
792.501249	0.997108
792.823566	0.998055
793.145836	0.997155
793.468062	0.997309
793.790241	0.997442
794.112375	0.996881
794.434464	0.996886
794.756507	0.996058
795.078505	0.997364
795.400457	0.997674
795.722364	0.996855
796.044226	0.996492
796.366042	0.996135
796.687812	0.994602
797.009538	0.995773
797.331218	0.997397
797.652852	0.997366
797.974442	0.995921
798.295986	0.996591
798.617484	0.995680
798.938938	0.996923
799.260346	0.996194
799.581709	0.996576
799.903026	0.998594
800.224299	0.996862
800.545526	0.996460
800.866708	0.996303
801.187845	0.997879
801.508936	0.997524
801.829983	0.997043
802.150984	0.997811
802.471940	0.996101
802.792851	0.996770
803.113717	0.998536
803.434538	0.997871
803.755314	0.998820
804.076045	0.997672
804.396731	0.997584
804.717372	0.996607
805.037967	0.997151
805.358518	0.997786
805.679024	0.997977
805.999485	0.996523
806.319901	0.998150
806.640272	0.998946
806.960598	0.997421
807.280879	0.997193
807.601115	0.997253
807.921306	0.998329
808.241453	0.996449
808.561554	0.996871
808.881611	0.997890
809.201623	0.997730
809.521590	0.997972
809.841513	0.997383
810.161390	0.996076
810.481223	0.996044
810.801011	0.998211
811.120755	0.998365
811.440453	0.997559
811.760107	0.997732
812.079716	0.997683
812.399281	0.997637
812.718801	0.997084
813.038276	0.997523
813.357707	0.997155
813.677093	0.998173
813.996434	0.997374
814.315731	0.998421
814.634983	0.997630
814.954191	0.997995
815.273354	0.997104
815.592473	0.997013
815.911547	0.998200
816.230577	0.997119
816.549562	0.996364
816.868502	0.996420
817.187399	0.997684
817.506250	0.996823
817.825058	0.996012
818.143821	0.997257
818.462539	0.996393
818.781213	0.996335
819.099843	0.996564
819.418429	0.995353
819.736970	0.994954
820.055466	0.992508
820.373919	0.992957
820.692327	0.991139
821.010691	0.990002
821.329011	0.986938
821.647286	0.984147
821.965517	0.980361
822.283704	0.975662
822.601847	0.973968
822.919945	0.975013
823.237999	0.976477
823.556010	0.979196
823.873976	0.980820
824.191897	0.983069
824.509775	0.985540
824.827609	0.986711
825.145398	0.987312
825.463144	0.987579
825.780845	0.987193
826.098502	0.988238
826.416116	0.987236
826.733685	0.984699
827.051210	0.981446
827.368692	0.983299
827.686129	0.984372
828.003522	0.987181
828.320872	0.987308
828.638177	0.991388
828.955439	0.993281
829.272656	0.992813
829.589830	0.993581
829.906960	0.995043
830.224046	0.994394
830.541088	0.994836
830.858086	0.994171
831.175041	0.997314
831.491952	0.995995
831.808819	0.995446
832.125642	0.995193
832.442421	0.996840
832.759157	0.995754
833.075849	0.991971
833.392497	0.990384
833.709101	0.989196
834.025662	0.988537
834.342179	0.988881
834.658653	0.991203
834.975083	0.992690
835.291469	0.992042
835.607811	0.993647
835.924110	0.993919
836.240366	0.997564
836.556578	0.996080
836.872746	0.997716
837.188871	0.996608
837.504952	0.996787
837.820990	0.997845
838.136984	0.997351
838.452935	0.998373
838.768842	0.998116
839.084706	0.997485
839.400526	0.997523
839.716303	0.995183
840.032037	0.993996
840.347727	0.993644
840.663373	0.995189
840.978977	0.995399
841.294537	0.997542
841.610054	0.997829
841.925527	0.998885
842.240957	0.998050
842.556344	0.998396
842.871687	0.997554
843.186987	0.998784
843.502244	0.998185
843.817458	0.997552
844.132629	0.998495
844.447756	0.999677
844.762840	0.998571
845.077881	0.999098
845.392879	0.998851
845.707833	0.998449
846.022745	1.000164
846.337613	0.998846
846.652438	0.999387
846.967221	0.999605
847.281960	0.999256
847.596656	1.000348
847.911309	1.000537
848.225919	0.998507
848.540485	0.999340
848.855009	1.000578
849.169490	1.000632
849.483928	1.000153
849.798323	0.998577
850.112675	1.000438
850.426984	0.999990
850.741251	0.999235
851.055474	0.999045
851.369654	1.000266
851.683792	0.998571
851.997887	0.999741
852.311938	0.999579
852.625947	0.999493
852.939914	0.998402
853.253837	1.001160
853.567718	0.999677
853.881555	1.000200
854.195350	0.999220
854.509103	0.999178
854.822812	1.000912
855.136479	1.000181
855.450103	0.999679
855.763685	0.999898
856.077224	0.998832
856.390720	0.998513
856.704173	0.999829
857.017584	1.001046
857.330953	0.999631
857.644278	0.999705
857.957561	1.000231
858.270802	1.000732
858.584000	0.999400
858.897155	0.999749
859.210268	0.999446
859.523339	0.999742
859.836367	0.999723
860.149352	0.999414
860.462295	0.999581
860.775195	0.999914
861.088054	0.997978
861.400869	0.999256
861.713642	0.998695
862.026373	1.000367
862.339062	0.999903
862.651708	0.998797
862.964312	0.999962
863.276873	0.998584
863.589392	0.999880
863.901869	0.999204
864.214303	0.999577
864.526696	1.000287
864.839045	0.999517
865.151353	0.999058
865.463619	0.997317
865.775842	0.999281
866.088023	0.999990
866.400162	1.000056
866.712258	0.999736
867.024313	0.999916
867.336325	1.000112
867.648296	0.999488
867.960224	0.999252
868.272110	0.998921
868.583954	0.999190
868.895755	1.000226
869.207515	0.999367
869.519233	0.999751
869.830909	0.998114
870.142542	0.998408
870.454134	0.998881
870.765684	0.999048
871.077191	0.998748
871.388657	0.999500
871.700081	0.999129
872.011463	1.000231
872.322803	0.998977
872.634101	0.997525
872.945357	0.998633
873.256571	0.998033
873.567744	1.000285
873.878874	0.998386
874.189963	0.998325
874.501010	0.999869
874.812015	0.998606
875.122979	0.998932
875.433900	0.998301
875.744780	0.998674
876.055618	0.997875
876.366415	0.998302
876.677169	0.997666
876.987882	0.997371
877.298554	0.998476
877.609183	0.996908
877.919771	0.998126
878.230317	0.996952
878.540822	0.997163
878.851285	0.996370
879.161707	0.996652
879.472087	0.997275
879.782425	0.993771
880.092722	0.991945
880.402977	0.989501
880.713191	0.985398
881.023363	0.980499
881.333494	0.976922
881.643583	0.978280
881.953631	0.977130
882.263637	0.977358
882.573602	0.979707
882.883526	0.980667
883.193408	0.983565
883.503248	0.984459
883.813048	0.985838
884.122806	0.988058
884.432522	0.989556
884.742197	0.992246
885.051831	0.992244
885.361424	0.993283
885.670975	0.995787
885.980485	0.995398
886.289954	0.994318
886.599382	0.994598
886.908768	0.997074
887.218113	0.995244
887.527417	0.996980
887.836680	0.997104
888.145901	0.998311
888.455082	0.998457
888.764221	0.998283
889.073319	0.997803
889.382376	0.998094
889.691392	0.996416
890.000366	0.998022
890.309300	0.997231
890.618193	0.997818
890.927044	0.997622
891.235855	0.996466
891.544625	0.998316
891.853353	0.997997
892.162041	0.997549
892.470687	0.997921
892.779293	0.996468
893.087858	0.995331
893.396381	0.995387
893.704864	0.994553
894.013306	0.993823
894.321707	0.991280
894.630068	0.989622
894.938387	0.987860
895.246665	0.987564
895.554903	0.988950
895.863100	0.991183
896.171256	0.991598
896.479371	0.992977
896.787446	0.993767
897.095480	0.995150
897.403473	0.994835
897.711425	0.996059
898.019336	0.996800
898.327207	0.997094
898.635038	0.995989
898.942827	0.997894
899.250576	0.996459
899.558284	0.997672
899.865952	0.996522
900.173579	0.997546
900.481165	0.998666
900.788711	0.997214
901.096216	0.997968
901.403681	0.997283
901.711105	0.998365
902.018489	0.997495
902.325832	0.998049
902.633135	0.997997
902.940397	0.997693
903.247619	0.997068
903.554800	0.994635
903.861941	0.992148
904.169041	0.989291
904.476101	0.986312
904.783121	0.985356
905.090100	0.987916
905.397039	0.989664
905.703938	0.990564
906.010796	0.992510
906.317614	0.993725
906.624391	0.995163
906.931129	0.996587
907.237826	0.996556
907.544483	0.997154
907.851099	0.998096
908.157675	0.997979
908.464211	0.998499
908.770707	0.997984
909.077163	0.998144
909.383578	0.998811
909.689954	0.998023
909.996289	0.998605
910.302584	0.998888
910.608839	1.000216
910.915054	0.998435
911.221229	1.000519
911.527363	0.999171
911.833458	0.999380
912.139513	0.999709
912.445527	0.999687
912.751502	0.998818
913.057436	0.998976
913.363331	0.999966
913.669186	0.998861
913.975000	0.997758
914.280775	0.997725
914.586510	0.995906
914.892205	0.994086
915.197859	0.992925
915.503475	0.991420
915.809050	0.989490
916.114585	0.986397
916.420081	0.986190
916.725536	0.987840
917.030952	0.987778
917.336328	0.988337
917.641665	0.989863
917.946961	0.991589
918.252218	0.991831
918.557435	0.993054
918.862612	0.994893
919.167750	0.995163
919.472848	0.996118
919.777906	0.997592
920.082925	0.997595
920.387904	0.998334
920.692843	0.997567
920.997743	0.998434
921.302603	0.998439
921.607423	0.997945
921.912204	0.998376
922.216946	0.999796
922.521647	0.999535
922.826310	0.997751
923.130932	1.000126
923.435516	0.999413
923.740059	0.998962
924.044564	0.999194
924.349028	0.999265
924.653454	1.000359
924.957840	1.000015
925.262186	0.998491
925.566493	0.999549
925.870761	1.000358
926.174989	0.999294
926.479178	1.000665
926.783328	1.000118
927.087438	0.999667
927.391509	0.999066
927.695541	1.000907
927.999533	1.000839
928.303486	0.999318
928.607400	1.001662
928.911275	1.000372
929.215110	1.001835
929.518906	1.001485
929.822663	1.002549
930.126381	1.001548
930.430060	1.000164
930.733699	1.001775
931.037299	1.000574
931.340861	1.000655
931.644383	0.999831
931.947866	1.000220
932.251309	1.001311
932.554714	1.000242
932.858080	1.001505
933.161407	0.999687
933.464694	1.000789
933.767943	1.000441
934.071153	1.000809
934.374323	1.001123
934.677455	1.000172
934.980548	1.000825
935.283602	1.000969
935.586617	0.999907
935.889593	1.002235
936.192530	1.001202
936.495428	1.000041
936.798287	1.000071
937.101108	1.001003
937.403890	0.999443
937.706632	1.000863
938.009336	1.000482
938.312002	0.999215
938.614628	1.000628
938.917216	0.998202
939.219765	0.999031
939.522275	0.999967
939.824747	0.998863
940.127179	0.999293
940.429573	1.000134
940.731929	0.998978
941.034246	0.998760
941.336524	1.000060
941.638763	0.999747
941.940964	0.999490
942.243126	0.998870
942.545250	1.001001
942.847335	1.001737
943.149381	1.001209
943.451389	0.999811
943.753359	1.000514
944.055290	1.002051
944.357182	1.001335
944.659036	0.999946
944.960851	1.000314
945.262628	1.000500
945.564367	1.000324
945.866067	1.001488
946.167729	1.000774
946.469352	1.000183
946.770937	0.998666
947.072484	1.000588
947.373992	1.000076
947.675462	0.999683
947.976893	0.999122
948.278286	1.001328
948.579641	1.001451
948.880958	1.000564
949.182236	1.000201
949.483476	1.001029
949.784678	1.000529
950.085841	0.999236
950.386967	1.000010
950.688054	0.999897
950.989103	0.998902
951.290114	0.999731
951.591087	1.001357
951.892021	1.000109
952.192917	1.001402
952.493776	1.000157
952.794596	1.000144
953.095378	0.999568
953.396122	1.001105
953.696828	1.001512
953.997496	1.000777
954.298126	1.002005
954.598718	0.999741
954.899272	1.000863
955.199788	0.999971
955.500266	1.000633
955.800706	1.000704
956.101108	1.000690
956.401472	1.001899
956.701798	1.000765
957.002087	1.001520
957.302337	1.000349
957.602550	1.000870
957.902724	1.001388
958.202861	1.001450
958.502960	1.000707
958.803022	1.001807
959.103045	1.000682
959.403031	1.002532
959.702979	1.001890
960.002889	1.001727
960.302762	1.000124
960.602596	1.002289
960.902393	1.000107
961.202153	1.001849
961.501875	1.002086
961.801559	1.001800
962.101205	1.001216
962.400814	1.002402
962.700385	1.002136
962.999918	1.001985
963.299414	1.001008
963.598873	1.001736
963.898293	1.000444
964.197677	1.001281
964.497022	1.001312
964.796331	1.001308
965.095601	1.002371
965.394835	1.002190
965.694030	1.002744
965.993189	1.001374
966.292309	1.001746
966.591393	1.000690
966.890439	1.001465
967.189447	1.001308
967.488419	1.002155
967.787353	1.001775
968.086249	1.001850
968.385108	1.000867
968.683930	1.001717
968.982714	1.000871
969.281462	1.001867
969.580172	1.000491
969.878844	1.001729
970.177480	1.001974
970.476078	1.002180
970.774639	1.002529
971.073162	1.001080
971.371649	1.000938
971.670098	1.000395
971.968510	1.001627
972.266885	1.000288
972.565223	1.001602
972.863524	0.999026
973.161788	1.002204
973.460014	1.002386
973.758204	1.001436
974.056356	1.002195
974.354471	1.001523
974.652550	1.002537
974.950591	1.001052
975.248595	1.000403
975.546563	1.002746
975.844493	1.002040
976.142386	1.000960
976.440243	1.001952
976.738062	1.001242
977.035845	1.000407
977.333590	1.002741
977.631299	1.001090
977.928971	1.002067
978.226606	1.002489
978.524204	1.001385
978.821765	1.001991
979.119290	1.002479
979.416777	1.001907
979.714228	1.000505
980.011642	1.001775
980.309020	1.001414
980.606360	1.000622
980.903664	0.999802
981.200931	1.000252
981.498162	1.001863
981.795356	1.000656
982.092513	1.000933
982.389633	1.001740
982.686717	0.999090
982.983764	1.000807
983.280775	1.001048
983.577749	1.001533
983.874686	0.999450
984.171587	1.000367
984.468451	1.001269
984.765279	1.001648
985.062070	1.001434
985.358824	0.999972
985.655543	1.001864
985.952224	1.002003
986.248869	1.002054
986.545478	1.002873
986.842050	1.001388
987.138586	1.001656
987.435086	1.001051
987.731549	1.003561
988.027975	1.002510
988.324366	1.000559
988.620719	1.003092
988.917037	1.000856
989.213318	1.002699
989.509563	1.001575
989.805772	1.000914
990.101944	1.002519
990.398080	1.001204
990.694180	1.002937
990.990244	1.000767
991.286271	1.001694
991.582262	1.001938
991.878217	1.001013
992.174136	1.002956
992.470019	1.001988
992.765865	1.002250
993.061676	1.002208
993.357450	1.002183
993.653188	1.002408
993.948890	1.001815
994.244556	1.001252
994.540186	1.001814
994.835780	1.001420
995.131337	1.001804
995.426859	1.001895
995.722345	1.001662
996.017795	1.000891
996.313208	1.002094
996.608586	1.001913
996.903928	1.001684
997.199234	1.000208
997.494504	1.003465
997.789738	1.001568
998.084936	1.001967
998.380099	1.000430
998.675225	1.001510
998.970316	1.001420
999.265371	1.002055
999.560390	1.001207
999.855373	1.001448
1000.150320	1.001208
1000.445232	1.001466
1000.740108	1.000735
1001.034948	1.001367
1001.329752	1.002498
1001.624521	1.001244
1001.919254	1.000736
1002.213951	1.001834
1002.508613	1.000124
1002.803239	1.002241
1003.097829	1.002004
1003.392384	1.001555
1003.686903	1.001730
1003.981386	1.001896
1004.275834	1.002388
1004.570246	1.000749
1004.864623	1.001461
1005.158964	1.001505
1005.453270	1.001968
1005.747540	1.001749
1006.041775	1.001704
1006.335974	1.001993
1006.630138	1.001983
1006.924266	1.000911
1007.218359	1.000260
1007.512416	1.002609
1007.806438	1.001553
1008.100425	1.001485
1008.394376	1.002635
1008.688292	1.002722
1008.982172	1.001029
1009.276017	1.001755
1009.569827	1.002847
1009.863602	1.001339
1010.157341	1.002780
1010.451045	1.001248
1010.744714	1.003230
1011.038347	1.002820
1011.331945	1.001544
1011.625508	1.001650
1011.919036	1.002430
1012.212528	1.000904
1012.505986	1.002337
1012.799408	1.002276
1013.092795	1.000595
1013.386147	1.002427
1013.679464	1.002871
1013.972745	1.001213
1014.265992	1.001458
1014.559204	1.000442
1014.852380	1.002548
1015.145521	1.001690
1015.438628	1.001276
1015.731699	1.001936
1016.024736	1.002122
1016.317737	1.001367
1016.610703	1.001822
1016.903635	1.000775
1017.196531	1.002136
1017.489393	1.000794
1017.782219	1.001059
1018.075011	1.000846
1018.367768	1.000962
1018.660490	1.002550
1018.953177	1.002550
1019.245829	1.002550
