Dividing Wavelength (nm)	Counts (n)	Blue Motor Position (mm): 0.700000	Red Motor Position (mm): 0.000000	
326.493990	1.005452
326.888308	1.005452
327.282561	1.005452
327.676750	1.006236
328.070874	1.007442
328.464933	1.007496
328.858929	1.007257
329.252859	1.006534
329.646726	1.006623
330.040528	1.006680
330.434265	1.006335
330.827938	1.005426
331.221547	1.006940
331.615091	1.006793
332.008571	1.007154
332.401986	1.007236
332.795338	1.007569
333.188625	1.006113
333.581847	1.006039
333.975006	1.007709
334.368100	1.007531
334.761129	1.006297
335.154095	1.006961
335.546996	1.004721
335.939833	1.000267
336.332606	1.000311
336.725315	0.999885
337.117960	1.000122
337.510540	0.999294
337.903056	0.999013
338.295508	1.000253
338.687896	1.000640
339.080220	1.000924
339.472480	0.999459
339.864676	1.000828
340.256807	0.998589
340.648875	0.999847
341.040879	0.999494
341.432818	1.000764
341.824694	0.998990
342.216506	1.000726
342.608253	0.999023
342.999937	0.999264
343.391557	0.999777
343.783113	1.001557
344.174605	0.999784
344.566033	0.998868
344.957397	1.001388
345.348697	1.001023
345.739934	1.000644
346.131106	1.000011
346.522215	0.999656
346.913260	0.999789
347.304241	0.999305
347.695159	0.999182
348.086012	0.999365
348.476802	0.999367
348.867528	0.999048
349.258191	0.998982
349.648789	1.000083
350.039324	0.998684
350.429796	0.999299
350.820203	0.998616
351.210548	0.999616
351.600828	0.999511
351.991045	0.999381
352.381198	1.000070
352.771288	0.999591
353.161314	1.000903
353.551276	0.998826
353.941175	0.998208
354.331010	0.999181
354.720782	0.998580
355.110490	0.999308
355.500135	0.999585
355.889717	0.998588
356.279235	0.998053
356.668689	0.998495
357.058080	0.998338
357.447408	0.998880
357.836672	0.998527
358.225873	0.999331
358.615010	0.998429
359.004084	0.997685
359.393095	0.998430
359.782043	0.998390
360.170927	0.998955
360.559748	0.998807
360.948505	0.998425
361.337199	0.998531
361.725830	0.998961
362.114398	0.997786
362.502903	0.997022
362.891344	0.996552
363.279722	0.997908
363.668037	0.999215
364.056289	0.997446
364.444478	1.000187
364.832603	0.997785
365.220665	0.998152
365.608665	0.996310
365.996601	0.997658
366.384474	0.996880
366.772284	0.998229
367.160031	0.994665
367.547715	0.996971
367.935336	0.995917
368.322893	0.994388
368.710388	0.993205
369.097820	0.992299
369.485189	0.988985
369.872495	0.986336
370.259738	0.985887
370.646918	0.982118
371.034035	0.980515
371.421090	0.978442
371.808081	0.972018
372.195010	0.970263
372.581875	0.964437
372.968678	0.960286
373.355418	0.957357
373.742096	0.949601
374.128710	0.945513
374.515262	0.940389
374.901751	0.934296
375.288177	0.930634
375.674540	0.922381
376.060841	0.916041
376.447079	0.910323
376.833254	0.904742
377.219367	0.898024
377.605417	0.887117
377.991404	0.883515
378.377329	0.877258
378.763191	0.870686
379.148991	0.862303
379.534727	0.854673
379.920402	0.846071
380.306013	0.842274
380.691563	0.830837
381.077049	0.823118
381.462474	0.818970
381.847835	0.807747
382.233134	0.802737
382.618371	0.802704
383.003545	0.786248
383.388657	0.784500
383.773706	0.776331
384.158693	0.772096
384.543618	0.767208
384.928480	0.757661
385.313280	0.747846
385.698017	0.747117
386.082692	0.736735
386.467305	0.734657
386.851856	0.729048
387.236344	0.723460
387.620770	0.717285
388.005133	0.712655
388.389435	0.707733
388.773674	0.704460
389.157851	0.695966
389.541965	0.693735
389.926018	0.700208
390.310008	0.686610
390.693936	0.684101
391.077802	0.676203
391.461606	0.677788
391.845348	0.667015
392.229027	0.667106
392.612645	0.665311
392.996200	0.651725
393.379694	0.644878
393.763125	0.635513
394.146494	0.639002
394.529801	0.630121
394.913047	0.622336
395.296230	0.628108
395.679351	0.619305
396.062410	0.616554
396.445408	0.618792
396.828343	0.614353
397.211217	0.608572
397.594028	0.621849
397.976778	0.610961
398.359466	0.608567
398.742092	0.603787
399.124656	0.615215
399.507158	0.603568
399.889598	0.600185
400.271977	0.592327
400.654294	0.595753
401.036549	0.595002
401.418742	0.599041
401.800874	0.585243
402.182944	0.581586
402.564952	0.573926
402.946898	0.575673
403.328783	0.576551
403.710606	0.587703
404.092367	0.562377
404.474067	0.567873
404.855705	0.566116
405.237282	0.574667
405.618797	0.560948
406.000250	0.557088
406.381642	0.546648
406.762972	0.551879
407.144240	0.550934
407.525447	0.549938
407.906593	0.543862
408.287677	0.538658
408.668700	0.547540
409.049661	0.541358
409.430560	0.536692
409.811399	0.545038
410.192176	0.527002
410.572891	0.534303
410.953545	0.522067
411.334138	0.535653
411.714669	0.527874
412.095139	0.539769
412.475547	0.524464
412.855894	0.526278
413.236180	0.525122
413.616405	0.530823
413.996568	0.520532
414.376670	0.527146
414.756711	0.531528
415.136691	0.528433
415.516609	0.520169
415.896466	0.516507
416.276262	0.512840
416.655997	0.514241
417.035670	0.496211
417.415283	0.487693
417.794834	0.492765
418.174324	0.497407
418.553753	0.506239
418.933121	0.489285
419.312428	0.483064
419.691674	0.488834
420.070859	0.476663
420.449983	0.484823
420.829045	0.473987
421.208047	0.483706
421.586988	0.476124
421.965867	0.474693
422.344686	0.464047
422.723444	0.476517
423.102141	0.493388
423.480777	0.466140
423.859352	0.486702
424.237866	0.463978
424.616319	0.464783
424.994712	0.456239
425.373044	0.466488
425.751314	0.454240
426.129524	0.470852
426.507673	0.454467
426.885762	0.447606
427.263789	0.452865
427.641756	0.463172
428.019662	0.453152
428.397508	0.452507
428.775292	0.457014
429.153016	0.448135
429.530679	0.455209
429.908282	0.448513
430.285824	0.458472
430.663305	0.436957
431.040726	0.458072
431.418086	0.457852
431.795385	0.450506
432.172624	0.448490
432.549802	0.449731
432.926920	0.447667
433.303977	0.447783
433.680974	0.444253
434.057910	0.442868
434.434786	0.442298
434.811601	0.444668
435.188355	0.427303
435.565050	0.436765
435.941683	0.437882
436.318257	0.421593
436.694770	0.422754
437.071222	0.421392
437.447614	0.425359
437.823946	0.432133
438.200218	0.421317
438.576429	0.431183
438.952580	0.424090
439.328670	0.420322
439.704700	0.426853
440.080670	0.428598
440.456580	0.409825
440.832429	0.417625
441.208218	0.428205
441.583947	0.417326
441.959616	0.416690
442.335224	0.422697
442.710773	0.412857
443.086261	0.411111
443.461689	0.425482
443.837057	0.415263
444.212365	0.404848
444.587612	0.411757
444.962800	0.401962
445.337927	0.403515
445.712995	0.429674
446.088002	0.391149
446.462949	0.401630
446.837837	0.406633
447.212664	0.395808
447.587431	0.386718
447.962139	0.357281
448.336786	0.316689
448.711374	0.326696
449.085901	0.371279
449.460369	0.375641
449.834776	0.379037
450.209124	0.358162
450.583412	0.351098
450.957640	0.343457
451.331808	0.355143
451.705917	0.378619
452.079965	0.383588
452.453954	0.371151
452.827883	0.378554
453.201752	0.373373
453.575562	0.384390
453.949311	0.373297
454.323001	0.378283
454.696632	0.374912
455.070202	0.367514
455.443713	0.359177
455.817164	0.354030
456.190556	0.349811
456.563888	0.346532
456.937160	0.344505
457.310373	0.361315
457.683526	0.360439
458.056619	0.366007
458.429653	0.366355
458.802628	0.370059
459.175542	0.364342
459.548398	0.346869
459.921194	0.339418
460.293930	0.339732
460.666607	0.316957
461.039224	0.305091
461.411782	0.300872
461.784280	0.300057
462.156719	0.304305
462.529099	0.308671
462.901419	0.324619
463.273680	0.328881
463.645882	0.328595
464.018024	0.334598
464.390106	0.327188
464.762130	0.311831
465.134094	0.294712
465.505999	0.263546
465.877845	0.234115
466.249631	0.220898
466.621358	0.228200
466.993026	0.242281
467.364634	0.248581
467.736184	0.257207
468.107674	0.266272
468.479105	0.265385
468.850477	0.271908
469.221790	0.279084
469.593043	0.289302
469.964238	0.293640
470.335373	0.293506
470.706449	0.291419
471.077467	0.292106
471.448425	0.254051
471.819324	0.229423
472.190164	0.228794
472.560945	0.257891
472.931667	0.280293
473.302330	0.284168
473.672934	0.296586
474.043479	0.284382
474.413965	0.286455
474.784393	0.289700
475.154761	0.284541
475.525070	0.282017
475.895321	0.287680
476.265513	0.281849
476.635645	0.276953
477.005719	0.277223
477.375734	0.273466
477.745691	0.266796
478.115588	0.263121
478.485427	0.256668
478.855207	0.243663
479.224928	0.225810
479.594591	0.214207
479.964194	0.217481
480.333739	0.218571
480.703226	0.220070
481.072653	0.218508
481.442022	0.214198
481.811333	0.210733
482.180584	0.214257
482.549777	0.219856
482.918912	0.222910
483.287988	0.222840
483.657005	0.222381
484.025964	0.228847
484.394864	0.226014
484.763706	0.226542
485.132489	0.231705
485.501213	0.232457
485.869879	0.230700
486.238487	0.233737
486.607036	0.232188
486.975527	0.236758
487.343959	0.232445
487.712333	0.231411
488.080648	0.232854
488.448905	0.231963
488.817104	0.233396
489.185244	0.227883
489.553326	0.224605
489.921350	0.214474
490.289315	0.196885
490.657222	0.191630
491.025070	0.193205
491.392861	0.195029
491.760593	0.200924
492.128267	0.206601
492.495883	0.212374
492.863440	0.218334
493.230939	0.224817
493.598380	0.226590
493.965763	0.228436
494.333088	0.230497
494.700354	0.232306
495.067563	0.231002
495.434713	0.234629
495.801805	0.232293
496.168839	0.233826
496.535815	0.235481
496.902733	0.235231
497.269593	0.236720
497.636395	0.234212
498.003139	0.234903
498.369825	0.237752
498.736453	0.234084
499.103023	0.235635
499.469535	0.235305
499.835989	0.235452
500.202385	0.236525
500.568723	0.239410
500.935003	0.234798
501.301226	0.238873
501.667390	0.232965
502.033497	0.231394
502.399546	0.234131
502.765537	0.236350
503.131470	0.234821
503.497345	0.230890
503.863163	0.239599
504.228923	0.232679
504.594625	0.231100
504.960269	0.236864
505.325856	0.232062
505.691385	0.236417
506.056856	0.233041
506.422270	0.232657
506.787625	0.235052
507.152924	0.232574
507.518164	0.233000
507.883347	0.234325
508.248472	0.236490
508.613540	0.231085
508.978550	0.233747
509.343503	0.234281
509.708398	0.231758
510.073236	0.229569
510.438016	0.229136
510.802738	0.230370
511.167403	0.229238
511.532010	0.231518
511.896561	0.226763
512.261053	0.225244
512.625488	0.227592
512.989866	0.227744
513.354186	0.228211
513.718449	0.230393
514.082655	0.226085
514.446803	0.228640
514.810894	0.226426
515.174927	0.229162
515.538904	0.228611
515.902822	0.225373
516.266684	0.227703
516.630488	0.228882
516.994235	0.227651
517.357925	0.226697
517.721558	0.224935
518.085133	0.224375
518.448651	0.224252
518.812112	0.226703
519.175516	0.226317
519.538863	0.223756
519.902152	0.225665
520.265385	0.222608
520.628560	0.224237
520.991678	0.224652
521.354739	0.223608
521.717743	0.224266
522.080690	0.224968
522.443580	0.222483
522.806413	0.223367
523.169189	0.222722
523.531908	0.221487
523.894569	0.225261
524.257174	0.224809
524.619722	0.222398
524.982213	0.223839
525.344647	0.222405
525.707025	0.223639
526.069345	0.221897
526.431608	0.223510
526.793815	0.221350
527.155964	0.225634
527.518057	0.224430
527.880093	0.225418
528.242072	0.224024
528.603995	0.225929
528.965860	0.227456
529.327669	0.226579
529.689421	0.227673
530.051117	0.228136
530.412755	0.226076
530.774337	0.228286
531.135862	0.228585
531.497331	0.227998
531.858743	0.230998
532.220098	0.227485
532.581396	0.230151
532.942638	0.230567
533.303824	0.231795
533.664953	0.231278
534.026025	0.233163
534.387040	0.230942
534.747999	0.230938
535.108902	0.229680
535.469748	0.234911
535.830537	0.232580
536.191270	0.233212
536.551947	0.232740
536.912567	0.232606
537.273131	0.234272
537.633638	0.234397
537.994089	0.235347
538.354483	0.235937
538.714821	0.233040
539.075103	0.232856
539.435328	0.233481
539.795497	0.237284
540.155609	0.233864
540.515665	0.232081
540.875665	0.237696
541.235609	0.236186
541.595496	0.236256
541.955328	0.233193
542.315102	0.235738
542.674821	0.236513
543.034483	0.236526
543.394090	0.236126
543.753640	0.238248
544.113134	0.233214
544.472571	0.236528
544.831953	0.233438
545.191278	0.237590
545.550548	0.236633
545.909761	0.233975
546.268918	0.234720
546.628019	0.232981
546.987064	0.235532
547.346053	0.237322
547.704986	0.234987
548.063863	0.235258
548.422684	0.235799
548.781449	0.237244
549.140158	0.235299
549.498811	0.237961
549.857408	0.240996
550.215949	0.235589
550.574434	0.239048
550.932864	0.237033
551.291237	0.235720
551.649555	0.237009
552.007817	0.236550
552.366022	0.237749
552.724173	0.237636
553.082267	0.237852
553.440305	0.234839
553.798288	0.239294
554.156215	0.235905
554.514086	0.236584
554.871902	0.239883
555.229661	0.239005
555.587365	0.239485
555.945014	0.242030
556.302606	0.238922
556.660143	0.241585
557.017625	0.238262
557.375050	0.240283
557.732421	0.237353
558.089735	0.239135
558.446994	0.239271
558.804197	0.238448
559.161345	0.238020
559.518437	0.241557
559.875474	0.239750
560.232455	0.239361
560.589381	0.240170
560.946251	0.240486
561.303065	0.238200
561.659825	0.239281
562.016528	0.241102
562.373177	0.243911
562.729770	0.241121
563.086307	0.243012
563.442789	0.240752
563.799216	0.243622
564.155587	0.242207
564.511904	0.243972
564.868164	0.243731
565.224370	0.243435
565.580520	0.245266
565.936615	0.245277
566.292654	0.248132
566.648638	0.245234
567.004567	0.245784
567.360441	0.246882
567.716260	0.248339
568.072023	0.246397
568.427732	0.247036
568.783385	0.249550
569.138982	0.247708
569.494525	0.247441
569.850013	0.250495
570.205445	0.248915
570.560823	0.251192
570.916145	0.253078
571.271412	0.251399
571.626625	0.252888
571.981782	0.253553
572.336884	0.254480
572.691931	0.253914
573.046923	0.255621
573.401860	0.256385
573.756743	0.258440
574.111570	0.256957
574.466342	0.257702
574.821059	0.256735
575.175722	0.259620
575.530330	0.259438
575.884882	0.259717
576.239380	0.261371
576.593823	0.262084
576.948211	0.261686
577.302544	0.264812
577.656823	0.264413
578.011047	0.264368
578.365216	0.265306
578.719330	0.267370
579.073389	0.266543
579.427394	0.268096
579.781344	0.269059
580.135239	0.270407
580.489080	0.270189
580.842866	0.273243
581.196597	0.273410
581.550273	0.271766
581.903895	0.273117
582.257463	0.270804
582.610975	0.274413
582.964434	0.273426
583.317837	0.275960
583.671186	0.276425
584.024481	0.276591
584.377721	0.278992
584.730906	0.279763
585.084037	0.279005
585.437113	0.280829
585.790135	0.280151
586.143103	0.283261
586.496016	0.284402
586.848874	0.281816
587.201679	0.282511
587.554428	0.285682
587.907124	0.284826
588.259765	0.285481
588.612352	0.285741
588.964884	0.289857
589.317362	0.289611
589.669786	0.289113
590.022155	0.287561
590.374470	0.286964
590.726731	0.288911
591.078937	0.294016
591.431090	0.290548
591.783188	0.294186
592.135232	0.294668
592.487222	0.294765
592.839157	0.293220
593.191038	0.295393
593.542866	0.297330
593.894639	0.300474
594.246358	0.298958
594.598022	0.298313
594.949633	0.301934
595.301190	0.302907
595.652692	0.301881
596.004141	0.297670
596.355535	0.306078
596.706876	0.306515
597.058162	0.309349
597.409395	0.306466
597.760573	0.303340
598.111698	0.307416
598.462768	0.307481
598.813785	0.308782
599.164748	0.310080
599.515657	0.310314
599.866511	0.313966
600.217312	0.309462
600.568060	0.314650
600.918753	0.310923
601.269392	0.311890
601.619978	0.315384
601.970510	0.312598
602.320988	0.312793
602.671412	0.310728
603.021783	0.313068
603.372100	0.314318
603.722363	0.314032
604.072572	0.315461
604.422728	0.314607
604.772830	0.317055
605.122878	0.316469
605.472872	0.317276
605.822813	0.315623
606.172701	0.318072
606.522534	0.314812
606.872314	0.315647
607.222041	0.316680
607.571714	0.314801
607.921333	0.316301
608.270899	0.315713
608.620411	0.312345
608.969870	0.316296
609.319276	0.317024
609.668627	0.316054
610.017926	0.314924
610.367171	0.313559
610.716362	0.314472
611.065500	0.314459
611.414585	0.313302
611.763616	0.313289
612.112594	0.314104
612.461518	0.313035
612.810389	0.311378
613.159207	0.313461
613.507971	0.315140
613.856682	0.310910
614.205340	0.312632
614.553945	0.309351
614.902496	0.313327
615.250994	0.311529
615.599439	0.311933
615.947830	0.311575
616.296169	0.312370
616.644454	0.312357
616.992686	0.312017
617.340864	0.309964
617.688990	0.313309
618.037063	0.309892
618.385082	0.312197
618.733048	0.308613
619.080961	0.310713
619.428821	0.310622
619.776628	0.309963
620.124382	0.312327
620.472083	0.312663
620.819731	0.312125
621.167326	0.316105
621.514868	0.315485
621.862357	0.319831
622.209793	0.319197
622.557176	0.321903
622.904506	0.323109
623.251783	0.325325
623.599007	0.327760
623.946179	0.326983
624.293297	0.329016
624.640363	0.333003
624.987376	0.333338
625.334336	0.335561
625.681243	0.338272
626.028097	0.338567
626.374899	0.339928
626.721647	0.340123
627.068343	0.343128
627.414987	0.344471
627.761577	0.346405
628.108115	0.344608
628.454600	0.350123
628.801032	0.347721
629.147412	0.349698
629.493739	0.350281
629.840014	0.352963
630.186236	0.350065
630.532405	0.356310
630.878521	0.352923
631.224585	0.355556
631.570597	0.359253
631.916556	0.357783
632.262462	0.357535
632.608316	0.360161
632.954117	0.360389
633.299866	0.361661
633.645562	0.362025
633.991206	0.366378
634.336797	0.368989
634.682336	0.371788
635.027823	0.373030
635.373257	0.374352
635.718639	0.377519
636.063968	0.376696
636.409245	0.382596
636.754470	0.382913
637.099642	0.385134
637.444762	0.388313
637.789829	0.387827
638.134845	0.391230
638.479808	0.392462
638.824719	0.391746
639.169577	0.396546
639.514383	0.394919
639.859137	0.399588
640.203839	0.398871
640.548489	0.399788
640.893086	0.400708
641.237632	0.402639
641.582125	0.401403
641.926566	0.403520
642.270955	0.403258
642.615292	0.402984
642.959576	0.401956
643.303809	0.402971
643.647990	0.402668
643.992118	0.403110
644.336195	0.406527
644.680219	0.404568
645.024192	0.405243
645.368112	0.399190
645.711981	0.398078
646.055797	0.393323
646.399562	0.395818
646.743274	0.388199
647.086935	0.385525
647.430544	0.385349
647.774101	0.384118
648.117606	0.383932
648.461059	0.384890
648.804460	0.386405
649.147810	0.392311
649.491108	0.393550
649.834354	0.395430
650.177548	0.400677
650.520690	0.405908
650.863781	0.407374
651.206820	0.406798
651.549807	0.411115
651.892742	0.415190
652.235626	0.415012
652.578458	0.415673
652.921238	0.421800
653.263967	0.419715
653.606644	0.423347
653.949269	0.423809
654.291843	0.427106
654.634365	0.424365
654.976836	0.427228
655.319255	0.427723
655.661622	0.429141
656.003938	0.429141
656.346203	0.432035
656.688416	0.430171
657.030577	0.432917
657.372687	0.435550
657.714746	0.435993
658.056753	0.432975
658.398708	0.436828
658.740612	0.438519
659.082465	0.433483
659.424266	0.434623
659.766016	0.434190
660.107715	0.437214
660.449362	0.435989
660.790958	0.436456
661.132503	0.437970
661.473996	0.434834
661.815438	0.435706
662.156829	0.435666
662.498168	0.436686
662.839456	0.438255
663.180693	0.435757
663.521879	0.435092
663.863013	0.437114
664.204097	0.434688
664.545129	0.431889
664.886110	0.431958
665.227040	0.429762
665.567918	0.432549
665.908746	0.429592
666.249522	0.429769
666.590248	0.430378
666.930922	0.428591
667.271545	0.428185
667.612118	0.427945
667.952639	0.429563
668.293109	0.428190
668.633528	0.431019
668.973896	0.430719
669.314213	0.431675
669.654480	0.432827
669.994695	0.433519
670.334859	0.433772
670.674973	0.434524
671.015035	0.434634
671.355047	0.434684
671.695008	0.435177
672.034918	0.437037
672.374777	0.436415
672.714585	0.438275
673.054342	0.437756
673.394049	0.437369
673.733705	0.435063
674.073310	0.436740
674.412864	0.439861
674.752368	0.440116
675.091820	0.440724
675.431223	0.445062
675.770574	0.444464
676.109875	0.447323
676.449125	0.447307
676.788324	0.449901
677.127473	0.455357
677.466571	0.455587
677.805619	0.456992
678.144616	0.458170
678.483562	0.459738
678.822458	0.462318
679.161303	0.462940
679.500098	0.463998
679.838842	0.465618
680.177535	0.464373
680.516179	0.463486
680.854771	0.462409
681.193314	0.455425
681.531805	0.446838
681.870247	0.435419
682.208638	0.427806
682.546978	0.427313
682.885268	0.428407
683.223508	0.434793
683.561697	0.438805
683.899836	0.441422
684.237925	0.444494
684.575963	0.447444
684.913951	0.450558
685.251889	0.445798
685.589776	0.448302
685.927614	0.450419
686.265401	0.444818
686.603137	0.446180
686.940824	0.440331
687.278460	0.439097
687.616046	0.437698
687.953582	0.432636
688.291068	0.434467
688.628504	0.429861
688.965889	0.432275
689.303224	0.435627
689.640510	0.440261
689.977745	0.445660
690.314930	0.453599
690.652065	0.458183
690.989150	0.465412
691.326185	0.472431
691.663170	0.477317
692.000105	0.484457
692.336990	0.491420
692.673825	0.493949
693.010610	0.500533
693.347345	0.506415
693.684030	0.507998
694.020665	0.512916
694.357251	0.521697
694.693786	0.520944
695.030272	0.523880
695.366707	0.529235
695.703093	0.531874
696.039429	0.529596
696.375716	0.532141
696.711952	0.534663
697.048139	0.536423
697.384276	0.538777
697.720363	0.537280
698.056400	0.535676
698.392388	0.541407
698.728326	0.543830
699.064214	0.547536
699.400053	0.547347
699.735842	0.551410
700.071581	0.554247
700.407270	0.557150
700.742910	0.559577
701.078501	0.566237
701.414042	0.566735
701.749533	0.569937
702.084974	0.579033
702.420366	0.571202
702.755709	0.578976
703.091002	0.586492
703.426246	0.580062
703.761440	0.585640
704.096584	0.590163
704.431679	0.587573
704.766725	0.589706
705.101721	0.591699
705.436668	0.587458
705.771565	0.594815
706.106413	0.590225
706.441212	0.586606
706.775961	0.585406
707.110661	0.586779
707.445311	0.584577
707.779913	0.582314
708.114465	0.580097
708.448967	0.577469
708.783421	0.569735
709.117825	0.563526
709.452180	0.563342
709.786485	0.557217
710.120742	0.547338
710.454949	0.548932
710.789107	0.541192
711.123216	0.531341
711.457275	0.532531
711.791286	0.524918
712.125247	0.524358
712.459159	0.534296
712.793023	0.526255
713.126837	0.531144
713.460602	0.531291
713.794318	0.540343
714.127985	0.539240
714.461602	0.549181
714.795171	0.552534
715.128691	0.560049
715.462162	0.568359
715.795584	0.573216
716.128957	0.576770
716.462281	0.583543
716.795556	0.586824
717.128782	0.592754
717.461960	0.601717
717.795088	0.600939
718.128167	0.606259
718.461198	0.615173
718.794180	0.615734
719.127113	0.618076
719.459997	0.621776
719.792833	0.627948
720.125619	0.629639
720.458357	0.634955
720.791046	0.634910
721.123686	0.638473
721.456278	0.645703
721.788821	0.642430
722.121315	0.647683
722.453761	0.651536
722.786158	0.648675
723.118506	0.645014
723.450805	0.653051
723.783056	0.650110
724.115259	0.646871
724.447412	0.646141
724.779518	0.648041
725.111574	0.646750
725.443582	0.642284
725.775542	0.644049
726.107453	0.636096
726.439315	0.636640
726.771129	0.634740
727.102895	0.628145
727.434612	0.620462
727.766281	0.619147
728.097901	0.618339
728.429473	0.617524
728.760996	0.616054
729.092471	0.616604
729.423897	0.620017
729.755276	0.619183
730.086606	0.618972
730.417887	0.613421
730.749120	0.605206
731.080305	0.594616
731.411442	0.590786
731.742530	0.594862
732.073570	0.594817
732.404562	0.586841
732.735506	0.588061
733.066401	0.593618
733.397249	0.602201
733.728048	0.614285
734.058798	0.627542
734.389501	0.638461
734.720156	0.648527
735.050762	0.655581
735.381320	0.655939
735.711831	0.665039
736.042293	0.670457
736.372707	0.666962
736.703073	0.670133
737.033391	0.673006
737.363661	0.670268
737.693883	0.665028
738.024056	0.664035
738.354182	0.664740
738.684260	0.653847
739.014290	0.650102
739.344272	0.651438
739.674207	0.644200
740.004093	0.644161
740.333931	0.644332
740.663722	0.643202
740.993464	0.644442
741.323159	0.647952
741.652806	0.653281
741.982405	0.657899
742.311956	0.663720
742.641460	0.664705
742.970915	0.669255
743.300323	0.675837
743.629683	0.682397
743.958996	0.685532
744.288260	0.688990
744.617477	0.695717
744.946647	0.696685
745.275768	0.702339
745.604842	0.701624
745.933869	0.712226
746.262847	0.712904
746.591778	0.706261
746.920662	0.712736
747.249498	0.719864
747.578286	0.710410
747.907027	0.705565
748.235720	0.706649
748.564365	0.702622
748.892963	0.701343
749.221514	0.704918
749.550017	0.709577
749.878473	0.710169
750.206881	0.717291
750.535242	0.717619
750.863555	0.715993
751.191821	0.718008
751.520039	0.721665
751.848210	0.724748
752.176334	0.719303
752.504411	0.717248
752.832440	0.725711
753.160421	0.729888
753.488356	0.727184
753.816243	0.725061
754.144082	0.734144
754.471875	0.737817
754.799620	0.733082
755.127318	0.734191
755.454969	0.735315
755.782572	0.734910
756.110129	0.738558
756.437638	0.741581
756.765100	0.737499
757.092515	0.735451
757.419882	0.734698
757.747203	0.740434
758.074477	0.740332
758.401703	0.736880
758.728882	0.730736
759.056014	0.730245
759.383099	0.729501
759.710138	0.729680
760.037129	0.726540
760.364073	0.720704
760.690970	0.723152
761.017820	0.727637
761.344623	0.724297
761.671379	0.715857
761.998088	0.704523
762.324751	0.680792
762.651366	0.637536
762.977935	0.569534
763.304456	0.518447
763.630931	0.508423
763.957359	0.547138
764.283740	0.591468
764.610074	0.619747
764.936362	0.652658
765.262602	0.679131
765.588796	0.700620
765.914943	0.717087
766.241044	0.735750
766.567097	0.742294
766.893104	0.753238
767.219064	0.760271
767.544978	0.765534
767.870845	0.779846
768.196665	0.783368
768.522438	0.782085
768.848165	0.783576
769.173846	0.791871
769.499479	0.797088
769.825066	0.800631
770.150607	0.805213
770.476101	0.800519
770.801548	0.801960
771.126949	0.813807
771.452303	0.817640
771.777611	0.816380
772.102872	0.815373
772.428087	0.821172
772.753256	0.823967
773.078378	0.825911
773.403453	0.834682
773.728482	0.839641
774.053465	0.833008
774.378401	0.835890
774.703291	0.845133
775.028135	0.844266
775.352932	0.845134
775.677683	0.850097
776.002388	0.850442
776.327046	0.849306
776.651658	0.854372
776.976224	0.855992
777.300743	0.856242
777.625216	0.858759
777.949643	0.860334
778.274024	0.859988
778.598359	0.862740
778.922647	0.859909
779.246889	0.861142
779.571086	0.864565
779.895236	0.867516
780.219339	0.864846
780.543397	0.859879
780.867409	0.860057
781.191374	0.862794
781.515294	0.863775
781.839167	0.863499
782.162995	0.865333
782.486776	0.862644
782.810511	0.863204
783.134201	0.867344
783.457844	0.865918
783.781441	0.867979
784.104993	0.873867
784.428498	0.873597
784.751958	0.870994
785.075372	0.872520
785.398739	0.875969
785.722061	0.871918
786.045337	0.867978
786.368568	0.872840
786.691752	0.874889
787.014891	0.860812
787.337983	0.851934
787.661030	0.844220
787.984031	0.825847
788.306987	0.814143
788.629897	0.814113
788.952760	0.820549
789.275579	0.823923
789.598351	0.839887
789.921078	0.853662
790.243759	0.854304
790.566395	0.859587
790.888984	0.868130
791.211529	0.872147
791.534027	0.874215
791.856480	0.878665
792.178888	0.881901
792.501249	0.884401
792.823566	0.886581
793.145836	0.887336
793.468062	0.887512
793.790241	0.889309
794.112375	0.885583
794.434464	0.882822
794.756507	0.881592
795.078505	0.879330
795.400457	0.875408
795.722364	0.863199
796.044226	0.857175
796.366042	0.855071
796.687812	0.858367
797.009538	0.852968
797.331218	0.858401
797.652852	0.862002
797.974442	0.866960
798.295986	0.868303
798.617484	0.869301
798.938938	0.874471
799.260346	0.878219
799.581709	0.880392
799.903026	0.883568
800.224299	0.883767
800.545526	0.887361
800.866708	0.891979
801.187845	0.895562
801.508936	0.895396
801.829983	0.891888
802.150984	0.897038
802.471940	0.901356
802.792851	0.900164
803.113717	0.901567
803.434538	0.900089
803.755314	0.902454
804.076045	0.902091
804.396731	0.903501
804.717372	0.902253
805.037967	0.906450
805.358518	0.902907
805.679024	0.899845
805.999485	0.900716
806.319901	0.899606
806.640272	0.902055
806.960598	0.901407
807.280879	0.897056
807.601115	0.895784
807.921306	0.899301
808.241453	0.899332
808.561554	0.897758
808.881611	0.898577
809.201623	0.899912
809.521590	0.900013
809.841513	0.902061
810.161390	0.898539
810.481223	0.901765
810.801011	0.905008
811.120755	0.907569
811.440453	0.904473
811.760107	0.904564
812.079716	0.904695
812.399281	0.907623
812.718801	0.910836
813.038276	0.910621
813.357707	0.910817
813.677093	0.908292
813.996434	0.910922
814.315731	0.912457
814.634983	0.914319
814.954191	0.912985
815.273354	0.908745
815.592473	0.904720
815.911547	0.904820
816.230577	0.902655
816.549562	0.899657
816.868502	0.898962
817.187399	0.897224
817.506250	0.891545
817.825058	0.892682
818.143821	0.889137
818.462539	0.885095
818.781213	0.875868
819.099843	0.866222
819.418429	0.848811
819.736970	0.831350
820.055466	0.810349
820.373919	0.785037
820.692327	0.750799
821.010691	0.715221
821.329011	0.635091
821.647286	0.517219
821.965517	0.402998
822.283704	0.359479
822.601847	0.360705
822.919945	0.396256
823.237999	0.430781
823.556010	0.479009
823.873976	0.535190
824.191897	0.587560
824.509775	0.630575
824.827609	0.676806
825.145398	0.700263
825.463144	0.701695
825.780845	0.684028
826.098502	0.665947
826.416116	0.621063
826.733685	0.574764
827.051210	0.566574
827.368692	0.581253
827.686129	0.618849
828.003522	0.674466
828.320872	0.722481
828.638177	0.766867
828.955439	0.800293
829.272656	0.822159
829.589830	0.841123
829.906960	0.856312
830.224046	0.869632
830.541088	0.880280
830.858086	0.885297
831.175041	0.890834
831.491952	0.889619
831.808819	0.885996
832.125642	0.879067
832.442421	0.865323
832.759157	0.841712
833.075849	0.793671
833.392497	0.729191
833.709101	0.687246
834.025662	0.697719
834.342179	0.730278
834.658653	0.770003
834.975083	0.807126
835.291469	0.834118
835.607811	0.856774
835.924110	0.874684
836.240366	0.891403
836.556578	0.903704
836.872746	0.912661
837.188871	0.918533
837.504952	0.925372
837.820990	0.927313
838.136984	0.931044
838.452935	0.934231
838.768842	0.935540
839.084706	0.929278
839.400526	0.903164
839.716303	0.860147
840.032037	0.838278
840.347727	0.841918
840.663373	0.860456
840.978977	0.882196
841.294537	0.905614
841.610054	0.921279
841.925527	0.929046
842.240957	0.936617
842.556344	0.944482
842.871687	0.950023
843.186987	0.953981
843.502244	0.954622
843.817458	0.957039
844.132629	0.960987
844.447756	0.964788
844.762840	0.965072
845.077881	0.966348
845.392879	0.963930
845.707833	0.966523
846.022745	0.969411
846.337613	0.970582
846.652438	0.969891
846.967221	0.970209
847.281960	0.969880
847.596656	0.972270
847.911309	0.971674
848.225919	0.971956
848.540485	0.974825
848.855009	0.974830
849.169490	0.973999
849.483928	0.973353
849.798323	0.972088
850.112675	0.976002
850.426984	0.975390
850.741251	0.975799
851.055474	0.975536
851.369654	0.973573
851.683792	0.973128
851.997887	0.974391
852.311938	0.976720
852.625947	0.974515
852.939914	0.973706
853.253837	0.974520
853.567718	0.975696
853.881555	0.975242
854.195350	0.974044
854.509103	0.974674
854.822812	0.976471
855.136479	0.975501
855.450103	0.974733
855.763685	0.973764
856.077224	0.975822
856.390720	0.975654
856.704173	0.975449
857.017584	0.973976
857.330953	0.973308
857.644278	0.972159
857.957561	0.973105
858.270802	0.974060
858.584000	0.972675
858.897155	0.972007
859.210268	0.971946
859.523339	0.975715
859.836367	0.976610
860.149352	0.975893
860.462295	0.974800
860.775195	0.974312
861.088054	0.973603
861.400869	0.974767
861.713642	0.975331
862.026373	0.977067
862.339062	0.976345
862.651708	0.972991
862.964312	0.973410
863.276873	0.974720
863.589392	0.973128
863.901869	0.970972
864.214303	0.970413
864.526696	0.968498
864.839045	0.968455
865.151353	0.967806
865.463619	0.966143
865.775842	0.968570
866.088023	0.968827
866.400162	0.967429
866.712258	0.968222
867.024313	0.967436
867.336325	0.970780
867.648296	0.968589
867.960224	0.965804
868.272110	0.967179
868.583954	0.970162
868.895755	0.969778
869.207515	0.965924
869.519233	0.966347
869.830909	0.965189
870.142542	0.966701
870.454134	0.966045
870.765684	0.963877
871.077191	0.965065
871.388657	0.962469
871.700081	0.962949
872.011463	0.962714
872.322803	0.963396
872.634101	0.960827
872.945357	0.959388
873.256571	0.957301
873.567744	0.957667
873.878874	0.957860
874.189963	0.956767
874.501010	0.958032
874.812015	0.955090
875.122979	0.955823
875.433900	0.956801
875.744780	0.958786
876.055618	0.954702
876.366415	0.953427
876.677169	0.953728
876.987882	0.954523
877.298554	0.955051
877.609183	0.951475
877.919771	0.949330
878.230317	0.947053
878.540822	0.944601
878.851285	0.937499
879.161707	0.930224
879.472087	0.917986
879.782425	0.900564
880.092722	0.865469
880.402977	0.812865
880.713191	0.747469
881.023363	0.686421
881.333494	0.651678
881.643583	0.624303
881.953631	0.624719
882.263637	0.653257
882.573602	0.692921
882.883526	0.718912
883.193408	0.744584
883.503248	0.767906
883.813048	0.796450
884.122806	0.827284
884.432522	0.851395
884.742197	0.871199
885.051831	0.881465
885.361424	0.893660
885.670975	0.906590
885.980485	0.915721
886.289954	0.922731
886.599382	0.925849
886.908768	0.932198
887.218113	0.937242
887.527417	0.942271
887.836680	0.944998
888.145901	0.947590
888.455082	0.950904
888.764221	0.955451
889.073319	0.957143
889.382376	0.958775
889.691392	0.956646
890.000366	0.958251
890.309300	0.958311
890.618193	0.958154
890.927044	0.955151
891.235855	0.955247
891.544625	0.956952
891.853353	0.955636
892.162041	0.953159
892.470687	0.946945
892.779293	0.941126
893.087858	0.936469
893.396381	0.928991
893.704864	0.916323
894.013306	0.890886
894.321707	0.863156
894.630068	0.847989
894.938387	0.842327
895.246665	0.844395
895.554903	0.856392
895.863100	0.870559
896.171256	0.888344
896.479371	0.908884
896.787446	0.920608
897.095480	0.928171
897.403473	0.931183
897.711425	0.935869
898.019336	0.943556
898.327207	0.949084
898.635038	0.947426
898.942827	0.949447
899.250576	0.952295
899.558284	0.957439
899.865952	0.958822
900.173579	0.959544
900.481165	0.959356
900.788711	0.962960
901.096216	0.966279
901.403681	0.967486
901.711105	0.966695
902.018489	0.967844
902.325832	0.966960
902.633135	0.965260
902.940397	0.960406
903.247619	0.945085
903.554800	0.920478
903.861941	0.879191
904.169041	0.841845
904.476101	0.823460
904.783121	0.824656
905.090100	0.841254
905.397039	0.863218
905.703938	0.886809
906.010796	0.907475
906.317614	0.924785
906.624391	0.938699
906.931129	0.947595
907.237826	0.956338
907.544483	0.962723
907.851099	0.967558
908.157675	0.971993
908.464211	0.973552
908.770707	0.975949
909.077163	0.979673
909.383578	0.980038
909.689954	0.979687
909.996289	0.980927
910.302584	0.984215
910.608839	0.984371
910.915054	0.982804
911.221229	0.982473
911.527363	0.981837
911.833458	0.983232
912.139513	0.982937
912.445527	0.981784
912.751502	0.979114
913.057436	0.977112
913.363331	0.975928
913.669186	0.970931
913.975000	0.966149
914.280775	0.958671
914.586510	0.952131
914.892205	0.937703
915.197859	0.914677
915.503475	0.887870
915.809050	0.866449
916.114585	0.859659
916.420081	0.857984
916.725536	0.854944
917.030952	0.862155
917.336328	0.876401
917.641665	0.892190
917.946961	0.907799
918.252218	0.920201
918.557435	0.930183
918.862612	0.939483
919.167750	0.945471
919.472848	0.950910
919.777906	0.958341
920.082925	0.962248
920.387904	0.966937
920.692843	0.967548
920.997743	0.968617
921.302603	0.971950
921.607423	0.973230
921.912204	0.976027
922.216946	0.977892
922.521647	0.978552
922.826310	0.978608
923.130932	0.982838
923.435516	0.984456
923.740059	0.984291
924.044564	0.983931
924.349028	0.985194
924.653454	0.987723
924.957840	0.989925
925.262186	0.988365
925.566493	0.988683
925.870761	0.990460
926.174989	0.989782
926.479178	0.993678
926.783328	0.993611
927.087438	0.993558
927.391509	0.992230
927.695541	0.995456
927.999533	0.995155
928.303486	0.995351
928.607400	0.997037
928.911275	0.995745
929.215110	0.996926
929.518906	0.995505
929.822663	0.996442
930.126381	0.996667
930.430060	0.995612
930.733699	0.996913
931.037299	0.996768
931.340861	0.995253
931.644383	0.994910
931.947866	0.995454
932.251309	0.995144
932.554714	0.994934
932.858080	0.995498
933.161407	0.996009
933.464694	0.996373
933.767943	0.997262
934.071153	0.997746
934.374323	0.997399
934.677455	0.996877
934.980548	0.998185
935.283602	0.998387
935.586617	0.996220
935.889593	0.998013
936.192530	0.997176
936.495428	0.997015
936.798287	0.996141
937.101108	0.995984
937.403890	0.994025
937.706632	0.994366
938.009336	0.992618
938.312002	0.990852
938.614628	0.990630
938.917216	0.988087
939.219765	0.986956
939.522275	0.987374
939.824747	0.987729
940.127179	0.987923
940.429573	0.989104
940.731929	0.989059
941.034246	0.989782
941.336524	0.990632
941.638763	0.991161
941.940964	0.991215
942.243126	0.992045
942.545250	0.993856
942.847335	0.992597
943.149381	0.994402
943.451389	0.992789
943.753359	0.994913
944.055290	0.996919
944.357182	0.995563
944.659036	0.996196
944.960851	0.995576
945.262628	0.995679
945.564367	0.995240
945.866067	0.995993
946.167729	0.996629
946.469352	0.995366
946.770937	0.994800
947.072484	0.996462
947.373992	0.996139
947.675462	0.996211
947.976893	0.995207
948.278286	0.997221
948.579641	0.998491
948.880958	0.996647
949.182236	0.996844
949.483476	0.997628
949.784678	0.997458
950.085841	0.997067
950.386967	0.996251
950.688054	0.996211
950.989103	0.995660
951.290114	0.995379
951.591087	0.995240
951.892021	0.994529
952.192917	0.995582
952.493776	0.994613
952.794596	0.993550
953.095378	0.993397
953.396122	0.993725
953.696828	0.994044
953.997496	0.995417
954.298126	0.997094
954.598718	0.995682
954.899272	0.996423
955.199788	0.997037
955.500266	0.998214
955.800706	0.997761
956.101108	0.998302
956.401472	1.000254
956.701798	0.999646
957.002087	0.998583
957.302337	0.999274
957.602550	0.999509
957.902724	1.000944
958.202861	1.000893
958.502960	1.000756
958.803022	1.000978
959.103045	1.001978
959.403031	1.003315
959.702979	1.001750
960.002889	1.002809
960.302762	1.001013
960.602596	1.002510
960.902393	1.002218
961.202153	1.003394
961.501875	1.003384
961.801559	1.002527
962.101205	1.001365
962.400814	1.003055
962.700385	1.002543
962.999918	1.001824
963.299414	1.002322
963.598873	1.003196
963.898293	1.002524
964.197677	1.002348
964.497022	1.002441
964.796331	1.002596
965.095601	1.003696
965.394835	1.002678
965.694030	1.004237
965.993189	1.003087
966.292309	1.003919
966.591393	1.002213
966.890439	1.002447
967.189447	1.002453
967.488419	1.002758
967.787353	1.003257
968.086249	1.003147
968.385108	1.002351
968.683930	1.003390
968.982714	1.003084
969.281462	1.003164
969.580172	1.002515
969.878844	1.004572
970.177480	1.002275
970.476078	1.003387
970.774639	1.002485
971.073162	1.001976
971.371649	1.002800
971.670098	1.002519
971.968510	1.002857
972.266885	1.001033
972.565223	1.002909
972.863524	1.003047
973.161788	1.001077
973.460014	1.003487
973.758204	1.001425
974.056356	1.002475
974.354471	1.002711
974.652550	1.004063
974.950591	1.002179
975.248595	1.001800
975.546563	1.003422
975.844493	1.003496
976.142386	1.001682
976.440243	1.003214
976.738062	1.004356
977.035845	1.002532
977.333590	1.003416
977.631299	1.002147
977.928971	1.003967
978.226606	1.003509
978.524204	1.001905
978.821765	1.004023
979.119290	1.005052
979.416777	1.003860
979.714228	1.003110
980.011642	1.003397
980.309020	1.003431
980.606360	1.003194
980.903664	1.002964
981.200931	1.002197
981.498162	1.001657
981.795356	1.000814
982.092513	1.000624
982.389633	1.000050
982.686717	0.996443
982.983764	0.997229
983.280775	0.996222
983.577749	0.996967
983.874686	0.996914
984.171587	0.997906
984.468451	0.999183
984.765279	1.002036
985.062070	1.000692
985.358824	1.001272
985.655543	1.002671
985.952224	1.002538
986.248869	1.001915
986.545478	1.003791
986.842050	1.003208
987.138586	1.003151
987.435086	1.003375
987.731549	1.005794
988.027975	1.005191
988.324366	1.003904
988.620719	1.004385
988.917037	1.003903
989.213318	1.005455
989.509563	1.004402
989.805772	1.005461
990.101944	1.005090
990.398080	1.004004
990.694180	1.004503
990.990244	1.003942
991.286271	1.004404
991.582262	1.005103
991.878217	1.003729
992.174136	1.004939
992.470019	1.004300
992.765865	1.005626
993.061676	1.005117
993.357450	1.004746
993.653188	1.005787
993.948890	1.003872
994.244556	1.003344
994.540186	1.004016
994.835780	1.004283
995.131337	1.004148
995.426859	1.003282
995.722345	1.002952
996.017795	1.002398
996.313208	1.002626
996.608586	1.001954
996.903928	1.003370
997.199234	1.003745
997.494504	1.003267
997.789738	1.001450
998.084936	1.003878
998.380099	1.001794
998.675225	1.004915
998.970316	1.003318
999.265371	1.003727
999.560390	1.004381
999.855373	1.003974
1000.150320	1.003835
1000.445232	1.005342
1000.740108	1.005132
1001.034948	1.004393
1001.329752	1.005368
1001.624521	1.004907
1001.919254	1.004523
1002.213951	1.005149
1002.508613	1.003496
1002.803239	1.004777
1003.097829	1.005718
1003.392384	1.004629
1003.686903	1.005553
1003.981386	1.004054
1004.275834	1.006834
1004.570246	1.003756
1004.864623	1.004892
1005.158964	1.005281
1005.453270	1.004426
1005.747540	1.005692
1006.041775	1.005794
1006.335974	1.004686
1006.630138	1.006627
1006.924266	1.004526
1007.218359	1.004301
1007.512416	1.006083
1007.806438	1.004003
1008.100425	1.006492
1008.394376	1.006018
1008.688292	1.004556
1008.982172	1.005033
1009.276017	1.006377
1009.569827	1.005905
1009.863602	1.003762
1010.157341	1.005469
1010.451045	1.003950
1010.744714	1.006981
1011.038347	1.005376
1011.331945	1.004523
1011.625508	1.004725
1011.919036	1.004901
1012.212528	1.005489
1012.505986	1.004993
1012.799408	1.005602
1013.092795	1.005650
1013.386147	1.005717
1013.679464	1.005697
1013.972745	1.005075
1014.265992	1.005428
1014.559204	1.004198
1014.852380	1.006624
1015.145521	1.004905
1015.438628	1.005484
1015.731699	1.005830
1016.024736	1.005552
1016.317737	1.006013
1016.610703	1.006310
1016.903635	1.006207
1017.196531	1.005411
1017.489393	1.005183
1017.782219	1.004782
1018.075011	1.006277
1018.367768	1.005178
1018.660490	1.004208
1018.953177	1.004208
1019.245829	1.004208
