Dividing Wavelength (nm)	Counts (n)	Blue Motor Position (mm): 40.400000	Red Motor Position (mm): 0.000000	
326.493990	0.999211
326.888308	0.999211
327.282561	0.999211
327.676750	1.000084
328.070874	1.000869
328.464933	1.001023
328.858929	1.000191
329.252859	1.000174
329.646726	0.998951
330.040528	0.999684
330.434265	0.999795
330.827938	0.998629
331.221547	0.999136
331.615091	0.999983
332.008571	1.001293
332.401986	0.999661
332.795338	0.999830
333.188625	1.000709
333.581847	0.998487
333.975006	1.000215
334.368100	1.000481
334.761129	0.999210
335.154095	0.999774
335.546996	0.999472
335.939833	0.998449
336.332606	1.000666
336.725315	0.999162
337.117960	1.000568
337.510540	0.998688
337.903056	0.999661
338.295508	1.000706
338.687896	1.000280
339.080220	0.999902
339.472480	0.999430
339.864676	1.000087
340.256807	0.999205
340.648875	0.999834
341.040879	1.000401
341.432818	1.000411
341.824694	0.999873
342.216506	1.000770
342.608253	0.998391
342.999937	0.999438
343.391557	0.999006
343.783113	1.000560
344.174605	0.998899
344.566033	0.999045
344.957397	1.000485
345.348697	1.000163
345.739934	1.000479
346.131106	1.000868
346.522215	0.999556
346.913260	1.000311
347.304241	0.998946
347.695159	0.999642
348.086012	0.998587
348.476802	1.000223
348.867528	0.998842
349.258191	0.999435
349.648789	0.998309
350.039324	0.999982
350.429796	0.999002
350.820203	0.998621
351.210548	0.998197
351.600828	0.999502
351.991045	0.998615
352.381198	0.999724
352.771288	0.999911
353.161314	0.998583
353.551276	0.999096
353.941175	0.998121
354.331010	0.998788
354.720782	0.999035
355.110490	0.999370
355.500135	0.999672
355.889717	0.998722
356.279235	0.998932
356.668689	0.999877
357.058080	0.998540
357.447408	0.997605
357.836672	0.999112
358.225873	0.998853
358.615010	0.999137
359.004084	0.997963
359.393095	0.999042
359.782043	0.998918
360.170927	0.998618
360.559748	0.998480
360.948505	0.998422
361.337199	0.999113
361.725830	0.999081
362.114398	0.998483
362.502903	0.996739
362.891344	0.997964
363.279722	0.997683
363.668037	0.998356
364.056289	0.997623
364.444478	0.998503
364.832603	0.997556
365.220665	0.998383
365.608665	0.997045
365.996601	0.997003
366.384474	0.996649
366.772284	0.996712
367.160031	0.995739
367.547715	0.997221
367.935336	0.996044
368.322893	0.994389
368.710388	0.994335
369.097820	0.992478
369.485189	0.989591
369.872495	0.988675
370.259738	0.985938
370.646918	0.983743
371.034035	0.981065
371.421090	0.977414
371.808081	0.972978
372.195010	0.970953
372.581875	0.965783
372.968678	0.961498
373.355418	0.959175
373.742096	0.949921
374.128710	0.946202
374.515262	0.941960
374.901751	0.936411
375.288177	0.930603
375.674540	0.924488
376.060841	0.917744
376.447079	0.911588
376.833254	0.904604
377.219367	0.900951
377.605417	0.889062
377.991404	0.886157
378.377329	0.880152
378.763191	0.873227
379.148991	0.863187
379.534727	0.855820
379.920402	0.848651
380.306013	0.844713
380.691563	0.831415
381.077049	0.826074
381.462474	0.821962
381.847835	0.810401
382.233134	0.805577
382.618371	0.805388
383.003545	0.788952
383.388657	0.786985
383.773706	0.779012
384.158693	0.775017
384.543618	0.769564
384.928480	0.759854
385.313280	0.750847
385.698017	0.751142
386.082692	0.739356
386.467305	0.739281
386.851856	0.734309
387.236344	0.730534
387.620770	0.726170
388.005133	0.722857
388.389435	0.717915
388.773674	0.718484
389.157851	0.712783
389.541965	0.713562
389.926018	0.722858
390.310008	0.713494
390.693936	0.714166
391.077802	0.711130
391.461606	0.716531
391.845348	0.711644
392.229027	0.715859
392.612645	0.719195
392.996200	0.713280
393.379694	0.712729
393.763125	0.711185
394.146494	0.720972
394.529801	0.720955
394.913047	0.721472
395.296230	0.732904
395.679351	0.732980
396.062410	0.739591
396.445408	0.748031
396.828343	0.753387
397.211217	0.757338
397.594028	0.773588
397.976778	0.776487
398.359466	0.782117
398.742092	0.788507
399.124656	0.802330
399.507158	0.804113
399.889598	0.812025
400.271977	0.816406
400.654294	0.826698
401.036549	0.835404
401.418742	0.845122
401.800874	0.847772
402.182944	0.854148
402.564952	0.860242
402.946898	0.868504
403.328783	0.877486
403.710606	0.888308
404.092367	0.888301
404.474067	0.897364
404.855705	0.903002
405.237282	0.910493
405.618797	0.915060
406.000250	0.920293
406.381642	0.922912
406.762972	0.931155
407.144240	0.937541
407.525447	0.940346
407.906593	0.945553
408.287677	0.950701
408.668700	0.956376
409.049661	0.960046
409.430560	0.961882
409.811399	0.966337
410.192176	0.968308
410.572891	0.972683
410.953545	0.974342
411.334138	0.978315
411.714669	0.980362
412.095139	0.982938
412.475547	0.985611
412.855894	0.986839
413.236180	0.988736
413.616405	0.989762
413.996568	0.990245
414.376670	0.992036
414.756711	0.993201
415.136691	0.994259
415.516609	0.993437
415.896466	0.994879
416.276262	0.994926
416.655997	0.995854
417.035670	0.996714
417.415283	0.996317
417.794834	0.997496
418.174324	0.998292
418.553753	0.998082
418.933121	0.997985
419.312428	0.999617
419.691674	0.999245
420.070859	0.998626
420.449983	0.998335
420.829045	0.997934
421.208047	0.999774
421.586988	0.998794
421.965867	0.998038
422.344686	0.998573
422.723444	0.999198
423.102141	0.999144
423.480777	0.998230
423.859352	0.998944
424.237866	0.999517
424.616319	0.999895
424.994712	0.999552
425.373044	0.999392
425.751314	1.000079
426.129524	1.000550
426.507673	0.998895
426.885762	0.999388
427.263789	0.999638
427.641756	0.999745
428.019662	0.999480
428.397508	1.000680
428.775292	0.998945
429.153016	1.000034
429.530679	0.999648
429.908282	1.000840
430.285824	0.999121
430.663305	1.000464
431.040726	1.000121
431.418086	1.000189
431.795385	1.000180
432.172624	1.000896
432.549802	0.999618
432.926920	1.000100
433.303977	1.000225
433.680974	1.000542
434.057910	1.000880
434.434786	0.999667
434.811601	1.000045
435.188355	1.000592
435.565050	1.000381
435.941683	0.998931
436.318257	0.998721
436.694770	0.999350
437.071222	1.001019
437.447614	0.999597
437.823946	0.999765
438.200218	1.000128
438.576429	0.999809
438.952580	0.999872
439.328670	0.999100
439.704700	0.999001
440.080670	1.000718
440.456580	0.999952
440.832429	0.999876
441.208218	1.000564
441.583947	0.999593
441.959616	0.999168
442.335224	1.000325
442.710773	1.000556
443.086261	1.000580
443.461689	1.000078
443.837057	1.000074
444.212365	1.000333
444.587612	1.001234
444.962800	1.000920
445.337927	1.000424
445.712995	0.999648
446.088002	0.999871
446.462949	1.000010
446.837837	1.001541
447.212664	1.000789
447.587431	1.000445
447.962139	0.999697
448.336786	0.999843
448.711374	1.000176
449.085901	0.999952
449.460369	1.000751
449.834776	0.999998
450.209124	1.000525
450.583412	1.000488
450.957640	0.999095
451.331808	1.000721
451.705917	0.999089
452.079965	1.000490
452.453954	1.001260
452.827883	1.000500
453.201752	1.000278
453.575562	0.999926
453.949311	1.000409
454.323001	0.999560
454.696632	1.000208
455.070202	1.000336
455.443713	1.000116
455.817164	1.000150
456.190556	0.999875
456.563888	1.000332
456.937160	0.999702
457.310373	1.000457
457.683526	1.000237
458.056619	1.000055
458.429653	1.000071
458.802628	1.000445
459.175542	1.000519
459.548398	1.000053
459.921194	1.000196
460.293930	1.001115
460.666607	0.999757
461.039224	1.000590
461.411782	0.999280
461.784280	1.000103
462.156719	1.001095
462.529099	1.000347
462.901419	1.000594
463.273680	0.999599
463.645882	0.999467
464.018024	1.000087
464.390106	1.000164
464.762130	0.999675
465.134094	1.000074
465.505999	0.999807
465.877845	0.999492
466.249631	0.999237
466.621358	0.998522
466.993026	0.999746
467.364634	1.000335
467.736184	0.999772
468.107674	1.000639
468.479105	1.000093
468.850477	1.000065
469.221790	1.000430
469.593043	1.000389
469.964238	1.000208
470.335373	0.999792
470.706449	0.999987
471.077467	1.000222
471.448425	1.000147
471.819324	1.000030
472.190164	0.999598
472.560945	1.000456
472.931667	1.000406
473.302330	1.000092
473.672934	1.000688
474.043479	1.000067
474.413965	1.000265
474.784393	1.000918
475.154761	1.000092
475.525070	1.000506
475.895321	1.000721
476.265513	1.000690
476.635645	0.999848
477.005719	0.999909
477.375734	0.999394
477.745691	0.999370
478.115588	0.999530
478.485427	1.000076
478.855207	1.000217
479.224928	0.999640
479.594591	0.999849
479.964194	1.000180
480.333739	0.999693
480.703226	0.999638
481.072653	0.999416
481.442022	0.999890
481.811333	0.999709
482.180584	1.000104
482.549777	0.999451
482.918912	1.000024
483.287988	1.000022
483.657005	0.999901
484.025964	1.000449
484.394864	0.999558
484.763706	1.000288
485.132489	0.999648
485.501213	0.999789
485.869879	1.000130
486.238487	0.999144
486.607036	1.000405
486.975527	1.000289
487.343959	0.999263
487.712333	1.000140
488.080648	0.999423
488.448905	0.999671
488.817104	1.000300
489.185244	0.999605
489.553326	1.000112
489.921350	0.999646
490.289315	1.000095
490.657222	0.998866
491.025070	1.000307
491.392861	0.999697
491.760593	1.000180
492.128267	0.999787
492.495883	0.998911
492.863440	1.000021
493.230939	0.999323
493.598380	1.001004
493.965763	0.999684
494.333088	0.999100
494.700354	0.999250
495.067563	0.999308
495.434713	1.000050
495.801805	0.999412
496.168839	1.000476
496.535815	1.000364
496.902733	0.999720
497.269593	0.999583
497.636395	0.999680
498.003139	0.999337
498.369825	1.000410
498.736453	1.000008
499.103023	1.000139
499.469535	1.000247
499.835989	1.000166
500.202385	1.000199
500.568723	1.000426
500.935003	0.999974
501.301226	1.000170
501.667390	0.999708
502.033497	0.999487
502.399546	0.999590
502.765537	0.999520
503.131470	1.000486
503.497345	0.999840
503.863163	1.000311
504.228923	0.999983
504.594625	1.000428
504.960269	0.999940
505.325856	1.000655
505.691385	1.000318
506.056856	1.000088
506.422270	1.000275
506.787625	1.000045
507.152924	1.000203
507.518164	0.999930
507.883347	0.999777
508.248472	1.000505
508.613540	0.999666
508.978550	0.999843
509.343503	0.999880
509.708398	1.001052
510.073236	1.000146
510.438016	0.999633
510.802738	1.000054
511.167403	0.999641
511.532010	1.000854
511.896561	0.999718
512.261053	0.999562
512.625488	0.999781
512.989866	0.999912
513.354186	0.999254
513.718449	1.000306
514.082655	0.999191
514.446803	1.000096
514.810894	0.999900
515.174927	1.000034
515.538904	0.999561
515.902822	0.999851
516.266684	1.000325
516.630488	1.000179
516.994235	1.000564
517.357925	1.000822
517.721558	0.999774
518.085133	0.999449
518.448651	1.000085
518.812112	1.000282
519.175516	0.999922
519.538863	0.999927
519.902152	1.000445
520.265385	0.999635
520.628560	0.999940
520.991678	0.999908
521.354739	1.000641
521.717743	1.000207
522.080690	0.999343
522.443580	1.000126
522.806413	0.999258
523.169189	1.000362
523.531908	0.999532
523.894569	1.000791
524.257174	0.999937
524.619722	1.000291
524.982213	1.000739
525.344647	0.999595
525.707025	0.999642
526.069345	0.999823
526.431608	1.000337
526.793815	1.000406
527.155964	1.000845
527.518057	1.000475
527.880093	1.000213
528.242072	1.000329
528.603995	0.999720
528.965860	0.999899
529.327669	1.000315
529.689421	1.000025
530.051117	1.000491
530.412755	1.000536
530.774337	1.000010
531.135862	1.000274
531.497331	0.999872
531.858743	1.000643
532.220098	1.000118
532.581396	1.000613
532.942638	1.000340
533.303824	1.001137
533.664953	0.999992
534.026025	1.001248
534.387040	1.000731
534.747999	1.000206
535.108902	0.999850
535.469748	1.000321
535.830537	1.000908
536.191270	1.000181
536.551947	1.000262
536.912567	1.000933
537.273131	1.001001
537.633638	0.999958
537.994089	1.000475
538.354483	0.999716
538.714821	1.000389
539.075103	1.000450
539.435328	1.000893
539.795497	1.000137
540.155609	1.000489
540.515665	1.000247
540.875665	0.999882
541.235609	1.000448
541.595496	0.999533
541.955328	1.000144
542.315102	1.000615
542.674821	1.000474
543.034483	1.000543
543.394090	0.999786
543.753640	1.000084
544.113134	1.000249
544.472571	1.000529
544.831953	1.000186
545.191278	1.000737
545.550548	0.999389
545.909761	1.000533
546.268918	1.001083
546.628019	1.000760
546.987064	1.000044
547.346053	1.000170
547.704986	0.999569
548.063863	0.999699
548.422684	1.000165
548.781449	1.000177
549.140158	0.999849
549.498811	1.000631
549.857408	0.999860
550.215949	0.999776
550.574434	0.999799
550.932864	1.000259
551.291237	0.999809
551.649555	1.000897
552.007817	1.000519
552.366022	1.000467
552.724173	1.000553
553.082267	1.000760
553.440305	1.000323
553.798288	0.999583
554.156215	1.000008
554.514086	0.999830
554.871902	1.000107
555.229661	0.999164
555.587365	1.000903
555.945014	1.000963
556.302606	1.000422
556.660143	1.000712
557.017625	1.000998
557.375050	0.999560
557.732421	1.000438
558.089735	0.999903
558.446994	0.999463
558.804197	1.000131
559.161345	0.999451
559.518437	1.000004
559.875474	1.000387
560.232455	1.000381
560.589381	1.000487
560.946251	0.999351
561.303065	1.000442
561.659825	0.999890
562.016528	1.001033
562.373177	1.000158
562.729770	0.999915
563.086307	0.999489
563.442789	1.000486
563.799216	1.000087
564.155587	1.000386
564.511904	1.000177
564.868164	0.999086
565.224370	1.000503
565.580520	1.000474
565.936615	1.000623
566.292654	1.000552
566.648638	1.000799
567.004567	0.999908
567.360441	1.000692
567.716260	1.000294
568.072023	0.999852
568.427732	1.000601
568.783385	0.999385
569.138982	1.000670
569.494525	0.999751
569.850013	1.000729
570.205445	1.001083
570.560823	1.000695
570.916145	1.000326
571.271412	1.000004
571.626625	1.001060
571.981782	1.000550
572.336884	1.000390
572.691931	1.000336
573.046923	1.000769
573.401860	1.000515
573.756743	1.000353
574.111570	0.999423
574.466342	1.001177
574.821059	0.999813
575.175722	1.000498
575.530330	0.999816
575.884882	1.000143
576.239380	1.000700
576.593823	0.999904
576.948211	1.000123
577.302544	0.999922
577.656823	1.000890
578.011047	1.000033
578.365216	1.000690
578.719330	0.999952
579.073389	0.999577
579.427394	0.999696
579.781344	1.000546
580.135239	0.999478
580.489080	0.999822
580.842866	1.000273
581.196597	1.000771
581.550273	0.999956
581.903895	1.000294
582.257463	0.999939
582.610975	0.999903
582.964434	1.000281
583.317837	1.000303
583.671186	1.000200
584.024481	0.999890
584.377721	1.000024
584.730906	1.000594
585.084037	1.000499
585.437113	1.000860
585.790135	1.000145
586.143103	1.000193
586.496016	1.000703
586.848874	1.000462
587.201679	1.000346
587.554428	0.999982
587.907124	1.000382
588.259765	1.000792
588.612352	1.000010
588.964884	1.000678
589.317362	1.000183
589.669786	1.000276
590.022155	0.999492
590.374470	1.000059
590.726731	0.999591
591.078937	0.999824
591.431090	1.000129
591.783188	0.999969
592.135232	1.000919
592.487222	1.000508
592.839157	0.999973
593.191038	1.000669
593.542866	1.000098
593.894639	0.999647
594.246358	1.000932
594.598022	1.000324
594.949633	1.000448
595.301190	1.000208
595.652692	1.000383
596.004141	0.999913
596.355535	1.000179
596.706876	1.000709
597.058162	1.000716
597.409395	1.000630
597.760573	1.000414
598.111698	1.000306
598.462768	0.999456
598.813785	0.999807
599.164748	0.999470
599.515657	1.000357
599.866511	1.000239
600.217312	1.000979
600.568060	1.000321
600.918753	1.000396
601.269392	1.000560
601.619978	1.000609
601.970510	1.000111
602.320988	1.000269
602.671412	0.999888
603.021783	1.000412
603.372100	1.000820
603.722363	1.001066
604.072572	0.999366
604.422728	1.000315
604.772830	0.999801
605.122878	1.000429
605.472872	1.001017
605.822813	0.999727
606.172701	1.000223
606.522534	1.000217
606.872314	1.001226
607.222041	0.999979
607.571714	1.000500
607.921333	0.999756
608.270899	0.999698
608.620411	1.000290
608.969870	1.000208
609.319276	1.000136
609.668627	1.000149
610.017926	1.000642
610.367171	1.000317
610.716362	0.999952
611.065500	1.000134
611.414585	1.000185
611.763616	0.999922
612.112594	1.000265
612.461518	0.999284
612.810389	1.000036
613.159207	0.999823
613.507971	0.999420
613.856682	1.001193
614.205340	0.999602
614.553945	1.000140
614.902496	0.999499
615.250994	1.000064
615.599439	1.000255
615.947830	0.999842
616.296169	1.000525
616.644454	1.000029
616.992686	1.000272
617.340864	1.000473
617.688990	0.999930
618.037063	1.000147
618.385082	0.999432
618.733048	0.998499
619.080961	1.000091
619.428821	1.000536
619.776628	0.998604
620.124382	1.000547
620.472083	1.000184
620.819731	1.000346
621.167326	1.000616
621.514868	1.000012
621.862357	1.000083
622.209793	0.999608
622.557176	0.999958
622.904506	1.000094
623.251783	0.999602
623.599007	1.000104
623.946179	0.999288
624.293297	1.000058
624.640363	1.000850
624.987376	0.998839
625.334336	0.999365
625.681243	0.999902
626.028097	1.000006
626.374899	0.999947
626.721647	1.000794
627.068343	0.999433
627.414987	1.000088
627.761577	0.999145
628.108115	0.999477
628.454600	0.999960
628.801032	0.999715
629.147412	0.999796
629.493739	1.000722
629.840014	0.999285
630.186236	0.999538
630.532405	1.000329
630.878521	0.999540
631.224585	0.999387
631.570597	0.999227
631.916556	1.000079
632.262462	0.998665
632.608316	1.000534
632.954117	0.999349
633.299866	0.999504
633.645562	1.000215
633.991206	1.000746
634.336797	1.000196
634.682336	1.000497
635.027823	0.999545
635.373257	0.999998
635.718639	1.000168
636.063968	0.999849
636.409245	0.999418
636.754470	0.999871
637.099642	0.999789
637.444762	1.000202
637.789829	0.999621
638.134845	0.999996
638.479808	0.999479
638.824719	1.000039
639.169577	0.999059
639.514383	0.999763
639.859137	0.999912
640.203839	1.000638
640.548489	0.999262
640.893086	1.000044
641.237632	0.999653
641.582125	0.999664
641.926566	1.000168
642.270955	1.000078
642.615292	0.999952
642.959576	1.000011
643.303809	1.000242
643.647990	0.999519
643.992118	0.999964
644.336195	0.999560
644.680219	1.000162
645.024192	0.999372
645.368112	0.998829
645.711981	0.999348
646.055797	0.999781
646.399562	0.998921
646.743274	0.999724
647.086935	0.999192
647.430544	0.998815
647.774101	0.998835
648.117606	0.999557
648.461059	0.999729
648.804460	0.999561
649.147810	0.999100
649.491108	0.998924
649.834354	0.999428
650.177548	1.000251
650.520690	1.000177
650.863781	0.999280
651.206820	1.000141
651.549807	0.999543
651.892742	0.999945
652.235626	0.999854
652.578458	0.999462
652.921238	1.000101
653.263967	0.999497
653.606644	0.999592
653.949269	1.000547
654.291843	0.998331
654.634365	0.999946
654.976836	0.999072
655.319255	1.000041
655.661622	0.999913
656.003938	0.999030
656.346203	0.999035
656.688416	1.000709
657.030577	0.999620
657.372687	0.999929
657.714746	0.999103
658.056753	0.998989
658.398708	0.998981
658.740612	0.999716
659.082465	0.999255
659.424266	0.999548
659.766016	0.999029
660.107715	1.000039
660.449362	0.999467
660.790958	0.998406
661.132503	0.999946
661.473996	0.998796
661.815438	0.999635
662.156829	0.999548
662.498168	0.999481
662.839456	0.998448
663.180693	0.999535
663.521879	0.999367
663.863013	1.000060
664.204097	0.999293
664.545129	0.999099
664.886110	0.999508
665.227040	0.999107
665.567918	0.999516
665.908746	0.998411
666.249522	0.999010
666.590248	0.998814
666.930922	0.999307
667.271545	0.999620
667.612118	0.998458
667.952639	0.999599
668.293109	0.999026
668.633528	0.998823
668.973896	0.999714
669.314213	0.998783
669.654480	0.998644
669.994695	0.998466
670.334859	0.999040
670.674973	0.998890
671.015035	0.999535
671.355047	0.998513
671.695008	0.998136
672.034918	0.998799
672.374777	0.998553
672.714585	0.999599
673.054342	0.999136
673.394049	0.998621
673.733705	0.998889
674.073310	0.998530
674.412864	0.998047
674.752368	0.998010
675.091820	1.000033
675.431223	0.999339
675.770574	0.998315
676.109875	0.998897
676.449125	0.999154
676.788324	0.998707
677.127473	1.000112
677.466571	0.999123
677.805619	0.999057
678.144616	0.999382
678.483562	0.999821
678.822458	0.998771
679.161303	0.998574
679.500098	0.999173
679.838842	0.999031
680.177535	0.998430
680.516179	0.997845
680.854771	0.998156
681.193314	0.999199
681.531805	0.999126
681.870247	0.998530
682.208638	0.999001
682.546978	0.998124
682.885268	0.999006
683.223508	0.998383
683.561697	0.998646
683.899836	0.998142
684.237925	0.998403
684.575963	0.998979
684.913951	0.998205
685.251889	0.997780
685.589776	0.998086
685.927614	0.998262
686.265401	0.998676
686.603137	0.998100
686.940824	0.998723
687.278460	0.998588
687.616046	0.997602
687.953582	0.998426
688.291068	0.998537
688.628504	0.997815
688.965889	0.998011
689.303224	0.996636
689.640510	0.998080
689.977745	0.998145
690.314930	0.998781
690.652065	0.998694
690.989150	0.997615
691.326185	0.998924
691.663170	0.998488
692.000105	0.998539
692.336990	0.998155
692.673825	0.998414
693.010610	0.998909
693.347345	0.998995
693.684030	0.998363
694.020665	0.998112
694.357251	0.996995
694.693786	0.998393
695.030272	0.998104
695.366707	0.997706
695.703093	0.998714
696.039429	0.998081
696.375716	0.998385
696.711952	0.998017
697.048139	0.998996
697.384276	0.998997
697.720363	0.997485
698.056400	0.997210
698.392388	0.997406
698.728326	0.997986
699.064214	0.998778
699.400053	0.998208
699.735842	0.998706
700.071581	0.998308
700.407270	0.998005
700.742910	0.998005
701.078501	0.997953
701.414042	0.998920
701.749533	0.997519
702.084974	0.998816
702.420366	0.997789
702.755709	0.997768
703.091002	0.998298
703.426246	0.998367
703.761440	0.997243
704.096584	0.997618
704.431679	0.997838
704.766725	0.997994
705.101721	0.998526
705.436668	0.998277
705.771565	0.998169
706.106413	0.997475
706.441212	0.998070
706.775961	0.998119
707.110661	0.997519
707.445311	0.998282
707.779913	0.998621
708.114465	0.999103
708.448967	0.998111
708.783421	0.998844
709.117825	0.998181
709.452180	0.997740
709.786485	0.998056
710.120742	0.996794
710.454949	0.997377
710.789107	0.998287
711.123216	0.997041
711.457275	0.996984
711.791286	0.996779
712.125247	0.999188
712.459159	0.996643
712.793023	0.997974
713.126837	0.997948
713.460602	0.996999
713.794318	0.996735
714.127985	0.997349
714.461602	0.997677
714.795171	0.997304
715.128691	0.998049
715.462162	0.998342
715.795584	0.998365
716.128957	0.998269
716.462281	0.998422
716.795556	0.997683
717.128782	0.998931
717.461960	0.997147
717.795088	0.997125
718.128167	0.999083
718.461198	0.998261
718.794180	0.998873
719.127113	0.998394
719.459997	0.997813
719.792833	0.998215
720.125619	0.997265
720.458357	0.998601
720.791046	0.997756
721.123686	0.997932
721.456278	0.998639
721.788821	0.997650
722.121315	0.998739
722.453761	0.998051
722.786158	0.997158
723.118506	0.998336
723.450805	0.997319
723.783056	0.998603
724.115259	0.997170
724.447412	0.997949
724.779518	0.997874
725.111574	0.997468
725.443582	0.998362
725.775542	0.998300
726.107453	0.998370
726.439315	0.998487
726.771129	0.998246
727.102895	0.997406
727.434612	0.997771
727.766281	0.997504
728.097901	0.997944
728.429473	0.997963
728.760996	0.997133
729.092471	0.997339
729.423897	0.997683
729.755276	0.997216
730.086606	0.996779
730.417887	0.998102
730.749120	0.998185
731.080305	0.997019
731.411442	0.997049
731.742530	0.997426
732.073570	0.996672
732.404562	0.997414
732.735506	0.996989
733.066401	0.997360
733.397249	0.997059
733.728048	0.998053
734.058798	0.998028
734.389501	0.998494
734.720156	0.998459
735.050762	0.997695
735.381320	0.997461
735.711831	0.996716
736.042293	0.997938
736.372707	0.998200
736.703073	0.997702
737.033391	0.997585
737.363661	0.997962
737.693883	0.997543
738.024056	0.997627
738.354182	0.997188
738.684260	0.997930
739.014290	0.996947
739.344272	0.998231
739.674207	0.997232
740.004093	0.997462
740.333931	0.997881
740.663722	0.996718
740.993464	0.998847
741.323159	0.997422
741.652806	0.998376
741.982405	0.997632
742.311956	0.998125
742.641460	0.998394
742.970915	0.997956
743.300323	0.997024
743.629683	0.998265
743.958996	0.998295
744.288260	0.997206
744.617477	0.997275
744.946647	0.998131
745.275768	0.997824
745.604842	0.997684
745.933869	0.997513
746.262847	0.998298
746.591778	0.996817
746.920662	0.998398
747.249498	0.998434
747.578286	0.999113
747.907027	0.998530
748.235720	0.998693
748.564365	0.998201
748.892963	0.997326
749.221514	0.997983
749.550017	0.997310
749.878473	0.998068
750.206881	0.998601
750.535242	0.997570
750.863555	0.997950
751.191821	0.997974
751.520039	0.998694
751.848210	0.997020
752.176334	0.997956
752.504411	0.998134
752.832440	0.996605
753.160421	0.997779
753.488356	0.996899
753.816243	0.997460
754.144082	0.997373
754.471875	0.997342
754.799620	0.997918
755.127318	0.998583
755.454969	0.997889
755.782572	0.998658
756.110129	0.997498
756.437638	0.999160
756.765100	0.998710
757.092515	0.996716
757.419882	0.997780
757.747203	0.996605
758.074477	0.998223
758.401703	0.997938
758.728882	0.997670
759.056014	0.997320
759.383099	0.998258
759.710138	0.997759
760.037129	0.997416
760.364073	0.998131
760.690970	0.997784
761.017820	0.997519
761.344623	0.998366
761.671379	0.997883
761.998088	0.998196
762.324751	0.997730
762.651366	0.997150
762.977935	0.995776
763.304456	0.996896
763.630931	0.995265
763.957359	0.995866
764.283740	0.995563
764.610074	0.996533
764.936362	0.997420
765.262602	0.996608
765.588796	0.997890
765.914943	0.997319
766.241044	0.997697
766.567097	0.998241
766.893104	0.997682
767.219064	0.997073
767.544978	0.997036
767.870845	0.998101
768.196665	0.997780
768.522438	0.998625
768.848165	0.998781
769.173846	0.998000
769.499479	0.999203
769.825066	0.999350
770.150607	0.998826
770.476101	0.998064
770.801548	0.998059
771.126949	0.998848
771.452303	0.999185
771.777611	0.997962
772.102872	0.998072
772.428087	0.997565
772.753256	0.998344
773.078378	0.998714
773.403453	0.998081
773.728482	0.999652
774.053465	0.998001
774.378401	0.997919
774.703291	0.998828
775.028135	0.999708
775.352932	0.997359
775.677683	0.998090
776.002388	0.999588
776.327046	0.998459
776.651658	0.999829
776.976224	0.998125
777.300743	0.998065
777.625216	0.998315
777.949643	0.998728
778.274024	0.997893
778.598359	0.999498
778.922647	0.998029
779.246889	0.998767
779.571086	0.998766
779.895236	0.999363
780.219339	0.999548
780.543397	0.998168
780.867409	0.998816
781.191374	0.998433
781.515294	0.998843
781.839167	0.998824
782.162995	0.998303
782.486776	0.998401
782.810511	0.999082
783.134201	0.999447
783.457844	0.998394
783.781441	0.998650
784.104993	0.997630
784.428498	0.999202
784.751958	0.999244
785.075372	0.999106
785.398739	0.999157
785.722061	0.997710
786.045337	0.998876
786.368568	0.998672
786.691752	0.999446
787.014891	0.997456
787.337983	0.997481
787.661030	0.998338
787.984031	0.998607
788.306987	0.998556
788.629897	0.996926
788.952760	0.998447
789.275579	0.998718
789.598351	0.998078
789.921078	1.000025
790.243759	0.998827
790.566395	0.997252
790.888984	0.999558
791.211529	0.998449
791.534027	0.998861
791.856480	0.998300
792.178888	0.999112
792.501249	0.998225
792.823566	0.999777
793.145836	0.998073
793.468062	0.998656
793.790241	0.999481
794.112375	0.997451
794.434464	0.997744
794.756507	0.998098
795.078505	0.998804
795.400457	0.998827
795.722364	0.998273
796.044226	0.999187
796.366042	0.997590
796.687812	0.997174
797.009538	0.998450
797.331218	0.999122
797.652852	0.999474
797.974442	0.997197
798.295986	0.998347
798.617484	0.997875
798.938938	0.998606
799.260346	0.997954
799.581709	0.998230
799.903026	0.998978
800.224299	0.997250
800.545526	0.998207
800.866708	0.997800
801.187845	0.998587
801.508936	0.999059
801.829983	0.998101
802.150984	0.999448
802.471940	0.999269
802.792851	0.998070
803.113717	0.999253
803.434538	0.999127
803.755314	0.998853
804.076045	0.998921
804.396731	0.998588
804.717372	0.997285
805.037967	0.998896
805.358518	0.998902
805.679024	0.997872
805.999485	0.999516
806.319901	0.998597
806.640272	0.999726
806.960598	0.999530
807.280879	0.998316
807.601115	0.999056
807.921306	0.999296
808.241453	0.998901
808.561554	0.998942
808.881611	0.998850
809.201623	0.999075
809.521590	0.998203
809.841513	0.998538
810.161390	0.997677
810.481223	0.998638
810.801011	0.998657
811.120755	0.999582
811.440453	0.998521
811.760107	0.998955
812.079716	0.998538
812.399281	0.998377
812.718801	0.997620
813.038276	0.998403
813.357707	0.998823
813.677093	0.999626
813.996434	0.998908
814.315731	0.999472
814.634983	0.999405
814.954191	0.999400
815.273354	0.998164
815.592473	0.998839
815.911547	0.999290
816.230577	0.998133
816.549562	0.999590
816.868502	0.997396
817.187399	0.999769
817.506250	0.998631
817.825058	0.997627
818.143821	0.998299
818.462539	0.998565
818.781213	0.999283
819.099843	0.999380
819.418429	0.998318
819.736970	0.997169
820.055466	0.996904
820.373919	0.997505
820.692327	0.996410
821.010691	0.997524
821.329011	0.994720
821.647286	0.993617
821.965517	0.993088
822.283704	0.992466
822.601847	0.992201
822.919945	0.992159
823.237999	0.992990
823.556010	0.992788
823.873976	0.993360
824.191897	0.994433
824.509775	0.995696
824.827609	0.995294
825.145398	0.996546
825.463144	0.994444
825.780845	0.995589
826.098502	0.996136
826.416116	0.995776
826.733685	0.995230
827.051210	0.993007
827.368692	0.994130
827.686129	0.994176
828.003522	0.996859
828.320872	0.995930
828.638177	0.996061
828.955439	0.998009
829.272656	0.997830
829.589830	0.998370
829.906960	0.998355
830.224046	0.997419
830.541088	0.997288
830.858086	0.997648
831.175041	0.999346
831.491952	0.998195
831.808819	0.997710
832.125642	0.998282
832.442421	0.999507
832.759157	0.999031
833.075849	0.997861
833.392497	0.996489
833.709101	0.995899
834.025662	0.996245
834.342179	0.996432
834.658653	0.997713
834.975083	0.997211
835.291469	0.998552
835.607811	0.997589
835.924110	0.998322
836.240366	0.999242
836.556578	0.998460
836.872746	0.998457
837.188871	0.998698
837.504952	0.997415
837.820990	0.998704
838.136984	0.998333
838.452935	0.998302
838.768842	0.998730
839.084706	0.997539
839.400526	0.998920
839.716303	0.997464
840.032037	0.997976
840.347727	0.997840
840.663373	0.997854
840.978977	0.997502
841.294537	0.999291
841.610054	0.999061
841.925527	0.999523
842.240957	0.998962
842.556344	0.998225
842.871687	0.999028
843.186987	0.998506
843.502244	0.999150
843.817458	0.998916
844.132629	0.998952
844.447756	0.999210
844.762840	0.999658
845.077881	0.999569
845.392879	0.998208
845.707833	0.998582
846.022745	1.000341
846.337613	0.999104
846.652438	0.998487
846.967221	0.998853
847.281960	0.999446
847.596656	0.998713
847.911309	0.999339
848.225919	0.998919
848.540485	0.999878
848.855009	1.000252
849.169490	0.999009
849.483928	0.999961
849.798323	0.998271
850.112675	1.000104
850.426984	0.999475
850.741251	0.999775
851.055474	0.998624
851.369654	1.000568
851.683792	0.998207
851.997887	0.998394
852.311938	0.999287
852.625947	0.998547
852.939914	0.998966
853.253837	1.000157
853.567718	1.000457
853.881555	0.999911
854.195350	1.000165
854.509103	1.000353
854.822812	1.000422
855.136479	0.999026
855.450103	0.999231
855.763685	0.998365
856.077224	0.999532
856.390720	0.999721
856.704173	1.000113
857.017584	0.999855
857.330953	0.999827
857.644278	0.999011
857.957561	1.000072
858.270802	0.999603
858.584000	0.999610
858.897155	0.997815
859.210268	0.998999
859.523339	0.999497
859.836367	0.998932
860.149352	0.998602
860.462295	0.999239
860.775195	0.999193
861.088054	0.998680
861.400869	0.998801
861.713642	0.999037
862.026373	1.000060
862.339062	0.999990
862.651708	0.999351
862.964312	0.999316
863.276873	0.998883
863.589392	0.999707
863.901869	0.998500
864.214303	0.999299
864.526696	1.000295
864.839045	0.999015
865.151353	0.998888
865.463619	0.999130
865.775842	0.999230
866.088023	0.999650
866.400162	0.999940
866.712258	0.999758
867.024313	0.999162
867.336325	1.000417
867.648296	0.999776
867.960224	0.999302
868.272110	1.000214
868.583954	0.999124
868.895755	1.000054
869.207515	0.999391
869.519233	1.000089
869.830909	0.998915
870.142542	0.997786
870.454134	0.998979
870.765684	0.998325
871.077191	1.000067
871.388657	0.998489
871.700081	1.000572
872.011463	0.999741
872.322803	0.999634
872.634101	0.998741
872.945357	0.998956
873.256571	0.998135
873.567744	0.998408
873.878874	1.000252
874.189963	0.999748
874.501010	1.000569
874.812015	0.999831
875.122979	0.999020
875.433900	0.999328
875.744780	0.999524
876.055618	0.998892
876.366415	0.998736
876.677169	0.998452
876.987882	0.998831
877.298554	1.000494
877.609183	0.999269
877.919771	0.999728
878.230317	0.999657
878.540822	0.998342
878.851285	0.999566
879.161707	0.998008
879.472087	0.999587
879.782425	0.997806
880.092722	0.997715
880.402977	0.995192
880.713191	0.994893
881.023363	0.994255
881.333494	0.994287
881.643583	0.994395
881.953631	0.993369
882.263637	0.993813
882.573602	0.995029
882.883526	0.994546
883.193408	0.996431
883.503248	0.995187
883.813048	0.995664
884.122806	0.997557
884.432522	0.997053
884.742197	0.998154
885.051831	0.997327
885.361424	0.997485
885.670975	0.998488
885.980485	0.998461
886.289954	0.997944
886.599382	0.996583
886.908768	0.999144
887.218113	0.998393
887.527417	0.998180
887.836680	0.999175
888.145901	0.998853
888.455082	0.999318
888.764221	1.000117
889.073319	0.999402
889.382376	0.999420
889.691392	0.997775
890.000366	0.999048
890.309300	0.999825
890.618193	0.999686
890.927044	0.998133
891.235855	0.999281
891.544625	0.998931
891.853353	0.999709
892.162041	0.999051
892.470687	0.999725
892.779293	0.997835
893.087858	0.998158
893.396381	0.998480
893.704864	0.997183
894.013306	0.997261
894.321707	0.998445
894.630068	0.997154
894.938387	0.996740
895.246665	0.996622
895.554903	0.996794
895.863100	0.997812
896.171256	0.997602
896.479371	0.997196
896.787446	0.997876
897.095480	0.998073
897.403473	0.999473
897.711425	0.998348
898.019336	0.999411
898.327207	0.999124
898.635038	0.997361
898.942827	0.999528
899.250576	0.998536
899.558284	0.999652
899.865952	0.997562
900.173579	0.999920
900.481165	0.998542
900.788711	0.998320
901.096216	0.998472
901.403681	0.999816
901.711105	0.998046
902.018489	0.998708
902.325832	0.999741
902.633135	0.998667
902.940397	0.999933
903.247619	0.999272
903.554800	0.997679
903.861941	0.997492
904.169041	0.997783
904.476101	0.996318
904.783121	0.995662
905.090100	0.996572
905.397039	0.996467
905.703938	0.997481
906.010796	0.997198
906.317614	0.997285
906.624391	0.998296
906.931129	0.999691
907.237826	0.998598
907.544483	0.999061
907.851099	0.999189
908.157675	0.998967
908.464211	0.999082
908.770707	0.999425
909.077163	0.999250
909.383578	1.000056
909.689954	0.997159
909.996289	0.998971
910.302584	0.999291
910.608839	0.999452
910.915054	0.999324
911.221229	0.999957
911.527363	0.997885
911.833458	0.998838
912.139513	0.999064
912.445527	0.999707
912.751502	0.999474
913.057436	0.998741
913.363331	1.000293
913.669186	1.000970
913.975000	0.999176
914.280775	0.999708
914.586510	0.998476
914.892205	0.997689
915.197859	0.998112
915.503475	0.996910
915.809050	0.996588
916.114585	0.995393
916.420081	0.997863
916.725536	0.996706
917.030952	0.996413
917.336328	0.996730
917.641665	0.996656
917.946961	0.997096
918.252218	0.997140
918.557435	0.998025
918.862612	0.998214
919.167750	0.998597
919.472848	0.999158
919.777906	1.000130
920.082925	1.000238
920.387904	0.999604
920.692843	0.998819
920.997743	0.999546
921.302603	0.999291
921.607423	0.999328
921.912204	0.999664
922.216946	0.999720
922.521647	1.000416
922.826310	0.998386
923.130932	0.999735
923.435516	1.000207
923.740059	0.998641
924.044564	0.999197
924.349028	0.997937
924.653454	1.000247
924.957840	1.000054
925.262186	0.999300
925.566493	0.999408
925.870761	0.998856
926.174989	0.999720
926.479178	0.999906
926.783328	0.998633
927.087438	0.999934
927.391509	0.999030
927.695541	0.999846
927.999533	1.000275
928.303486	0.999372
928.607400	0.999757
928.911275	0.999615
929.215110	1.000242
929.518906	0.999715
929.822663	1.000345
930.126381	1.000673
930.430060	0.998708
930.733699	1.000778
931.037299	0.999579
931.340861	0.999478
931.644383	0.998955
931.947866	1.000403
932.251309	0.999702
932.554714	0.998638
932.858080	1.000214
933.161407	0.997524
933.464694	0.999315
933.767943	0.999623
934.071153	1.000368
934.374323	0.998852
934.677455	1.001162
934.980548	0.998638
935.283602	1.000938
935.586617	0.998973
935.889593	1.000512
936.192530	1.001258
936.495428	0.999745
936.798287	0.998243
937.101108	0.999778
937.403890	0.998833
937.706632	1.000907
938.009336	1.000508
938.312002	0.998768
938.614628	1.000533
938.917216	0.998945
939.219765	0.999874
939.522275	0.999892
939.824747	1.000964
940.127179	0.999076
940.429573	1.001386
940.731929	0.998323
941.034246	0.999068
941.336524	0.998996
941.638763	0.999493
941.940964	0.998930
942.243126	1.000486
942.545250	1.000445
942.847335	0.999761
943.149381	1.000277
943.451389	0.998262
943.753359	0.999045
944.055290	1.000926
944.357182	0.999391
944.659036	1.000599
944.960851	1.000389
945.262628	1.000204
945.564367	0.999182
945.866067	1.000025
946.167729	0.999416
946.469352	0.998974
946.770937	0.997251
947.072484	0.999985
947.373992	1.000352
947.675462	0.999071
947.976893	0.999017
948.278286	1.000075
948.579641	1.000329
948.880958	0.998562
949.182236	0.999387
949.483476	1.000343
949.784678	0.999607
950.085841	0.999981
950.386967	0.999520
950.688054	0.999980
950.989103	0.998913
951.290114	0.997630
951.591087	0.999357
951.892021	0.998340
952.192917	0.999553
952.493776	0.999336
952.794596	0.998606
953.095378	1.000436
953.396122	0.999029
953.696828	1.001129
953.997496	0.998843
954.298126	1.000736
954.598718	0.999296
954.899272	1.000060
955.199788	0.999964
955.500266	1.000152
955.800706	0.999910
956.101108	0.999834
956.401472	1.001444
956.701798	0.999580
957.002087	0.999225
957.302337	0.999554
957.602550	0.999427
957.902724	0.999127
958.202861	0.999618
958.502960	0.999074
958.803022	1.000185
959.103045	0.999323
959.403031	1.000500
959.702979	1.001500
960.002889	1.000156
960.302762	0.999445
960.602596	1.000847
960.902393	1.000801
961.202153	0.999602
961.501875	1.000339
961.801559	0.999765
962.101205	0.999405
962.400814	1.000266
962.700385	1.001487
962.999918	0.999528
963.299414	0.998544
963.598873	0.999686
963.898293	0.998191
964.197677	0.999321
964.497022	1.000190
964.796331	0.999223
965.095601	1.001310
965.394835	0.998875
965.694030	1.000764
965.993189	0.998495
966.292309	1.000548
966.591393	0.998292
966.890439	0.999445
967.189447	0.998767
967.488419	0.999652
967.787353	0.999888
968.086249	0.999612
968.385108	0.999106
968.683930	1.000500
968.982714	0.999600
969.281462	0.999358
969.580172	1.000684
969.878844	0.999917
970.177480	0.999828
970.476078	1.000551
970.774639	1.001064
971.073162	0.998462
971.371649	1.000116
971.670098	1.000300
971.968510	0.999652
972.266885	0.999089
972.565223	0.999565
972.863524	0.998438
973.161788	1.000416
973.460014	1.000990
973.758204	0.998913
974.056356	0.999856
974.354471	0.999352
974.652550	1.000439
974.950591	0.999373
975.248595	0.998867
975.546563	1.000506
975.844493	1.000378
976.142386	0.999565
976.440243	1.001030
976.738062	0.999800
977.035845	0.999638
977.333590	1.000465
977.631299	0.998586
977.928971	0.999347
978.226606	0.999365
978.524204	0.998897
978.821765	0.999834
979.119290	1.001371
979.416777	1.000002
979.714228	1.000067
980.011642	0.999692
980.309020	0.999225
980.606360	0.999746
980.903664	0.999031
981.200931	1.000428
981.498162	0.999769
981.795356	0.999852
982.092513	0.999835
982.389633	1.000168
982.686717	0.998445
982.983764	0.999995
983.280775	1.000627
983.577749	1.000418
983.874686	0.997440
984.171587	0.999362
984.468451	1.000495
984.765279	1.001417
985.062070	0.999902
985.358824	0.998965
985.655543	1.000569
985.952224	0.999713
986.248869	0.999535
986.545478	1.000429
986.842050	0.999919
987.138586	0.998620
987.435086	0.999816
987.731549	1.001590
988.027975	0.999378
988.324366	0.999266
988.620719	1.000776
988.917037	0.999613
989.213318	0.999489
989.509563	0.999761
989.805772	1.000646
990.101944	1.000744
990.398080	1.000670
990.694180	1.000066
990.990244	0.998151
991.286271	0.999581
991.582262	0.999486
991.878217	0.999513
992.174136	1.001032
992.470019	1.000518
992.765865	1.001088
993.061676	0.998876
993.357450	0.999897
993.653188	1.001091
993.948890	0.999957
994.244556	0.999078
994.540186	0.998853
994.835780	0.999902
995.131337	1.000422
995.426859	0.999364
995.722345	0.999701
996.017795	0.999295
996.313208	0.999889
996.608586	0.999710
996.903928	1.000377
997.199234	0.998938
997.494504	1.000595
997.789738	0.999053
998.084936	1.000571
998.380099	0.999415
998.675225	0.999973
998.970316	0.999875
999.265371	0.999453
999.560390	0.999319
999.855373	0.999385
1000.150320	1.000512
1000.445232	1.000297
1000.740108	0.999181
1001.034948	0.999591
1001.329752	1.001516
1001.624521	1.000769
1001.919254	0.999266
1002.213951	1.001887
1002.508613	0.998786
1002.803239	0.999130
1003.097829	0.999532
1003.392384	0.999475
1003.686903	1.001200
1003.981386	0.998599
1004.275834	1.001028
1004.570246	0.998454
1004.864623	1.000262
1005.158964	1.001041
1005.453270	1.000354
1005.747540	0.999340
1006.041775	1.001026
1006.335974	1.001020
1006.630138	1.000577
1006.924266	0.998690
1007.218359	0.998179
1007.512416	0.999189
1007.806438	1.000400
1008.100425	1.000353
1008.394376	1.001697
1008.688292	0.999457
1008.982172	0.999019
1009.276017	1.000211
1009.569827	1.001889
1009.863602	0.999774
1010.157341	1.000194
1010.451045	0.999931
1010.744714	1.001285
1011.038347	1.000976
1011.331945	1.000684
1011.625508	0.999313
1011.919036	0.998810
1012.212528	0.999687
1012.505986	0.999370
1012.799408	1.000809
1013.092795	1.000267
1013.386147	1.000364
1013.679464	1.000852
1013.972745	0.999126
1014.265992	0.999696
1014.559204	0.999288
1014.852380	1.001048
1015.145521	1.000243
1015.438628	1.000009
1015.731699	0.999266
1016.024736	1.000015
1016.317737	1.000317
1016.610703	0.999320
1016.903635	0.999815
1017.196531	0.998972
1017.489393	0.999539
1017.782219	0.999200
1018.075011	0.998605
1018.367768	0.998750
1018.660490	0.999672
1018.953177	0.999672
1019.245829	0.999672
