Dividing Wavelength (nm)	Counts (n)	Blue Motor Position (mm): 42.500000	Red Motor Position (mm): 0.000000	
326.493990	1.000649
326.888308	1.000649
327.282561	1.000649
327.676750	1.001122
328.070874	1.000526
328.464933	1.001458
328.858929	1.001833
329.252859	1.000293
329.646726	1.000256
330.040528	0.999651
330.434265	1.001411
330.827938	0.998537
331.221547	0.999844
331.615091	1.000373
332.008571	1.001583
332.401986	0.999497
332.795338	0.999874
333.188625	1.001550
333.581847	0.999195
333.975006	1.000588
334.368100	0.999708
334.761129	0.998913
335.154095	1.000095
335.546996	0.999452
335.939833	0.999834
336.332606	1.001595
336.725315	0.998783
337.117960	1.000554
337.510540	0.999675
337.903056	1.000641
338.295508	1.000603
338.687896	1.000061
339.080220	1.000291
339.472480	0.999286
339.864676	1.000563
340.256807	0.999858
340.648875	1.000487
341.040879	0.999821
341.432818	1.000146
341.824694	0.999810
342.216506	1.001157
342.608253	0.999636
342.999937	0.999176
343.391557	1.000375
343.783113	1.002246
344.174605	1.000504
344.566033	1.000105
344.957397	0.999990
345.348697	1.000093
345.739934	1.000631
346.131106	1.000059
346.522215	0.999438
346.913260	0.999269
347.304241	0.999548
347.695159	1.000263
348.086012	0.999337
348.476802	1.000283
348.867528	0.998844
349.258191	1.001200
349.648789	1.000874
350.039324	1.000209
350.429796	0.999861
350.820203	0.999146
351.210548	0.999902
351.600828	1.000111
351.991045	1.000399
352.381198	1.000966
352.771288	0.999699
353.161314	0.999517
353.551276	0.999895
353.941175	0.997234
354.331010	1.000529
354.720782	0.999180
355.110490	0.999747
355.500135	1.000796
355.889717	0.999053
356.279235	0.997357
356.668689	0.998791
357.058080	0.998735
357.447408	0.998781
357.836672	0.999352
358.225873	0.998706
358.615010	0.998951
359.004084	0.997898
359.393095	0.998829
359.782043	0.998634
360.170927	0.999563
360.559748	1.000090
360.948505	0.999037
361.337199	1.000082
361.725830	0.999570
362.114398	0.999024
362.502903	0.998702
362.891344	0.997779
363.279722	0.998304
363.668037	0.999041
364.056289	0.999599
364.444478	0.999907
364.832603	0.998167
365.220665	0.998151
365.608665	0.998180
365.996601	0.999528
366.384474	0.997443
366.772284	0.999585
367.160031	0.997840
367.547715	0.997975
367.935336	0.996901
368.322893	0.996041
368.710388	0.994460
369.097820	0.993861
369.485189	0.990424
369.872495	0.989032
370.259738	0.987367
370.646918	0.985095
371.034035	0.981519
371.421090	0.978623
371.808081	0.974085
372.195010	0.972940
372.581875	0.966384
372.968678	0.961637
373.355418	0.958447
373.742096	0.951522
374.128710	0.947288
374.515262	0.942474
374.901751	0.936228
375.288177	0.932879
375.674540	0.924911
376.060841	0.919216
376.447079	0.911770
376.833254	0.905420
377.219367	0.900206
377.605417	0.890214
377.991404	0.886431
378.377329	0.880139
378.763191	0.874169
379.148991	0.865030
379.534727	0.858119
379.920402	0.849989
380.306013	0.847191
380.691563	0.835384
381.077049	0.829580
381.462474	0.826425
381.847835	0.817162
382.233134	0.813722
382.618371	0.815438
383.003545	0.801835
383.388657	0.802961
383.773706	0.798383
384.158693	0.797842
384.543618	0.796334
384.928480	0.792750
385.313280	0.786222
385.698017	0.789525
386.082692	0.784219
386.467305	0.786932
386.851856	0.787805
387.236344	0.787585
387.620770	0.788799
388.005133	0.789558
388.389435	0.791205
388.773674	0.795160
389.157851	0.796505
389.541965	0.799773
389.926018	0.810893
390.310008	0.808667
390.693936	0.813929
391.077802	0.816554
391.461606	0.824718
391.845348	0.826817
392.229027	0.831596
392.612645	0.839806
392.996200	0.839916
393.379694	0.843933
393.763125	0.847531
394.146494	0.857252
394.529801	0.861554
394.913047	0.866046
395.296230	0.876554
395.679351	0.880551
396.062410	0.887555
396.445408	0.895414
396.828343	0.901721
397.211217	0.907380
397.594028	0.915943
397.976778	0.920675
398.359466	0.926671
398.742092	0.932423
399.124656	0.938847
399.507158	0.941355
399.889598	0.946947
400.271977	0.951027
400.654294	0.954866
401.036549	0.959829
401.418742	0.964502
401.800874	0.966333
402.182944	0.968477
402.564952	0.971553
402.946898	0.976517
403.328783	0.978187
403.710606	0.980581
404.092367	0.982212
404.474067	0.985376
404.855705	0.987187
405.237282	0.988245
405.618797	0.990077
406.000250	0.990047
406.381642	0.991134
406.762972	0.993810
407.144240	0.994094
407.525447	0.993189
407.906593	0.994635
408.287677	0.995198
408.668700	0.996943
409.049661	0.997179
409.430560	0.996194
409.811399	0.996292
410.192176	0.998067
410.572891	0.998862
410.953545	0.997347
411.334138	0.998917
411.714669	0.998453
412.095139	0.999000
412.475547	0.999389
412.855894	0.998420
413.236180	0.998691
413.616405	0.998507
413.996568	0.998890
414.376670	0.998852
414.756711	0.998873
415.136691	0.998923
415.516609	0.998971
415.896466	0.999729
416.276262	0.998026
416.655997	0.999408
417.035670	0.999648
417.415283	0.999353
417.794834	0.998964
418.174324	0.999966
418.553753	1.000061
418.933121	0.998888
419.312428	1.000437
419.691674	0.999368
420.070859	0.999543
420.449983	0.999601
420.829045	0.999064
421.208047	0.999608
421.586988	0.998730
421.965867	0.999208
422.344686	0.999486
422.723444	0.999249
423.102141	0.999983
423.480777	0.999098
423.859352	0.999616
424.237866	0.999789
424.616319	1.000159
424.994712	1.000133
425.373044	0.999943
425.751314	0.999586
426.129524	1.000702
426.507673	0.998963
426.885762	0.999237
427.263789	1.000291
427.641756	0.999720
428.019662	0.999712
428.397508	0.999773
428.775292	0.998638
429.153016	0.998789
429.530679	0.999508
429.908282	1.000432
430.285824	0.998992
430.663305	1.000251
431.040726	1.000348
431.418086	1.000213
431.795385	1.000226
432.172624	1.000450
432.549802	0.999448
432.926920	0.999041
433.303977	0.999257
433.680974	0.999785
434.057910	0.999666
434.434786	0.998512
434.811601	1.000504
435.188355	1.000306
435.565050	0.999626
435.941683	0.999548
436.318257	0.998740
436.694770	0.999532
437.071222	1.000169
437.447614	0.999692
437.823946	1.000235
438.200218	0.999120
438.576429	0.998592
438.952580	0.999401
439.328670	0.999228
439.704700	0.999279
440.080670	1.000338
440.456580	0.999540
440.832429	1.000345
441.208218	0.999513
441.583947	0.999745
441.959616	0.999295
442.335224	0.999946
442.710773	0.999606
443.086261	1.000007
443.461689	0.999844
443.837057	1.000032
444.212365	1.000525
444.587612	1.000391
444.962800	0.999588
445.337927	1.000702
445.712995	0.999997
446.088002	0.999358
446.462949	1.000092
446.837837	1.000873
447.212664	0.999077
447.587431	0.999824
447.962139	0.999779
448.336786	0.998994
448.711374	1.000104
449.085901	0.999619
449.460369	1.000406
449.834776	0.999827
450.209124	1.000001
450.583412	0.999989
450.957640	1.000149
451.331808	1.000061
451.705917	0.998791
452.079965	0.999645
452.453954	1.000125
452.827883	0.999173
453.201752	1.000677
453.575562	1.000105
453.949311	1.000656
454.323001	0.999722
454.696632	1.000358
455.070202	0.999347
455.443713	0.998952
455.817164	0.999371
456.190556	1.000053
456.563888	1.000475
456.937160	0.999587
457.310373	0.999029
457.683526	0.999549
458.056619	1.000325
458.429653	0.999772
458.802628	0.999117
459.175542	0.999873
459.548398	1.000798
459.921194	0.999750
460.293930	1.000612
460.666607	0.999907
461.039224	0.999510
461.411782	0.999359
461.784280	0.999488
462.156719	1.000476
462.529099	1.000069
462.901419	1.000194
463.273680	0.999411
463.645882	0.999033
464.018024	0.999732
464.390106	0.999307
464.762130	1.000235
465.134094	0.999967
465.505999	1.000033
465.877845	0.999577
466.249631	0.999605
466.621358	0.998537
466.993026	0.999617
467.364634	0.999260
467.736184	0.999860
468.107674	0.999981
468.479105	0.998863
468.850477	0.999431
469.221790	1.000139
469.593043	0.999089
469.964238	0.999605
470.335373	0.999175
470.706449	0.999543
471.077467	0.999302
471.448425	0.999806
471.819324	0.999610
472.190164	0.999280
472.560945	0.999355
472.931667	1.000113
473.302330	0.999183
473.672934	0.999694
474.043479	0.999220
474.413965	0.999197
474.784393	1.000122
475.154761	0.999883
475.525070	0.999828
475.895321	1.000015
476.265513	1.000434
476.635645	1.000005
477.005719	0.999910
477.375734	0.999916
477.745691	0.999015
478.115588	0.999810
478.485427	0.999685
478.855207	0.999611
479.224928	0.999829
479.594591	1.000100
479.964194	0.999715
480.333739	0.999684
480.703226	0.999072
481.072653	0.999394
481.442022	0.999290
481.811333	0.999978
482.180584	0.999436
482.549777	0.999707
482.918912	0.999812
483.287988	0.999500
483.657005	0.999595
484.025964	0.998925
484.394864	0.999683
484.763706	1.000003
485.132489	0.999758
485.501213	0.999843
485.869879	0.999813
486.238487	0.998684
486.607036	1.000384
486.975527	1.000026
487.343959	0.998982
487.712333	0.999610
488.080648	0.998997
488.448905	0.999893
488.817104	0.999133
489.185244	0.999908
489.553326	0.999900
489.921350	0.999917
490.289315	0.999901
490.657222	0.998589
491.025070	0.999354
491.392861	0.999841
491.760593	0.999190
492.128267	0.999144
492.495883	0.998781
492.863440	0.999681
493.230939	1.000762
493.598380	0.999940
493.965763	0.999413
494.333088	0.998584
494.700354	0.999345
495.067563	0.999432
495.434713	1.000144
495.801805	0.999341
496.168839	0.999476
496.535815	0.999566
496.902733	0.999937
497.269593	0.999214
497.636395	0.998615
498.003139	0.999302
498.369825	1.000002
498.736453	0.999388
499.103023	0.999951
499.469535	0.999582
499.835989	0.999663
500.202385	0.999722
500.568723	0.998705
500.935003	0.999525
501.301226	0.999510
501.667390	0.999657
502.033497	0.999157
502.399546	0.999344
502.765537	0.999388
503.131470	0.999568
503.497345	1.000268
503.863163	0.999701
504.228923	0.999828
504.594625	0.998669
504.960269	0.999870
505.325856	1.000652
505.691385	0.999296
506.056856	0.999433
506.422270	0.999072
506.787625	0.999989
507.152924	1.000190
507.518164	0.999172
507.883347	0.999268
508.248472	0.999898
508.613540	0.999017
508.978550	0.999824
509.343503	0.999625
509.708398	1.000186
510.073236	0.999806
510.438016	0.998744
510.802738	0.999318
511.167403	0.999354
511.532010	1.000032
511.896561	0.999879
512.261053	0.999466
512.625488	0.999488
512.989866	0.999538
513.354186	0.999157
513.718449	1.000067
514.082655	0.999771
514.446803	0.999782
514.810894	0.999688
515.174927	0.999895
515.538904	0.999263
515.902822	1.000008
516.266684	0.999832
516.630488	1.000075
516.994235	0.999644
517.357925	1.000086
517.721558	0.998889
518.085133	0.999517
518.448651	0.999826
518.812112	1.000091
519.175516	0.999019
519.538863	0.999051
519.902152	0.999739
520.265385	0.999460
520.628560	0.999334
520.991678	0.999041
521.354739	1.000185
521.717743	1.000314
522.080690	0.999040
522.443580	0.999877
522.806413	0.999379
523.169189	0.999980
523.531908	0.999484
523.894569	0.999187
524.257174	0.999501
524.619722	0.999890
524.982213	0.999419
525.344647	1.000007
525.707025	0.999312
526.069345	0.999114
526.431608	1.000133
526.793815	0.999552
527.155964	0.999637
527.518057	1.000018
527.880093	0.999744
528.242072	0.999508
528.603995	0.999140
528.965860	0.999783
529.327669	1.000149
529.689421	0.999792
530.051117	0.999706
530.412755	1.000094
530.774337	0.999595
531.135862	0.999748
531.497331	0.999459
531.858743	0.999471
532.220098	0.998828
532.581396	0.999332
532.942638	0.999581
533.303824	1.000072
533.664953	0.999451
534.026025	1.000379
534.387040	0.999390
534.747999	0.999189
535.108902	0.999592
535.469748	1.000678
535.830537	1.000054
536.191270	1.000036
536.551947	0.999557
536.912567	0.999055
537.273131	1.000213
537.633638	0.999347
537.994089	0.999846
538.354483	0.999629
538.714821	0.999708
539.075103	0.999503
539.435328	1.000072
539.795497	0.999912
540.155609	0.999665
540.515665	1.000364
540.875665	0.999972
541.235609	0.999933
541.595496	0.999114
541.955328	0.999886
542.315102	0.999800
542.674821	1.000359
543.034483	1.000060
543.394090	0.999107
543.753640	0.999310
544.113134	0.999671
544.472571	1.000266
544.831953	0.999432
545.191278	0.999773
545.550548	0.998915
545.909761	0.998904
546.268918	1.000279
546.628019	1.000139
546.987064	0.999764
547.346053	0.999806
547.704986	0.999203
548.063863	0.999072
548.422684	0.999967
548.781449	0.999968
549.140158	1.000235
549.498811	0.999309
549.857408	0.999132
550.215949	0.999070
550.574434	0.999348
550.932864	0.999803
551.291237	0.999541
551.649555	1.000040
552.007817	0.999745
552.366022	0.999314
552.724173	1.000627
553.082267	1.000055
553.440305	0.999193
553.798288	0.999348
554.156215	0.999570
554.514086	0.999447
554.871902	0.999832
555.229661	0.999167
555.587365	0.999672
555.945014	0.999891
556.302606	0.999141
556.660143	1.000309
557.017625	0.999255
557.375050	0.999076
557.732421	0.999671
558.089735	0.999401
558.446994	0.998943
558.804197	0.999583
559.161345	0.999073
559.518437	0.999317
559.875474	0.999841
560.232455	0.999521
560.589381	0.999771
560.946251	0.999134
561.303065	1.000273
561.659825	0.999413
562.016528	0.999459
562.373177	0.999709
562.729770	0.999344
563.086307	0.998807
563.442789	0.999716
563.799216	1.000208
564.155587	0.999345
564.511904	1.000263
564.868164	0.998275
565.224370	0.999954
565.580520	0.999739
565.936615	1.000203
566.292654	0.999912
566.648638	1.000241
567.004567	0.999921
567.360441	0.999868
567.716260	0.999489
568.072023	0.999399
568.427732	1.000461
568.783385	0.998816
569.138982	0.999841
569.494525	0.998803
569.850013	1.000109
570.205445	0.999364
570.560823	1.000096
570.916145	0.999048
571.271412	0.999154
571.626625	0.999836
571.981782	0.999949
572.336884	0.999808
572.691931	0.999930
573.046923	1.000088
573.401860	0.999441
573.756743	1.000094
574.111570	0.999446
574.466342	1.000292
574.821059	0.999954
575.175722	0.999728
575.530330	0.999265
575.884882	1.000556
576.239380	0.999172
576.593823	0.999089
576.948211	0.999754
577.302544	0.999751
577.656823	1.000188
578.011047	0.999508
578.365216	1.000046
578.719330	0.999635
579.073389	0.999017
579.427394	0.998949
579.781344	0.999431
580.135239	0.999701
580.489080	1.000128
580.842866	0.999998
581.196597	0.999331
581.550273	0.998885
581.903895	0.999887
582.257463	0.999178
582.610975	0.999383
582.964434	1.000351
583.317837	0.999707
583.671186	1.000235
584.024481	0.999358
584.377721	0.999304
584.730906	0.999717
585.084037	1.000480
585.437113	1.000469
585.790135	0.999735
586.143103	0.999630
586.496016	0.999876
586.848874	0.999655
587.201679	0.999733
587.554428	0.999550
587.907124	0.999588
588.259765	1.000008
588.612352	0.999856
588.964884	0.999981
589.317362	0.999653
589.669786	0.999037
590.022155	0.998702
590.374470	0.999276
590.726731	0.998711
591.078937	0.999705
591.431090	0.999054
591.783188	0.998596
592.135232	0.999942
592.487222	1.000068
592.839157	0.999605
593.191038	0.999445
593.542866	0.999830
593.894639	0.998738
594.246358	0.999354
594.598022	0.999217
594.949633	0.999017
595.301190	0.999015
595.652692	0.999100
596.004141	0.999109
596.355535	0.999453
596.706876	0.999793
597.058162	0.999369
597.409395	0.999278
597.760573	0.999367
598.111698	0.999757
598.462768	0.999312
598.813785	0.998587
599.164748	0.999857
599.515657	0.999159
599.866511	0.999889
600.217312	0.999862
600.568060	0.999130
600.918753	0.999574
601.269392	0.999204
601.619978	0.999522
601.970510	0.999268
602.320988	0.999336
602.671412	0.999694
603.021783	1.000097
603.372100	0.999914
603.722363	0.999698
604.072572	0.999459
604.422728	0.999231
604.772830	0.998989
605.122878	0.999617
605.472872	1.000092
605.822813	0.999593
606.172701	0.999048
606.522534	0.999635
606.872314	0.999936
607.222041	0.999303
607.571714	0.999662
607.921333	0.999505
608.270899	0.999222
608.620411	0.999182
608.969870	1.000569
609.319276	0.999366
609.668627	1.000073
610.017926	0.999241
610.367171	0.999730
610.716362	0.999421
611.065500	0.999226
611.414585	0.999643
611.763616	0.998721
612.112594	0.999055
612.461518	0.998677
612.810389	0.999490
613.159207	0.999383
613.507971	0.998714
613.856682	1.000167
614.205340	0.998235
614.553945	0.999600
614.902496	0.998877
615.250994	0.999956
615.599439	0.999960
615.947830	0.999023
616.296169	0.999104
616.644454	0.999769
616.992686	0.999587
617.340864	1.000214
617.688990	0.999367
618.037063	0.999549
618.385082	0.999178
618.733048	0.998912
619.080961	0.999388
619.428821	0.999284
619.776628	0.998888
620.124382	0.999918
620.472083	0.999931
620.819731	1.000248
621.167326	0.999658
621.514868	1.000084
621.862357	0.998803
622.209793	0.999612
622.557176	0.999260
622.904506	0.999455
623.251783	0.999166
623.599007	0.999614
623.946179	0.998872
624.293297	1.000030
624.640363	1.000113
624.987376	0.998663
625.334336	0.999905
625.681243	0.998557
626.028097	0.998856
626.374899	0.998716
626.721647	0.999905
627.068343	0.999502
627.414987	0.999411
627.761577	0.999100
628.108115	0.998644
628.454600	0.999319
628.801032	0.999420
629.147412	0.999368
629.493739	1.000121
629.840014	0.999636
630.186236	0.998867
630.532405	0.999017
630.878521	0.998887
631.224585	0.999077
631.570597	0.998516
631.916556	0.999261
632.262462	0.998538
632.608316	1.000158
632.954117	0.998618
633.299866	0.998790
633.645562	0.999806
633.991206	0.999494
634.336797	0.998493
634.682336	0.999526
635.027823	0.999634
635.373257	0.999484
635.718639	0.999551
636.063968	0.999142
636.409245	0.998526
636.754470	0.999076
637.099642	0.999335
637.444762	0.999057
637.789829	0.998886
638.134845	0.999354
638.479808	0.999053
638.824719	0.998805
639.169577	0.998989
639.514383	0.999706
639.859137	0.999209
640.203839	0.999178
640.548489	0.998542
640.893086	0.998346
641.237632	0.999348
641.582125	0.999067
641.926566	0.999561
642.270955	0.999595
642.615292	0.997750
642.959576	0.998918
643.303809	1.000167
643.647990	0.998956
643.992118	0.999067
644.336195	0.998422
644.680219	0.999190
645.024192	0.998825
645.368112	0.998303
645.711981	0.999117
646.055797	0.998915
646.399562	0.998027
646.743274	0.999748
647.086935	0.999403
647.430544	0.998228
647.774101	0.998395
648.117606	0.999794
648.461059	0.999507
648.804460	0.999061
649.147810	0.999290
649.491108	0.999465
649.834354	0.999437
650.177548	0.999283
650.520690	0.999405
650.863781	0.998746
651.206820	0.998746
651.549807	0.999464
651.892742	0.999474
652.235626	0.998925
652.578458	0.998859
652.921238	0.999605
653.263967	0.999466
653.606644	0.998845
653.949269	0.999899
654.291843	0.998976
654.634365	0.999791
654.976836	0.998962
655.319255	0.999596
655.661622	0.999477
656.003938	0.998838
656.346203	0.998548
656.688416	1.000118
657.030577	0.999319
657.372687	0.998903
657.714746	0.998185
658.056753	0.999220
658.398708	0.999027
658.740612	1.000328
659.082465	0.999437
659.424266	0.998840
659.766016	0.997723
660.107715	0.999741
660.449362	0.999219
660.790958	0.998436
661.132503	0.998817
661.473996	0.998352
661.815438	0.998917
662.156829	0.999460
662.498168	0.999492
662.839456	0.998546
663.180693	0.999241
663.521879	0.999286
663.863013	0.999597
664.204097	0.998701
664.545129	0.998869
664.886110	0.998825
665.227040	0.999370
665.567918	0.999069
665.908746	0.998246
666.249522	0.998602
666.590248	0.998495
666.930922	0.998597
667.271545	0.998979
667.612118	0.998803
667.952639	0.998611
668.293109	0.999508
668.633528	0.998170
668.973896	0.999276
669.314213	0.998123
669.654480	0.999676
669.994695	0.998021
670.334859	0.998877
670.674973	0.998758
671.015035	0.998688
671.355047	0.998089
671.695008	0.998278
672.034918	0.998345
672.374777	0.998706
672.714585	0.998845
673.054342	0.999378
673.394049	0.999162
673.733705	0.998585
674.073310	0.998359
674.412864	0.998844
674.752368	0.999056
675.091820	1.000044
675.431223	0.999244
675.770574	0.998109
676.109875	0.998743
676.449125	0.998015
676.788324	0.998583
677.127473	0.999266
677.466571	0.998487
677.805619	0.998764
678.144616	0.998795
678.483562	0.998719
678.822458	0.998598
679.161303	0.998191
679.500098	0.999271
679.838842	0.999532
680.177535	0.998340
680.516179	0.998056
680.854771	0.998469
681.193314	0.998924
681.531805	0.998118
681.870247	0.998703
682.208638	0.998141
682.546978	0.998854
682.885268	0.998237
683.223508	0.997415
683.561697	0.998550
683.899836	0.998980
684.237925	0.998018
684.575963	0.998554
684.913951	0.998439
685.251889	0.998438
685.589776	0.998034
685.927614	0.999226
686.265401	0.998408
686.603137	0.998510
686.940824	0.999078
687.278460	0.998466
687.616046	0.998608
687.953582	0.999682
688.291068	0.998740
688.628504	0.998088
688.965889	0.997925
689.303224	0.997631
689.640510	0.998417
689.977745	0.998301
690.314930	0.998464
690.652065	0.998360
690.989150	0.997344
691.326185	0.998568
691.663170	0.998229
692.000105	0.998974
692.336990	0.998577
692.673825	0.998706
693.010610	0.998099
693.347345	0.998815
693.684030	0.998664
694.020665	0.998270
694.357251	0.998794
694.693786	0.998941
695.030272	0.996645
695.366707	0.998753
695.703093	0.998288
696.039429	0.997790
696.375716	0.999360
696.711952	0.998074
697.048139	0.998811
697.384276	0.998315
697.720363	0.998723
698.056400	0.996938
698.392388	0.997886
698.728326	0.998848
699.064214	0.999949
699.400053	0.998418
699.735842	0.999301
700.071581	0.998211
700.407270	0.997709
700.742910	0.999054
701.078501	0.997990
701.414042	0.999790
701.749533	0.997651
702.084974	0.998301
702.420366	0.999215
702.755709	0.997681
703.091002	0.998305
703.426246	0.998892
703.761440	0.998568
704.096584	0.997885
704.431679	0.998097
704.766725	0.998077
705.101721	0.998681
705.436668	0.998719
705.771565	0.997853
706.106413	0.997001
706.441212	0.999269
706.775961	0.997835
707.110661	0.997657
707.445311	0.999381
707.779913	0.998433
708.114465	0.999062
708.448967	0.998807
708.783421	0.998706
709.117825	0.998601
709.452180	0.998806
709.786485	0.998912
710.120742	0.998351
710.454949	0.998259
710.789107	0.999200
711.123216	0.997725
711.457275	0.997149
711.791286	0.998161
712.125247	1.000416
712.459159	0.997820
712.793023	0.997906
713.126837	0.998433
713.460602	0.997995
713.794318	0.997607
714.127985	0.997654
714.461602	0.997326
714.795171	0.998414
715.128691	0.998196
715.462162	0.998727
715.795584	0.997441
716.128957	0.998754
716.462281	0.998395
716.795556	0.997647
717.128782	0.998640
717.461960	0.997656
717.795088	0.998052
718.128167	0.998933
718.461198	0.998842
718.794180	0.999143
719.127113	0.997899
719.459997	0.997832
719.792833	0.998284
720.125619	0.998194
720.458357	0.999289
720.791046	0.999357
721.123686	0.999046
721.456278	0.997698
721.788821	0.998196
722.121315	0.998755
722.453761	0.998785
722.786158	0.998173
723.118506	0.999069
723.450805	0.997555
723.783056	0.999235
724.115259	0.997886
724.447412	0.999159
724.779518	0.998777
725.111574	0.998139
725.443582	0.998907
725.775542	0.999120
726.107453	0.999849
726.439315	0.999242
726.771129	0.998349
727.102895	0.999246
727.434612	0.998157
727.766281	0.998381
728.097901	0.998303
728.429473	0.999498
728.760996	0.997725
729.092471	0.999121
729.423897	0.998957
729.755276	0.998132
730.086606	0.997706
730.417887	0.998326
730.749120	0.999523
731.080305	0.998712
731.411442	0.996780
731.742530	0.997512
732.073570	0.998070
732.404562	0.997887
732.735506	0.998530
733.066401	0.997664
733.397249	0.997702
733.728048	0.997764
734.058798	0.998282
734.389501	0.998395
734.720156	0.998162
735.050762	0.998760
735.381320	0.998426
735.711831	0.997833
736.042293	0.998021
736.372707	0.999596
736.703073	0.996844
737.033391	0.998055
737.363661	0.998322
737.693883	0.998570
738.024056	0.998150
738.354182	0.998724
738.684260	0.998490
739.014290	0.997957
739.344272	0.998436
739.674207	0.998044
740.004093	0.998499
740.333931	0.999481
740.663722	0.997719
740.993464	0.999113
741.323159	0.997935
741.652806	0.997841
741.982405	0.997414
742.311956	0.997211
742.641460	0.998312
742.970915	0.998031
743.300323	0.997863
743.629683	0.997479
743.958996	0.999770
744.288260	0.997202
744.617477	0.998584
744.946647	0.997852
745.275768	0.998732
745.604842	0.998209
745.933869	0.999151
746.262847	0.998557
746.591778	0.997964
746.920662	0.999064
747.249498	0.999374
747.578286	0.999423
747.907027	0.998971
748.235720	0.999109
748.564365	0.998350
748.892963	0.998793
749.221514	0.998774
749.550017	0.998527
749.878473	0.998516
750.206881	0.999340
750.535242	0.997883
750.863555	0.997321
751.191821	0.998517
751.520039	0.999216
751.848210	0.997982
752.176334	0.998589
752.504411	0.997025
752.832440	0.998779
753.160421	0.997924
753.488356	0.998223
753.816243	0.997787
754.144082	0.997953
754.471875	0.999572
754.799620	0.998857
755.127318	0.999716
755.454969	0.998173
755.782572	0.998979
756.110129	0.997894
756.437638	0.998617
756.765100	0.999505
757.092515	0.998461
757.419882	0.998086
757.747203	0.998421
758.074477	0.999116
758.401703	0.998001
758.728882	0.998316
759.056014	0.998654
759.383099	0.998725
759.710138	0.998254
760.037129	0.997752
760.364073	0.998545
760.690970	0.997550
761.017820	0.998351
761.344623	0.998428
761.671379	0.999131
761.998088	0.998972
762.324751	0.998585
762.651366	0.997814
762.977935	0.997486
763.304456	0.997453
763.630931	0.996904
763.957359	0.996147
764.283740	0.997587
764.610074	0.997628
764.936362	0.997376
765.262602	0.998115
765.588796	0.998691
765.914943	0.998337
766.241044	0.998649
766.567097	0.998371
766.893104	0.998938
767.219064	0.997492
767.544978	0.997965
767.870845	0.998452
768.196665	0.998057
768.522438	0.998599
768.848165	0.997901
769.173846	0.999438
769.499479	0.999609
769.825066	0.999868
770.150607	0.999281
770.476101	0.998657
770.801548	0.998776
771.126949	0.998533
771.452303	0.998564
771.777611	0.999651
772.102872	0.998220
772.428087	0.998395
772.753256	0.998638
773.078378	0.998656
773.403453	0.998372
773.728482	1.000529
774.053465	0.998362
774.378401	0.998872
774.703291	0.999348
775.028135	1.000432
775.352932	0.998126
775.677683	0.999156
776.002388	0.999018
776.327046	0.998197
776.651658	0.999497
776.976224	0.998962
777.300743	0.998493
777.625216	0.998030
777.949643	0.999150
778.274024	0.998954
778.598359	0.999642
778.922647	0.998461
779.246889	0.999164
779.571086	0.998900
779.895236	0.998096
780.219339	0.999681
780.543397	0.997681
780.867409	0.999588
781.191374	0.998528
781.515294	0.999715
781.839167	1.000107
782.162995	0.998831
782.486776	0.998454
782.810511	0.999049
783.134201	0.999331
783.457844	0.999280
783.781441	0.998579
784.104993	0.997290
784.428498	0.998830
784.751958	0.999957
785.075372	0.999628
785.398739	0.998068
785.722061	0.998253
786.045337	0.998144
786.368568	0.999053
786.691752	0.999033
787.014891	0.999161
787.337983	0.998167
787.661030	0.999417
787.984031	0.999803
788.306987	0.999012
788.629897	0.997095
788.952760	0.999146
789.275579	0.999673
789.598351	0.998516
789.921078	1.000063
790.243759	0.999097
790.566395	0.998116
790.888984	0.997820
791.211529	0.999515
791.534027	0.998694
791.856480	0.997988
792.178888	0.999561
792.501249	0.998839
792.823566	0.999530
793.145836	0.999210
793.468062	0.999077
793.790241	0.999733
794.112375	0.998031
794.434464	1.000081
794.756507	0.999107
795.078505	0.999818
795.400457	0.999135
795.722364	0.999908
796.044226	0.999513
796.366042	0.998932
796.687812	0.998142
797.009538	0.998100
797.331218	1.000434
797.652852	1.000527
797.974442	0.998175
798.295986	0.999327
798.617484	0.998328
798.938938	0.998774
799.260346	0.998722
799.581709	0.999224
799.903026	1.000284
800.224299	0.998183
800.545526	0.999320
800.866708	0.997738
801.187845	0.999959
801.508936	0.999549
801.829983	0.999387
802.150984	0.999382
802.471940	0.998591
802.792851	0.998826
803.113717	0.999374
803.434538	1.000044
803.755314	1.000515
804.076045	1.000102
804.396731	0.998310
804.717372	0.997799
805.037967	1.000065
805.358518	0.999203
805.679024	0.998759
805.999485	0.999450
806.319901	0.999434
806.640272	0.999886
806.960598	1.000150
807.280879	0.999735
807.601115	1.000445
807.921306	0.999971
808.241453	0.998440
808.561554	0.998587
808.881611	0.999933
809.201623	0.998548
809.521590	0.998771
809.841513	0.999235
810.161390	0.998205
810.481223	0.998638
810.801011	0.999350
811.120755	0.999604
811.440453	0.998854
811.760107	0.999150
812.079716	0.999100
812.399281	0.999581
812.718801	0.999351
813.038276	0.998972
813.357707	0.998858
813.677093	0.999975
813.996434	0.999007
814.315731	1.001208
814.634983	0.999665
814.954191	0.999838
815.273354	0.999244
815.592473	0.998939
815.911547	0.999162
816.230577	0.998958
816.549562	0.999910
816.868502	0.997658
817.187399	0.999755
817.506250	1.000073
817.825058	0.998203
818.143821	0.999419
818.462539	0.998813
818.781213	0.998288
819.099843	0.999895
819.418429	0.998573
819.736970	0.998870
820.055466	0.997731
820.373919	0.998104
820.692327	0.998472
821.010691	0.998126
821.329011	0.996493
821.647286	0.995392
821.965517	0.995988
822.283704	0.995406
822.601847	0.994916
822.919945	0.994821
823.237999	0.994682
823.556010	0.995240
823.873976	0.995803
824.191897	0.996581
824.509775	0.996786
824.827609	0.996856
825.145398	0.997393
825.463144	0.995644
825.780845	0.996543
826.098502	0.997097
826.416116	0.996965
826.733685	0.996751
827.051210	0.995835
827.368692	0.995814
827.686129	0.996380
828.003522	0.998569
828.320872	0.996990
828.638177	0.997790
828.955439	0.998200
829.272656	0.998271
829.589830	0.998019
829.906960	0.998675
830.224046	0.998488
830.541088	0.997418
830.858086	0.998703
831.175041	0.999711
831.491952	0.998713
831.808819	0.998765
832.125642	0.999342
832.442421	0.998982
832.759157	1.000331
833.075849	0.998568
833.392497	0.998258
833.709101	0.997585
834.025662	0.999213
834.342179	0.997814
834.658653	0.999367
834.975083	0.998677
835.291469	0.998920
835.607811	0.999012
835.924110	0.998498
836.240366	0.999682
836.556578	0.999576
836.872746	1.000072
837.188871	0.999539
837.504952	0.999508
837.820990	0.999290
838.136984	0.998645
838.452935	0.997981
838.768842	0.999374
839.084706	0.999582
839.400526	0.999005
839.716303	0.998157
840.032037	0.999018
840.347727	0.999984
840.663373	0.999656
840.978977	0.998432
841.294537	0.999729
841.610054	0.999491
841.925527	0.999544
842.240957	0.999922
842.556344	1.000214
842.871687	0.999015
843.186987	1.000367
843.502244	0.999310
843.817458	0.998927
844.132629	0.999160
844.447756	0.999651
844.762840	0.999216
845.077881	1.001530
845.392879	0.998070
845.707833	0.999842
846.022745	1.000077
846.337613	1.000005
846.652438	0.999710
846.967221	1.000011
847.281960	0.999963
847.596656	1.000595
847.911309	1.000054
848.225919	0.999040
848.540485	1.000185
848.855009	1.000750
849.169490	1.000686
849.483928	0.999427
849.798323	0.998292
850.112675	1.000298
850.426984	0.999573
850.741251	1.000227
851.055474	1.000383
851.369654	1.000418
851.683792	0.998971
851.997887	0.999973
852.311938	0.999621
852.625947	0.998531
852.939914	0.998895
853.253837	1.001372
853.567718	1.000233
853.881555	1.000898
854.195350	1.000283
854.509103	1.000606
854.822812	1.001372
855.136479	0.999967
855.450103	0.999957
855.763685	1.000532
856.077224	0.999930
856.390720	0.999484
856.704173	1.001181
857.017584	1.000207
857.330953	0.999345
857.644278	0.999180
857.957561	0.999852
858.270802	1.000007
858.584000	1.000412
858.897155	0.998561
859.210268	1.000189
859.523339	1.000004
859.836367	1.000394
860.149352	0.999010
860.462295	0.999497
860.775195	1.000047
861.088054	0.998921
861.400869	0.999339
861.713642	0.999266
862.026373	1.000857
862.339062	1.000326
862.651708	1.000244
862.964312	1.000261
863.276873	0.999088
863.589392	0.999725
863.901869	0.999829
864.214303	0.999917
864.526696	0.999955
864.839045	1.001513
865.151353	1.000221
865.463619	0.998926
865.775842	0.999869
866.088023	1.000586
866.400162	0.999535
866.712258	1.001401
867.024313	1.000781
867.336325	1.000679
867.648296	1.000285
867.960224	1.000563
868.272110	1.000245
868.583954	1.000590
868.895755	1.000508
869.207515	0.999482
869.519233	1.000150
869.830909	1.000037
870.142542	0.999323
870.454134	0.999731
870.765684	0.998741
871.077191	1.001272
871.388657	0.999096
871.700081	1.000276
872.011463	1.000799
872.322803	1.000080
872.634101	0.998897
872.945357	0.999510
873.256571	0.998949
873.567744	1.000214
873.878874	0.999456
874.189963	0.999318
874.501010	0.999998
874.812015	1.000201
875.122979	1.000300
875.433900	0.999570
875.744780	1.000056
876.055618	0.998845
876.366415	0.998805
876.677169	0.998572
876.987882	0.999060
877.298554	1.000441
877.609183	0.999566
877.919771	0.999414
878.230317	1.000208
878.540822	0.999899
878.851285	0.999654
879.161707	0.999393
879.472087	1.001077
879.782425	0.999477
880.092722	0.998825
880.402977	0.998223
880.713191	0.997051
881.023363	0.997091
881.333494	0.996849
881.643583	0.997669
881.953631	0.996275
882.263637	0.997115
882.573602	0.996185
882.883526	0.996688
883.193408	0.996821
883.503248	0.997044
883.813048	0.998210
884.122806	0.998064
884.432522	0.997889
884.742197	0.999114
885.051831	0.999551
885.361424	0.999131
885.670975	1.000398
885.980485	0.999044
886.289954	0.998550
886.599382	0.997992
886.908768	1.000208
887.218113	0.998934
887.527417	0.998763
887.836680	0.999156
888.145901	1.000825
888.455082	1.000635
888.764221	0.999871
889.073319	0.998580
889.382376	1.000397
889.691392	0.998794
890.000366	1.000146
890.309300	0.999336
890.618193	0.999159
890.927044	0.999790
891.235855	0.998768
891.544625	0.999585
891.853353	1.000185
892.162041	0.999663
892.470687	0.999752
892.779293	0.998842
893.087858	0.998307
893.396381	0.999061
893.704864	0.997908
894.013306	0.998757
894.321707	0.998313
894.630068	0.998347
894.938387	0.997979
895.246665	0.998986
895.554903	0.997746
895.863100	0.998521
896.171256	0.998174
896.479371	0.998953
896.787446	0.998776
897.095480	0.999791
897.403473	0.998544
897.711425	0.999968
898.019336	1.000595
898.327207	1.000429
898.635038	0.998098
898.942827	0.999707
899.250576	0.999429
899.558284	0.999559
899.865952	0.998551
900.173579	0.999515
900.481165	0.999694
900.788711	0.998217
901.096216	0.998831
901.403681	1.000085
901.711105	0.999452
902.018489	1.000050
902.325832	0.998609
902.633135	0.999254
902.940397	0.999632
903.247619	0.999198
903.554800	0.998922
903.861941	0.999006
904.169041	0.999232
904.476101	0.998720
904.783121	0.997967
905.090100	0.998377
905.397039	0.998827
905.703938	0.999539
906.010796	0.998441
906.317614	0.998604
906.624391	0.999859
906.931129	0.999538
907.237826	0.999236
907.544483	0.999382
907.851099	0.998917
908.157675	0.999955
908.464211	0.999568
908.770707	0.998167
909.077163	0.999300
909.383578	0.999283
909.689954	0.999657
909.996289	1.000250
910.302584	0.999444
910.608839	1.000440
910.915054	0.999995
911.221229	1.001681
911.527363	1.000017
911.833458	0.999932
912.139513	1.000169
912.445527	1.000580
912.751502	1.000853
913.057436	1.000318
913.363331	1.000528
913.669186	1.001127
913.975000	0.999392
914.280775	0.999707
914.586510	0.999403
914.892205	0.999058
915.197859	0.998862
915.503475	0.999783
915.809050	0.999174
916.114585	0.998045
916.420081	0.998324
916.725536	0.998967
917.030952	0.998017
917.336328	0.997950
917.641665	0.997929
917.946961	0.998573
918.252218	0.998206
918.557435	0.998978
918.862612	0.999699
919.167750	0.999200
919.472848	0.999590
919.777906	1.001241
920.082925	1.000911
920.387904	1.000522
920.692843	1.000139
920.997743	0.998725
921.302603	1.000468
921.607423	0.999719
921.912204	0.999532
922.216946	1.000220
922.521647	0.999315
922.826310	0.999221
923.130932	1.000406
923.435516	1.000499
923.740059	0.999537
924.044564	0.999467
924.349028	0.999644
924.653454	0.999604
924.957840	0.999905
925.262186	0.999866
925.566493	0.999009
925.870761	1.000652
926.174989	0.997854
926.479178	1.000320
926.783328	0.999818
927.087438	0.999595
927.391509	1.000299
927.695541	1.000386
927.999533	1.000380
928.303486	0.999875
928.607400	0.999903
928.911275	1.000171
929.215110	0.999770
929.518906	1.000670
929.822663	1.001175
930.126381	1.002068
930.430060	1.000809
930.733699	1.000589
931.037299	1.001228
931.340861	1.001129
931.644383	0.999230
931.947866	0.999712
932.251309	0.999502
932.554714	1.000076
932.858080	1.000453
933.161407	0.998750
933.464694	1.000591
933.767943	1.000516
934.071153	1.000639
934.374323	1.000844
934.677455	0.999428
934.980548	0.999885
935.283602	1.000162
935.586617	0.999296
935.889593	1.001369
936.192530	1.000920
936.495428	0.999552
936.798287	0.999625
937.101108	1.000950
937.403890	0.999100
937.706632	1.001613
938.009336	1.000540
938.312002	0.999167
938.614628	1.000963
938.917216	1.000624
939.219765	0.999307
939.522275	1.001076
939.824747	1.000494
940.127179	1.000521
940.429573	1.000893
940.731929	0.999089
941.034246	0.999965
941.336524	0.998850
941.638763	0.999342
941.940964	0.998825
942.243126	1.000174
942.545250	1.001045
942.847335	0.999346
943.149381	1.000747
943.451389	0.999307
943.753359	0.999480
944.055290	1.000683
944.357182	0.999448
944.659036	1.000818
944.960851	1.000084
945.262628	1.000411
945.564367	0.999847
945.866067	0.999489
946.167729	0.999636
946.469352	1.000301
946.770937	0.997760
947.072484	1.000773
947.373992	1.000720
947.675462	0.999482
947.976893	0.998998
948.278286	1.001357
948.579641	1.000438
948.880958	0.999848
949.182236	1.000295
949.483476	1.002347
949.784678	1.000221
950.085841	0.999209
950.386967	1.000106
950.688054	1.000718
950.989103	0.998597
951.290114	0.998461
951.591087	1.001196
951.892021	0.999574
952.192917	1.000027
952.493776	1.000610
952.794596	0.999789
953.095378	0.999951
953.396122	0.999527
953.696828	0.999252
953.997496	1.000521
954.298126	1.001438
954.598718	0.999532
954.899272	1.000729
955.199788	0.999163
955.500266	1.000453
955.800706	0.999828
956.101108	0.999597
956.401472	1.000795
956.701798	1.000495
957.002087	1.000336
957.302337	0.999912
957.602550	0.999809
957.902724	1.001190
958.202861	0.999778
958.502960	0.998846
958.803022	1.001449
959.103045	1.000849
959.403031	1.001198
959.702979	1.001371
960.002889	0.999708
960.302762	0.999849
960.602596	1.001405
960.902393	1.001207
961.202153	1.000416
961.501875	1.000302
961.801559	1.000918
962.101205	0.999217
962.400814	0.999929
962.700385	1.000590
962.999918	0.999972
963.299414	0.998803
963.598873	1.001299
963.898293	1.000919
964.197677	1.000267
964.497022	1.001138
964.796331	1.000331
965.095601	1.000821
965.394835	0.998955
965.694030	1.000465
965.993189	0.999327
966.292309	1.000167
966.591393	0.997987
966.890439	0.999810
967.189447	1.000147
967.488419	1.000109
967.787353	1.000845
968.086249	1.000434
968.385108	1.001355
968.683930	1.000253
968.982714	1.000148
969.281462	1.000227
969.580172	1.000025
969.878844	1.000409
970.177480	0.999317
970.476078	1.001276
970.774639	1.001096
971.073162	0.999682
971.371649	0.999765
971.670098	0.999401
971.968510	0.999722
972.266885	0.999822
972.565223	1.000121
972.863524	0.999553
973.161788	0.999518
973.460014	1.001917
973.758204	0.999651
974.056356	1.000582
974.354471	0.999770
974.652550	1.000575
974.950591	1.000498
975.248595	0.998939
975.546563	1.000956
975.844493	0.999632
976.142386	1.000065
976.440243	1.000833
976.738062	1.000664
977.035845	0.999492
977.333590	1.000340
977.631299	0.999674
977.928971	1.000136
978.226606	1.000312
978.524204	0.999446
978.821765	1.001025
979.119290	1.000970
979.416777	1.000505
979.714228	0.999681
980.011642	1.001304
980.309020	1.000651
980.606360	0.999499
980.903664	1.000347
981.200931	1.000613
981.498162	1.000349
981.795356	1.000660
982.092513	1.000201
982.389633	1.000721
982.686717	1.000022
982.983764	1.000737
983.280775	1.000567
983.577749	1.001114
983.874686	0.999323
984.171587	1.000117
984.468451	1.000377
984.765279	1.001402
985.062070	0.999030
985.358824	1.000083
985.655543	1.000265
985.952224	0.999885
986.248869	0.999571
986.545478	1.001303
986.842050	0.999350
987.138586	0.999237
987.435086	0.998746
987.731549	1.001475
988.027975	1.000709
988.324366	0.999344
988.620719	1.000442
988.917037	0.999755
989.213318	1.000714
989.509563	0.999898
989.805772	1.000012
990.101944	1.000636
990.398080	0.999914
990.694180	1.001683
990.990244	0.999216
991.286271	1.000113
991.582262	0.999024
991.878217	0.999547
992.174136	1.000077
992.470019	1.000569
992.765865	1.001939
993.061676	0.999613
993.357450	1.000066
993.653188	1.001652
993.948890	1.000354
994.244556	0.999766
994.540186	0.999786
994.835780	1.000268
995.131337	1.000550
995.426859	1.000956
995.722345	0.999937
996.017795	0.999806
996.313208	1.000930
996.608586	1.000147
996.903928	1.000220
997.199234	1.001446
997.494504	1.001202
997.789738	0.998773
998.084936	1.000131
998.380099	1.000373
998.675225	1.000793
998.970316	1.001946
999.265371	1.000962
999.560390	0.998788
999.855373	1.000197
1000.150320	0.999619
1000.445232	1.000274
1000.740108	0.999657
1001.034948	0.999401
1001.329752	1.001813
1001.624521	0.999228
1001.919254	1.001358
1002.213951	0.999650
1002.508613	1.000660
1002.803239	0.999765
1003.097829	1.001819
1003.392384	0.998867
1003.686903	1.000568
1003.981386	0.999247
1004.275834	1.001020
1004.570246	0.998958
1004.864623	1.000347
1005.158964	0.998981
1005.453270	1.000416
1005.747540	0.998947
1006.041775	1.000507
1006.335974	0.999946
1006.630138	1.000572
1006.924266	0.999243
1007.218359	0.998235
1007.512416	1.000382
1007.806438	1.000622
1008.100425	0.999320
1008.394376	1.001837
1008.688292	1.000270
1008.982172	0.999265
1009.276017	1.000182
1009.569827	1.000855
1009.863602	0.999198
1010.157341	1.001324
1010.451045	1.000020
1010.744714	1.001840
1011.038347	1.000917
1011.331945	1.000453
1011.625508	0.999827
1011.919036	1.000454
1012.212528	1.001010
1012.505986	0.999307
1012.799408	1.001190
1013.092795	0.999175
1013.386147	1.000665
1013.679464	1.000625
1013.972745	1.000696
1014.265992	1.000432
1014.559204	1.000683
1014.852380	1.002089
1015.145521	0.999990
1015.438628	1.000101
1015.731699	0.999777
1016.024736	1.000731
1016.317737	1.000143
1016.610703	1.000427
1016.903635	1.000598
1017.196531	0.999865
1017.489393	0.999538
1017.782219	0.999293
1018.075011	0.999336
1018.367768	0.999986
1018.660490	0.999965
1018.953177	0.999965
1019.245829	0.999965
