Dividing Wavelength (nm)	Counts (n)	Blue Motor Position (mm): 3.500000	Red Motor Position (mm): 0.000000	
326.493990	1.005782
326.888308	1.005782
327.282561	1.005782
327.676750	1.007395
328.070874	1.006798
328.464933	1.007871
328.858929	1.007352
329.252859	1.006732
329.646726	1.006428
330.040528	1.005817
330.434265	1.007754
330.827938	1.005786
331.221547	1.006258
331.615091	1.007138
332.008571	1.007831
332.401986	1.006329
332.795338	1.005997
333.188625	1.007325
333.581847	1.005956
333.975006	1.007403
334.368100	1.007091
334.761129	1.005916
335.154095	1.006840
335.546996	1.004486
335.939833	0.999081
336.332606	1.000105
336.725315	0.998534
337.117960	0.999389
337.510540	0.999665
337.903056	0.999611
338.295508	1.000337
338.687896	0.999830
339.080220	0.998613
339.472480	0.998590
339.864676	0.999918
340.256807	0.997684
340.648875	1.000303
341.040879	0.999176
341.432818	1.000306
341.824694	0.999624
342.216506	1.000383
342.608253	1.001303
342.999937	0.999281
343.391557	0.999335
343.783113	1.000994
344.174605	1.000219
344.566033	0.998137
344.957397	0.999262
345.348697	0.999580
345.739934	0.999613
346.131106	0.999503
346.522215	0.998409
346.913260	1.000200
347.304241	0.998451
347.695159	0.999729
348.086012	0.998804
348.476802	0.998889
348.867528	0.997853
349.258191	1.001102
349.648789	0.998887
350.039324	0.999623
350.429796	0.998378
350.820203	0.998225
351.210548	0.998860
351.600828	0.999257
351.991045	0.998539
352.381198	0.999582
352.771288	0.997914
353.161314	1.000136
353.551276	0.998027
353.941175	0.996875
354.331010	0.999761
354.720782	0.999021
355.110490	0.999553
355.500135	0.999173
355.889717	0.997871
356.279235	0.997918
356.668689	0.998255
357.058080	0.998944
357.447408	0.998345
357.836672	0.997697
358.225873	0.998469
358.615010	0.997594
359.004084	0.997528
359.393095	0.998678
359.782043	0.997912
360.170927	0.998708
360.559748	0.999562
360.948505	0.998285
361.337199	0.997956
361.725830	0.998509
362.114398	0.997358
362.502903	0.996497
362.891344	0.996853
363.279722	0.997738
363.668037	0.998333
364.056289	0.997378
364.444478	0.998316
364.832603	0.997802
365.220665	0.997988
365.608665	0.997424
365.996601	0.997111
366.384474	0.996858
366.772284	0.996971
367.160031	0.994285
367.547715	0.995764
367.935336	0.995470
368.322893	0.994184
368.710388	0.994054
369.097820	0.991179
369.485189	0.989197
369.872495	0.987541
370.259738	0.984858
370.646918	0.982370
371.034035	0.980355
371.421090	0.977107
371.808081	0.971768
372.195010	0.969349
372.581875	0.963928
372.968678	0.959822
373.355418	0.956772
373.742096	0.948697
374.128710	0.945258
374.515262	0.940764
374.901751	0.934073
375.288177	0.928714
375.674540	0.922090
376.060841	0.915490
376.447079	0.909003
376.833254	0.902871
377.219367	0.897781
377.605417	0.887059
377.991404	0.882993
378.377329	0.877974
378.763191	0.870972
379.148991	0.862026
379.534727	0.854918
379.920402	0.845600
380.306013	0.842283
380.691563	0.829921
381.077049	0.823755
381.462474	0.819093
381.847835	0.807163
382.233134	0.802722
382.618371	0.804248
383.003545	0.785309
383.388657	0.784119
383.773706	0.776094
384.158693	0.771945
384.543618	0.766451
384.928480	0.758127
385.313280	0.747877
385.698017	0.747732
386.082692	0.735301
386.467305	0.733809
386.851856	0.728706
387.236344	0.723773
387.620770	0.717808
388.005133	0.712256
388.389435	0.706579
388.773674	0.704460
389.157851	0.695806
389.541965	0.693050
389.926018	0.699736
390.310008	0.685904
390.693936	0.683571
391.077802	0.676471
391.461606	0.677451
391.845348	0.666650
392.229027	0.666552
392.612645	0.664964
392.996200	0.650970
393.379694	0.644210
393.763125	0.634383
394.146494	0.639231
394.529801	0.629434
394.913047	0.621055
395.296230	0.627789
395.679351	0.619137
396.062410	0.616315
396.445408	0.617784
396.828343	0.614170
397.211217	0.609623
397.594028	0.621363
397.976778	0.612027
398.359466	0.607838
398.742092	0.603155
399.124656	0.614974
399.507158	0.602978
399.889598	0.600702
400.271977	0.591446
400.654294	0.595330
401.036549	0.594502
401.418742	0.598995
401.800874	0.584979
402.182944	0.581400
402.564952	0.573363
402.946898	0.575344
403.328783	0.576208
403.710606	0.587366
404.092367	0.562269
404.474067	0.567880
404.855705	0.566046
405.237282	0.575190
405.618797	0.560491
406.000250	0.557186
406.381642	0.547034
406.762972	0.552200
407.144240	0.550421
407.525447	0.550841
407.906593	0.543099
408.287677	0.538822
408.668700	0.546690
409.049661	0.541078
409.430560	0.536552
409.811399	0.544774
410.192176	0.526341
410.572891	0.533714
410.953545	0.522117
411.334138	0.535748
411.714669	0.527660
412.095139	0.539952
412.475547	0.524279
412.855894	0.526542
413.236180	0.524755
413.616405	0.530367
413.996568	0.520458
414.376670	0.527990
414.756711	0.531906
415.136691	0.528691
415.516609	0.520075
415.896466	0.516031
416.276262	0.512555
416.655997	0.514454
417.035670	0.495537
417.415283	0.487658
417.794834	0.492478
418.174324	0.497549
418.553753	0.506278
418.933121	0.488089
419.312428	0.483376
419.691674	0.488351
420.070859	0.476921
420.449983	0.484662
420.829045	0.474311
421.208047	0.482613
421.586988	0.475976
421.965867	0.474568
422.344686	0.463253
422.723444	0.476446
423.102141	0.493372
423.480777	0.465638
423.859352	0.486694
424.237866	0.463642
424.616319	0.464647
424.994712	0.455765
425.373044	0.465620
425.751314	0.454117
426.129524	0.470712
426.507673	0.454302
426.885762	0.447306
427.263789	0.453114
427.641756	0.463034
428.019662	0.452884
428.397508	0.452905
428.775292	0.456825
429.153016	0.448725
429.530679	0.454572
429.908282	0.447945
430.285824	0.458054
430.663305	0.436709
431.040726	0.457846
431.418086	0.456957
431.795385	0.449683
432.172624	0.448500
432.549802	0.448844
432.926920	0.448211
433.303977	0.446803
433.680974	0.444111
434.057910	0.442886
434.434786	0.441864
434.811601	0.445142
435.188355	0.426658
435.565050	0.436471
435.941683	0.438136
436.318257	0.421667
436.694770	0.423128
437.071222	0.420884
437.447614	0.425424
437.823946	0.431503
438.200218	0.421282
438.576429	0.430625
438.952580	0.423779
439.328670	0.419979
439.704700	0.426801
440.080670	0.428405
440.456580	0.409853
440.832429	0.417313
441.208218	0.428098
441.583947	0.417539
441.959616	0.417000
442.335224	0.422279
442.710773	0.412763
443.086261	0.411057
443.461689	0.424730
443.837057	0.414843
444.212365	0.404638
444.587612	0.412058
444.962800	0.402022
445.337927	0.403076
445.712995	0.429294
446.088002	0.391298
446.462949	0.401891
446.837837	0.406280
447.212664	0.395391
447.587431	0.386953
447.962139	0.357326
448.336786	0.316408
448.711374	0.326650
449.085901	0.370987
449.460369	0.375181
449.834776	0.378922
450.209124	0.357862
450.583412	0.350752
450.957640	0.343767
451.331808	0.355095
451.705917	0.378807
452.079965	0.383175
452.453954	0.372082
452.827883	0.377882
453.201752	0.372920
453.575562	0.383972
453.949311	0.372663
454.323001	0.378802
454.696632	0.374863
455.070202	0.367617
455.443713	0.359279
455.817164	0.353799
456.190556	0.349753
456.563888	0.346607
456.937160	0.343790
457.310373	0.361839
457.683526	0.360306
458.056619	0.365783
458.429653	0.366196
458.802628	0.369822
459.175542	0.364510
459.548398	0.346507
459.921194	0.339098
460.293930	0.339287
460.666607	0.316706
461.039224	0.304960
461.411782	0.300582
461.784280	0.300014
462.156719	0.303833
462.529099	0.308618
462.901419	0.324503
463.273680	0.328736
463.645882	0.328380
464.018024	0.334241
464.390106	0.326955
464.762130	0.311416
465.134094	0.294588
465.505999	0.263625
465.877845	0.233848
466.249631	0.220886
466.621358	0.228254
466.993026	0.241936
467.364634	0.248535
467.736184	0.257418
468.107674	0.266048
468.479105	0.265011
468.850477	0.271729
469.221790	0.278798
469.593043	0.289313
469.964238	0.293521
470.335373	0.293486
470.706449	0.291390
471.077467	0.291757
471.448425	0.254089
471.819324	0.229573
472.190164	0.228942
472.560945	0.257752
472.931667	0.280341
473.302330	0.284592
473.672934	0.296504
474.043479	0.284352
474.413965	0.286276
474.784393	0.289301
475.154761	0.284721
475.525070	0.281799
475.895321	0.287728
476.265513	0.281748
476.635645	0.277275
477.005719	0.276908
477.375734	0.273505
477.745691	0.266557
478.115588	0.263008
478.485427	0.256462
478.855207	0.243483
479.224928	0.226019
479.594591	0.214108
479.964194	0.217262
480.333739	0.218702
480.703226	0.220091
481.072653	0.218500
481.442022	0.214147
481.811333	0.210712
482.180584	0.214002
482.549777	0.219629
482.918912	0.223138
483.287988	0.222510
483.657005	0.222346
484.025964	0.228710
484.394864	0.225790
484.763706	0.226761
485.132489	0.231664
485.501213	0.232263
485.869879	0.230779
486.238487	0.233938
486.607036	0.231983
486.975527	0.236590
487.343959	0.232330
487.712333	0.231339
488.080648	0.232838
488.448905	0.231844
488.817104	0.232929
489.185244	0.227570
489.553326	0.224526
489.921350	0.214214
490.289315	0.196814
490.657222	0.191806
491.025070	0.193201
491.392861	0.195097
491.760593	0.200820
492.128267	0.206816
492.495883	0.212104
492.863440	0.218464
493.230939	0.224750
493.598380	0.226346
493.965763	0.228246
494.333088	0.230449
494.700354	0.232131
495.067563	0.231039
495.434713	0.234378
495.801805	0.232344
496.168839	0.234042
496.535815	0.235480
496.902733	0.235220
497.269593	0.236680
497.636395	0.234186
498.003139	0.234578
498.369825	0.237464
498.736453	0.234090
499.103023	0.235921
499.469535	0.235134
499.835989	0.235217
500.202385	0.236311
500.568723	0.239442
500.935003	0.234729
501.301226	0.238982
501.667390	0.233322
502.033497	0.231223
502.399546	0.234188
502.765537	0.236185
503.131470	0.234822
503.497345	0.231039
503.863163	0.239372
504.228923	0.232445
504.594625	0.231121
504.960269	0.236685
505.325856	0.232013
505.691385	0.236303
506.056856	0.233281
506.422270	0.232803
506.787625	0.234962
507.152924	0.232300
507.518164	0.232740
507.883347	0.234250
508.248472	0.236265
508.613540	0.231254
508.978550	0.233762
509.343503	0.234189
509.708398	0.232079
510.073236	0.229366
510.438016	0.228983
510.802738	0.230208
511.167403	0.229091
511.532010	0.231353
511.896561	0.226961
512.261053	0.225214
512.625488	0.227510
512.989866	0.227964
513.354186	0.227957
513.718449	0.230135
514.082655	0.226264
514.446803	0.228439
514.810894	0.226250
515.174927	0.228741
515.538904	0.228276
515.902822	0.225113
516.266684	0.227732
516.630488	0.228784
516.994235	0.227742
517.357925	0.226439
517.721558	0.224724
518.085133	0.224303
518.448651	0.224067
518.812112	0.226691
519.175516	0.226201
519.538863	0.223658
519.902152	0.225925
520.265385	0.222426
520.628560	0.223891
520.991678	0.224727
521.354739	0.223421
521.717743	0.224321
522.080690	0.224894
522.443580	0.222094
522.806413	0.223099
523.169189	0.222683
523.531908	0.221404
523.894569	0.224936
524.257174	0.225030
524.619722	0.222810
524.982213	0.223522
525.344647	0.222603
525.707025	0.223569
526.069345	0.221596
526.431608	0.223480
526.793815	0.221143
527.155964	0.225522
527.518057	0.224233
527.880093	0.225210
528.242072	0.223811
528.603995	0.226171
528.965860	0.227422
529.327669	0.226397
529.689421	0.227283
530.051117	0.228045
530.412755	0.226111
530.774337	0.228232
531.135862	0.228723
531.497331	0.227946
531.858743	0.230822
532.220098	0.227438
532.581396	0.229931
532.942638	0.230444
533.303824	0.231604
533.664953	0.231137
534.026025	0.233046
534.387040	0.230893
534.747999	0.230824
535.108902	0.229503
535.469748	0.234900
535.830537	0.232625
536.191270	0.233084
536.551947	0.232444
536.912567	0.232492
537.273131	0.234395
537.633638	0.234607
537.994089	0.234857
538.354483	0.235885
538.714821	0.233064
539.075103	0.232434
539.435328	0.233500
539.795497	0.237256
540.155609	0.234036
540.515665	0.231978
540.875665	0.237537
541.235609	0.236127
541.595496	0.236257
541.955328	0.232958
542.315102	0.235623
542.674821	0.236244
543.034483	0.236567
543.394090	0.236378
543.753640	0.238175
544.113134	0.233081
544.472571	0.236566
544.831953	0.233246
545.191278	0.237448
545.550548	0.236622
545.909761	0.233678
546.268918	0.234466
546.628019	0.232703
546.987064	0.235542
547.346053	0.237059
547.704986	0.234982
548.063863	0.235105
548.422684	0.235776
548.781449	0.237301
549.140158	0.235108
549.498811	0.237712
549.857408	0.240855
550.215949	0.235423
550.574434	0.238648
550.932864	0.237028
551.291237	0.235300
551.649555	0.236830
552.007817	0.236449
552.366022	0.237566
552.724173	0.237669
553.082267	0.237920
553.440305	0.234586
553.798288	0.239075
554.156215	0.235810
554.514086	0.236767
554.871902	0.239621
555.229661	0.238935
555.587365	0.239456
555.945014	0.241941
556.302606	0.239122
556.660143	0.241366
557.017625	0.237857
557.375050	0.240588
557.732421	0.237360
558.089735	0.239005
558.446994	0.238980
558.804197	0.238269
559.161345	0.238139
559.518437	0.241620
559.875474	0.239869
560.232455	0.239011
560.589381	0.240239
560.946251	0.240337
561.303065	0.237728
561.659825	0.239265
562.016528	0.240993
562.373177	0.243757
562.729770	0.240973
563.086307	0.242878
563.442789	0.240819
563.799216	0.243367
564.155587	0.242600
564.511904	0.243642
564.868164	0.243384
565.224370	0.243361
565.580520	0.245168
565.936615	0.245157
566.292654	0.248253
566.648638	0.245424
567.004567	0.245831
567.360441	0.246563
567.716260	0.248641
568.072023	0.246321
568.427732	0.247199
568.783385	0.249445
569.138982	0.247546
569.494525	0.247025
569.850013	0.250411
570.205445	0.248429
570.560823	0.251328
570.916145	0.252978
571.271412	0.251379
571.626625	0.252682
571.981782	0.253569
572.336884	0.254094
572.691931	0.253954
573.046923	0.255468
573.401860	0.256300
573.756743	0.258053
574.111570	0.256915
574.466342	0.257607
574.821059	0.256637
575.175722	0.259622
575.530330	0.259032
575.884882	0.259627
576.239380	0.261348
576.593823	0.262098
576.948211	0.261646
577.302544	0.264747
577.656823	0.264368
578.011047	0.264493
578.365216	0.265295
578.719330	0.267225
579.073389	0.266674
579.427394	0.268424
579.781344	0.268938
580.135239	0.270367
580.489080	0.270002
580.842866	0.272889
581.196597	0.272819
581.550273	0.271651
581.903895	0.272522
582.257463	0.270539
582.610975	0.274071
582.964434	0.273429
583.317837	0.276013
583.671186	0.276154
584.024481	0.276577
584.377721	0.278773
584.730906	0.279810
585.084037	0.278962
585.437113	0.280769
585.790135	0.280002
586.143103	0.282987
586.496016	0.284243
586.848874	0.281981
587.201679	0.282497
587.554428	0.285634
587.907124	0.284830
588.259765	0.285196
588.612352	0.285807
588.964884	0.289900
589.317362	0.289151
589.669786	0.288992
590.022155	0.287595
590.374470	0.286668
590.726731	0.288913
591.078937	0.294011
591.431090	0.290238
591.783188	0.294330
592.135232	0.294967
592.487222	0.294724
592.839157	0.292987
593.191038	0.295180
593.542866	0.297001
593.894639	0.300552
594.246358	0.298812
594.598022	0.298147
594.949633	0.302218
595.301190	0.302629
595.652692	0.301519
596.004141	0.297519
596.355535	0.305784
596.706876	0.306761
597.058162	0.308861
597.409395	0.306084
597.760573	0.303882
598.111698	0.307105
598.462768	0.307742
598.813785	0.308640
599.164748	0.309835
599.515657	0.310365
599.866511	0.313934
600.217312	0.309174
600.568060	0.314472
600.918753	0.310654
601.269392	0.311703
601.619978	0.315167
601.970510	0.312597
602.320988	0.312607
602.671412	0.310409
603.021783	0.313131
603.372100	0.314230
603.722363	0.314213
604.072572	0.314647
604.422728	0.314435
604.772830	0.316552
605.122878	0.316705
605.472872	0.316974
605.822813	0.315760
606.172701	0.317870
606.522534	0.315460
606.872314	0.315483
607.222041	0.316637
607.571714	0.314116
607.921333	0.315854
608.270899	0.315495
608.620411	0.312315
608.969870	0.316167
609.319276	0.316382
609.668627	0.316004
610.017926	0.315055
610.367171	0.313320
610.716362	0.313930
611.065500	0.313974
611.414585	0.312683
611.763616	0.313213
612.112594	0.313791
612.461518	0.313272
612.810389	0.311084
613.159207	0.313247
613.507971	0.315477
613.856682	0.311125
614.205340	0.312081
614.553945	0.309422
614.902496	0.313165
615.250994	0.311265
615.599439	0.311667
615.947830	0.310906
616.296169	0.311953
616.644454	0.312089
616.992686	0.311944
617.340864	0.309527
617.688990	0.312919
618.037063	0.310184
618.385082	0.311684
618.733048	0.308795
619.080961	0.310771
619.428821	0.310404
619.776628	0.310322
620.124382	0.312241
620.472083	0.312670
620.819731	0.312090
621.167326	0.315541
621.514868	0.315731
621.862357	0.319476
622.209793	0.318978
622.557176	0.321729
622.904506	0.322506
623.251783	0.325487
623.599007	0.327646
623.946179	0.327009
624.293297	0.328690
624.640363	0.332696
624.987376	0.333124
625.334336	0.336084
625.681243	0.338229
626.028097	0.338659
626.374899	0.339388
626.721647	0.339741
627.068343	0.343042
627.414987	0.344331
627.761577	0.346292
628.108115	0.344264
628.454600	0.349774
628.801032	0.347437
629.147412	0.349436
629.493739	0.349878
629.840014	0.352987
630.186236	0.349838
630.532405	0.355798
630.878521	0.352908
631.224585	0.355698
631.570597	0.358717
631.916556	0.357594
632.262462	0.357366
632.608316	0.360167
632.954117	0.360328
633.299866	0.361659
633.645562	0.361428
633.991206	0.366016
634.336797	0.368865
634.682336	0.371436
635.027823	0.372888
635.373257	0.373463
635.718639	0.377559
636.063968	0.376827
636.409245	0.382315
636.754470	0.382524
637.099642	0.385294
637.444762	0.388595
637.789829	0.388211
638.134845	0.391198
638.479808	0.392265
638.824719	0.391671
639.169577	0.396399
639.514383	0.394917
639.859137	0.399319
640.203839	0.398668
640.548489	0.399363
640.893086	0.400499
641.237632	0.402631
641.582125	0.401586
641.926566	0.403017
642.270955	0.402780
642.615292	0.402768
642.959576	0.402037
643.303809	0.403094
643.647990	0.402156
643.992118	0.403041
644.336195	0.406663
644.680219	0.404260
645.024192	0.405328
645.368112	0.398764
645.711981	0.397891
646.055797	0.393088
646.399562	0.395954
646.743274	0.388385
647.086935	0.385221
647.430544	0.385695
647.774101	0.384064
648.117606	0.384149
648.461059	0.384540
648.804460	0.386973
649.147810	0.391811
649.491108	0.393925
649.834354	0.395218
650.177548	0.400411
650.520690	0.405685
650.863781	0.407138
651.206820	0.406553
651.549807	0.410684
651.892742	0.415294
652.235626	0.414891
652.578458	0.415590
652.921238	0.422011
653.263967	0.419175
653.606644	0.422831
653.949269	0.423297
654.291843	0.426655
654.634365	0.424470
654.976836	0.427003
655.319255	0.427904
655.661622	0.428735
656.003938	0.428896
656.346203	0.431677
656.688416	0.430113
657.030577	0.432778
657.372687	0.435342
657.714746	0.436154
658.056753	0.432757
658.398708	0.436714
658.740612	0.437780
659.082465	0.434312
659.424266	0.434788
659.766016	0.433922
660.107715	0.437443
660.449362	0.435704
660.790958	0.436311
661.132503	0.437539
661.473996	0.434180
661.815438	0.435755
662.156829	0.436116
662.498168	0.436868
662.839456	0.437703
663.180693	0.435664
663.521879	0.435086
663.863013	0.436674
664.204097	0.434838
664.545129	0.431595
664.886110	0.432332
665.227040	0.429029
665.567918	0.431791
665.908746	0.429651
666.249522	0.429986
666.590248	0.430449
666.930922	0.428293
667.271545	0.427705
667.612118	0.427986
667.952639	0.429150
668.293109	0.427831
668.633528	0.430373
668.973896	0.430309
669.314213	0.431200
669.654480	0.433046
669.994695	0.433105
670.334859	0.434190
670.674973	0.434682
671.015035	0.434268
671.355047	0.434349
671.695008	0.435289
672.034918	0.437065
672.374777	0.436588
672.714585	0.437524
673.054342	0.437993
673.394049	0.437845
673.733705	0.435681
674.073310	0.436983
674.412864	0.439915
674.752368	0.439810
675.091820	0.439872
675.431223	0.445178
675.770574	0.444152
676.109875	0.447618
676.449125	0.447345
676.788324	0.449521
677.127473	0.455403
677.466571	0.454894
677.805619	0.456394
678.144616	0.458287
678.483562	0.459997
678.822458	0.462201
679.161303	0.462417
679.500098	0.463402
679.838842	0.465140
680.177535	0.463771
680.516179	0.462985
680.854771	0.461881
681.193314	0.455853
681.531805	0.446566
681.870247	0.435672
682.208638	0.427809
682.546978	0.426934
682.885268	0.428198
683.223508	0.434898
683.561697	0.438655
683.899836	0.441126
684.237925	0.444248
684.575963	0.447272
684.913951	0.450847
685.251889	0.445739
685.589776	0.448359
685.927614	0.450869
686.265401	0.444773
686.603137	0.445869
686.940824	0.440264
687.278460	0.439158
687.616046	0.437583
687.953582	0.432655
688.291068	0.434448
688.628504	0.429252
688.965889	0.432097
689.303224	0.435951
689.640510	0.439627
689.977745	0.445486
690.314930	0.453071
690.652065	0.458026
690.989150	0.465141
691.326185	0.472471
691.663170	0.476831
692.000105	0.484271
692.336990	0.491366
692.673825	0.493588
693.010610	0.500173
693.347345	0.506571
693.684030	0.507483
694.020665	0.512274
694.357251	0.521140
694.693786	0.521354
695.030272	0.523645
695.366707	0.528419
695.703093	0.532456
696.039429	0.528820
696.375716	0.531904
696.711952	0.534542
697.048139	0.536071
697.384276	0.538639
697.720363	0.536520
698.056400	0.535033
698.392388	0.541209
698.728326	0.543360
699.064214	0.546857
699.400053	0.547047
699.735842	0.551889
700.071581	0.554024
700.407270	0.557055
700.742910	0.559852
701.078501	0.565972
701.414042	0.566330
701.749533	0.569460
702.084974	0.579166
702.420366	0.571006
702.755709	0.578502
703.091002	0.586100
703.426246	0.579760
703.761440	0.585232
704.096584	0.590210
704.431679	0.587471
704.766725	0.590007
705.101721	0.591325
705.436668	0.587223
705.771565	0.594269
706.106413	0.590211
706.441212	0.586786
706.775961	0.585737
707.110661	0.587921
707.445311	0.584762
707.779913	0.582066
708.114465	0.580176
708.448967	0.576812
708.783421	0.569079
709.117825	0.563333
709.452180	0.562633
709.786485	0.556760
710.120742	0.547030
710.454949	0.548841
710.789107	0.540857
711.123216	0.530682
711.457275	0.532461
711.791286	0.524315
712.125247	0.523497
712.459159	0.534269
712.793023	0.525257
713.126837	0.529974
713.460602	0.531026
713.794318	0.539841
714.127985	0.538426
714.461602	0.549225
714.795171	0.552412
715.128691	0.560022
715.462162	0.567318
715.795584	0.573772
716.128957	0.576645
716.462281	0.582836
716.795556	0.586764
717.128782	0.592234
717.461960	0.601353
717.795088	0.599878
718.128167	0.606049
718.461198	0.615008
718.794180	0.615343
719.127113	0.618353
719.459997	0.620753
719.792833	0.627940
720.125619	0.629302
720.458357	0.635191
720.791046	0.634856
721.123686	0.638868
721.456278	0.645016
721.788821	0.642199
722.121315	0.647433
722.453761	0.651594
722.786158	0.648362
723.118506	0.645768
723.450805	0.652677
723.783056	0.649692
724.115259	0.646300
724.447412	0.647032
724.779518	0.647023
725.111574	0.646698
725.443582	0.641891
725.775542	0.644157
726.107453	0.635574
726.439315	0.636327
726.771129	0.634839
727.102895	0.627642
727.434612	0.620877
727.766281	0.618661
728.097901	0.617709
728.429473	0.617057
728.760996	0.615434
729.092471	0.616137
729.423897	0.620041
729.755276	0.618755
730.086606	0.618292
730.417887	0.613496
730.749120	0.603937
731.080305	0.594390
731.411442	0.591009
731.742530	0.594511
732.073570	0.594394
732.404562	0.588230
732.735506	0.588776
733.066401	0.593428
733.397249	0.602889
733.728048	0.614709
734.058798	0.626482
734.389501	0.638280
734.720156	0.648132
735.050762	0.655269
735.381320	0.656049
735.711831	0.664553
736.042293	0.670023
736.372707	0.666609
736.703073	0.670631
737.033391	0.673008
737.363661	0.670225
737.693883	0.664990
738.024056	0.663776
738.354182	0.665092
738.684260	0.653211
739.014290	0.650454
739.344272	0.650800
739.674207	0.644124
740.004093	0.643840
740.333931	0.644190
740.663722	0.642857
740.993464	0.644208
741.323159	0.648223
741.652806	0.653342
741.982405	0.657532
742.311956	0.663316
742.641460	0.664992
742.970915	0.668638
743.300323	0.675431
743.629683	0.682021
743.958996	0.685176
744.288260	0.688188
744.617477	0.695420
744.946647	0.696930
745.275768	0.703304
745.604842	0.701767
745.933869	0.711948
746.262847	0.712439
746.591778	0.706107
746.920662	0.712399
747.249498	0.719532
747.578286	0.710602
747.907027	0.706086
748.235720	0.706484
748.564365	0.702112
748.892963	0.700828
749.221514	0.704034
749.550017	0.709090
749.878473	0.709400
750.206881	0.716986
750.535242	0.716076
750.863555	0.715817
751.191821	0.717370
751.520039	0.721152
751.848210	0.724467
752.176334	0.718561
752.504411	0.717154
752.832440	0.725035
753.160421	0.729298
753.488356	0.727073
753.816243	0.725026
754.144082	0.733775
754.471875	0.736574
754.799620	0.733103
755.127318	0.733386
755.454969	0.734596
755.782572	0.735147
756.110129	0.737750
756.437638	0.741583
756.765100	0.737955
757.092515	0.736020
757.419882	0.734151
757.747203	0.739189
758.074477	0.740231
758.401703	0.735341
758.728882	0.731109
759.056014	0.729884
759.383099	0.728961
759.710138	0.730108
760.037129	0.726317
760.364073	0.720154
760.690970	0.722626
761.017820	0.728071
761.344623	0.725022
761.671379	0.715870
761.998088	0.703685
762.324751	0.680185
762.651366	0.637271
762.977935	0.570407
763.304456	0.517614
763.630931	0.507630
763.957359	0.546967
764.283740	0.591836
764.610074	0.619486
764.936362	0.650971
765.262602	0.678694
765.588796	0.700191
765.914943	0.717299
766.241044	0.735461
766.567097	0.742043
766.893104	0.753425
767.219064	0.759225
767.544978	0.765957
767.870845	0.779604
768.196665	0.783411
768.522438	0.781207
768.848165	0.783077
769.173846	0.790992
769.499479	0.795661
769.825066	0.799802
770.150607	0.805255
770.476101	0.799444
770.801548	0.802187
771.126949	0.813541
771.452303	0.818048
771.777611	0.814847
772.102872	0.815024
772.428087	0.820068
772.753256	0.824035
773.078378	0.825688
773.403453	0.833835
773.728482	0.838716
774.053465	0.832669
774.378401	0.835070
774.703291	0.844526
775.028135	0.845067
775.352932	0.844530
775.677683	0.849959
776.002388	0.849156
776.327046	0.849146
776.651658	0.853379
776.976224	0.855387
777.300743	0.854705
777.625216	0.858125
777.949643	0.859799
778.274024	0.859062
778.598359	0.861464
778.922647	0.859668
779.246889	0.861492
779.571086	0.863688
779.895236	0.867322
780.219339	0.863990
780.543397	0.860777
780.867409	0.860096
781.191374	0.861719
781.515294	0.863705
781.839167	0.863070
782.162995	0.864536
782.486776	0.861920
782.810511	0.863615
783.134201	0.867084
783.457844	0.866290
783.781441	0.867047
784.104993	0.872634
784.428498	0.874452
784.751958	0.870456
785.075372	0.871948
785.398739	0.876000
785.722061	0.870474
786.045337	0.867535
786.368568	0.871834
786.691752	0.874323
787.014891	0.860183
787.337983	0.850586
787.661030	0.843413
787.984031	0.825773
788.306987	0.814070
788.629897	0.814536
788.952760	0.819559
789.275579	0.824179
789.598351	0.839492
789.921078	0.852717
790.243759	0.854382
790.566395	0.858916
790.888984	0.866732
791.211529	0.871425
791.534027	0.874960
791.856480	0.876844
792.178888	0.882269
792.501249	0.884295
792.823566	0.886988
793.145836	0.886448
793.468062	0.887340
793.790241	0.888813
794.112375	0.885413
794.434464	0.883016
794.756507	0.881680
795.078505	0.880830
795.400457	0.875530
795.722364	0.863116
796.044226	0.856487
796.366042	0.854009
796.687812	0.857550
797.009538	0.853020
797.331218	0.857757
797.652852	0.862430
797.974442	0.866904
798.295986	0.867702
798.617484	0.869472
798.938938	0.874891
799.260346	0.879020
799.581709	0.879794
799.903026	0.883506
800.224299	0.883705
800.545526	0.886558
800.866708	0.892011
801.187845	0.895585
801.508936	0.894662
801.829983	0.892969
802.150984	0.896341
802.471940	0.901555
802.792851	0.899872
803.113717	0.900982
803.434538	0.899000
803.755314	0.902374
804.076045	0.903180
804.396731	0.903173
804.717372	0.901706
805.037967	0.906235
805.358518	0.904627
805.679024	0.899142
805.999485	0.900205
806.319901	0.898892
806.640272	0.901621
806.960598	0.899736
807.280879	0.896176
807.601115	0.895255
807.921306	0.899932
808.241453	0.900656
808.561554	0.897118
808.881611	0.898145
809.201623	0.898805
809.521590	0.900322
809.841513	0.901143
810.161390	0.899771
810.481223	0.899407
810.801011	0.904812
811.120755	0.907252
811.440453	0.905362
811.760107	0.905668
812.079716	0.903657
812.399281	0.907775
812.718801	0.908583
813.038276	0.909595
813.357707	0.910729
813.677093	0.909125
813.996434	0.908997
814.315731	0.913075
814.634983	0.913441
814.954191	0.912356
815.273354	0.908341
815.592473	0.904517
815.911547	0.905129
816.230577	0.900828
816.549562	0.899590
816.868502	0.899513
817.187399	0.896922
817.506250	0.891552
817.825058	0.891610
818.143821	0.889692
818.462539	0.883907
818.781213	0.876058
819.099843	0.864490
819.418429	0.847595
819.736970	0.831788
820.055466	0.810384
820.373919	0.784774
820.692327	0.750718
821.010691	0.715966
821.329011	0.634936
821.647286	0.517772
821.965517	0.402831
822.283704	0.359499
822.601847	0.359809
822.919945	0.395765
823.237999	0.430836
823.556010	0.478567
823.873976	0.535469
824.191897	0.587513
824.509775	0.630988
824.827609	0.676159
825.145398	0.700258
825.463144	0.701512
825.780845	0.684306
826.098502	0.666099
826.416116	0.620551
826.733685	0.574989
827.051210	0.565463
827.368692	0.581112
827.686129	0.619727
828.003522	0.674086
828.320872	0.722479
828.638177	0.766273
828.955439	0.800793
829.272656	0.821567
829.589830	0.839656
829.906960	0.857075
830.224046	0.868340
830.541088	0.880159
830.858086	0.884277
831.175041	0.892032
831.491952	0.889211
831.808819	0.885236
832.125642	0.878016
832.442421	0.864245
832.759157	0.841885
833.075849	0.793194
833.392497	0.728660
833.709101	0.687624
834.025662	0.697818
834.342179	0.729784
834.658653	0.769743
834.975083	0.806893
835.291469	0.834221
835.607811	0.856298
835.924110	0.874739
836.240366	0.891274
836.556578	0.903887
836.872746	0.912111
837.188871	0.919089
837.504952	0.922945
837.820990	0.926911
838.136984	0.930004
838.452935	0.934121
838.768842	0.935036
839.084706	0.929266
839.400526	0.902489
839.716303	0.860055
840.032037	0.839022
840.347727	0.842097
840.663373	0.860118
840.978977	0.882799
841.294537	0.906463
841.610054	0.920343
841.925527	0.929697
842.240957	0.937903
842.556344	0.944213
842.871687	0.950335
843.186987	0.953066
843.502244	0.954810
843.817458	0.955996
844.132629	0.960379
844.447756	0.964030
844.762840	0.965168
845.077881	0.964544
845.392879	0.963786
845.707833	0.967144
846.022745	0.968831
846.337613	0.969528
846.652438	0.969267
846.967221	0.968763
847.281960	0.971170
847.596656	0.972312
847.911309	0.971901
848.225919	0.971948
848.540485	0.973589
848.855009	0.974738
849.169490	0.973135
849.483928	0.974763
849.798323	0.972671
850.112675	0.975744
850.426984	0.974664
850.741251	0.975071
851.055474	0.975032
851.369654	0.973983
851.683792	0.971261
851.997887	0.974319
852.311938	0.975160
852.625947	0.974035
852.939914	0.971858
853.253837	0.973297
853.567718	0.974927
853.881555	0.974742
854.195350	0.973063
854.509103	0.973801
854.822812	0.975736
855.136479	0.975450
855.450103	0.974178
855.763685	0.973773
856.077224	0.974777
856.390720	0.975474
856.704173	0.974669
857.017584	0.972857
857.330953	0.972919
857.644278	0.971066
857.957561	0.973636
858.270802	0.974520
858.584000	0.973559
858.897155	0.971633
859.210268	0.971429
859.523339	0.974063
859.836367	0.975409
860.149352	0.975469
860.462295	0.973483
860.775195	0.974307
861.088054	0.972984
861.400869	0.975810
861.713642	0.974753
862.026373	0.976764
862.339062	0.975766
862.651708	0.973723
862.964312	0.972892
863.276873	0.972851
863.589392	0.973101
863.901869	0.970142
864.214303	0.970269
864.526696	0.970112
864.839045	0.967699
865.151353	0.966709
865.463619	0.966192
865.775842	0.966944
866.088023	0.967997
866.400162	0.966932
866.712258	0.968072
867.024313	0.967425
867.336325	0.970415
867.648296	0.969035
867.960224	0.965290
868.272110	0.966908
868.583954	0.968529
868.895755	0.968417
869.207515	0.966614
869.519233	0.965746
869.830909	0.964606
870.142542	0.966555
870.454134	0.965950
870.765684	0.965018
871.077191	0.964461
871.388657	0.963930
871.700081	0.963947
872.011463	0.963582
872.322803	0.961908
872.634101	0.961369
872.945357	0.958133
873.256571	0.956131
873.567744	0.958638
873.878874	0.957110
874.189963	0.956844
874.501010	0.959061
874.812015	0.953767
875.122979	0.953815
875.433900	0.956589
875.744780	0.958259
876.055618	0.954262
876.366415	0.953293
876.677169	0.954247
876.987882	0.955405
877.298554	0.954776
877.609183	0.951802
877.919771	0.948268
878.230317	0.946782
878.540822	0.942898
878.851285	0.938913
879.161707	0.929398
879.472087	0.918102
879.782425	0.900140
880.092722	0.864927
880.402977	0.810697
880.713191	0.747598
881.023363	0.686484
881.333494	0.652206
881.643583	0.623776
881.953631	0.624572
882.263637	0.652131
882.573602	0.693226
882.883526	0.719441
883.193408	0.745004
883.503248	0.766497
883.813048	0.795298
884.122806	0.826356
884.432522	0.850536
884.742197	0.871418
885.051831	0.882871
885.361424	0.893733
885.670975	0.905974
885.980485	0.915019
886.289954	0.921529
886.599382	0.925049
886.908768	0.931535
887.218113	0.935672
887.527417	0.942828
887.836680	0.945143
888.145901	0.946922
888.455082	0.951395
888.764221	0.956246
889.073319	0.957080
889.382376	0.957855
889.691392	0.955740
890.000366	0.957230
890.309300	0.956743
890.618193	0.957433
890.927044	0.955098
891.235855	0.955272
891.544625	0.955636
891.853353	0.954905
892.162041	0.952536
892.470687	0.946374
892.779293	0.940859
893.087858	0.936760
893.396381	0.927968
893.704864	0.915004
894.013306	0.891085
894.321707	0.863420
894.630068	0.848154
894.938387	0.841593
895.246665	0.844485
895.554903	0.856904
895.863100	0.870613
896.171256	0.887858
896.479371	0.908199
896.787446	0.920553
897.095480	0.928768
897.403473	0.931189
897.711425	0.935548
898.019336	0.942030
898.327207	0.947979
898.635038	0.947401
898.942827	0.949692
899.250576	0.951313
899.558284	0.957015
899.865952	0.957916
900.173579	0.958670
900.481165	0.959479
900.788711	0.962505
901.096216	0.965976
901.403681	0.966907
901.711105	0.967003
902.018489	0.967606
902.325832	0.967081
902.633135	0.964594
902.940397	0.959366
903.247619	0.945681
903.554800	0.921764
903.861941	0.879278
904.169041	0.841624
904.476101	0.822974
904.783121	0.824191
905.090100	0.840847
905.397039	0.863198
905.703938	0.885904
906.010796	0.907065
906.317614	0.924027
906.624391	0.938486
906.931129	0.947540
907.237826	0.955151
907.544483	0.962417
907.851099	0.968092
908.157675	0.971558
908.464211	0.975220
908.770707	0.975663
909.077163	0.978527
909.383578	0.978996
909.689954	0.979835
909.996289	0.980779
910.302584	0.983003
910.608839	0.984581
910.915054	0.983674
911.221229	0.983689
911.527363	0.981774
911.833458	0.982410
912.139513	0.980921
912.445527	0.980904
912.751502	0.978585
913.057436	0.977019
913.363331	0.974229
913.669186	0.971738
913.975000	0.965414
914.280775	0.958460
914.586510	0.950776
914.892205	0.939056
915.197859	0.915040
915.503475	0.887204
915.809050	0.866734
916.114585	0.859867
916.420081	0.857079
916.725536	0.854823
917.030952	0.863195
917.336328	0.876689
917.641665	0.892347
917.946961	0.908102
918.252218	0.919447
918.557435	0.929580
918.862612	0.937927
919.167750	0.944697
919.472848	0.950427
919.777906	0.956424
920.082925	0.962928
920.387904	0.965923
920.692843	0.966042
920.997743	0.968047
921.302603	0.972044
921.607423	0.972995
921.912204	0.975845
922.216946	0.978202
922.521647	0.977681
922.826310	0.978840
923.130932	0.982052
923.435516	0.984036
923.740059	0.983585
924.044564	0.983988
924.349028	0.985632
924.653454	0.987642
924.957840	0.988341
925.262186	0.988625
925.566493	0.988685
925.870761	0.990708
926.174989	0.990422
926.479178	0.991987
926.783328	0.992860
927.087438	0.993273
927.391509	0.992819
927.695541	0.994360
927.999533	0.995345
928.303486	0.995604
928.607400	0.995923
928.911275	0.997007
929.215110	0.996793
929.518906	0.995353
929.822663	0.995954
930.126381	0.996261
930.430060	0.995603
930.733699	0.996233
931.037299	0.995522
931.340861	0.994469
931.644383	0.994218
931.947866	0.995186
932.251309	0.996141
932.554714	0.994689
932.858080	0.995688
933.161407	0.995678
933.464694	0.995469
933.767943	0.995489
934.071153	0.996816
934.374323	0.997159
934.677455	0.996511
934.980548	0.996005
935.283602	0.997041
935.586617	0.997765
935.889593	0.996523
936.192530	0.996809
936.495428	0.997095
936.798287	0.996284
937.101108	0.995800
937.403890	0.994115
937.706632	0.994884
938.009336	0.992694
938.312002	0.990129
938.614628	0.989095
938.917216	0.987034
939.219765	0.987298
939.522275	0.988250
939.824747	0.987654
940.127179	0.988912
940.429573	0.990386
940.731929	0.989312
941.034246	0.989558
941.336524	0.989625
941.638763	0.991851
941.940964	0.990489
942.243126	0.991367
942.545250	0.993426
942.847335	0.993336
943.149381	0.993248
943.451389	0.993319
943.753359	0.993805
944.055290	0.995997
944.357182	0.994736
944.659036	0.995392
944.960851	0.995736
945.262628	0.996445
945.564367	0.994282
945.866067	0.994740
946.167729	0.995953
946.469352	0.996637
946.770937	0.993604
947.072484	0.994701
947.373992	0.994002
947.675462	0.994646
947.976893	0.994973
948.278286	0.996834
948.579641	0.996921
948.880958	0.995466
949.182236	0.996355
949.483476	0.996106
949.784678	0.996901
950.085841	0.996540
950.386967	0.996489
950.688054	0.996403
950.989103	0.995037
951.290114	0.994102
951.591087	0.995127
951.892021	0.994140
952.192917	0.993432
952.493776	0.994559
952.794596	0.993870
953.095378	0.992438
953.396122	0.993858
953.696828	0.993029
953.997496	0.995426
954.298126	0.995990
954.598718	0.995126
954.899272	0.996350
955.199788	0.996006
955.500266	0.997794
955.800706	0.997669
956.101108	0.997951
956.401472	1.000475
956.701798	0.998382
957.002087	0.998657
957.302337	0.998832
957.602550	0.999267
957.902724	0.998808
958.202861	1.000255
958.502960	1.000347
958.803022	1.001533
959.103045	1.001038
959.403031	1.001989
959.702979	1.002113
960.002889	1.000553
960.302762	0.999692
960.602596	1.002721
960.902393	1.002053
961.202153	1.001228
961.501875	1.002478
961.801559	1.002462
962.101205	1.001721
962.400814	1.003702
962.700385	1.002312
962.999918	1.001677
963.299414	1.001580
963.598873	1.002654
963.898293	1.002194
964.197677	1.000892
964.497022	1.002936
964.796331	1.002645
965.095601	1.003007
965.394835	1.002744
965.694030	1.003478
965.993189	1.001855
966.292309	1.002898
966.591393	1.002289
966.890439	1.004177
967.189447	1.002446
967.488419	1.001272
967.787353	1.002064
968.086249	1.002828
968.385108	1.003002
968.683930	1.003732
968.982714	1.003379
969.281462	1.002418
969.580172	1.002749
969.878844	1.003530
970.177480	1.002154
970.476078	1.003001
970.774639	1.002734
971.073162	1.003125
971.371649	1.002163
971.670098	1.000914
971.968510	1.002145
972.266885	1.001642
972.565223	1.001408
972.863524	1.001144
973.161788	1.000569
973.460014	1.004212
973.758204	1.001687
974.056356	1.001986
974.354471	1.001200
974.652550	1.002376
974.950591	1.001903
975.248595	1.001964
975.546563	1.003386
975.844493	1.002714
976.142386	1.001088
976.440243	1.002907
976.738062	1.003668
977.035845	1.001733
977.333590	1.003290
977.631299	1.002413
977.928971	1.003422
978.226606	1.002210
978.524204	1.002662
978.821765	1.003852
979.119290	1.003970
979.416777	1.003985
979.714228	1.002564
980.011642	1.004329
980.309020	1.001829
980.606360	1.004050
980.903664	1.001925
981.200931	1.001816
981.498162	1.001792
981.795356	1.001272
982.092513	0.999041
982.389633	0.999544
982.686717	0.996931
982.983764	0.995272
983.280775	0.995555
983.577749	0.997505
983.874686	0.996553
984.171587	0.997091
984.468451	0.999021
984.765279	0.999783
985.062070	1.000381
985.358824	1.001008
985.655543	1.002388
985.952224	1.002078
986.248869	1.003203
986.545478	1.004261
986.842050	1.002068
987.138586	1.002792
987.435086	1.003961
987.731549	1.004979
988.027975	1.004148
988.324366	1.004121
988.620719	1.005080
988.917037	1.004754
989.213318	1.005055
989.509563	1.004064
989.805772	1.004647
990.101944	1.004941
990.398080	1.003774
990.694180	1.004649
990.990244	1.003552
991.286271	1.003577
991.582262	1.004500
991.878217	1.003612
992.174136	1.004863
992.470019	1.004807
992.765865	1.006331
993.061676	1.004435
993.357450	1.003871
993.653188	1.005032
993.948890	1.003968
994.244556	1.003624
994.540186	1.003110
994.835780	1.002761
995.131337	1.004180
995.426859	1.003163
995.722345	1.003449
996.017795	1.002550
996.313208	1.002399
996.608586	1.001529
996.903928	1.002234
997.199234	1.003269
997.494504	1.002752
997.789738	1.001711
998.084936	1.003540
998.380099	1.001386
998.675225	1.003235
998.970316	1.004840
999.265371	1.003660
999.560390	1.003449
999.855373	1.003795
1000.150320	1.003791
1000.445232	1.004803
1000.740108	1.003264
1001.034948	1.004608
1001.329752	1.004958
1001.624521	1.003410
1001.919254	1.004115
1002.213951	1.004779
1002.508613	1.003487
1002.803239	1.004427
1003.097829	1.004760
1003.392384	1.003979
1003.686903	1.004776
1003.981386	1.004782
1004.275834	1.004794
1004.570246	1.003619
1004.864623	1.005214
1005.158964	1.004798
1005.453270	1.004731
1005.747540	1.004391
1006.041775	1.005407
1006.335974	1.004586
1006.630138	1.004685
1006.924266	1.003948
1007.218359	1.004342
1007.512416	1.005895
1007.806438	1.004116
1008.100425	1.004929
1008.394376	1.006875
1008.688292	1.003814
1008.982172	1.003165
1009.276017	1.005944
1009.569827	1.005283
1009.863602	1.003187
1010.157341	1.005631
1010.451045	1.004392
1010.744714	1.005955
1011.038347	1.005493
1011.331945	1.003908
1011.625508	1.005334
1011.919036	1.003974
1012.212528	1.005339
1012.505986	1.004171
1012.799408	1.005136
1013.092795	1.006209
1013.386147	1.004473
1013.679464	1.006485
1013.972745	1.005049
1014.265992	1.004792
1014.559204	1.005637
1014.852380	1.005961
1015.145521	1.005368
1015.438628	1.004673
1015.731699	1.004598
1016.024736	1.005820
1016.317737	1.004767
1016.610703	1.005910
1016.903635	1.005757
1017.196531	1.005183
1017.489393	1.003970
1017.782219	1.003488
1018.075011	1.004749
1018.367768	1.004016
1018.660490	1.004655
1018.953177	1.004655
1019.245829	1.004655
