Dividing Wavelength (nm)	Counts (n)	Blue Motor Position (mm): 9.100000	Red Motor Position (mm): 0.000000	
326.493990	1.004479
326.888308	1.004479
327.282561	1.004479
327.676750	1.005595
328.070874	1.006087
328.464933	1.007116
328.858929	1.006564
329.252859	1.005363
329.646726	1.004786
330.040528	1.004193
330.434265	1.003592
330.827938	1.004250
331.221547	1.004580
331.615091	1.006126
332.008571	1.005325
332.401986	1.004453
332.795338	1.004342
333.188625	1.004069
333.581847	1.004233
333.975006	1.004805
334.368100	1.004415
334.761129	1.003494
335.154095	1.004301
335.546996	1.004150
335.939833	0.999031
336.332606	0.999327
336.725315	0.997702
337.117960	0.998510
337.510540	0.998517
337.903056	0.999551
338.295508	1.000438
338.687896	0.999407
339.080220	0.998810
339.472480	0.998143
339.864676	1.000238
340.256807	0.998088
340.648875	0.999529
341.040879	0.998593
341.432818	0.999146
341.824694	0.999125
342.216506	0.999982
342.608253	0.998311
342.999937	0.998644
343.391557	0.999423
343.783113	0.998917
344.174605	1.000481
344.566033	0.997374
344.957397	0.999256
345.348697	0.999731
345.739934	0.997881
346.131106	0.999193
346.522215	0.997433
346.913260	0.998493
347.304241	0.997259
347.695159	0.998590
348.086012	0.998815
348.476802	0.998488
348.867528	0.998543
349.258191	0.999157
349.648789	0.998763
350.039324	0.999311
350.429796	0.999126
350.820203	0.997997
351.210548	0.999188
351.600828	0.997853
351.991045	0.997771
352.381198	0.999143
352.771288	0.998500
353.161314	0.998894
353.551276	0.998294
353.941175	0.996832
354.331010	0.998970
354.720782	0.997389
355.110490	0.998306
355.500135	0.999177
355.889717	0.997049
356.279235	0.998160
356.668689	0.998204
357.058080	0.997342
357.447408	0.998016
357.836672	0.997047
358.225873	0.997895
358.615010	0.997974
359.004084	0.996592
359.393095	0.997868
359.782043	0.997730
360.170927	0.997698
360.559748	0.997539
360.948505	0.997955
361.337199	0.996437
361.725830	0.997663
362.114398	0.997571
362.502903	0.997409
362.891344	0.996008
363.279722	0.997122
363.668037	0.999148
364.056289	0.996098
364.444478	0.997112
364.832603	0.995848
365.220665	0.996787
365.608665	0.996392
365.996601	0.996740
366.384474	0.995757
366.772284	0.995428
367.160031	0.994102
367.547715	0.995390
367.935336	0.995218
368.322893	0.992710
368.710388	0.991186
369.097820	0.990681
369.485189	0.988066
369.872495	0.986486
370.259738	0.984723
370.646918	0.982437
371.034035	0.979383
371.421090	0.976608
371.808081	0.970907
372.195010	0.968268
372.581875	0.963766
372.968678	0.958979
373.355418	0.955729
373.742096	0.948390
374.128710	0.943964
374.515262	0.938592
374.901751	0.933024
375.288177	0.928581
375.674540	0.920362
376.060841	0.915212
376.447079	0.908661
376.833254	0.903270
377.219367	0.897364
377.605417	0.885220
377.991404	0.882668
378.377329	0.876974
378.763191	0.869880
379.148991	0.861658
379.534727	0.853439
379.920402	0.844925
380.306013	0.841655
380.691563	0.829249
381.077049	0.822030
381.462474	0.818373
381.847835	0.807760
382.233134	0.802048
382.618371	0.802181
383.003545	0.785187
383.388657	0.782449
383.773706	0.775312
384.158693	0.771453
384.543618	0.766631
384.928480	0.757147
385.313280	0.747815
385.698017	0.745843
386.082692	0.736532
386.467305	0.734416
386.851856	0.728902
387.236344	0.722623
387.620770	0.718396
388.005133	0.711793
388.389435	0.706480
388.773674	0.703329
389.157851	0.695322
389.541965	0.692841
389.926018	0.699587
390.310008	0.685943
390.693936	0.684172
391.077802	0.675149
391.461606	0.676985
391.845348	0.666948
392.229027	0.665800
392.612645	0.663900
392.996200	0.651020
393.379694	0.644095
393.763125	0.634076
394.146494	0.638655
394.529801	0.628971
394.913047	0.622205
395.296230	0.627143
395.679351	0.618905
396.062410	0.615470
396.445408	0.617812
396.828343	0.613032
397.211217	0.608821
397.594028	0.620211
397.976778	0.611584
398.359466	0.607343
398.742092	0.602792
399.124656	0.615089
399.507158	0.602933
399.889598	0.600257
400.271977	0.591339
400.654294	0.595523
401.036549	0.594040
401.418742	0.597868
401.800874	0.584763
402.182944	0.581827
402.564952	0.572900
402.946898	0.575523
403.328783	0.575533
403.710606	0.587051
404.092367	0.561388
404.474067	0.566652
404.855705	0.565636
405.237282	0.574368
405.618797	0.560227
406.000250	0.556742
406.381642	0.546556
406.762972	0.551162
407.144240	0.550407
407.525447	0.549594
407.906593	0.542745
408.287677	0.537919
408.668700	0.546430
409.049661	0.540621
409.430560	0.535932
409.811399	0.544272
410.192176	0.526277
410.572891	0.533627
410.953545	0.521251
411.334138	0.535242
411.714669	0.527051
412.095139	0.539372
412.475547	0.523642
412.855894	0.525766
413.236180	0.524576
413.616405	0.529623
413.996568	0.520079
414.376670	0.526510
414.756711	0.531690
415.136691	0.528209
415.516609	0.518958
415.896466	0.516191
416.276262	0.512420
416.655997	0.514312
417.035670	0.495170
417.415283	0.487054
417.794834	0.491857
418.174324	0.497455
418.553753	0.506377
418.933121	0.488577
419.312428	0.483020
419.691674	0.488167
420.070859	0.476699
420.449983	0.484825
420.829045	0.473575
421.208047	0.483112
421.586988	0.475654
421.965867	0.474428
422.344686	0.463246
422.723444	0.475902
423.102141	0.492988
423.480777	0.465834
423.859352	0.486632
424.237866	0.463911
424.616319	0.464086
424.994712	0.455297
425.373044	0.465823
425.751314	0.453797
426.129524	0.470074
426.507673	0.454215
426.885762	0.447148
427.263789	0.453043
427.641756	0.462325
428.019662	0.452338
428.397508	0.452526
428.775292	0.456039
429.153016	0.448155
429.530679	0.454512
429.908282	0.447811
430.285824	0.458299
430.663305	0.436373
431.040726	0.457401
431.418086	0.457087
431.795385	0.448981
432.172624	0.448355
432.549802	0.447901
432.926920	0.447102
433.303977	0.446689
433.680974	0.444213
434.057910	0.442443
434.434786	0.441973
434.811601	0.444532
435.188355	0.427184
435.565050	0.436355
435.941683	0.437392
436.318257	0.420819
436.694770	0.422258
437.071222	0.420132
437.447614	0.424401
437.823946	0.431182
438.200218	0.420404
438.576429	0.430422
438.952580	0.423224
439.328670	0.419518
439.704700	0.426249
440.080670	0.428274
440.456580	0.409434
440.832429	0.416896
441.208218	0.427680
441.583947	0.417193
441.959616	0.416410
442.335224	0.422129
442.710773	0.412357
443.086261	0.410838
443.461689	0.424572
443.837057	0.414725
444.212365	0.404406
444.587612	0.411325
444.962800	0.401214
445.337927	0.402915
445.712995	0.429370
446.088002	0.390921
446.462949	0.401425
446.837837	0.406431
447.212664	0.394559
447.587431	0.386598
447.962139	0.357371
448.336786	0.315646
448.711374	0.326572
449.085901	0.371191
449.460369	0.375131
449.834776	0.378657
450.209124	0.357427
450.583412	0.350460
450.957640	0.343410
451.331808	0.355011
451.705917	0.378378
452.079965	0.382787
452.453954	0.371255
452.827883	0.377988
453.201752	0.372501
453.575562	0.384080
453.949311	0.372596
454.323001	0.378930
454.696632	0.374580
455.070202	0.367042
455.443713	0.359023
455.817164	0.353527
456.190556	0.349395
456.563888	0.346388
456.937160	0.343344
457.310373	0.361143
457.683526	0.360273
458.056619	0.365829
458.429653	0.366542
458.802628	0.369596
459.175542	0.364237
459.548398	0.346616
459.921194	0.339047
460.293930	0.339516
460.666607	0.316929
461.039224	0.304902
461.411782	0.300485
461.784280	0.299806
462.156719	0.304137
462.529099	0.308142
462.901419	0.324464
463.273680	0.328784
463.645882	0.327981
464.018024	0.334097
464.390106	0.326683
464.762130	0.311543
465.134094	0.294511
465.505999	0.263105
465.877845	0.233776
466.249631	0.220610
466.621358	0.228058
466.993026	0.241761
467.364634	0.248169
467.736184	0.256947
468.107674	0.265873
468.479105	0.264851
468.850477	0.272029
469.221790	0.278447
469.593043	0.288660
469.964238	0.293259
470.335373	0.293074
470.706449	0.291113
471.077467	0.291769
471.448425	0.253947
471.819324	0.229202
472.190164	0.228773
472.560945	0.257580
472.931667	0.279752
473.302330	0.284242
473.672934	0.296102
474.043479	0.283967
474.413965	0.286169
474.784393	0.289249
475.154761	0.284372
475.525070	0.281957
475.895321	0.287454
476.265513	0.281680
476.635645	0.276886
477.005719	0.276930
477.375734	0.273074
477.745691	0.266745
478.115588	0.262819
478.485427	0.256542
478.855207	0.243350
479.224928	0.225602
479.594591	0.214051
479.964194	0.217435
480.333739	0.218670
480.703226	0.219873
481.072653	0.218372
481.442022	0.213942
481.811333	0.210653
482.180584	0.214106
482.549777	0.219471
482.918912	0.223102
483.287988	0.222643
483.657005	0.222145
484.025964	0.228511
484.394864	0.225674
484.763706	0.226307
485.132489	0.231421
485.501213	0.232407
485.869879	0.230603
486.238487	0.233780
486.607036	0.231951
486.975527	0.236535
487.343959	0.232096
487.712333	0.231261
488.080648	0.232565
488.448905	0.231851
488.817104	0.233018
489.185244	0.227395
489.553326	0.224604
489.921350	0.214175
490.289315	0.196978
490.657222	0.191490
491.025070	0.193083
491.392861	0.194964
491.760593	0.200813
492.128267	0.206557
492.495883	0.212089
492.863440	0.218294
493.230939	0.224755
493.598380	0.226048
493.965763	0.228413
494.333088	0.230453
494.700354	0.231988
495.067563	0.230808
495.434713	0.234337
495.801805	0.231710
496.168839	0.233769
496.535815	0.235121
496.902733	0.234876
497.269593	0.236702
497.636395	0.234138
498.003139	0.234521
498.369825	0.237648
498.736453	0.234015
499.103023	0.235660
499.469535	0.235053
499.835989	0.235385
500.202385	0.236059
500.568723	0.239421
500.935003	0.234257
501.301226	0.238778
501.667390	0.233110
502.033497	0.231402
502.399546	0.234233
502.765537	0.236077
503.131470	0.234628
503.497345	0.230731
503.863163	0.239576
504.228923	0.232495
504.594625	0.230909
504.960269	0.236703
505.325856	0.232083
505.691385	0.236388
506.056856	0.232908
506.422270	0.232525
506.787625	0.234768
507.152924	0.232196
507.518164	0.232731
507.883347	0.234398
508.248472	0.236109
508.613540	0.230795
508.978550	0.233412
509.343503	0.234083
509.708398	0.231628
510.073236	0.229117
510.438016	0.229129
510.802738	0.230210
511.167403	0.229133
511.532010	0.231224
511.896561	0.226646
512.261053	0.224996
512.625488	0.227520
512.989866	0.227831
513.354186	0.227999
513.718449	0.229633
514.082655	0.226070
514.446803	0.228484
514.810894	0.226140
515.174927	0.228837
515.538904	0.228545
515.902822	0.225098
516.266684	0.227668
516.630488	0.228601
516.994235	0.227673
517.357925	0.226276
517.721558	0.224496
518.085133	0.224254
518.448651	0.224136
518.812112	0.226551
519.175516	0.226250
519.538863	0.223707
519.902152	0.225549
520.265385	0.222087
520.628560	0.223998
520.991678	0.224362
521.354739	0.223394
521.717743	0.224329
522.080690	0.224846
522.443580	0.222191
522.806413	0.222884
523.169189	0.222582
523.531908	0.221337
523.894569	0.224849
524.257174	0.224847
524.619722	0.222539
524.982213	0.223589
525.344647	0.222609
525.707025	0.223413
526.069345	0.221950
526.431608	0.223421
526.793815	0.221036
527.155964	0.225495
527.518057	0.224288
527.880093	0.225280
528.242072	0.224045
528.603995	0.226027
528.965860	0.227383
529.327669	0.226291
529.689421	0.227221
530.051117	0.228249
530.412755	0.225960
530.774337	0.228336
531.135862	0.228693
531.497331	0.227936
531.858743	0.230915
532.220098	0.227507
532.581396	0.230208
532.942638	0.230521
533.303824	0.231870
533.664953	0.231452
534.026025	0.233130
534.387040	0.231180
534.747999	0.230981
535.108902	0.230004
535.469748	0.235042
535.830537	0.232952
536.191270	0.233317
536.551947	0.232823
536.912567	0.232755
537.273131	0.234310
537.633638	0.234838
537.994089	0.235334
538.354483	0.236405
538.714821	0.233006
539.075103	0.233082
539.435328	0.233429
539.795497	0.237755
540.155609	0.234464
540.515665	0.232259
540.875665	0.238002
541.235609	0.236463
541.595496	0.236496
541.955328	0.233258
542.315102	0.236162
542.674821	0.236789
543.034483	0.237430
543.394090	0.236738
543.753640	0.238576
544.113134	0.233751
544.472571	0.237031
544.831953	0.233855
545.191278	0.238168
545.550548	0.237544
545.909761	0.234230
546.268918	0.235016
546.628019	0.233499
546.987064	0.236065
547.346053	0.237759
547.704986	0.235633
548.063863	0.235998
548.422684	0.236146
548.781449	0.237966
549.140158	0.235740
549.498811	0.238285
549.857408	0.241474
550.215949	0.236314
550.574434	0.239429
550.932864	0.237530
551.291237	0.236023
551.649555	0.237433
552.007817	0.237280
552.366022	0.238015
552.724173	0.238178
553.082267	0.238832
553.440305	0.235600
553.798288	0.239854
554.156215	0.236572
554.514086	0.237205
554.871902	0.240274
555.229661	0.239571
555.587365	0.240382
555.945014	0.242744
556.302606	0.239744
556.660143	0.242109
557.017625	0.239098
557.375050	0.241202
557.732421	0.237786
558.089735	0.239762
558.446994	0.239702
558.804197	0.239317
559.161345	0.238957
559.518437	0.242538
559.875474	0.240350
560.232455	0.239908
560.589381	0.241058
560.946251	0.241283
561.303065	0.238606
561.659825	0.240048
562.016528	0.241629
562.373177	0.244262
562.729770	0.241521
563.086307	0.243415
563.442789	0.241471
563.799216	0.244439
564.155587	0.243230
564.511904	0.244309
564.868164	0.244187
565.224370	0.244171
565.580520	0.245755
565.936615	0.245677
566.292654	0.248969
566.648638	0.245918
567.004567	0.246852
567.360441	0.246888
567.716260	0.249489
568.072023	0.246627
568.427732	0.247811
568.783385	0.250028
569.138982	0.248492
569.494525	0.247818
569.850013	0.250916
570.205445	0.249285
570.560823	0.251609
570.916145	0.253785
571.271412	0.252035
571.626625	0.253332
571.981782	0.253866
572.336884	0.254663
572.691931	0.254572
573.046923	0.256147
573.401860	0.257093
573.756743	0.258664
574.111570	0.257383
574.466342	0.258218
574.821059	0.257167
575.175722	0.259969
575.530330	0.259774
575.884882	0.260089
576.239380	0.262062
576.593823	0.262492
576.948211	0.262153
577.302544	0.265213
577.656823	0.264766
578.011047	0.264789
578.365216	0.265654
578.719330	0.267663
579.073389	0.267237
579.427394	0.268671
579.781344	0.269714
580.135239	0.270542
580.489080	0.270567
580.842866	0.273592
581.196597	0.273783
581.550273	0.272096
581.903895	0.272705
582.257463	0.271103
582.610975	0.274726
582.964434	0.273991
583.317837	0.276311
583.671186	0.276841
584.024481	0.276553
584.377721	0.279249
584.730906	0.279927
585.084037	0.279165
585.437113	0.281065
585.790135	0.280398
586.143103	0.283664
586.496016	0.284904
586.848874	0.282389
587.201679	0.282638
587.554428	0.286121
587.907124	0.284959
588.259765	0.285556
588.612352	0.286091
588.964884	0.289826
589.317362	0.289275
589.669786	0.289552
590.022155	0.287930
590.374470	0.287165
590.726731	0.289226
591.078937	0.294348
591.431090	0.290714
591.783188	0.294599
592.135232	0.295230
592.487222	0.295190
592.839157	0.293232
593.191038	0.295676
593.542866	0.297255
593.894639	0.300696
594.246358	0.298955
594.598022	0.298511
594.949633	0.301992
595.301190	0.302952
595.652692	0.302185
596.004141	0.298104
596.355535	0.305929
596.706876	0.306778
597.058162	0.309153
597.409395	0.306153
597.760573	0.304074
598.111698	0.307286
598.462768	0.308005
598.813785	0.309001
599.164748	0.310202
599.515657	0.310482
599.866511	0.314163
600.217312	0.309580
600.568060	0.314803
600.918753	0.310738
601.269392	0.311847
601.619978	0.315599
601.970510	0.312864
602.320988	0.313235
602.671412	0.310891
603.021783	0.313528
603.372100	0.314820
603.722363	0.314345
604.072572	0.315403
604.422728	0.314949
604.772830	0.317068
605.122878	0.316961
605.472872	0.317492
605.822813	0.315713
606.172701	0.318534
606.522534	0.315864
606.872314	0.315952
607.222041	0.316779
607.571714	0.314887
607.921333	0.316641
608.270899	0.316115
608.620411	0.312848
608.969870	0.316793
609.319276	0.316817
609.668627	0.317131
610.017926	0.315476
610.367171	0.313913
610.716362	0.314646
611.065500	0.314644
611.414585	0.313497
611.763616	0.314140
612.112594	0.314186
612.461518	0.313957
612.810389	0.311919
613.159207	0.314310
613.507971	0.315759
613.856682	0.311899
614.205340	0.312746
614.553945	0.310383
614.902496	0.313980
615.250994	0.311764
615.599439	0.312414
615.947830	0.312019
616.296169	0.312865
616.644454	0.312507
616.992686	0.312712
617.340864	0.311126
617.688990	0.314215
618.037063	0.310868
618.385082	0.312589
618.733048	0.309507
619.080961	0.311836
619.428821	0.311413
619.776628	0.310980
620.124382	0.313585
620.472083	0.313525
620.819731	0.312869
621.167326	0.316543
621.514868	0.316580
621.862357	0.320676
622.209793	0.320142
622.557176	0.322830
622.904506	0.323922
623.251783	0.326014
623.599007	0.328269
623.946179	0.328123
624.293297	0.330311
624.640363	0.334300
624.987376	0.334463
625.334336	0.336752
625.681243	0.339074
626.028097	0.340126
626.374899	0.340788
626.721647	0.341485
627.068343	0.344441
627.414987	0.346027
627.761577	0.348086
628.108115	0.346061
628.454600	0.351179
628.801032	0.348786
629.147412	0.350715
629.493739	0.351309
629.840014	0.354242
630.186236	0.351642
630.532405	0.357294
630.878521	0.354535
631.224585	0.357374
631.570597	0.360476
631.916556	0.359457
632.262462	0.359273
632.608316	0.362033
632.954117	0.362787
633.299866	0.363630
633.645562	0.363928
633.991206	0.368381
634.336797	0.371203
634.682336	0.373707
635.027823	0.375429
635.373257	0.375753
635.718639	0.379682
636.063968	0.378695
636.409245	0.384812
636.754470	0.384909
637.099642	0.387575
637.444762	0.391121
637.789829	0.390254
638.134845	0.393632
638.479808	0.395077
638.824719	0.394710
639.169577	0.399040
639.514383	0.398351
639.859137	0.402466
640.203839	0.402048
640.548489	0.402731
640.893086	0.404162
641.237632	0.405922
641.582125	0.404898
641.926566	0.406329
642.270955	0.406226
642.615292	0.406674
642.959576	0.405859
643.303809	0.406741
643.647990	0.406394
643.992118	0.406945
644.336195	0.410603
644.680219	0.409371
645.024192	0.410040
645.368112	0.403965
645.711981	0.402673
646.055797	0.398224
646.399562	0.400641
646.743274	0.393870
647.086935	0.390694
647.430544	0.391217
647.774101	0.390577
648.117606	0.390306
648.461059	0.391297
648.804460	0.393261
649.147810	0.398308
649.491108	0.400017
649.834354	0.402203
650.177548	0.407477
650.520690	0.412953
650.863781	0.414051
651.206820	0.413873
651.549807	0.418821
651.892742	0.422925
652.235626	0.422489
652.578458	0.423289
652.921238	0.430186
653.263967	0.428143
653.606644	0.431798
653.949269	0.432195
654.291843	0.436255
654.634365	0.433335
654.976836	0.436399
655.319255	0.437388
655.661622	0.439019
656.003938	0.439102
656.346203	0.441855
656.688416	0.440526
657.030577	0.443935
657.372687	0.446339
657.714746	0.446898
658.056753	0.444623
658.398708	0.448216
658.740612	0.449696
659.082465	0.446116
659.424266	0.447391
659.766016	0.446824
660.107715	0.450683
660.449362	0.449800
660.790958	0.450824
661.132503	0.451978
661.473996	0.449815
661.815438	0.450407
662.156829	0.451320
662.498168	0.452471
662.839456	0.454326
663.180693	0.452019
663.521879	0.451960
663.863013	0.453205
664.204097	0.451935
664.545129	0.449517
664.886110	0.451420
665.227040	0.448881
665.567918	0.450788
665.908746	0.449712
666.249522	0.450089
666.590248	0.451674
666.930922	0.449936
667.271545	0.449886
667.612118	0.449912
667.952639	0.451808
668.293109	0.451184
668.633528	0.453660
668.973896	0.453608
669.314213	0.454635
669.654480	0.457814
669.994695	0.457014
670.334859	0.458495
670.674973	0.459763
671.015035	0.459768
671.355047	0.460856
671.695008	0.461861
672.034918	0.464147
672.374777	0.464235
672.714585	0.466262
673.054342	0.466226
673.394049	0.466852
673.733705	0.465935
674.073310	0.468027
674.412864	0.469887
674.752368	0.471712
675.091820	0.472350
675.431223	0.476349
675.770574	0.476773
676.109875	0.480590
676.449125	0.480145
676.788324	0.483063
677.127473	0.488521
677.466571	0.488829
677.805619	0.490984
678.144616	0.493493
678.483562	0.494934
678.822458	0.497500
679.161303	0.498428
679.500098	0.500401
679.838842	0.501370
680.177535	0.501794
680.516179	0.500885
680.854771	0.500619
681.193314	0.495587
681.531805	0.487620
681.870247	0.479018
682.208638	0.473215
682.546978	0.471972
682.885268	0.474527
683.223508	0.480809
683.561697	0.484982
683.899836	0.487738
684.237925	0.491370
684.575963	0.495060
684.913951	0.498734
685.251889	0.496354
685.589776	0.497886
685.927614	0.500047
686.265401	0.497172
686.603137	0.498063
686.940824	0.494686
687.278460	0.493925
687.616046	0.494037
687.953582	0.490696
688.291068	0.492516
688.628504	0.490143
688.965889	0.492084
689.303224	0.495722
689.640510	0.500711
689.977745	0.506314
690.314930	0.513261
690.652065	0.517570
690.989150	0.523880
691.326185	0.531156
691.663170	0.535965
692.000105	0.542910
692.336990	0.548215
692.673825	0.552553
693.010610	0.559309
693.347345	0.563646
693.684030	0.567511
694.020665	0.571486
694.357251	0.578587
694.693786	0.579749
695.030272	0.582998
695.366707	0.587902
695.703093	0.590814
696.039429	0.589167
696.375716	0.593573
696.711952	0.595632
697.048139	0.596530
697.384276	0.599268
697.720363	0.600203
698.056400	0.599794
698.392388	0.605568
698.728326	0.607477
699.064214	0.609309
699.400053	0.610943
699.735842	0.617412
700.071581	0.618731
700.407270	0.622182
700.742910	0.624262
701.078501	0.630319
701.414042	0.632353
701.749533	0.635019
702.084974	0.641836
702.420366	0.637300
702.755709	0.643614
703.091002	0.651170
703.426246	0.647663
703.761440	0.650525
704.096584	0.654378
704.431679	0.654223
704.766725	0.657349
705.101721	0.659861
705.436668	0.657826
705.771565	0.661820
706.106413	0.657826
706.441212	0.658967
706.775961	0.659056
707.110661	0.658419
707.445311	0.655887
707.779913	0.657439
708.114465	0.656094
708.448967	0.652764
708.783421	0.647797
709.117825	0.643774
709.452180	0.644057
709.786485	0.638937
710.120742	0.632266
710.454949	0.633280
710.789107	0.628578
711.123216	0.622565
711.457275	0.622722
711.791286	0.618150
712.125247	0.619740
712.459159	0.624185
712.793023	0.617786
713.126837	0.627978
713.460602	0.628157
713.794318	0.630871
714.127985	0.632525
714.461602	0.644165
714.795171	0.643758
715.128691	0.651533
715.462162	0.659197
715.795584	0.665374
716.128957	0.667956
716.462281	0.670311
716.795556	0.674907
717.128782	0.681613
717.461960	0.689609
717.795088	0.688487
718.128167	0.694584
718.461198	0.699063
718.794180	0.700161
719.127113	0.705597
719.459997	0.708189
719.792833	0.712093
720.125619	0.712837
720.458357	0.718871
720.791046	0.721164
721.123686	0.723933
721.456278	0.728040
721.788821	0.727737
722.121315	0.731688
722.453761	0.733308
722.786158	0.735240
723.118506	0.732657
723.450805	0.735575
723.783056	0.734548
724.115259	0.736068
724.447412	0.735710
724.779518	0.734339
725.111574	0.735402
725.443582	0.732826
725.775542	0.735464
726.107453	0.730644
726.439315	0.731219
726.771129	0.727910
727.102895	0.723629
727.434612	0.720958
727.766281	0.719596
728.097901	0.717643
728.429473	0.718616
728.760996	0.717649
729.092471	0.718283
729.423897	0.722662
729.755276	0.723149
730.086606	0.722412
730.417887	0.717872
730.749120	0.712341
731.080305	0.709628
731.411442	0.705236
731.742530	0.706816
732.073570	0.707150
732.404562	0.704295
732.735506	0.706201
733.066401	0.709179
733.397249	0.715597
733.728048	0.724847
734.058798	0.737500
734.389501	0.746095
734.720156	0.750648
735.050762	0.757686
735.381320	0.761274
735.711831	0.763925
736.042293	0.769508
736.372707	0.769361
736.703073	0.771230
737.033391	0.772042
737.363661	0.771760
737.693883	0.770849
738.024056	0.767674
738.354182	0.768065
738.684260	0.761366
739.014290	0.759625
739.344272	0.758631
739.674207	0.755896
740.004093	0.754814
740.333931	0.755271
740.663722	0.756314
740.993464	0.758220
741.323159	0.759967
741.652806	0.765298
741.982405	0.768959
742.311956	0.773870
742.641460	0.775024
742.970915	0.779196
743.300323	0.783772
743.629683	0.787495
743.958996	0.791133
744.288260	0.794317
744.617477	0.799502
744.946647	0.799999
745.275768	0.806082
745.604842	0.807278
745.933869	0.810574
746.262847	0.813156
746.591778	0.811341
746.920662	0.814914
747.249498	0.817599
747.578286	0.815107
747.907027	0.811413
748.235720	0.808647
748.564365	0.809090
748.892963	0.810662
749.221514	0.811785
749.550017	0.813012
749.878473	0.814603
750.206881	0.820633
750.535242	0.820603
750.863555	0.821462
751.191821	0.821796
751.520039	0.823038
751.848210	0.824969
752.176334	0.824071
752.504411	0.825338
752.832440	0.828227
753.160421	0.830316
753.488356	0.831707
753.816243	0.830781
754.144082	0.834006
754.471875	0.837137
754.799620	0.835427
755.127318	0.836229
755.454969	0.836679
755.782572	0.838483
756.110129	0.839342
756.437638	0.841465
756.765100	0.840918
757.092515	0.840746
757.419882	0.839835
757.747203	0.842001
758.074477	0.842227
758.401703	0.839832
758.728882	0.838147
759.056014	0.838213
759.383099	0.837276
759.710138	0.835463
760.037129	0.834156
760.364073	0.833947
760.690970	0.835535
761.017820	0.836260
761.344623	0.834802
761.671379	0.830834
761.998088	0.825933
762.324751	0.811795
762.651366	0.783511
762.977935	0.737547
763.304456	0.708343
763.630931	0.706962
763.957359	0.730810
764.283740	0.758929
764.610074	0.779853
764.936362	0.800400
765.262602	0.815263
765.588796	0.828485
765.914943	0.839215
766.241044	0.848334
766.567097	0.854137
766.893104	0.859886
767.219064	0.863456
767.544978	0.869434
767.870845	0.874764
768.196665	0.876070
768.522438	0.878979
768.848165	0.880547
769.173846	0.884483
769.499479	0.886684
769.825066	0.889305
770.150607	0.891525
770.476101	0.891315
770.801548	0.893751
771.126949	0.898355
771.452303	0.900082
771.777611	0.901307
772.102872	0.901406
772.428087	0.903759
772.753256	0.906232
773.078378	0.907443
773.403453	0.911399
773.728482	0.914050
774.053465	0.912721
774.378401	0.913215
774.703291	0.917856
775.028135	0.919535
775.352932	0.918112
775.677683	0.922353
776.002388	0.922580
776.327046	0.922350
776.651658	0.925332
776.976224	0.926516
777.300743	0.925653
777.625216	0.926984
777.949643	0.928557
778.274024	0.927635
778.598359	0.929971
778.922647	0.929655
779.246889	0.930685
779.571086	0.931235
779.895236	0.932806
780.219339	0.932690
780.543397	0.929991
780.867409	0.930676
781.191374	0.930493
781.515294	0.931765
781.839167	0.932230
782.162995	0.933365
782.486776	0.932257
782.810511	0.932811
783.134201	0.935405
783.457844	0.935759
783.781441	0.935863
784.104993	0.936914
784.428498	0.938544
784.751958	0.938261
785.075372	0.938742
785.398739	0.940023
785.722061	0.938046
786.045337	0.938049
786.368568	0.937642
786.691752	0.938704
787.014891	0.934529
787.337983	0.929400
787.661030	0.922932
787.984031	0.912977
788.306987	0.907910
788.629897	0.907740
788.952760	0.913813
789.275579	0.916997
789.598351	0.925318
789.921078	0.930681
790.243759	0.933748
790.566395	0.935975
790.888984	0.939423
791.211529	0.941153
791.534027	0.944015
791.856480	0.946888
792.178888	0.946928
792.501249	0.947512
792.823566	0.949862
793.145836	0.949916
793.468062	0.950535
793.790241	0.952290
794.112375	0.950427
794.434464	0.949569
794.756507	0.948134
795.078505	0.946677
795.400457	0.944088
795.722364	0.938813
796.044226	0.934867
796.366042	0.933266
796.687812	0.933694
797.009538	0.934804
797.331218	0.937829
797.652852	0.940580
797.974442	0.941325
798.295986	0.942217
798.617484	0.943405
798.938938	0.946240
799.260346	0.947497
799.581709	0.948742
799.903026	0.951138
800.224299	0.950503
800.545526	0.952930
800.866708	0.953863
801.187845	0.955555
801.508936	0.956362
801.829983	0.956930
802.150984	0.957522
802.471940	0.959358
802.792851	0.958060
803.113717	0.960494
803.434538	0.959721
803.755314	0.962144
804.076045	0.961612
804.396731	0.960887
804.717372	0.958874
805.037967	0.961465
805.358518	0.960158
805.679024	0.959292
805.999485	0.960417
806.319901	0.959098
806.640272	0.960200
806.960598	0.959011
807.280879	0.958619
807.601115	0.957369
807.921306	0.958655
808.241453	0.958445
808.561554	0.958915
808.881611	0.958504
809.201623	0.959540
809.521590	0.960528
809.841513	0.960890
810.161390	0.959539
810.481223	0.962231
810.801011	0.962340
811.120755	0.963746
811.440453	0.963597
811.760107	0.965077
812.079716	0.964406
812.399281	0.964694
812.718801	0.965419
813.038276	0.966359
813.357707	0.967936
813.677093	0.967892
813.996434	0.967997
814.315731	0.968936
814.634983	0.968672
814.954191	0.968586
815.273354	0.967293
815.592473	0.967033
815.911547	0.966485
816.230577	0.965261
816.549562	0.963393
816.868502	0.962931
817.187399	0.963921
817.506250	0.961771
817.825058	0.962499
818.143821	0.961097
818.462539	0.959382
818.781213	0.957040
819.099843	0.952331
819.418429	0.945235
819.736970	0.939345
820.055466	0.930477
820.373919	0.924136
820.692327	0.913776
821.010691	0.898124
821.329011	0.857420
821.647286	0.788391
821.965517	0.721400
822.283704	0.696211
822.601847	0.701246
822.919945	0.731564
823.237999	0.764972
823.556010	0.795436
823.873976	0.824517
824.191897	0.848260
824.509775	0.868661
824.827609	0.885294
825.145398	0.894342
825.463144	0.895773
825.780845	0.889696
826.098502	0.880464
826.416116	0.859300
826.733685	0.836525
827.051210	0.832976
827.368692	0.844888
827.686129	0.864690
828.003522	0.887809
828.320872	0.905868
828.638177	0.921498
828.955439	0.934354
829.272656	0.942156
829.589830	0.948039
829.906960	0.953721
830.224046	0.956847
830.541088	0.961917
830.858086	0.964148
831.175041	0.967079
831.491952	0.965769
831.808819	0.965896
832.125642	0.964410
832.442421	0.959160
832.759157	0.950945
833.075849	0.931949
833.392497	0.909406
833.709101	0.894076
834.025662	0.898871
834.342179	0.910648
834.658653	0.927578
834.975083	0.939554
835.291469	0.949572
835.607811	0.956366
835.924110	0.962144
836.240366	0.969108
836.556578	0.971408
836.872746	0.975122
837.188871	0.976114
837.504952	0.978435
837.820990	0.980598
838.136984	0.980051
838.452935	0.981177
838.768842	0.981964
839.084706	0.979701
839.400526	0.970976
839.716303	0.954655
840.032037	0.947676
840.347727	0.949159
840.663373	0.956057
840.978977	0.965294
841.294537	0.973557
841.610054	0.977657
841.925527	0.980734
842.240957	0.982288
842.556344	0.984717
842.871687	0.986516
843.186987	0.987469
843.502244	0.988918
843.817458	0.987445
844.132629	0.989581
844.447756	0.989791
844.762840	0.990197
845.077881	0.992312
845.392879	0.989785
845.707833	0.992044
846.022745	0.992020
846.337613	0.991812
846.652438	0.991783
846.967221	0.992159
847.281960	0.992145
847.596656	0.993425
847.911309	0.993198
848.225919	0.993275
848.540485	0.994500
848.855009	0.995377
849.169490	0.994521
849.483928	0.994023
849.798323	0.992850
850.112675	0.994969
850.426984	0.993907
850.741251	0.994745
851.055474	0.994516
851.369654	0.993826
851.683792	0.992750
851.997887	0.993377
852.311938	0.995679
852.625947	0.992837
852.939914	0.992503
853.253837	0.994501
853.567718	0.994335
853.881555	0.994616
854.195350	0.994690
854.509103	0.994256
854.822812	0.994811
855.136479	0.994876
855.450103	0.994495
855.763685	0.993991
856.077224	0.994416
856.390720	0.995472
856.704173	0.995370
857.017584	0.994941
857.330953	0.993540
857.644278	0.993954
857.957561	0.994014
858.270802	0.993564
858.584000	0.993986
858.897155	0.993905
859.210268	0.994148
859.523339	0.994658
859.836367	0.994387
860.149352	0.994383
860.462295	0.994008
860.775195	0.994507
861.088054	0.993827
861.400869	0.994867
861.713642	0.993226
862.026373	0.995388
862.339062	0.994112
862.651708	0.994751
862.964312	0.994227
863.276873	0.993873
863.589392	0.993250
863.901869	0.993827
864.214303	0.992999
864.526696	0.992845
864.839045	0.992841
865.151353	0.992524
865.463619	0.992148
865.775842	0.992276
866.088023	0.993280
866.400162	0.993391
866.712258	0.994276
867.024313	0.992510
867.336325	0.993850
867.648296	0.993337
867.960224	0.993355
868.272110	0.993331
868.583954	0.992866
868.895755	0.993683
869.207515	0.992999
869.519233	0.993211
869.830909	0.992575
870.142542	0.991298
870.454134	0.993140
870.765684	0.990895
871.077191	0.993578
871.388657	0.992167
871.700081	0.992323
872.011463	0.991963
872.322803	0.991241
872.634101	0.991078
872.945357	0.989647
873.256571	0.990089
873.567744	0.989429
873.878874	0.990285
874.189963	0.989033
874.501010	0.991164
874.812015	0.990689
875.122979	0.990716
875.433900	0.990240
875.744780	0.991163
876.055618	0.989115
876.366415	0.989677
876.677169	0.990007
876.987882	0.989209
877.298554	0.990843
877.609183	0.988485
877.919771	0.989011
878.230317	0.989318
878.540822	0.986140
878.851285	0.986001
879.161707	0.984333
879.472087	0.983823
879.782425	0.977060
880.092722	0.968133
880.402977	0.952927
880.713191	0.927025
881.023363	0.895504
881.333494	0.877447
881.643583	0.873123
881.953631	0.880256
882.263637	0.891342
882.573602	0.906538
882.883526	0.917618
883.193408	0.929241
883.503248	0.937868
883.813048	0.945321
884.122806	0.954382
884.432522	0.961569
884.742197	0.967888
885.051831	0.970157
885.361424	0.974626
885.670975	0.978699
885.980485	0.979759
886.289954	0.980649
886.599382	0.982206
886.908768	0.985018
887.218113	0.985113
887.527417	0.987055
887.836680	0.988742
888.145901	0.988411
888.455082	0.989651
888.764221	0.989918
889.073319	0.990488
889.382376	0.991929
889.691392	0.989480
890.000366	0.990982
890.309300	0.991130
890.618193	0.991409
890.927044	0.990777
891.235855	0.990325
891.544625	0.990410
891.853353	0.990416
892.162041	0.989564
892.470687	0.989197
892.779293	0.987007
893.087858	0.984488
893.396381	0.982771
893.704864	0.979667
894.013306	0.973465
894.321707	0.966009
894.630068	0.960652
894.938387	0.958832
895.246665	0.961555
895.554903	0.964066
895.863100	0.969316
896.171256	0.973251
896.479371	0.978010
896.787446	0.980908
897.095480	0.982785
897.403473	0.984781
897.711425	0.986016
898.019336	0.987473
898.327207	0.988320
898.635038	0.988261
898.942827	0.989465
899.250576	0.989214
899.558284	0.989579
899.865952	0.990495
900.173579	0.991346
900.481165	0.991478
900.788711	0.991029
901.096216	0.991755
901.403681	0.992770
901.711105	0.991695
902.018489	0.992400
902.325832	0.992395
902.633135	0.992668
902.940397	0.991489
903.247619	0.988066
903.554800	0.980972
903.861941	0.970100
904.169041	0.957714
904.476101	0.951829
904.783121	0.952414
905.090100	0.957765
905.397039	0.963834
905.703938	0.971969
906.010796	0.977019
906.317614	0.980699
906.624391	0.986150
906.931129	0.987197
907.237826	0.989838
907.544483	0.991125
907.851099	0.991948
908.157675	0.992444
908.464211	0.993777
908.770707	0.994335
909.077163	0.994798
909.383578	0.996080
909.689954	0.995238
909.996289	0.996023
910.302584	0.996889
910.608839	0.997454
910.915054	0.996407
911.221229	0.996694
911.527363	0.995428
911.833458	0.996302
912.139513	0.995805
912.445527	0.996630
912.751502	0.994480
913.057436	0.994849
913.363331	0.994590
913.669186	0.993952
913.975000	0.992473
914.280775	0.991209
914.586510	0.988136
914.892205	0.983750
915.197859	0.977616
915.503475	0.971751
915.809050	0.965945
916.114585	0.961411
916.420081	0.960522
916.725536	0.961811
917.030952	0.964828
917.336328	0.968787
917.641665	0.972012
917.946961	0.975720
918.252218	0.978956
918.557435	0.981897
918.862612	0.985142
919.167750	0.986055
919.472848	0.988420
919.777906	0.990020
920.082925	0.991661
920.387904	0.991644
920.692843	0.991565
920.997743	0.991217
921.302603	0.994467
921.607423	0.993637
921.912204	0.995115
922.216946	0.995132
922.521647	0.994436
922.826310	0.993958
923.130932	0.996786
923.435516	0.996692
923.740059	0.995468
924.044564	0.995943
924.349028	0.996846
924.653454	0.997964
924.957840	0.996989
925.262186	0.997224
925.566493	0.997432
925.870761	0.998609
926.174989	0.997943
926.479178	0.999258
926.783328	0.998786
927.087438	0.998529
927.391509	0.998704
927.695541	0.998993
927.999533	0.998793
928.303486	0.999294
928.607400	0.999624
928.911275	0.999832
929.215110	1.000533
929.518906	1.000334
929.822663	0.999855
930.126381	0.999863
930.430060	0.998920
930.733699	0.999538
931.037299	1.000362
931.340861	0.999523
931.644383	0.997860
931.947866	0.999887
932.251309	1.000099
932.554714	0.999907
932.858080	0.999586
933.161407	0.999339
933.464694	0.999512
933.767943	0.999579
934.071153	1.001300
934.374323	1.000247
934.677455	1.000226
934.980548	0.998985
935.283602	1.000172
935.586617	1.000613
935.889593	1.001603
936.192530	1.000913
936.495428	0.999640
936.798287	0.999524
937.101108	0.998761
937.403890	0.998465
937.706632	1.000774
938.009336	0.998446
938.312002	0.997384
938.614628	0.998122
938.917216	0.996743
939.219765	0.997388
939.522275	0.998287
939.824747	0.997568
940.127179	0.997084
940.429573	0.998663
940.731929	0.997578
941.034246	0.997040
941.336524	0.997804
941.638763	0.998664
941.940964	0.997374
942.243126	0.997436
942.545250	0.999620
942.847335	0.998898
943.149381	0.999120
943.451389	0.999005
943.753359	0.998728
944.055290	1.001002
944.357182	0.999218
944.659036	0.999007
944.960851	1.000374
945.262628	1.000643
945.564367	0.999234
945.866067	0.999184
946.167729	0.999810
946.469352	0.999003
946.770937	0.999474
947.072484	1.001012
947.373992	0.999571
947.675462	0.999347
947.976893	0.999327
948.278286	1.001202
948.579641	1.000925
948.880958	0.999714
949.182236	1.000185
949.483476	1.000822
949.784678	1.000274
950.085841	0.999798
950.386967	0.999878
950.688054	0.999882
950.989103	0.998147
951.290114	0.999278
951.591087	0.999717
951.892021	1.000178
952.192917	0.999726
952.493776	0.998772
952.794596	0.998834
953.095378	0.999868
953.396122	0.999558
953.696828	0.999802
953.997496	0.999563
954.298126	1.001124
954.598718	0.999591
954.899272	1.000720
955.199788	1.000169
955.500266	1.001290
955.800706	0.999974
956.101108	1.000130
956.401472	1.001719
956.701798	1.001147
957.002087	1.002160
957.302337	1.001212
957.602550	1.000716
957.902724	1.001024
958.202861	0.998984
958.502960	1.000185
958.803022	1.001578
959.103045	1.001601
959.403031	1.001542
959.702979	1.002153
960.002889	0.999937
960.302762	1.000613
960.602596	1.000568
960.902393	1.001523
961.202153	1.002025
961.501875	1.002415
961.801559	1.001768
962.101205	1.000492
962.400814	1.003376
962.700385	1.002059
962.999918	1.002708
963.299414	1.000822
963.598873	1.002051
963.898293	1.002016
964.197677	1.001573
964.497022	1.001779
964.796331	1.002760
965.095601	1.002659
965.394835	1.002133
965.694030	1.002394
965.993189	1.001512
966.292309	1.001520
966.591393	1.001298
966.890439	1.002684
967.189447	1.001857
967.488419	1.002782
967.787353	1.002557
968.086249	1.001787
968.385108	1.001166
968.683930	1.003643
968.982714	1.001985
969.281462	1.001963
969.580172	1.002478
969.878844	1.002358
970.177480	1.003842
970.476078	1.002282
970.774639	1.001781
971.073162	1.001392
971.371649	1.002585
971.670098	1.001011
971.968510	1.001524
972.266885	1.001804
972.565223	1.002162
972.863524	1.001255
973.161788	1.001262
973.460014	1.003204
973.758204	1.001343
974.056356	1.001678
974.354471	1.001636
974.652550	1.003138
974.950591	1.001133
975.248595	1.000262
975.546563	1.002659
975.844493	1.002960
976.142386	1.000755
976.440243	1.003719
976.738062	1.002129
977.035845	1.002030
977.333590	1.003481
977.631299	1.001819
977.928971	1.002216
978.226606	1.002124
978.524204	1.000744
978.821765	1.003084
979.119290	1.004220
979.416777	1.001926
979.714228	1.001118
980.011642	1.002735
980.309020	1.001667
980.606360	1.002792
980.903664	1.002673
981.200931	1.001981
981.498162	1.002250
981.795356	1.002316
982.092513	1.001363
982.389633	1.002029
982.686717	1.000037
982.983764	1.000057
983.280775	1.001093
983.577749	1.000711
983.874686	0.999809
984.171587	1.000807
984.468451	1.001831
984.765279	1.001748
985.062070	1.001797
985.358824	1.001961
985.655543	1.002169
985.952224	1.001694
986.248869	1.001150
986.545478	1.002715
986.842050	1.001504
987.138586	1.001025
987.435086	1.002948
987.731549	1.003679
988.027975	1.002893
988.324366	1.003460
988.620719	1.003236
988.917037	1.002722
989.213318	1.003162
989.509563	1.002683
989.805772	1.004267
990.101944	1.003740
990.398080	1.002923
990.694180	1.002941
990.990244	1.003378
991.286271	1.002989
991.582262	1.003647
991.878217	1.002136
992.174136	1.003446
992.470019	1.003194
992.765865	1.003601
993.061676	1.002495
993.357450	1.003973
993.653188	1.003958
993.948890	1.003520
994.244556	1.002638
994.540186	1.002698
994.835780	1.002706
995.131337	1.003829
995.426859	1.003650
995.722345	1.002776
996.017795	1.002967
996.313208	1.002951
996.608586	1.001171
996.903928	1.004361
997.199234	1.002583
997.494504	1.003668
997.789738	1.002310
998.084936	1.003417
998.380099	1.001685
998.675225	1.003575
998.970316	1.002990
999.265371	1.003109
999.560390	1.002924
999.855373	1.002795
1000.150320	1.002049
1000.445232	1.002254
1000.740108	1.002136
1001.034948	1.002108
1001.329752	1.004757
1001.624521	1.003446
1001.919254	1.002240
1002.213951	1.003283
1002.508613	1.002791
1002.803239	1.003721
1003.097829	1.004088
1003.392384	1.003321
1003.686903	1.002624
1003.981386	1.002404
1004.275834	1.004416
1004.570246	1.002612
1004.864623	1.003857
1005.158964	1.003344
1005.453270	1.002445
1005.747540	1.002962
1006.041775	1.003074
1006.335974	1.004200
1006.630138	1.002366
1006.924266	1.002459
1007.218359	1.001949
1007.512416	1.004692
1007.806438	1.002822
1008.100425	1.002981
1008.394376	1.003780
1008.688292	1.002822
1008.982172	1.002371
1009.276017	1.003933
1009.569827	1.004042
1009.863602	1.002433
1010.157341	1.005387
1010.451045	1.002894
1010.744714	1.004325
1011.038347	1.004113
1011.331945	1.001998
1011.625508	1.003897
1011.919036	1.002877
1012.212528	1.003425
1012.505986	1.002920
1012.799408	1.003183
1013.092795	1.004888
1013.386147	1.003199
1013.679464	1.005652
1013.972745	1.002734
1014.265992	1.003888
1014.559204	1.003465
1014.852380	1.003057
1015.145521	1.002853
1015.438628	1.002452
1015.731699	1.004274
1016.024736	1.004552
1016.317737	1.003266
1016.610703	1.004643
1016.903635	1.002924
1017.196531	1.002897
1017.489393	1.002347
1017.782219	1.001849
1018.075011	1.002289
1018.367768	1.002154
1018.660490	1.004405
1018.953177	1.004405
1019.245829	1.004405
