Dividing Wavelength (nm)	Counts (n)	Blue Motor Position (mm): 35.500000	Red Motor Position (mm): 0.000000	
326.493990	0.999864
326.888308	0.999864
327.282561	0.999864
327.676750	1.001040
328.070874	1.000900
328.464933	1.001482
328.858929	1.001701
329.252859	1.001307
329.646726	1.000973
330.040528	1.000656
330.434265	1.000134
330.827938	0.998119
331.221547	0.999572
331.615091	1.001028
332.008571	1.001270
332.401986	0.999807
332.795338	1.000343
333.188625	1.000234
333.581847	1.000336
333.975006	1.000174
334.368100	1.000117
334.761129	0.999286
335.154095	1.000002
335.546996	0.999320
335.939833	0.999340
336.332606	0.999963
336.725315	0.999535
337.117960	1.000331
337.510540	0.999972
337.903056	0.999643
338.295508	1.000706
338.687896	0.999518
339.080220	1.000137
339.472480	0.999476
339.864676	0.998398
340.256807	0.998691
340.648875	0.999817
341.040879	0.999326
341.432818	1.000168
341.824694	0.998677
342.216506	0.999715
342.608253	0.999907
342.999937	0.998941
343.391557	0.999158
343.783113	1.001339
344.174605	0.999332
344.566033	0.998151
344.957397	1.000172
345.348697	0.999852
345.739934	0.999810
346.131106	0.999419
346.522215	0.998024
346.913260	0.999332
347.304241	0.999838
347.695159	1.000077
348.086012	0.999225
348.476802	0.999982
348.867528	0.998335
349.258191	1.000025
349.648789	0.999906
350.039324	0.999144
350.429796	0.999087
350.820203	0.996818
351.210548	1.000279
351.600828	0.998960
351.991045	0.999100
352.381198	0.999577
352.771288	0.999497
353.161314	1.000191
353.551276	0.997544
353.941175	0.997242
354.331010	0.999855
354.720782	0.998530
355.110490	0.998652
355.500135	1.000324
355.889717	0.998896
356.279235	0.998565
356.668689	0.998807
357.058080	0.999913
357.447408	0.997515
357.836672	0.999042
358.225873	0.999069
358.615010	0.998583
359.004084	0.997460
359.393095	0.998881
359.782043	0.997908
360.170927	0.999067
360.559748	0.998904
360.948505	0.998717
361.337199	0.998703
361.725830	0.999529
362.114398	0.997185
362.502903	0.997054
362.891344	0.996838
363.279722	0.999081
363.668037	0.999461
364.056289	0.998017
364.444478	0.999256
364.832603	0.998349
365.220665	0.998392
365.608665	0.997391
365.996601	0.997325
366.384474	0.997186
366.772284	0.998047
367.160031	0.995707
367.547715	0.996394
367.935336	0.995688
368.322893	0.994999
368.710388	0.992825
369.097820	0.991464
369.485189	0.988441
369.872495	0.988963
370.259738	0.985426
370.646918	0.982680
371.034035	0.979536
371.421090	0.978007
371.808081	0.972818
372.195010	0.969851
372.581875	0.965285
372.968678	0.959670
373.355418	0.956252
373.742096	0.949096
374.128710	0.944814
374.515262	0.940070
374.901751	0.934036
375.288177	0.928970
375.674540	0.923495
376.060841	0.917982
376.447079	0.910409
376.833254	0.904331
377.219367	0.898753
377.605417	0.886517
377.991404	0.884417
378.377329	0.877953
378.763191	0.871249
379.148991	0.863094
379.534727	0.854594
379.920402	0.846507
380.306013	0.843189
380.691563	0.831286
381.077049	0.823098
381.462474	0.819803
381.847835	0.808344
382.233134	0.804065
382.618371	0.803302
383.003545	0.786162
383.388657	0.785024
383.773706	0.776911
384.158693	0.773326
384.543618	0.767934
384.928480	0.758799
385.313280	0.749032
385.698017	0.747763
386.082692	0.738055
386.467305	0.735722
386.851856	0.729929
387.236344	0.724115
387.620770	0.719260
388.005133	0.714287
388.389435	0.708435
388.773674	0.705671
389.157851	0.698235
389.541965	0.695551
389.926018	0.702136
390.310008	0.689012
390.693936	0.685155
391.077802	0.677880
391.461606	0.679791
391.845348	0.668038
392.229027	0.668306
392.612645	0.666412
392.996200	0.653554
393.379694	0.646291
393.763125	0.636772
394.146494	0.640752
394.529801	0.631429
394.913047	0.623594
395.296230	0.629684
395.679351	0.620483
396.062410	0.618008
396.445408	0.621052
396.828343	0.616471
397.211217	0.610962
397.594028	0.623333
397.976778	0.613726
398.359466	0.611022
398.742092	0.605955
399.124656	0.618010
399.507158	0.605821
399.889598	0.604073
400.271977	0.594637
400.654294	0.599494
401.036549	0.598920
401.418742	0.603288
401.800874	0.590415
402.182944	0.587811
402.564952	0.580085
402.946898	0.583410
403.328783	0.584669
403.710606	0.597770
404.092367	0.574219
404.474067	0.581318
404.855705	0.582125
405.237282	0.592643
405.618797	0.582204
406.000250	0.580748
406.381642	0.574423
406.762972	0.582618
407.144240	0.584579
407.525447	0.587438
407.906593	0.584569
408.287677	0.584334
408.668700	0.596170
409.049661	0.594900
409.430560	0.594941
409.811399	0.608116
410.192176	0.597445
410.572891	0.609360
410.953545	0.604143
411.334138	0.621544
411.714669	0.621362
412.095139	0.637510
412.475547	0.631117
412.855894	0.638784
413.236180	0.645354
413.616405	0.656760
413.996568	0.656600
414.376670	0.667596
414.756711	0.678634
415.136691	0.684635
415.516609	0.686831
415.896466	0.691657
416.276262	0.697576
416.655997	0.707587
417.035670	0.704227
417.415283	0.707856
417.794834	0.719928
418.174324	0.731139
418.553753	0.744313
418.933121	0.744056
419.312428	0.750978
419.691674	0.763007
420.070859	0.766291
420.449983	0.778486
420.829045	0.782273
421.208047	0.795742
421.586988	0.801079
421.965867	0.808839
422.344686	0.815618
422.723444	0.827081
423.102141	0.840257
423.480777	0.838912
423.859352	0.854726
424.237866	0.856022
424.616319	0.863922
424.994712	0.868292
425.373044	0.877809
425.751314	0.883162
426.129524	0.894354
426.507673	0.896372
426.885762	0.901834
427.263789	0.908744
427.641756	0.915895
428.019662	0.920465
428.397508	0.925040
428.775292	0.931016
429.153016	0.935086
429.530679	0.940487
429.908282	0.945511
430.285824	0.948946
430.663305	0.951294
431.040726	0.958353
431.418086	0.960519
431.795385	0.964256
432.172624	0.967136
432.549802	0.969344
432.926920	0.972147
433.303977	0.974607
433.680974	0.976666
434.057910	0.979480
434.434786	0.980617
434.811601	0.983037
435.188355	0.984321
435.565050	0.985798
435.941683	0.987202
436.318257	0.986892
436.694770	0.989783
437.071222	0.991350
437.447614	0.991061
437.823946	0.992447
438.200218	0.992723
438.576429	0.993439
438.952580	0.994038
439.328670	0.993452
439.704700	0.994997
440.080670	0.995458
440.456580	0.995624
440.832429	0.996032
441.208218	0.996575
441.583947	0.996512
441.959616	0.995838
442.335224	0.997863
442.710773	0.997733
443.086261	0.997803
443.461689	0.997286
443.837057	0.997283
444.212365	0.998062
444.587612	0.998578
444.962800	0.997697
445.337927	0.998640
445.712995	0.998443
446.088002	0.998259
446.462949	0.997506
446.837837	0.999247
447.212664	0.998779
447.587431	0.998894
447.962139	0.998850
448.336786	0.997883
448.711374	0.997948
449.085901	0.998729
449.460369	0.999616
449.834776	0.998302
450.209124	0.998826
450.583412	0.999389
450.957640	0.998351
451.331808	0.998606
451.705917	0.997975
452.079965	0.998958
452.453954	0.999277
452.827883	0.999117
453.201752	0.999544
453.575562	0.998569
453.949311	0.999334
454.323001	0.999003
454.696632	0.999099
455.070202	0.998751
455.443713	0.998797
455.817164	0.998568
456.190556	0.999208
456.563888	0.999807
456.937160	0.999127
457.310373	0.998459
457.683526	0.999293
458.056619	0.999178
458.429653	0.998548
458.802628	0.998399
459.175542	0.998629
459.548398	0.998161
459.921194	0.998742
460.293930	0.999905
460.666607	0.999661
461.039224	0.999473
461.411782	0.998657
461.784280	0.998008
462.156719	0.998760
462.529099	0.998638
462.901419	0.998468
463.273680	0.998597
463.645882	0.997832
464.018024	0.998445
464.390106	0.998842
464.762130	0.998145
465.134094	0.998785
465.505999	0.998312
465.877845	0.998271
466.249631	0.997712
466.621358	0.997383
466.993026	0.997901
467.364634	0.998287
467.736184	0.998022
468.107674	0.997872
468.479105	0.998461
468.850477	0.998213
469.221790	0.998184
469.593043	0.997670
469.964238	0.998202
470.335373	0.998551
470.706449	0.998128
471.077467	0.998204
471.448425	0.998537
471.819324	0.998402
472.190164	0.997884
472.560945	0.997456
472.931667	0.998284
473.302330	0.998622
473.672934	0.999000
474.043479	0.998778
474.413965	0.998855
474.784393	0.997803
475.154761	0.997464
475.525070	0.998305
475.895321	0.998581
476.265513	0.997676
476.635645	0.998560
477.005719	0.998543
477.375734	0.997958
477.745691	0.997773
478.115588	0.997690
478.485427	0.997717
478.855207	0.998015
479.224928	0.998145
479.594591	0.997576
479.964194	0.997591
480.333739	0.998022
480.703226	0.996946
481.072653	0.997320
481.442022	0.997620
481.811333	0.997622
482.180584	0.997853
482.549777	0.998038
482.918912	0.997793
483.287988	0.997463
483.657005	0.997502
484.025964	0.997633
484.394864	0.997732
484.763706	0.997229
485.132489	0.998398
485.501213	0.997579
485.869879	0.997962
486.238487	0.997213
486.607036	0.998347
486.975527	0.998087
487.343959	0.997573
487.712333	0.997779
488.080648	0.998109
488.448905	0.998023
488.817104	0.997754
489.185244	0.997857
489.553326	0.998174
489.921350	0.998047
490.289315	0.997832
490.657222	0.997680
491.025070	0.998287
491.392861	0.997996
491.760593	0.998254
492.128267	0.998212
492.495883	0.997456
492.863440	0.998126
493.230939	0.997990
493.598380	0.998636
493.965763	0.998223
494.333088	0.997271
494.700354	0.997673
495.067563	0.997867
495.434713	0.998678
495.801805	0.998628
496.168839	0.998282
496.535815	0.998112
496.902733	0.998397
497.269593	0.998212
497.636395	0.997731
498.003139	0.997526
498.369825	0.998416
498.736453	0.998312
499.103023	0.998643
499.469535	0.998126
499.835989	0.998169
500.202385	0.997930
500.568723	0.998301
500.935003	0.998142
501.301226	0.997887
501.667390	0.997380
502.033497	0.998236
502.399546	0.998015
502.765537	0.997623
503.131470	0.998471
503.497345	0.998529
503.863163	0.998007
504.228923	0.998222
504.594625	0.998139
504.960269	0.998409
505.325856	0.998931
505.691385	0.998351
506.056856	0.998270
506.422270	0.998260
506.787625	0.998396
507.152924	0.998678
507.518164	0.997929
507.883347	0.997839
508.248472	0.997841
508.613540	0.997825
508.978550	0.998056
509.343503	0.998209
509.708398	0.998288
510.073236	0.998332
510.438016	0.997339
510.802738	0.997743
511.167403	0.998130
511.532010	0.998063
511.896561	0.998023
512.261053	0.998397
512.625488	0.998011
512.989866	0.998241
513.354186	0.997787
513.718449	0.998422
514.082655	0.997419
514.446803	0.998340
514.810894	0.998146
515.174927	0.998716
515.538904	0.998798
515.902822	0.998474
516.266684	0.998108
516.630488	0.998325
516.994235	0.998425
517.357925	0.998464
517.721558	0.998432
518.085133	0.997774
518.448651	0.998149
518.812112	0.998660
519.175516	0.998457
519.538863	0.997547
519.902152	0.998813
520.265385	0.998316
520.628560	0.998259
520.991678	0.998230
521.354739	0.998862
521.717743	0.998714
522.080690	0.997858
522.443580	0.998203
522.806413	0.998064
523.169189	0.998549
523.531908	0.997146
523.894569	0.998496
524.257174	0.997621
524.619722	0.998378
524.982213	0.998709
525.344647	0.997599
525.707025	0.997138
526.069345	0.997368
526.431608	0.998075
526.793815	0.998349
527.155964	0.998626
527.518057	0.998467
527.880093	0.998226
528.242072	0.997810
528.603995	0.998118
528.965860	0.999159
529.327669	0.997992
529.689421	0.997708
530.051117	0.997949
530.412755	0.998329
530.774337	0.997994
531.135862	0.998352
531.497331	0.997725
531.858743	0.998657
532.220098	0.998086
532.581396	0.998360
532.942638	0.998181
533.303824	0.999015
533.664953	0.998038
534.026025	0.998821
534.387040	0.998312
534.747999	0.998241
535.108902	0.998556
535.469748	0.998991
535.830537	0.998674
536.191270	0.998538
536.551947	0.998158
536.912567	0.998203
537.273131	0.998401
537.633638	0.997906
537.994089	0.997921
538.354483	0.997819
538.714821	0.998575
539.075103	0.998723
539.435328	0.998773
539.795497	0.998596
540.155609	0.998436
540.515665	0.998629
540.875665	0.998424
541.235609	0.998385
541.595496	0.998175
541.955328	0.998545
542.315102	0.998272
542.674821	0.998582
543.034483	0.997969
543.394090	0.997919
543.753640	0.998433
544.113134	0.998103
544.472571	0.998966
544.831953	0.998697
545.191278	0.998740
545.550548	0.998029
545.909761	0.998180
546.268918	0.998590
546.628019	0.998588
546.987064	0.998659
547.346053	0.998071
547.704986	0.998506
548.063863	0.997885
548.422684	0.998760
548.781449	0.998136
549.140158	0.999060
549.498811	0.997729
549.857408	0.997377
550.215949	0.997770
550.574434	0.998091
550.932864	0.998865
551.291237	0.998138
551.649555	0.998981
552.007817	0.998069
552.366022	0.999226
552.724173	0.999000
553.082267	0.997491
553.440305	0.998014
553.798288	0.997559
554.156215	0.997869
554.514086	0.998652
554.871902	0.998366
555.229661	0.998313
555.587365	0.997948
555.945014	0.999038
556.302606	0.998209
556.660143	0.998555
557.017625	0.998810
557.375050	0.997679
557.732421	0.998545
558.089735	0.997704
558.446994	0.997875
558.804197	0.998049
559.161345	0.998099
559.518437	0.997953
559.875474	0.998617
560.232455	0.998660
560.589381	0.999156
560.946251	0.998545
561.303065	0.998880
561.659825	0.998669
562.016528	0.998152
562.373177	0.997852
562.729770	0.998619
563.086307	0.997748
563.442789	0.998501
563.799216	0.998231
564.155587	0.998238
564.511904	0.998649
564.868164	0.998106
565.224370	0.997817
565.580520	0.998367
565.936615	0.998758
566.292654	0.998350
566.648638	0.998352
567.004567	0.998247
567.360441	0.998390
567.716260	0.998209
568.072023	0.997254
568.427732	0.998369
568.783385	0.997974
569.138982	0.998220
569.494525	0.997732
569.850013	0.998682
570.205445	0.998622
570.560823	0.998402
570.916145	0.997893
571.271412	0.998648
571.626625	0.998780
571.981782	0.998765
572.336884	0.998253
572.691931	0.998413
573.046923	0.998714
573.401860	0.998511
573.756743	0.998526
574.111570	0.998640
574.466342	0.999115
574.821059	0.998268
575.175722	0.998982
575.530330	0.998310
575.884882	0.998378
576.239380	0.998950
576.593823	0.998511
576.948211	0.999153
577.302544	0.998412
577.656823	0.998474
578.011047	0.997737
578.365216	0.999181
578.719330	0.998199
579.073389	0.997809
579.427394	0.997968
579.781344	0.997670
580.135239	0.997608
580.489080	0.998091
580.842866	0.998576
581.196597	0.998292
581.550273	0.998375
581.903895	0.998838
582.257463	0.998478
582.610975	0.997509
582.964434	0.998595
583.317837	0.998469
583.671186	0.999304
584.024481	0.998000
584.377721	0.997430
584.730906	0.998795
585.084037	0.999096
585.437113	0.999315
585.790135	0.998416
586.143103	0.998438
586.496016	0.998459
586.848874	0.998537
587.201679	0.999077
587.554428	0.998156
587.907124	0.998110
588.259765	0.998815
588.612352	0.999285
588.964884	0.998318
589.317362	0.998287
589.669786	0.998512
590.022155	0.998362
590.374470	0.998130
590.726731	0.997487
591.078937	0.998814
591.431090	0.997987
591.783188	0.997535
592.135232	0.999226
592.487222	0.998494
592.839157	0.998455
593.191038	0.999100
593.542866	0.998167
593.894639	0.998128
594.246358	0.998360
594.598022	0.998090
594.949633	0.999548
595.301190	0.998722
595.652692	0.998175
596.004141	0.998207
596.355535	0.998457
596.706876	0.999265
597.058162	0.998350
597.409395	0.999030
597.760573	0.998545
598.111698	0.998006
598.462768	0.997138
598.813785	0.998395
599.164748	0.998007
599.515657	0.998142
599.866511	0.998662
600.217312	0.998968
600.568060	0.998374
600.918753	0.999044
601.269392	0.998752
601.619978	0.998479
601.970510	0.998501
602.320988	0.998174
602.671412	0.998193
603.021783	0.998506
603.372100	0.998289
603.722363	0.998799
604.072572	0.998182
604.422728	0.997837
604.772830	0.998083
605.122878	0.998699
605.472872	0.999556
605.822813	0.998073
606.172701	0.998666
606.522534	0.998226
606.872314	0.999140
607.222041	0.998784
607.571714	0.998729
607.921333	0.999079
608.270899	0.997788
608.620411	0.998064
608.969870	0.999397
609.319276	0.998338
609.668627	0.998731
610.017926	0.998175
610.367171	0.998549
610.716362	0.998694
611.065500	0.998533
611.414585	0.997984
611.763616	0.998359
612.112594	0.998311
612.461518	0.997689
612.810389	0.998270
613.159207	0.998267
613.507971	0.997874
613.856682	0.998992
614.205340	0.997295
614.553945	0.998313
614.902496	0.997983
615.250994	0.998607
615.599439	0.998695
615.947830	0.997821
616.296169	0.998351
616.644454	0.998963
616.992686	0.998247
617.340864	0.998963
617.688990	0.998474
618.037063	0.998216
618.385082	0.997992
618.733048	0.998326
619.080961	0.998400
619.428821	0.998111
619.776628	0.997871
620.124382	0.998569
620.472083	0.998791
620.819731	0.998995
621.167326	0.998900
621.514868	0.998992
621.862357	0.998446
622.209793	0.998132
622.557176	0.998072
622.904506	0.998233
623.251783	0.999328
623.599007	0.997911
623.946179	0.997773
624.293297	0.999023
624.640363	0.999240
624.987376	0.997753
625.334336	0.998054
625.681243	0.998200
626.028097	0.998205
626.374899	0.998391
626.721647	0.999406
627.068343	0.998031
627.414987	0.997649
627.761577	0.997788
628.108115	0.998278
628.454600	0.999165
628.801032	0.998009
629.147412	0.998425
629.493739	0.999111
629.840014	0.998843
630.186236	0.997634
630.532405	0.998362
630.878521	0.997545
631.224585	0.998181
631.570597	0.998110
631.916556	0.998627
632.262462	0.997546
632.608316	0.998507
632.954117	0.997568
633.299866	0.998391
633.645562	0.998153
633.991206	0.998851
634.336797	0.998578
634.682336	0.999009
635.027823	0.998473
635.373257	0.998538
635.718639	0.999198
636.063968	0.997725
636.409245	0.997703
636.754470	0.997889
637.099642	0.998522
637.444762	0.998602
637.789829	0.998826
638.134845	0.998218
638.479808	0.997832
638.824719	0.998840
639.169577	0.998048
639.514383	0.998370
639.859137	0.998984
640.203839	0.998746
640.548489	0.998321
640.893086	0.997423
641.237632	0.999133
641.582125	0.998053
641.926566	0.999271
642.270955	0.998634
642.615292	0.998915
642.959576	0.998118
643.303809	0.998777
643.647990	0.998520
643.992118	0.998954
644.336195	0.998227
644.680219	0.998529
645.024192	0.997637
645.368112	0.998128
645.711981	0.997599
646.055797	0.997892
646.399562	0.997875
646.743274	0.998946
647.086935	0.997912
647.430544	0.998185
647.774101	0.998233
648.117606	0.999117
648.461059	0.999230
648.804460	0.998754
649.147810	0.998115
649.491108	0.998077
649.834354	0.998537
650.177548	0.999050
650.520690	0.997953
650.863781	0.997808
651.206820	0.998404
651.549807	0.998772
651.892742	0.998833
652.235626	0.998649
652.578458	0.998598
652.921238	0.999016
653.263967	0.998879
653.606644	0.998243
653.949269	0.999088
654.291843	0.997348
654.634365	0.999160
654.976836	0.997445
655.319255	0.999047
655.661622	0.997961
656.003938	0.998443
656.346203	0.997609
656.688416	0.998845
657.030577	0.998425
657.372687	0.998498
657.714746	0.998349
658.056753	0.997776
658.398708	0.997972
658.740612	0.998553
659.082465	0.997584
659.424266	0.998571
659.766016	0.997643
660.107715	0.998985
660.449362	0.998072
660.790958	0.998218
661.132503	0.998743
661.473996	0.998038
661.815438	0.998564
662.156829	0.998825
662.498168	0.999363
662.839456	0.997340
663.180693	0.998276
663.521879	0.998799
663.863013	0.999353
664.204097	0.997959
664.545129	0.998505
664.886110	0.998118
665.227040	0.998332
665.567918	0.998600
665.908746	0.997581
666.249522	0.997185
666.590248	0.997801
666.930922	0.998078
667.271545	0.998739
667.612118	0.998918
667.952639	0.998544
668.293109	0.997747
668.633528	0.997585
668.973896	0.998266
669.314213	0.997598
669.654480	0.997839
669.994695	0.996928
670.334859	0.998403
670.674973	0.998088
671.015035	0.997187
671.355047	0.998478
671.695008	0.996959
672.034918	0.997752
672.374777	0.999006
672.714585	0.997514
673.054342	0.998463
673.394049	0.997915
673.733705	0.997854
674.073310	0.998877
674.412864	0.997518
674.752368	0.997598
675.091820	0.999370
675.431223	0.997956
675.770574	0.997387
676.109875	0.998363
676.449125	0.998299
676.788324	0.997986
677.127473	0.999530
677.466571	0.998324
677.805619	0.998638
678.144616	0.998504
678.483562	0.997957
678.822458	0.998578
679.161303	0.997426
679.500098	0.998392
679.838842	0.998763
680.177535	0.998064
680.516179	0.997365
680.854771	0.998238
681.193314	0.998147
681.531805	0.998244
681.870247	0.998475
682.208638	0.998152
682.546978	0.997912
682.885268	0.997722
683.223508	0.997830
683.561697	0.997829
683.899836	0.997795
684.237925	0.998375
684.575963	0.997779
684.913951	0.997755
685.251889	0.997769
685.589776	0.997853
685.927614	0.997517
686.265401	0.997670
686.603137	0.997969
686.940824	0.998292
687.278460	0.998611
687.616046	0.997892
687.953582	0.997681
688.291068	0.998262
688.628504	0.997987
688.965889	0.997235
689.303224	0.997247
689.640510	0.998420
689.977745	0.996667
690.314930	0.998089
690.652065	0.997556
690.989150	0.997942
691.326185	0.997295
691.663170	0.998361
692.000105	0.997868
692.336990	0.998413
692.673825	0.997786
693.010610	0.997946
693.347345	0.998613
693.684030	0.997771
694.020665	0.997560
694.357251	0.997662
694.693786	0.998162
695.030272	0.996175
695.366707	0.997207
695.703093	0.996807
696.039429	0.997355
696.375716	0.998501
696.711952	0.998117
697.048139	0.997754
697.384276	0.997720
697.720363	0.997774
698.056400	0.996295
698.392388	0.997025
698.728326	0.997390
699.064214	0.999278
699.400053	0.997518
699.735842	0.998097
700.071581	0.997363
700.407270	0.998399
700.742910	0.998462
701.078501	0.997875
701.414042	0.998424
701.749533	0.995596
702.084974	0.997870
702.420366	0.997581
702.755709	0.997731
703.091002	0.998373
703.426246	0.997892
703.761440	0.998042
704.096584	0.997873
704.431679	0.996998
704.766725	0.997636
705.101721	0.998238
705.436668	0.998485
705.771565	0.997873
706.106413	0.996432
706.441212	0.998534
706.775961	0.998601
707.110661	0.996992
707.445311	0.998424
707.779913	0.999177
708.114465	0.998198
708.448967	0.997889
708.783421	0.998905
709.117825	0.998304
709.452180	0.997803
709.786485	0.998054
710.120742	0.997551
710.454949	0.996503
710.789107	0.997762
711.123216	0.996914
711.457275	0.996895
711.791286	0.997881
712.125247	0.998735
712.459159	0.998369
712.793023	0.997042
713.126837	0.998427
713.460602	0.997298
713.794318	0.997469
714.127985	0.997306
714.461602	0.997711
714.795171	0.997540
715.128691	0.998053
715.462162	0.998803
715.795584	0.997391
716.128957	0.998450
716.462281	0.997984
716.795556	0.997788
717.128782	0.999066
717.461960	0.997727
717.795088	0.997690
718.128167	0.998647
718.461198	0.997719
718.794180	0.999192
719.127113	0.998961
719.459997	0.997606
719.792833	0.997941
720.125619	0.997050
720.458357	0.997516
720.791046	0.997707
721.123686	0.997065
721.456278	0.997391
721.788821	0.998155
722.121315	0.999107
722.453761	0.997624
722.786158	0.997245
723.118506	0.998048
723.450805	0.996443
723.783056	0.998481
724.115259	0.997093
724.447412	0.999536
724.779518	0.997189
725.111574	0.997777
725.443582	0.998030
725.775542	0.998420
726.107453	0.998493
726.439315	0.999798
726.771129	0.998224
727.102895	0.997630
727.434612	0.997618
727.766281	0.998115
728.097901	0.996493
728.429473	0.997963
728.760996	0.997727
729.092471	0.998098
729.423897	0.998035
729.755276	0.997690
730.086606	0.997798
730.417887	0.997525
730.749120	0.998419
731.080305	0.998158
731.411442	0.997293
731.742530	0.997251
732.073570	0.997623
732.404562	0.997514
732.735506	0.997732
733.066401	0.997805
733.397249	0.997422
733.728048	0.997467
734.058798	0.998383
734.389501	0.998822
734.720156	0.997814
735.050762	0.998624
735.381320	0.997514
735.711831	0.998093
736.042293	0.997185
736.372707	0.997676
736.703073	0.996676
737.033391	0.998293
737.363661	0.999428
737.693883	0.997587
738.024056	0.997828
738.354182	0.998222
738.684260	0.997737
739.014290	0.998268
739.344272	0.997999
739.674207	0.997899
740.004093	0.998401
740.333931	0.997664
740.663722	0.998795
740.993464	0.997650
741.323159	0.997009
741.652806	0.998016
741.982405	0.998167
742.311956	0.998474
742.641460	0.998911
742.970915	0.998161
743.300323	0.997608
743.629683	0.997117
743.958996	0.999185
744.288260	0.997440
744.617477	0.998289
744.946647	0.998902
745.275768	0.998332
745.604842	0.997584
745.933869	0.998587
746.262847	0.998027
746.591778	0.996776
746.920662	0.998452
747.249498	0.998592
747.578286	0.999474
747.907027	0.998154
748.235720	0.998757
748.564365	0.998228
748.892963	0.996937
749.221514	0.998976
749.550017	0.996969
749.878473	0.998753
750.206881	0.999355
750.535242	0.997925
750.863555	0.997539
751.191821	0.998304
751.520039	0.998019
751.848210	0.996606
752.176334	0.997721
752.504411	0.997299
752.832440	0.997606
753.160421	0.997806
753.488356	0.998305
753.816243	0.997971
754.144082	0.997768
754.471875	0.997750
754.799620	0.997818
755.127318	0.998450
755.454969	0.998332
755.782572	0.999410
756.110129	0.998335
756.437638	0.999209
756.765100	0.998282
757.092515	0.997257
757.419882	0.998067
757.747203	0.997876
758.074477	0.999085
758.401703	0.998525
758.728882	0.997864
759.056014	0.997961
759.383099	0.999141
759.710138	0.998187
760.037129	0.996925
760.364073	0.998498
760.690970	0.998199
761.017820	0.997755
761.344623	0.998646
761.671379	0.998910
761.998088	0.998136
762.324751	0.997840
762.651366	0.996864
762.977935	0.996532
763.304456	0.997330
763.630931	0.996748
763.957359	0.995527
764.283740	0.995668
764.610074	0.997367
764.936362	0.996956
765.262602	0.998179
765.588796	0.998012
765.914943	0.997126
766.241044	0.997255
766.567097	0.998037
766.893104	0.998236
767.219064	0.997707
767.544978	0.997896
767.870845	0.999135
768.196665	0.997413
768.522438	0.998707
768.848165	0.998576
769.173846	0.998648
769.499479	0.999924
769.825066	0.998957
770.150607	0.999399
770.476101	0.998850
770.801548	0.999838
771.126949	0.999314
771.452303	0.998924
771.777611	0.998741
772.102872	0.998966
772.428087	0.998187
772.753256	0.999274
773.078378	0.998809
773.403453	0.998425
773.728482	0.999053
774.053465	0.998901
774.378401	0.998461
774.703291	0.999511
775.028135	0.999926
775.352932	0.998372
775.677683	0.999311
776.002388	0.997927
776.327046	0.998068
776.651658	0.999265
776.976224	0.999189
777.300743	0.997574
777.625216	0.998590
777.949643	0.998092
778.274024	0.997411
778.598359	0.998828
778.922647	0.999148
779.246889	0.999299
779.571086	0.999570
779.895236	0.998345
780.219339	0.999794
780.543397	0.998018
780.867409	0.999202
781.191374	0.998643
781.515294	0.999724
781.839167	0.999644
782.162995	0.998840
782.486776	0.998620
782.810511	0.998399
783.134201	0.999817
783.457844	0.998805
783.781441	0.998604
784.104993	0.998935
784.428498	0.998393
784.751958	0.999853
785.075372	1.000902
785.398739	0.998158
785.722061	0.996803
786.045337	0.998333
786.368568	0.998510
786.691752	0.998928
787.014891	0.998967
787.337983	0.998174
787.661030	0.998436
787.984031	0.998910
788.306987	0.999110
788.629897	0.996695
788.952760	0.998505
789.275579	0.998379
789.598351	0.998227
789.921078	0.998999
790.243759	0.999480
790.566395	0.998479
790.888984	0.999064
791.211529	0.998778
791.534027	0.998981
791.856480	0.998349
792.178888	0.999078
792.501249	0.998073
792.823566	0.998788
793.145836	0.998408
793.468062	0.998067
793.790241	0.999242
794.112375	0.998130
794.434464	0.998739
794.756507	0.999394
795.078505	0.998535
795.400457	0.999280
795.722364	0.999763
796.044226	0.998243
796.366042	0.997988
796.687812	0.997963
797.009538	0.998775
797.331218	0.999601
797.652852	0.999413
797.974442	0.998007
798.295986	0.999719
798.617484	0.998474
798.938938	0.997900
799.260346	0.998356
799.581709	0.998896
799.903026	0.999106
800.224299	0.998672
800.545526	0.997936
800.866708	0.999486
801.187845	0.999298
801.508936	0.998939
801.829983	0.999387
802.150984	0.998501
802.471940	0.998796
802.792851	0.998292
803.113717	0.999621
803.434538	0.999508
803.755314	0.999057
804.076045	0.998555
804.396731	0.998818
804.717372	0.997616
805.037967	1.000274
805.358518	0.998306
805.679024	0.997772
805.999485	0.998386
806.319901	0.998584
806.640272	0.999569
806.960598	0.998555
807.280879	0.998624
807.601115	0.999610
807.921306	0.999282
808.241453	0.998056
808.561554	0.999097
808.881611	0.998536
809.201623	0.998792
809.521590	0.999043
809.841513	0.999436
810.161390	0.998149
810.481223	0.997890
810.801011	0.998975
811.120755	1.000363
811.440453	0.998227
811.760107	0.999619
812.079716	0.998493
812.399281	0.998422
812.718801	0.998493
813.038276	0.998993
813.357707	0.999479
813.677093	0.999037
813.996434	0.998550
814.315731	1.000808
814.634983	0.999386
814.954191	1.000172
815.273354	0.998478
815.592473	0.998187
815.911547	0.999439
816.230577	0.998495
816.549562	1.000012
816.868502	0.998837
817.187399	0.998929
817.506250	0.999268
817.825058	0.997819
818.143821	0.998957
818.462539	0.998580
818.781213	0.998372
819.099843	0.999183
819.418429	0.998175
819.736970	0.998742
820.055466	0.996444
820.373919	0.997396
820.692327	0.996241
821.010691	0.996775
821.329011	0.994736
821.647286	0.992809
821.965517	0.991436
822.283704	0.990508
822.601847	0.989994
822.919945	0.990415
823.237999	0.991351
823.556010	0.992115
823.873976	0.992695
824.191897	0.993557
824.509775	0.994105
824.827609	0.994871
825.145398	0.995993
825.463144	0.994479
825.780845	0.994522
826.098502	0.995351
826.416116	0.995282
826.733685	0.994778
827.051210	0.993522
827.368692	0.993515
827.686129	0.993759
828.003522	0.995697
828.320872	0.995107
828.638177	0.995692
828.955439	0.998227
829.272656	0.997247
829.589830	0.997864
829.906960	0.998548
830.224046	0.997498
830.541088	0.998011
830.858086	0.998192
831.175041	0.998816
831.491952	0.998080
831.808819	0.998184
832.125642	0.997672
832.442421	0.998719
832.759157	0.999800
833.075849	0.996646
833.392497	0.996266
833.709101	0.994793
834.025662	0.996240
834.342179	0.995311
834.658653	0.997188
834.975083	0.997323
835.291469	0.996604
835.607811	0.997715
835.924110	0.998758
836.240366	0.998895
836.556578	0.998546
836.872746	0.998884
837.188871	0.998514
837.504952	0.998431
837.820990	0.999596
838.136984	0.998455
838.452935	0.998720
838.768842	0.999323
839.084706	0.999651
839.400526	0.998085
839.716303	0.997837
840.032037	0.998501
840.347727	0.997550
840.663373	0.998165
840.978977	0.997527
841.294537	0.999585
841.610054	0.999248
841.925527	0.999331
842.240957	0.999315
842.556344	0.998344
842.871687	0.998712
843.186987	0.998506
843.502244	0.999458
843.817458	0.998594
844.132629	0.999523
844.447756	0.998725
844.762840	1.000925
845.077881	0.999095
845.392879	0.998161
845.707833	0.998395
846.022745	0.998474
846.337613	0.998471
846.652438	0.999435
846.967221	0.999116
847.281960	0.999316
847.596656	0.999943
847.911309	0.999787
848.225919	0.999279
848.540485	1.000296
848.855009	1.000304
849.169490	0.999308
849.483928	0.999721
849.798323	0.997250
850.112675	1.000385
850.426984	1.000414
850.741251	0.999359
851.055474	1.000056
851.369654	0.999001
851.683792	0.998436
851.997887	0.998904
852.311938	1.000221
852.625947	0.999046
852.939914	0.999082
853.253837	1.001106
853.567718	1.000095
853.881555	0.999545
854.195350	1.000100
854.509103	0.999699
854.822812	0.999491
855.136479	1.000361
855.450103	0.999591
855.763685	0.999710
856.077224	0.999217
856.390720	0.999099
856.704173	1.000417
857.017584	1.000974
857.330953	0.999830
857.644278	0.999422
857.957561	1.000003
858.270802	1.000131
858.584000	0.999551
858.897155	0.997453
859.210268	0.999562
859.523339	1.000578
859.836367	1.000518
860.149352	0.999131
860.462295	0.999015
860.775195	1.000475
861.088054	0.998161
861.400869	0.998918
861.713642	0.998078
862.026373	0.999725
862.339062	0.999815
862.651708	1.000029
862.964312	1.000437
863.276873	0.999122
863.589392	0.999190
863.901869	0.998587
864.214303	1.000200
864.526696	0.999023
864.839045	1.000542
865.151353	1.000240
865.463619	0.998767
865.775842	0.999190
866.088023	1.000561
866.400162	1.000036
866.712258	1.001318
867.024313	0.999013
867.336325	1.000783
867.648296	0.999196
867.960224	0.999068
868.272110	1.000341
868.583954	0.999688
868.895755	0.998734
869.207515	0.998544
869.519233	1.000263
869.830909	0.999202
870.142542	0.998039
870.454134	1.000100
870.765684	0.999404
871.077191	0.999312
871.388657	0.999674
871.700081	0.999707
872.011463	1.000363
872.322803	0.999164
872.634101	0.998675
872.945357	0.998590
873.256571	0.998981
873.567744	0.999075
873.878874	0.999551
874.189963	0.998351
874.501010	1.000389
874.812015	0.998561
875.122979	0.998551
875.433900	0.998418
875.744780	0.999214
876.055618	0.997541
876.366415	0.998056
876.677169	0.999050
876.987882	0.999278
877.298554	0.998517
877.609183	0.999371
877.919771	0.999853
878.230317	0.999063
878.540822	0.998383
878.851285	0.998863
879.161707	0.998190
879.472087	0.998629
879.782425	0.997186
880.092722	0.996623
880.402977	0.994705
880.713191	0.994157
881.023363	0.991813
881.333494	0.990505
881.643583	0.991435
881.953631	0.991082
882.263637	0.991041
882.573602	0.991858
882.883526	0.993292
883.193408	0.994222
883.503248	0.993807
883.813048	0.995026
884.122806	0.994989
884.432522	0.995510
884.742197	0.997405
885.051831	0.996777
885.361424	0.996097
885.670975	0.999173
885.980485	0.997103
886.289954	0.997264
886.599382	0.996528
886.908768	0.998148
887.218113	0.997118
887.527417	0.998866
887.836680	0.999317
888.145901	0.998860
888.455082	0.999850
888.764221	0.999657
889.073319	0.998407
889.382376	1.000220
889.691392	0.999235
890.000366	0.999377
890.309300	0.998290
890.618193	1.000425
890.927044	0.999362
891.235855	0.999103
891.544625	0.999118
891.853353	0.999439
892.162041	0.998204
892.470687	0.999416
892.779293	0.997674
893.087858	0.997664
893.396381	0.997638
893.704864	0.997528
894.013306	0.997020
894.321707	0.996269
894.630068	0.995615
894.938387	0.994570
895.246665	0.995292
895.554903	0.995150
895.863100	0.997072
896.171256	0.996500
896.479371	0.997590
896.787446	0.996859
897.095480	0.997747
897.403473	0.998131
897.711425	0.998474
898.019336	0.998596
898.327207	0.999479
898.635038	0.998352
898.942827	0.998872
899.250576	0.997878
899.558284	0.999069
899.865952	0.998060
900.173579	0.998254
900.481165	0.998903
900.788711	0.998399
901.096216	0.998475
901.403681	0.999386
901.711105	0.998386
902.018489	0.998169
902.325832	0.999358
902.633135	0.999263
902.940397	0.999831
903.247619	0.999197
903.554800	0.997909
903.861941	0.997007
904.169041	0.995343
904.476101	0.995145
904.783121	0.994359
905.090100	0.994759
905.397039	0.996145
905.703938	0.996412
906.010796	0.995282
906.317614	0.997123
906.624391	0.998556
906.931129	0.998473
907.237826	0.998570
907.544483	0.999091
907.851099	0.998219
908.157675	0.997995
908.464211	0.998869
908.770707	0.997608
909.077163	0.999151
909.383578	0.998946
909.689954	0.998783
909.996289	0.999374
910.302584	0.998409
910.608839	1.000489
910.915054	0.999568
911.221229	1.000988
911.527363	0.998756
911.833458	1.000115
912.139513	0.998952
912.445527	0.999951
912.751502	0.998957
913.057436	0.998055
913.363331	1.000402
913.669186	0.999631
913.975000	0.999148
914.280775	0.998887
914.586510	0.998258
914.892205	0.997084
915.197859	0.996731
915.503475	0.996751
915.809050	0.994891
916.114585	0.993164
916.420081	0.995040
916.725536	0.995092
917.030952	0.994758
917.336328	0.994833
917.641665	0.994583
917.946961	0.996659
918.252218	0.995654
918.557435	0.995987
918.862612	0.998047
919.167750	0.998467
919.472848	0.998373
919.777906	0.999181
920.082925	0.999360
920.387904	0.999147
920.692843	0.999076
920.997743	0.997972
921.302603	0.998971
921.607423	0.998825
921.912204	0.999331
922.216946	0.999751
922.521647	0.998884
922.826310	0.998942
923.130932	0.999253
923.435516	0.999379
923.740059	0.999744
924.044564	0.998493
924.349028	0.997937
924.653454	1.000148
924.957840	0.998601
925.262186	0.998321
925.566493	0.999358
925.870761	0.999885
926.174989	0.998601
926.479178	0.998908
926.783328	0.999258
927.087438	1.000325
927.391509	0.999399
927.695541	0.999401
927.999533	1.000218
928.303486	0.999275
928.607400	1.000848
928.911275	1.000276
929.215110	1.000082
929.518906	1.000348
929.822663	0.999723
930.126381	1.000021
930.430060	1.000481
930.733699	1.000493
931.037299	1.000724
931.340861	0.998919
931.644383	0.998049
931.947866	1.000198
932.251309	0.998769
932.554714	0.999938
932.858080	1.000110
933.161407	0.998907
933.464694	1.000229
933.767943	1.000523
934.071153	1.000267
934.374323	1.000702
934.677455	0.999516
934.980548	0.999128
935.283602	0.999249
935.586617	0.999490
935.889593	1.001033
936.192530	0.999774
936.495428	0.999608
936.798287	0.999663
937.101108	1.000891
937.403890	0.999536
937.706632	1.000919
938.009336	0.999536
938.312002	0.998474
938.614628	1.001381
938.917216	0.999646
939.219765	0.999428
939.522275	0.999451
939.824747	0.999936
940.127179	0.998833
940.429573	1.000927
940.731929	0.998478
941.034246	0.999858
941.336524	0.998571
941.638763	0.997264
941.940964	0.999098
942.243126	0.999281
942.545250	0.999866
942.847335	1.000088
943.149381	0.999695
943.451389	0.998584
943.753359	1.000725
944.055290	1.001481
944.357182	1.000188
944.659036	0.999780
944.960851	1.000423
945.262628	1.000178
945.564367	1.000483
945.866067	1.001083
946.167729	0.999982
946.469352	0.999942
946.770937	0.998117
947.072484	1.000190
947.373992	0.998400
947.675462	0.999503
947.976893	0.998284
948.278286	1.000994
948.579641	1.001175
948.880958	0.999373
949.182236	0.999874
949.483476	0.999704
949.784678	1.000357
950.085841	0.999583
950.386967	0.999362
950.688054	0.999293
950.989103	0.999089
951.290114	0.997325
951.591087	0.999579
951.892021	0.998476
952.192917	0.999658
952.493776	1.000219
952.794596	1.000197
953.095378	0.999907
953.396122	0.999167
953.696828	1.000133
953.997496	1.000597
954.298126	1.001200
954.598718	0.999545
954.899272	0.999804
955.199788	0.999708
955.500266	0.999842
955.800706	0.999822
956.101108	0.999016
956.401472	1.001669
956.701798	0.999514
957.002087	1.000415
957.302337	0.999747
957.602550	0.999210
957.902724	0.999362
958.202861	0.999987
958.502960	0.999506
958.803022	1.000056
959.103045	0.999936
959.403031	1.001430
959.702979	1.001033
960.002889	0.999928
960.302762	0.998791
960.602596	0.999977
960.902393	1.000595
961.202153	1.000154
961.501875	1.001177
961.801559	1.000596
962.101205	0.999982
962.400814	0.999922
962.700385	1.000759
962.999918	1.000154
963.299414	0.999701
963.598873	1.000412
963.898293	0.999455
964.197677	0.999301
964.497022	0.999516
964.796331	0.999602
965.095601	1.001235
965.394835	1.000048
965.694030	1.001152
965.993189	0.998832
966.292309	1.000583
966.591393	0.999448
966.890439	0.999411
967.189447	0.999626
967.488419	1.000308
967.787353	1.000129
968.086249	0.999652
968.385108	1.000128
968.683930	0.999947
968.982714	1.000225
969.281462	0.999952
969.580172	0.999975
969.878844	1.000903
970.177480	1.000037
970.476078	1.001175
970.774639	1.000496
971.073162	1.000058
971.371649	0.999471
971.670098	0.999839
971.968510	1.000733
972.266885	0.999836
972.565223	1.000342
972.863524	0.998452
973.161788	1.000459
973.460014	1.001183
973.758204	0.998747
974.056356	1.000062
974.354471	1.000216
974.652550	1.000639
974.950591	0.999610
975.248595	0.998600
975.546563	1.000636
975.844493	1.001406
976.142386	0.999575
976.440243	1.000815
976.738062	1.000510
977.035845	0.998941
977.333590	0.999931
977.631299	0.999496
977.928971	1.000147
978.226606	0.999687
978.524204	0.999983
978.821765	1.000524
979.119290	1.000591
979.416777	0.999081
979.714228	1.000253
980.011642	1.001010
980.309020	1.000223
980.606360	0.999674
980.903664	0.999799
981.200931	0.999404
981.498162	0.999683
981.795356	0.998787
982.092513	1.000146
982.389633	1.000495
982.686717	0.998053
982.983764	0.999891
983.280775	0.999102
983.577749	1.000509
983.874686	0.999693
984.171587	0.999828
984.468451	1.000581
984.765279	1.000444
985.062070	1.000827
985.358824	1.000596
985.655543	1.000192
985.952224	0.999909
986.248869	0.999625
986.545478	1.000925
986.842050	1.000123
987.138586	0.998538
987.435086	1.000555
987.731549	1.000250
988.027975	1.001219
988.324366	0.999685
988.620719	1.000592
988.917037	1.001451
989.213318	1.001127
989.509563	1.000284
989.805772	0.999642
990.101944	1.001243
990.398080	0.999667
990.694180	1.000703
990.990244	1.000022
991.286271	0.999695
991.582262	1.000573
991.878217	1.000227
992.174136	1.000748
992.470019	0.999797
992.765865	1.001545
993.061676	0.999746
993.357450	1.001528
993.653188	1.000987
993.948890	1.000139
994.244556	1.000081
994.540186	1.000249
994.835780	1.000560
995.131337	1.001238
995.426859	1.000372
995.722345	1.000363
996.017795	0.999591
996.313208	1.000893
996.608586	0.999470
996.903928	1.000600
997.199234	0.999835
997.494504	1.000523
997.789738	0.999019
998.084936	1.000746
998.380099	0.999265
998.675225	1.000513
998.970316	1.000193
999.265371	0.999762
999.560390	0.999513
999.855373	1.000318
1000.150320	0.999500
1000.445232	1.000664
1000.740108	0.999617
1001.034948	1.000142
1001.329752	1.001187
1001.624521	1.000765
1001.919254	0.999988
1002.213951	1.001003
1002.508613	0.999759
1002.803239	0.999943
1003.097829	1.000011
1003.392384	1.000123
1003.686903	0.999979
1003.981386	1.000020
1004.275834	1.001031
1004.570246	0.998383
1004.864623	1.001056
1005.158964	0.999592
1005.453270	1.000771
1005.747540	0.999406
1006.041775	0.999938
1006.335974	1.000305
1006.630138	1.000318
1006.924266	0.998966
1007.218359	0.999106
1007.512416	1.000069
1007.806438	0.999998
1008.100425	1.000112
1008.394376	1.001087
1008.688292	1.000730
1008.982172	0.998876
1009.276017	1.001356
1009.569827	1.000507
1009.863602	0.999519
1010.157341	1.001748
1010.451045	1.000184
1010.744714	1.003124
1011.038347	1.001549
1011.331945	0.999761
1011.625508	0.999379
1011.919036	1.000845
1012.212528	1.000137
1012.505986	1.000343
1012.799408	1.000797
1013.092795	1.001210
1013.386147	1.001196
1013.679464	0.999963
1013.972745	1.000303
1014.265992	1.001786
1014.559204	0.999985
1014.852380	1.000163
1015.145521	1.000702
1015.438628	1.000405
1015.731699	0.999207
1016.024736	1.000413
1016.317737	1.000457
1016.610703	1.000421
1016.903635	1.000064
1017.196531	1.000066
1017.489393	0.998885
1017.782219	0.999616
1018.075011	0.999321
1018.367768	0.997978
1018.660490	1.000087
1018.953177	1.000087
1019.245829	1.000087
