Dividing Wavelength (nm)	Counts (n)	Blue Motor Position (mm): 4.100000	Red Motor Position (mm): 0.000000	
326.493990	1.005926
326.888308	1.005926
327.282561	1.005926
327.676750	1.007583
328.070874	1.007921
328.464933	1.007478
328.858929	1.007221
329.252859	1.005852
329.646726	1.005793
330.040528	1.005981
330.434265	1.005772
330.827938	1.006416
331.221547	1.006611
331.615091	1.006517
332.008571	1.007878
332.401986	1.004806
332.795338	1.006975
333.188625	1.007234
333.581847	1.005256
333.975006	1.006509
334.368100	1.007838
334.761129	1.004356
335.154095	1.005638
335.546996	1.003217
335.939833	0.998384
336.332606	1.000659
336.725315	0.997973
337.117960	0.999672
337.510540	0.999029
337.903056	0.998962
338.295508	0.999812
338.687896	0.999402
339.080220	0.999757
339.472480	0.999250
339.864676	0.999858
340.256807	0.997439
340.648875	0.999147
341.040879	0.999796
341.432818	0.998923
341.824694	0.999660
342.216506	0.999826
342.608253	0.999005
342.999937	0.998178
343.391557	0.998885
343.783113	0.999692
344.174605	0.999112
344.566033	0.999246
344.957397	1.000031
345.348697	0.999298
345.739934	0.999456
346.131106	0.998562
346.522215	0.998350
346.913260	0.998835
347.304241	0.998826
347.695159	0.998393
348.086012	0.999451
348.476802	0.998509
348.867528	0.998221
349.258191	0.999270
349.648789	0.998458
350.039324	0.998340
350.429796	0.997755
350.820203	0.998319
351.210548	0.998750
351.600828	0.998516
351.991045	0.998943
352.381198	0.999199
352.771288	0.998103
353.161314	0.998713
353.551276	0.998046
353.941175	0.997181
354.331010	0.998700
354.720782	0.998522
355.110490	0.998650
355.500135	0.999109
355.889717	0.998018
356.279235	0.996923
356.668689	0.998394
357.058080	0.998744
357.447408	0.997570
357.836672	0.997960
358.225873	0.998329
358.615010	0.998142
359.004084	0.997143
359.393095	0.999455
359.782043	0.997225
360.170927	0.998094
360.559748	0.997548
360.948505	0.996571
361.337199	0.996181
361.725830	0.998104
362.114398	0.996631
362.502903	0.997621
362.891344	0.994921
363.279722	0.996960
363.668037	0.996942
364.056289	0.997795
364.444478	0.997047
364.832603	0.996940
365.220665	0.997468
365.608665	0.996594
365.996601	0.997092
366.384474	0.996670
366.772284	0.996450
367.160031	0.995459
367.547715	0.995247
367.935336	0.993361
368.322893	0.993460
368.710388	0.992174
369.097820	0.989450
369.485189	0.988924
369.872495	0.986698
370.259738	0.985019
370.646918	0.981555
371.034035	0.979801
371.421090	0.976919
371.808081	0.971939
372.195010	0.970083
372.581875	0.964158
372.968678	0.959511
373.355418	0.956210
373.742096	0.947178
374.128710	0.943518
374.515262	0.939852
374.901751	0.933114
375.288177	0.928978
375.674540	0.922040
376.060841	0.916075
376.447079	0.909891
376.833254	0.902711
377.219367	0.897758
377.605417	0.886135
377.991404	0.882878
378.377329	0.876198
378.763191	0.871640
379.148991	0.861640
379.534727	0.853535
379.920402	0.845549
380.306013	0.841325
380.691563	0.830271
381.077049	0.822393
381.462474	0.818996
381.847835	0.807984
382.233134	0.802813
382.618371	0.801711
383.003545	0.785780
383.388657	0.783385
383.773706	0.775965
384.158693	0.772012
384.543618	0.767281
384.928480	0.757962
385.313280	0.747372
385.698017	0.747372
386.082692	0.735794
386.467305	0.734530
386.851856	0.729485
387.236344	0.723511
387.620770	0.717416
388.005133	0.712245
388.389435	0.706290
388.773674	0.703973
389.157851	0.695129
389.541965	0.692789
389.926018	0.700231
390.310008	0.686430
390.693936	0.683119
391.077802	0.676193
391.461606	0.676763
391.845348	0.666307
392.229027	0.665789
392.612645	0.663493
392.996200	0.650401
393.379694	0.643522
393.763125	0.634110
394.146494	0.639010
394.529801	0.629508
394.913047	0.621707
395.296230	0.628026
395.679351	0.618654
396.062410	0.615915
396.445408	0.617726
396.828343	0.613870
397.211217	0.608654
397.594028	0.620969
397.976778	0.611070
398.359466	0.607763
398.742092	0.603526
399.124656	0.614964
399.507158	0.603775
399.889598	0.600470
400.271977	0.591303
400.654294	0.594981
401.036549	0.594616
401.418742	0.598428
401.800874	0.585289
402.182944	0.581043
402.564952	0.573412
402.946898	0.575471
403.328783	0.575954
403.710606	0.586490
404.092367	0.562068
404.474067	0.567586
404.855705	0.565749
405.237282	0.574724
405.618797	0.560890
406.000250	0.556644
406.381642	0.546905
406.762972	0.551696
407.144240	0.550603
407.525447	0.550360
407.906593	0.543274
408.287677	0.538917
408.668700	0.546432
409.049661	0.540657
409.430560	0.536345
409.811399	0.544754
410.192176	0.526623
410.572891	0.533365
410.953545	0.522096
411.334138	0.534968
411.714669	0.527527
412.095139	0.540150
412.475547	0.524030
412.855894	0.525334
413.236180	0.525004
413.616405	0.529711
413.996568	0.520275
414.376670	0.526546
414.756711	0.531710
415.136691	0.528822
415.516609	0.519674
415.896466	0.516404
416.276262	0.512430
416.655997	0.513925
417.035670	0.495524
417.415283	0.487488
417.794834	0.491791
418.174324	0.497030
418.553753	0.506215
418.933121	0.489159
419.312428	0.482545
419.691674	0.488361
420.070859	0.476139
420.449983	0.484785
420.829045	0.473673
421.208047	0.483184
421.586988	0.475911
421.965867	0.474696
422.344686	0.463567
422.723444	0.476394
423.102141	0.493080
423.480777	0.466183
423.859352	0.486407
424.237866	0.464023
424.616319	0.464517
424.994712	0.455744
425.373044	0.466320
425.751314	0.454271
426.129524	0.470320
426.507673	0.454055
426.885762	0.447121
427.263789	0.452579
427.641756	0.462383
428.019662	0.452776
428.397508	0.452458
428.775292	0.455994
429.153016	0.448483
429.530679	0.454804
429.908282	0.448022
430.285824	0.457801
430.663305	0.436503
431.040726	0.457554
431.418086	0.457538
431.795385	0.449410
432.172624	0.447953
432.549802	0.448183
432.926920	0.447848
433.303977	0.446727
433.680974	0.443954
434.057910	0.442711
434.434786	0.441282
434.811601	0.444955
435.188355	0.427104
435.565050	0.436761
435.941683	0.437570
436.318257	0.421293
436.694770	0.422512
437.071222	0.420411
437.447614	0.424983
437.823946	0.431807
438.200218	0.420866
438.576429	0.430518
438.952580	0.423651
439.328670	0.420211
439.704700	0.426601
440.080670	0.428294
440.456580	0.409425
440.832429	0.417374
441.208218	0.427981
441.583947	0.416901
441.959616	0.416592
442.335224	0.422074
442.710773	0.412868
443.086261	0.411193
443.461689	0.425086
443.837057	0.414679
444.212365	0.404471
444.587612	0.411934
444.962800	0.401834
445.337927	0.403544
445.712995	0.428845
446.088002	0.391260
446.462949	0.401797
446.837837	0.407081
447.212664	0.394913
447.587431	0.386754
447.962139	0.356792
448.336786	0.315957
448.711374	0.326335
449.085901	0.371079
449.460369	0.375242
449.834776	0.378558
450.209124	0.357613
450.583412	0.350625
450.957640	0.343829
451.331808	0.355201
451.705917	0.378498
452.079965	0.382981
452.453954	0.371178
452.827883	0.378133
453.201752	0.372725
453.575562	0.384026
453.949311	0.372720
454.323001	0.378825
454.696632	0.374687
455.070202	0.367112
455.443713	0.359666
455.817164	0.353898
456.190556	0.349639
456.563888	0.346456
456.937160	0.344063
457.310373	0.361686
457.683526	0.360146
458.056619	0.366000
458.429653	0.366299
458.802628	0.369679
459.175542	0.364438
459.548398	0.346801
459.921194	0.339537
460.293930	0.339411
460.666607	0.316590
461.039224	0.305101
461.411782	0.300338
461.784280	0.299604
462.156719	0.303822
462.529099	0.308334
462.901419	0.324254
463.273680	0.328714
463.645882	0.328326
464.018024	0.334418
464.390106	0.327149
464.762130	0.311557
465.134094	0.294261
465.505999	0.263710
465.877845	0.233536
466.249631	0.220809
466.621358	0.228241
466.993026	0.242132
467.364634	0.248479
467.736184	0.257084
468.107674	0.266188
468.479105	0.264991
468.850477	0.271722
469.221790	0.278750
469.593043	0.289044
469.964238	0.293255
470.335373	0.293356
470.706449	0.291221
471.077467	0.291718
471.448425	0.253770
471.819324	0.229580
472.190164	0.229003
472.560945	0.257753
472.931667	0.280368
473.302330	0.283918
473.672934	0.296548
474.043479	0.284089
474.413965	0.286133
474.784393	0.289611
475.154761	0.284537
475.525070	0.281898
475.895321	0.287578
476.265513	0.281562
476.635645	0.276764
477.005719	0.276798
477.375734	0.273184
477.745691	0.266534
478.115588	0.262880
478.485427	0.256317
478.855207	0.243503
479.224928	0.225586
479.594591	0.213879
479.964194	0.217175
480.333739	0.218548
480.703226	0.219897
481.072653	0.218305
481.442022	0.214112
481.811333	0.210775
482.180584	0.214289
482.549777	0.219767
482.918912	0.222819
483.287988	0.222404
483.657005	0.222257
484.025964	0.228440
484.394864	0.226182
484.763706	0.226345
485.132489	0.231430
485.501213	0.232305
485.869879	0.230839
486.238487	0.233887
486.607036	0.231941
486.975527	0.236305
487.343959	0.232277
487.712333	0.231370
488.080648	0.232879
488.448905	0.232185
488.817104	0.233160
489.185244	0.227731
489.553326	0.224478
489.921350	0.214436
490.289315	0.196646
490.657222	0.191485
491.025070	0.193254
491.392861	0.194883
491.760593	0.200809
492.128267	0.206534
492.495883	0.212236
492.863440	0.218429
493.230939	0.224579
493.598380	0.226102
493.965763	0.228280
494.333088	0.230705
494.700354	0.232165
495.067563	0.230915
495.434713	0.234200
495.801805	0.232122
496.168839	0.233542
496.535815	0.235130
496.902733	0.234977
497.269593	0.236381
497.636395	0.234224
498.003139	0.234476
498.369825	0.237500
498.736453	0.233856
499.103023	0.235747
499.469535	0.234953
499.835989	0.235163
500.202385	0.235833
500.568723	0.239197
500.935003	0.234396
501.301226	0.238708
501.667390	0.233089
502.033497	0.231053
502.399546	0.234061
502.765537	0.236106
503.131470	0.234617
503.497345	0.230776
503.863163	0.239270
504.228923	0.232384
504.594625	0.231068
504.960269	0.236554
505.325856	0.231998
505.691385	0.236356
506.056856	0.232960
506.422270	0.232171
506.787625	0.234908
507.152924	0.232455
507.518164	0.232976
507.883347	0.234323
508.248472	0.236306
508.613540	0.230841
508.978550	0.233836
509.343503	0.234200
509.708398	0.231988
510.073236	0.229383
510.438016	0.229048
510.802738	0.230120
511.167403	0.229207
511.532010	0.231415
511.896561	0.226550
512.261053	0.224998
512.625488	0.227402
512.989866	0.227638
513.354186	0.227964
513.718449	0.230147
514.082655	0.226202
514.446803	0.228481
514.810894	0.225935
515.174927	0.229133
515.538904	0.228140
515.902822	0.225120
516.266684	0.227708
516.630488	0.228685
516.994235	0.227710
517.357925	0.226265
517.721558	0.224378
518.085133	0.224151
518.448651	0.224170
518.812112	0.226678
519.175516	0.226311
519.538863	0.223710
519.902152	0.225537
520.265385	0.222252
520.628560	0.223807
520.991678	0.224394
521.354739	0.223253
521.717743	0.224478
522.080690	0.224792
522.443580	0.222207
522.806413	0.223083
523.169189	0.222628
523.531908	0.221300
523.894569	0.224841
524.257174	0.224710
524.619722	0.222513
524.982213	0.223547
525.344647	0.222227
525.707025	0.223483
526.069345	0.221419
526.431608	0.223390
526.793815	0.221230
527.155964	0.225612
527.518057	0.224206
527.880093	0.225099
528.242072	0.223637
528.603995	0.225765
528.965860	0.227494
529.327669	0.226450
529.689421	0.227290
530.051117	0.227997
530.412755	0.225704
530.774337	0.228133
531.135862	0.228615
531.497331	0.227802
531.858743	0.230790
532.220098	0.227512
532.581396	0.229981
532.942638	0.230469
533.303824	0.231611
533.664953	0.231086
534.026025	0.233211
534.387040	0.230825
534.747999	0.230731
535.108902	0.229493
535.469748	0.234782
535.830537	0.232685
536.191270	0.232982
536.551947	0.232435
536.912567	0.232554
537.273131	0.234350
537.633638	0.234418
537.994089	0.234970
538.354483	0.235791
538.714821	0.233057
539.075103	0.232685
539.435328	0.233413
539.795497	0.237009
540.155609	0.233714
540.515665	0.231842
540.875665	0.237646
541.235609	0.236196
541.595496	0.236230
541.955328	0.232817
542.315102	0.235361
542.674821	0.236497
543.034483	0.236700
543.394090	0.236223
543.753640	0.237858
544.113134	0.233026
544.472571	0.236446
544.831953	0.233186
545.191278	0.237280
545.550548	0.236672
545.909761	0.233410
546.268918	0.234562
546.628019	0.232851
546.987064	0.235338
547.346053	0.237217
547.704986	0.234503
548.063863	0.235239
548.422684	0.235408
548.781449	0.237217
549.140158	0.234965
549.498811	0.237915
549.857408	0.240753
550.215949	0.235466
550.574434	0.238473
550.932864	0.236804
551.291237	0.235051
551.649555	0.236823
552.007817	0.236463
552.366022	0.237518
552.724173	0.237535
553.082267	0.237929
553.440305	0.234781
553.798288	0.239166
554.156215	0.235715
554.514086	0.236425
554.871902	0.239355
555.229661	0.238799
555.587365	0.239312
555.945014	0.241852
556.302606	0.238817
556.660143	0.241238
557.017625	0.237766
557.375050	0.239610
557.732421	0.237110
558.089735	0.239198
558.446994	0.239032
558.804197	0.238400
559.161345	0.237910
559.518437	0.241518
559.875474	0.239501
560.232455	0.238899
560.589381	0.239941
560.946251	0.240437
561.303065	0.237916
561.659825	0.239189
562.016528	0.241016
562.373177	0.243737
562.729770	0.240919
563.086307	0.242695
563.442789	0.240769
563.799216	0.243381
564.155587	0.242413
564.511904	0.243620
564.868164	0.243306
565.224370	0.243345
565.580520	0.244920
565.936615	0.244834
566.292654	0.247836
566.648638	0.245105
567.004567	0.246091
567.360441	0.246480
567.716260	0.248756
568.072023	0.246026
568.427732	0.246988
568.783385	0.249079
569.138982	0.247496
569.494525	0.247113
569.850013	0.250138
570.205445	0.248611
570.560823	0.250875
570.916145	0.253023
571.271412	0.251431
571.626625	0.252809
571.981782	0.253312
572.336884	0.254082
572.691931	0.254121
573.046923	0.255170
573.401860	0.256297
573.756743	0.258125
574.111570	0.257002
574.466342	0.257742
574.821059	0.256368
575.175722	0.259471
575.530330	0.259071
575.884882	0.259534
576.239380	0.261571
576.593823	0.262116
576.948211	0.261717
577.302544	0.264775
577.656823	0.264115
578.011047	0.264163
578.365216	0.265369
578.719330	0.267323
579.073389	0.266449
579.427394	0.268119
579.781344	0.269106
580.135239	0.270390
580.489080	0.270169
580.842866	0.272895
581.196597	0.272792
581.550273	0.271654
581.903895	0.272711
582.257463	0.270539
582.610975	0.274528
582.964434	0.273373
583.317837	0.275840
583.671186	0.276373
584.024481	0.276738
584.377721	0.278973
584.730906	0.279956
585.084037	0.279020
585.437113	0.280880
585.790135	0.280081
586.143103	0.282787
586.496016	0.284199
586.848874	0.281659
587.201679	0.282462
587.554428	0.285501
587.907124	0.284693
588.259765	0.285026
588.612352	0.285777
588.964884	0.289521
589.317362	0.289297
589.669786	0.288820
590.022155	0.287503
590.374470	0.286797
590.726731	0.288996
591.078937	0.294073
591.431090	0.290145
591.783188	0.294433
592.135232	0.295099
592.487222	0.294794
592.839157	0.293114
593.191038	0.295052
593.542866	0.297209
593.894639	0.300374
594.246358	0.299052
594.598022	0.298171
594.949633	0.301841
595.301190	0.302709
595.652692	0.301492
596.004141	0.297735
596.355535	0.305487
596.706876	0.306451
597.058162	0.309072
597.409395	0.306086
597.760573	0.303572
598.111698	0.306898
598.462768	0.307275
598.813785	0.308389
599.164748	0.310067
599.515657	0.310289
599.866511	0.313909
600.217312	0.309312
600.568060	0.314400
600.918753	0.310726
601.269392	0.311384
601.619978	0.314897
601.970510	0.312466
602.320988	0.312530
602.671412	0.310303
603.021783	0.312779
603.372100	0.314296
603.722363	0.314200
604.072572	0.314913
604.422728	0.314392
604.772830	0.316348
605.122878	0.316325
605.472872	0.316967
605.822813	0.315197
606.172701	0.318068
606.522534	0.315084
606.872314	0.315294
607.222041	0.316026
607.571714	0.314198
607.921333	0.315970
608.270899	0.315571
608.620411	0.312234
608.969870	0.315950
609.319276	0.316540
609.668627	0.316206
610.017926	0.315032
610.367171	0.313044
610.716362	0.314159
611.065500	0.314246
611.414585	0.313246
611.763616	0.313421
612.112594	0.313642
612.461518	0.313274
612.810389	0.310832
613.159207	0.313470
613.507971	0.315256
613.856682	0.310883
614.205340	0.311879
614.553945	0.309475
614.902496	0.313274
615.250994	0.311170
615.599439	0.311653
615.947830	0.311104
616.296169	0.312222
616.644454	0.311924
616.992686	0.311859
617.340864	0.309467
617.688990	0.313094
618.037063	0.309885
618.385082	0.311535
618.733048	0.308356
619.080961	0.311177
619.428821	0.310246
619.776628	0.309985
620.124382	0.312138
620.472083	0.312822
620.819731	0.311528
621.167326	0.315802
621.514868	0.315453
621.862357	0.319499
622.209793	0.319033
622.557176	0.321719
622.904506	0.322580
623.251783	0.325292
623.599007	0.327035
623.946179	0.326531
624.293297	0.328898
624.640363	0.332672
624.987376	0.333475
625.334336	0.335932
625.681243	0.337677
626.028097	0.338413
626.374899	0.339429
626.721647	0.340065
627.068343	0.343177
627.414987	0.344579
627.761577	0.346084
628.108115	0.344592
628.454600	0.350121
628.801032	0.347371
629.147412	0.349352
629.493739	0.350109
629.840014	0.352496
630.186236	0.350049
630.532405	0.355454
630.878521	0.352853
631.224585	0.355280
631.570597	0.359154
631.916556	0.357115
632.262462	0.357146
632.608316	0.359499
632.954117	0.360551
633.299866	0.361169
633.645562	0.361853
633.991206	0.365756
634.336797	0.368594
634.682336	0.371577
635.027823	0.373006
635.373257	0.373239
635.718639	0.377554
636.063968	0.376291
636.409245	0.382177
636.754470	0.382303
637.099642	0.384720
637.444762	0.387997
637.789829	0.387686
638.134845	0.390738
638.479808	0.392498
638.824719	0.392020
639.169577	0.395917
639.514383	0.395032
639.859137	0.399079
640.203839	0.399087
640.548489	0.399521
640.893086	0.400443
641.237632	0.402359
641.582125	0.401237
641.926566	0.403327
642.270955	0.402653
642.615292	0.402505
642.959576	0.401647
643.303809	0.402685
643.647990	0.401854
643.992118	0.402363
644.336195	0.405692
644.680219	0.404392
645.024192	0.405176
645.368112	0.398930
645.711981	0.397707
646.055797	0.393105
646.399562	0.395819
646.743274	0.388205
647.086935	0.384810
647.430544	0.384978
647.774101	0.383633
648.117606	0.383434
648.461059	0.384082
648.804460	0.386841
649.147810	0.392469
649.491108	0.393569
649.834354	0.394784
650.177548	0.400192
650.520690	0.405917
650.863781	0.406768
651.206820	0.406081
651.549807	0.411353
651.892742	0.415079
652.235626	0.414364
652.578458	0.415424
652.921238	0.422360
653.263967	0.419293
653.606644	0.422671
653.949269	0.423511
654.291843	0.426802
654.634365	0.424095
654.976836	0.427094
655.319255	0.427686
655.661622	0.428720
656.003938	0.428940
656.346203	0.431298
656.688416	0.429560
657.030577	0.433147
657.372687	0.435141
657.714746	0.435737
658.056753	0.432809
658.398708	0.436316
658.740612	0.438409
659.082465	0.433585
659.424266	0.434754
659.766016	0.434117
660.107715	0.437408
660.449362	0.435695
660.790958	0.435966
661.132503	0.437509
661.473996	0.434506
661.815438	0.435774
662.156829	0.435534
662.498168	0.436342
662.839456	0.437462
663.180693	0.435041
663.521879	0.435081
663.863013	0.435959
664.204097	0.434699
664.545129	0.431798
664.886110	0.431712
665.227040	0.428950
665.567918	0.431935
665.908746	0.429197
666.249522	0.429374
666.590248	0.429891
666.930922	0.428183
667.271545	0.427350
667.612118	0.427152
667.952639	0.429134
668.293109	0.427798
668.633528	0.430391
668.973896	0.430426
669.314213	0.431186
669.654480	0.432545
669.994695	0.433231
670.334859	0.433772
670.674973	0.433860
671.015035	0.434318
671.355047	0.434725
671.695008	0.435114
672.034918	0.437026
672.374777	0.436194
672.714585	0.437713
673.054342	0.437064
673.394049	0.437238
673.733705	0.435025
674.073310	0.436430
674.412864	0.439405
674.752368	0.439544
675.091820	0.439700
675.431223	0.444889
675.770574	0.444062
676.109875	0.447423
676.449125	0.447774
676.788324	0.449411
677.127473	0.455042
677.466571	0.455200
677.805619	0.457256
678.144616	0.457752
678.483562	0.459850
678.822458	0.462217
679.161303	0.462359
679.500098	0.463115
679.838842	0.464595
680.177535	0.464408
680.516179	0.463206
680.854771	0.461944
681.193314	0.455204
681.531805	0.446280
681.870247	0.434932
682.208638	0.427842
682.546978	0.426849
682.885268	0.428257
683.223508	0.434972
683.561697	0.438684
683.899836	0.441220
684.237925	0.444361
684.575963	0.447457
684.913951	0.450208
685.251889	0.446010
685.589776	0.447961
685.927614	0.450417
686.265401	0.444889
686.603137	0.445567
686.940824	0.439965
687.278460	0.439082
687.616046	0.437620
687.953582	0.432779
688.291068	0.433281
688.628504	0.429685
688.965889	0.431607
689.303224	0.435355
689.640510	0.439355
689.977745	0.444967
690.314930	0.453090
690.652065	0.457700
690.989150	0.465551
691.326185	0.472195
691.663170	0.476467
692.000105	0.484286
692.336990	0.491552
692.673825	0.493374
693.010610	0.500073
693.347345	0.506368
693.684030	0.507512
694.020665	0.511868
694.357251	0.520834
694.693786	0.520590
695.030272	0.524017
695.366707	0.528147
695.703093	0.532021
696.039429	0.529052
696.375716	0.531754
696.711952	0.533826
697.048139	0.535994
697.384276	0.538122
697.720363	0.537253
698.056400	0.535407
698.392388	0.541125
698.728326	0.544037
699.064214	0.546851
699.400053	0.546834
699.735842	0.550796
700.071581	0.553896
700.407270	0.556382
700.742910	0.559684
701.078501	0.565802
701.414042	0.566598
701.749533	0.569036
702.084974	0.578201
702.420366	0.570592
702.755709	0.578195
703.091002	0.586377
703.426246	0.579928
703.761440	0.585422
704.096584	0.590250
704.431679	0.586737
704.766725	0.589771
705.101721	0.591221
705.436668	0.587633
705.771565	0.594121
706.106413	0.589855
706.441212	0.586290
706.775961	0.585771
707.110661	0.587353
707.445311	0.584221
707.779913	0.581653
708.114465	0.580522
708.448967	0.576872
708.783421	0.569386
709.117825	0.563092
709.452180	0.563057
709.786485	0.556383
710.120742	0.546133
710.454949	0.548163
710.789107	0.540426
711.123216	0.531152
711.457275	0.533050
711.791286	0.523900
712.125247	0.523366
712.459159	0.533655
712.793023	0.525560
713.126837	0.530486
713.460602	0.530643
713.794318	0.539379
714.127985	0.538813
714.461602	0.549055
714.795171	0.552242
715.128691	0.560157
715.462162	0.567771
715.795584	0.573636
716.128957	0.576191
716.462281	0.583388
716.795556	0.586411
717.128782	0.591937
717.461960	0.601054
717.795088	0.599875
718.128167	0.606104
718.461198	0.614274
718.794180	0.615292
719.127113	0.618459
719.459997	0.620775
719.792833	0.628209
720.125619	0.629491
720.458357	0.634698
720.791046	0.634865
721.123686	0.638394
721.456278	0.645294
721.788821	0.641971
722.121315	0.646628
722.453761	0.650998
722.786158	0.648089
723.118506	0.645314
723.450805	0.652245
723.783056	0.649318
724.115259	0.646762
724.447412	0.646237
724.779518	0.646967
725.111574	0.645931
725.443582	0.641121
725.775542	0.643460
726.107453	0.635868
726.439315	0.636160
726.771129	0.634886
727.102895	0.627773
727.434612	0.620306
727.766281	0.618796
728.097901	0.617818
728.429473	0.617292
728.760996	0.615715
729.092471	0.616157
729.423897	0.620328
729.755276	0.619205
730.086606	0.617990
730.417887	0.613348
730.749120	0.603847
731.080305	0.595153
731.411442	0.590318
731.742530	0.595106
732.073570	0.594255
732.404562	0.587745
732.735506	0.588309
733.066401	0.593303
733.397249	0.602419
733.728048	0.613722
734.058798	0.626765
734.389501	0.637617
734.720156	0.647365
735.050762	0.655456
735.381320	0.655839
735.711831	0.664748
736.042293	0.669090
736.372707	0.666379
736.703073	0.670636
737.033391	0.672506
737.363661	0.670083
737.693883	0.664510
738.024056	0.663693
738.354182	0.664520
738.684260	0.653576
739.014290	0.650036
739.344272	0.650863
739.674207	0.644098
740.004093	0.643861
740.333931	0.643555
740.663722	0.643262
740.993464	0.643816
741.323159	0.647718
741.652806	0.652154
741.982405	0.657775
742.311956	0.662754
742.641460	0.664598
742.970915	0.668350
743.300323	0.675573
743.629683	0.681138
743.958996	0.685051
744.288260	0.688837
744.617477	0.694948
744.946647	0.696578
745.275768	0.701807
745.604842	0.701426
745.933869	0.711391
746.262847	0.713037
746.591778	0.705350
746.920662	0.712521
747.249498	0.719042
747.578286	0.710241
747.907027	0.706238
748.235720	0.705969
748.564365	0.702802
748.892963	0.700885
749.221514	0.704818
749.550017	0.708503
749.878473	0.710581
750.206881	0.716039
750.535242	0.716135
750.863555	0.715742
751.191821	0.716594
751.520039	0.720428
751.848210	0.724927
752.176334	0.719029
752.504411	0.716582
752.832440	0.724794
753.160421	0.728916
753.488356	0.726875
753.816243	0.725086
754.144082	0.733533
754.471875	0.736770
754.799620	0.732948
755.127318	0.734040
755.454969	0.734114
755.782572	0.734071
756.110129	0.738223
756.437638	0.741887
756.765100	0.737643
757.092515	0.735150
757.419882	0.733723
757.747203	0.739197
758.074477	0.739875
758.401703	0.736510
758.728882	0.731194
759.056014	0.729790
759.383099	0.729250
759.710138	0.729764
760.037129	0.725689
760.364073	0.720586
760.690970	0.722721
761.017820	0.727535
761.344623	0.724286
761.671379	0.715191
761.998088	0.702885
762.324751	0.679180
762.651366	0.637787
762.977935	0.569010
763.304456	0.517216
763.630931	0.508191
763.957359	0.547380
764.283740	0.591403
764.610074	0.619311
764.936362	0.651955
765.262602	0.678407
765.588796	0.700258
765.914943	0.717111
766.241044	0.735477
766.567097	0.742580
766.893104	0.752942
767.219064	0.758557
767.544978	0.766389
767.870845	0.778569
768.196665	0.782943
768.522438	0.780377
768.848165	0.782525
769.173846	0.790564
769.499479	0.796226
769.825066	0.800947
770.150607	0.804997
770.476101	0.799704
770.801548	0.802713
771.126949	0.813292
771.452303	0.817166
771.777611	0.814884
772.102872	0.814581
772.428087	0.820300
772.753256	0.823757
773.078378	0.825001
773.403453	0.833690
773.728482	0.839016
774.053465	0.831206
774.378401	0.835519
774.703291	0.844621
775.028135	0.844971
775.352932	0.844477
775.677683	0.849501
776.002388	0.848690
776.327046	0.848305
776.651658	0.854047
776.976224	0.856167
777.300743	0.855738
777.625216	0.857814
777.949643	0.860141
778.274024	0.858911
778.598359	0.861568
778.922647	0.858929
779.246889	0.861080
779.571086	0.863280
779.895236	0.866577
780.219339	0.863510
780.543397	0.860900
780.867409	0.859434
781.191374	0.861629
781.515294	0.862665
781.839167	0.862559
782.162995	0.864288
782.486776	0.861691
782.810511	0.862276
783.134201	0.867019
783.457844	0.865373
783.781441	0.867421
784.104993	0.872433
784.428498	0.873759
784.751958	0.869553
785.075372	0.871641
785.398739	0.876173
785.722061	0.870771
786.045337	0.867773
786.368568	0.871456
786.691752	0.874296
787.014891	0.860448
787.337983	0.850634
787.661030	0.843353
787.984031	0.825517
788.306987	0.813356
788.629897	0.813913
788.952760	0.819512
789.275579	0.823618
789.598351	0.839585
789.921078	0.852663
790.243759	0.854003
790.566395	0.859730
790.888984	0.866441
791.211529	0.871123
791.534027	0.874631
791.856480	0.877016
792.178888	0.881082
792.501249	0.884025
792.823566	0.886110
793.145836	0.885853
793.468062	0.887191
793.790241	0.888468
794.112375	0.885672
794.434464	0.882864
794.756507	0.880354
795.078505	0.879164
795.400457	0.875301
795.722364	0.862701
796.044226	0.856055
796.366042	0.854277
796.687812	0.857572
797.009538	0.852490
797.331218	0.858090
797.652852	0.862445
797.974442	0.866429
798.295986	0.867682
798.617484	0.868786
798.938938	0.873673
799.260346	0.879542
799.581709	0.878390
799.903026	0.882123
800.224299	0.883424
800.545526	0.886568
800.866708	0.891076
801.187845	0.894774
801.508936	0.894813
801.829983	0.891852
802.150984	0.896019
802.471940	0.900856
802.792851	0.900124
803.113717	0.901180
803.434538	0.899323
803.755314	0.902115
804.076045	0.903512
804.396731	0.902252
804.717372	0.901515
805.037967	0.904620
805.358518	0.902672
805.679024	0.898140
805.999485	0.899836
806.319901	0.898050
806.640272	0.902287
806.960598	0.900376
807.280879	0.895600
807.601115	0.894621
807.921306	0.898895
808.241453	0.899320
808.561554	0.897545
808.881611	0.897547
809.201623	0.898974
809.521590	0.899379
809.841513	0.900962
810.161390	0.898619
810.481223	0.900080
810.801011	0.904695
811.120755	0.906635
811.440453	0.903943
811.760107	0.904456
812.079716	0.903993
812.399281	0.905419
812.718801	0.908939
813.038276	0.909859
813.357707	0.910714
813.677093	0.907682
813.996434	0.909913
814.315731	0.912116
814.634983	0.912536
814.954191	0.912060
815.273354	0.907282
815.592473	0.904906
815.911547	0.904229
816.230577	0.901138
816.549562	0.899286
816.868502	0.898274
817.187399	0.897429
817.506250	0.890922
817.825058	0.891460
818.143821	0.888483
818.462539	0.883914
818.781213	0.875826
819.099843	0.864766
819.418429	0.848335
819.736970	0.830681
820.055466	0.809853
820.373919	0.784259
820.692327	0.751158
821.010691	0.715758
821.329011	0.634110
821.647286	0.517615
821.965517	0.402580
822.283704	0.359611
822.601847	0.360133
822.919945	0.396051
823.237999	0.430627
823.556010	0.478965
823.873976	0.535064
824.191897	0.587618
824.509775	0.630624
824.827609	0.676717
825.145398	0.700024
825.463144	0.701554
825.780845	0.684008
826.098502	0.665628
826.416116	0.619998
826.733685	0.574672
827.051210	0.565422
827.368692	0.580965
827.686129	0.618500
828.003522	0.674065
828.320872	0.722514
828.638177	0.766297
828.955439	0.800298
829.272656	0.821834
829.589830	0.839988
829.906960	0.856095
830.224046	0.868838
830.541088	0.878414
830.858086	0.883411
831.175041	0.890285
831.491952	0.889128
831.808819	0.885138
832.125642	0.878378
832.442421	0.865282
832.759157	0.840868
833.075849	0.793448
833.392497	0.728327
833.709101	0.687614
834.025662	0.697471
834.342179	0.729131
834.658653	0.769364
834.975083	0.806070
835.291469	0.833474
835.607811	0.856187
835.924110	0.872870
836.240366	0.889943
836.556578	0.903050
836.872746	0.910713
837.188871	0.918430
837.504952	0.923231
837.820990	0.926147
838.136984	0.930249
838.452935	0.933851
838.768842	0.935088
839.084706	0.928740
839.400526	0.901282
839.716303	0.859685
840.032037	0.838240
840.347727	0.841883
840.663373	0.859765
840.978977	0.882161
841.294537	0.905019
841.610054	0.920416
841.925527	0.929854
842.240957	0.936488
842.556344	0.943615
842.871687	0.949980
843.186987	0.952478
843.502244	0.954201
843.817458	0.956613
844.132629	0.960839
844.447756	0.963853
844.762840	0.964214
845.077881	0.964471
845.392879	0.963993
845.707833	0.966458
846.022745	0.969384
846.337613	0.969780
846.652438	0.969659
846.967221	0.969176
847.281960	0.970782
847.596656	0.972686
847.911309	0.971149
848.225919	0.971173
848.540485	0.974372
848.855009	0.974250
849.169490	0.974040
849.483928	0.972784
849.798323	0.972971
850.112675	0.974955
850.426984	0.974330
850.741251	0.975524
851.055474	0.973512
851.369654	0.972761
851.683792	0.972998
851.997887	0.973835
852.311938	0.974821
852.625947	0.973611
852.939914	0.971144
853.253837	0.974367
853.567718	0.974688
853.881555	0.974680
854.195350	0.973743
854.509103	0.974322
854.822812	0.975305
855.136479	0.974070
855.450103	0.974688
855.763685	0.974012
856.077224	0.974948
856.390720	0.975116
856.704173	0.975684
857.017584	0.973123
857.330953	0.971492
857.644278	0.971585
857.957561	0.973793
858.270802	0.973701
858.584000	0.972226
858.897155	0.970840
859.210268	0.971951
859.523339	0.974689
859.836367	0.975620
860.149352	0.973754
860.462295	0.973774
860.775195	0.974736
861.088054	0.973226
861.400869	0.974663
861.713642	0.974811
862.026373	0.976988
862.339062	0.975064
862.651708	0.973505
862.964312	0.972621
863.276873	0.974750
863.589392	0.972185
863.901869	0.969309
864.214303	0.969662
864.526696	0.968592
864.839045	0.968493
865.151353	0.967599
865.463619	0.966077
865.775842	0.966162
866.088023	0.967463
866.400162	0.966681
866.712258	0.966974
867.024313	0.967641
867.336325	0.969227
867.648296	0.966746
867.960224	0.965309
868.272110	0.967287
868.583954	0.968909
868.895755	0.968815
869.207515	0.966018
869.519233	0.964772
869.830909	0.963820
870.142542	0.966254
870.454134	0.965600
870.765684	0.964329
871.077191	0.962313
871.388657	0.961387
871.700081	0.963859
872.011463	0.962991
872.322803	0.962122
872.634101	0.960306
872.945357	0.958033
873.256571	0.955839
873.567744	0.956658
873.878874	0.957177
874.189963	0.957204
874.501010	0.957912
874.812015	0.953764
875.122979	0.954070
875.433900	0.957640
875.744780	0.957962
876.055618	0.954114
876.366415	0.953521
876.677169	0.953414
876.987882	0.955065
877.298554	0.955877
877.609183	0.950655
877.919771	0.949229
878.230317	0.946551
878.540822	0.943389
878.851285	0.938542
879.161707	0.929368
879.472087	0.917760
879.782425	0.899408
880.092722	0.864858
880.402977	0.810814
880.713191	0.747077
881.023363	0.685526
881.333494	0.650899
881.643583	0.624077
881.953631	0.624179
882.263637	0.652343
882.573602	0.692484
882.883526	0.718877
883.193408	0.744716
883.503248	0.767329
883.813048	0.795063
884.122806	0.826423
884.432522	0.850114
884.742197	0.870486
885.051831	0.881904
885.361424	0.893521
885.670975	0.905718
885.980485	0.914776
886.289954	0.921248
886.599382	0.925605
886.908768	0.930849
887.218113	0.936824
887.527417	0.942210
887.836680	0.944889
888.145901	0.946774
888.455082	0.949746
888.764221	0.955465
889.073319	0.955608
889.382376	0.957121
889.691392	0.955785
890.000366	0.957845
890.309300	0.956428
890.618193	0.957306
890.927044	0.956259
891.235855	0.955635
891.544625	0.956580
891.853353	0.956006
892.162041	0.952093
892.470687	0.946259
892.779293	0.941105
893.087858	0.936086
893.396381	0.928115
893.704864	0.913634
894.013306	0.889570
894.321707	0.862475
894.630068	0.847954
894.938387	0.841160
895.246665	0.843856
895.554903	0.856038
895.863100	0.869215
896.171256	0.887688
896.479371	0.908367
896.787446	0.920802
897.095480	0.927094
897.403473	0.930283
897.711425	0.934829
898.019336	0.942757
898.327207	0.946767
898.635038	0.947245
898.942827	0.950328
899.250576	0.950831
899.558284	0.956151
899.865952	0.957396
900.173579	0.958025
900.481165	0.960357
900.788711	0.962263
901.096216	0.964123
901.403681	0.966015
901.711105	0.965149
902.018489	0.966190
902.325832	0.965878
902.633135	0.964355
902.940397	0.959246
903.247619	0.946099
903.554800	0.920613
903.861941	0.879557
904.169041	0.841413
904.476101	0.823218
904.783121	0.823659
905.090100	0.841150
905.397039	0.862873
905.703938	0.886297
906.010796	0.906740
906.317614	0.924226
906.624391	0.937237
906.931129	0.946312
907.237826	0.956052
907.544483	0.961488
907.851099	0.967076
908.157675	0.970729
908.464211	0.974678
908.770707	0.974837
909.077163	0.978938
909.383578	0.977966
909.689954	0.979784
909.996289	0.980023
910.302584	0.981886
910.608839	0.984237
910.915054	0.983924
911.221229	0.983386
911.527363	0.981229
911.833458	0.983142
912.139513	0.981451
912.445527	0.981877
912.751502	0.978657
913.057436	0.975559
913.363331	0.974789
913.669186	0.970283
913.975000	0.965181
914.280775	0.958703
914.586510	0.950645
914.892205	0.937006
915.197859	0.914756
915.503475	0.886170
915.809050	0.865262
916.114585	0.859918
916.420081	0.856124
916.725536	0.853549
917.030952	0.861908
917.336328	0.876826
917.641665	0.891014
917.946961	0.907651
918.252218	0.919857
918.557435	0.928826
918.862612	0.938299
919.167750	0.944361
919.472848	0.949550
919.777906	0.956523
920.082925	0.962443
920.387904	0.964941
920.692843	0.966123
920.997743	0.966491
921.302603	0.970870
921.607423	0.973375
921.912204	0.976447
922.216946	0.977776
922.521647	0.977398
922.826310	0.979626
923.130932	0.981281
923.435516	0.984411
923.740059	0.983363
924.044564	0.984124
924.349028	0.984745
924.653454	0.987034
924.957840	0.986964
925.262186	0.989159
925.566493	0.988557
925.870761	0.990026
926.174989	0.990505
926.479178	0.993608
926.783328	0.992871
927.087438	0.992332
927.391509	0.993300
927.695541	0.994205
927.999533	0.994911
928.303486	0.994873
928.607400	0.994014
928.911275	0.995863
929.215110	0.995682
929.518906	0.996150
929.822663	0.996433
930.126381	0.996376
930.430060	0.995955
930.733699	0.995168
931.037299	0.995752
931.340861	0.995342
931.644383	0.993551
931.947866	0.995264
932.251309	0.995502
932.554714	0.995956
932.858080	0.996124
933.161407	0.995187
933.464694	0.995926
933.767943	0.995053
934.071153	0.997142
934.374323	0.996419
934.677455	0.995725
934.980548	0.995613
935.283602	0.997280
935.586617	0.995213
935.889593	0.998232
936.192530	0.996445
936.495428	0.996421
936.798287	0.995740
937.101108	0.995130
937.403890	0.994027
937.706632	0.993939
938.009336	0.991771
938.312002	0.989729
938.614628	0.988791
938.917216	0.987395
939.219765	0.987557
939.522275	0.986626
939.824747	0.987613
940.127179	0.988083
940.429573	0.990987
940.731929	0.987933
941.034246	0.988110
941.336524	0.988785
941.638763	0.990425
941.940964	0.990750
942.243126	0.990997
942.545250	0.992978
942.847335	0.992980
943.149381	0.992447
943.451389	0.992555
943.753359	0.993292
944.055290	0.995487
944.357182	0.995595
944.659036	0.994488
944.960851	0.995045
945.262628	0.995128
945.564367	0.994762
945.866067	0.995079
946.167729	0.995843
946.469352	0.993917
946.770937	0.993400
947.072484	0.996406
947.373992	0.995255
947.675462	0.994876
947.976893	0.995458
948.278286	0.996503
948.579641	0.996953
948.880958	0.996316
949.182236	0.996750
949.483476	0.996655
949.784678	0.996468
950.085841	0.996350
950.386967	0.995666
950.688054	0.997257
950.989103	0.994802
951.290114	0.994327
951.591087	0.995174
951.892021	0.994511
952.192917	0.995019
952.493776	0.993165
952.794596	0.993513
953.095378	0.991728
953.396122	0.993285
953.696828	0.994219
953.997496	0.994722
954.298126	0.996268
954.598718	0.994158
954.899272	0.996045
955.199788	0.994889
955.500266	0.998248
955.800706	0.997156
956.101108	0.997722
956.401472	0.998988
956.701798	0.998291
957.002087	0.999037
957.302337	0.999325
957.602550	0.998248
957.902724	1.000246
958.202861	1.000377
958.502960	0.999538
958.803022	1.001140
959.103045	1.001050
959.403031	1.002559
959.702979	1.001620
960.002889	1.000052
960.302762	1.001198
960.602596	1.001962
960.902393	1.002372
961.202153	1.001649
961.501875	1.001755
961.801559	1.002452
962.101205	1.001885
962.400814	1.003066
962.700385	1.002657
962.999918	1.002159
963.299414	1.001559
963.598873	1.002171
963.898293	1.001864
964.197677	1.001465
964.497022	1.002104
964.796331	1.002342
965.095601	1.003242
965.394835	1.001341
965.694030	1.004108
965.993189	1.002228
966.292309	1.002743
966.591393	1.001601
966.890439	1.002670
967.189447	1.001742
967.488419	1.002686
967.787353	1.001159
968.086249	1.002364
968.385108	1.001996
968.683930	1.003530
968.982714	1.003351
969.281462	1.002616
969.580172	1.002284
969.878844	1.004207
970.177480	1.003065
970.476078	1.002801
970.774639	1.001966
971.073162	1.001630
971.371649	1.002084
971.670098	1.000864
971.968510	1.003329
972.266885	1.001329
972.565223	1.001240
972.863524	1.000454
973.161788	1.001006
973.460014	1.002107
973.758204	1.001698
974.056356	1.002759
974.354471	1.001561
974.652550	1.002555
974.950591	1.001085
975.248595	1.001093
975.546563	1.002238
975.844493	1.003426
976.142386	1.002298
976.440243	1.003232
976.738062	1.002303
977.035845	1.001462
977.333590	1.003054
977.631299	1.002171
977.928971	1.002941
978.226606	1.001699
978.524204	1.002107
978.821765	1.004105
979.119290	1.003955
979.416777	1.002408
979.714228	1.002115
980.011642	1.003879
980.309020	1.001434
980.606360	1.001993
980.903664	1.001400
981.200931	1.001307
981.498162	1.001536
981.795356	1.001258
982.092513	0.999498
982.389633	0.998476
982.686717	0.996201
982.983764	0.996238
983.280775	0.996727
983.577749	0.997062
983.874686	0.995546
984.171587	0.996525
984.468451	0.999016
984.765279	0.999483
985.062070	0.999506
985.358824	1.000010
985.655543	1.001396
985.952224	1.001974
986.248869	1.002425
986.545478	1.003818
986.842050	1.002198
987.138586	1.001696
987.435086	1.004024
987.731549	1.003747
988.027975	1.003034
988.324366	1.003667
988.620719	1.004769
988.917037	1.003610
989.213318	1.003937
989.509563	1.005084
989.805772	1.004082
990.101944	1.004277
990.398080	1.004015
990.694180	1.004025
990.990244	1.003424
991.286271	1.003536
991.582262	1.004034
991.878217	1.003816
992.174136	1.004435
992.470019	1.003355
992.765865	1.004757
993.061676	1.004845
993.357450	1.003633
993.653188	1.004802
993.948890	1.003765
994.244556	1.002766
994.540186	1.003661
994.835780	1.003173
995.131337	1.002957
995.426859	1.003987
995.722345	1.002711
996.017795	1.002537
996.313208	1.000902
996.608586	1.002460
996.903928	1.002177
997.199234	1.001490
997.494504	1.003782
997.789738	1.001628
998.084936	1.001367
998.380099	1.003111
998.675225	1.002245
998.970316	1.002829
999.265371	1.002605
999.560390	1.003353
999.855373	1.003360
1000.150320	1.003571
1000.445232	1.003877
1000.740108	1.004055
1001.034948	1.002582
1001.329752	1.005002
1001.624521	1.002775
1001.919254	1.002230
1002.213951	1.003452
1002.508613	1.003041
1002.803239	1.004049
1003.097829	1.004802
1003.392384	1.003330
1003.686903	1.004543
1003.981386	1.005182
1004.275834	1.006128
1004.570246	1.002831
1004.864623	1.004427
1005.158964	1.004243
1005.453270	1.004257
1005.747540	1.004742
1006.041775	1.004291
1006.335974	1.004682
1006.630138	1.005745
1006.924266	1.003901
1007.218359	1.003262
1007.512416	1.006178
1007.806438	1.005050
1008.100425	1.004738
1008.394376	1.003502
1008.688292	1.003575
1008.982172	1.004441
1009.276017	1.004880
1009.569827	1.005252
1009.863602	1.003271
1010.157341	1.005906
1010.451045	1.005049
1010.744714	1.005268
1011.038347	1.004947
1011.331945	1.003890
1011.625508	1.003380
1011.919036	1.003642
1012.212528	1.005973
1012.505986	1.004011
1012.799408	1.006117
1013.092795	1.004532
1013.386147	1.005283
1013.679464	1.005221
1013.972745	1.004585
1014.265992	1.005069
1014.559204	1.004912
1014.852380	1.004066
1015.145521	1.003583
1015.438628	1.004902
1015.731699	1.004395
1016.024736	1.004857
1016.317737	1.004391
1016.610703	1.004583
1016.903635	1.005049
1017.196531	1.003769
1017.489393	1.004408
1017.782219	1.004683
1018.075011	1.003211
1018.367768	1.003619
1018.660490	1.006090
1018.953177	1.006090
1019.245829	1.006090
