Dividing Wavelength (nm)	Counts (n)	Blue Motor Position (mm): 27.400000	Red Motor Position (mm): 0.000000	
326.493990	1.000684
326.888308	1.000684
327.282561	1.000684
327.676750	1.000375
328.070874	1.003360
328.464933	1.002486
328.858929	1.001866
329.252859	1.000799
329.646726	1.001160
330.040528	1.000969
330.434265	1.001239
330.827938	1.000376
331.221547	1.001285
331.615091	1.001584
332.008571	1.002942
332.401986	1.001255
332.795338	1.000347
333.188625	1.001583
333.581847	1.001277
333.975006	1.001387
334.368100	1.001020
334.761129	1.000306
335.154095	1.000823
335.546996	0.999614
335.939833	0.999559
336.332606	1.000258
336.725315	0.998530
337.117960	1.000089
337.510540	0.999791
337.903056	1.000991
338.295508	1.000159
338.687896	1.001505
339.080220	0.999139
339.472480	1.000948
339.864676	1.001313
340.256807	0.998939
340.648875	0.999914
341.040879	0.999427
341.432818	1.000964
341.824694	0.999376
342.216506	1.000317
342.608253	1.000302
342.999937	0.998994
343.391557	0.999159
343.783113	1.001209
344.174605	1.000677
344.566033	0.999274
344.957397	1.000587
345.348697	1.000545
345.739934	1.000842
346.131106	0.999997
346.522215	0.999604
346.913260	1.000647
347.304241	0.999082
347.695159	1.000456
348.086012	1.000118
348.476802	0.999936
348.867528	0.999578
349.258191	1.001057
349.648789	1.000791
350.039324	0.999503
350.429796	0.998925
350.820203	0.998746
351.210548	1.000037
351.600828	0.999322
351.991045	0.999236
352.381198	0.999948
352.771288	0.998755
353.161314	0.999501
353.551276	0.998376
353.941175	0.998761
354.331010	0.999501
354.720782	0.999036
355.110490	0.999862
355.500135	0.999727
355.889717	0.999099
356.279235	0.998105
356.668689	1.000573
357.058080	0.998799
357.447408	0.997756
357.836672	0.998220
358.225873	0.998943
358.615010	0.998803
359.004084	0.998492
359.393095	0.999341
359.782043	0.997962
360.170927	0.998838
360.559748	0.998557
360.948505	0.998048
361.337199	0.997840
361.725830	0.999219
362.114398	0.997380
362.502903	0.997719
362.891344	0.997684
363.279722	0.997668
363.668037	0.998548
364.056289	0.997209
364.444478	0.999682
364.832603	0.997336
365.220665	0.998635
365.608665	0.996828
365.996601	0.998324
366.384474	0.996041
366.772284	0.997714
367.160031	0.996789
367.547715	0.996056
367.935336	0.995922
368.322893	0.995706
368.710388	0.994203
369.097820	0.991514
369.485189	0.990578
369.872495	0.987840
370.259738	0.986520
370.646918	0.983636
371.034035	0.980614
371.421090	0.976939
371.808081	0.972948
372.195010	0.970417
372.581875	0.964965
372.968678	0.960849
373.355418	0.957197
373.742096	0.949229
374.128710	0.944859
374.515262	0.940902
374.901751	0.933941
375.288177	0.929885
375.674540	0.923192
376.060841	0.916718
376.447079	0.909526
376.833254	0.904334
377.219367	0.897854
377.605417	0.886531
377.991404	0.884011
378.377329	0.877483
378.763191	0.871000
379.148991	0.862857
379.534727	0.854825
379.920402	0.846651
380.306013	0.842691
380.691563	0.830804
381.077049	0.823904
381.462474	0.819452
381.847835	0.808598
382.233134	0.802561
382.618371	0.803644
383.003545	0.785832
383.388657	0.783533
383.773706	0.776107
384.158693	0.773249
384.543618	0.766995
384.928480	0.758415
385.313280	0.748359
385.698017	0.747832
386.082692	0.736821
386.467305	0.735222
386.851856	0.729435
387.236344	0.723943
387.620770	0.718160
388.005133	0.713026
388.389435	0.706387
388.773674	0.704394
389.157851	0.696348
389.541965	0.694350
389.926018	0.701088
390.310008	0.686880
390.693936	0.684213
391.077802	0.676314
391.461606	0.678076
391.845348	0.667880
392.229027	0.666661
392.612645	0.664680
392.996200	0.651535
393.379694	0.645346
393.763125	0.635267
394.146494	0.639931
394.529801	0.630353
394.913047	0.622227
395.296230	0.628181
395.679351	0.619367
396.062410	0.616415
396.445408	0.619243
396.828343	0.614543
397.211217	0.609849
397.594028	0.621860
397.976778	0.612025
398.359466	0.608879
398.742092	0.603937
399.124656	0.616307
399.507158	0.603735
399.889598	0.601772
400.271977	0.591759
400.654294	0.596146
401.036549	0.594997
401.418742	0.600020
401.800874	0.585910
402.182944	0.582677
402.564952	0.573847
402.946898	0.575999
403.328783	0.577169
403.710606	0.587525
404.092367	0.562969
404.474067	0.567959
404.855705	0.566939
405.237282	0.575255
405.618797	0.561709
406.000250	0.557667
406.381642	0.547317
406.762972	0.553309
407.144240	0.551371
407.525447	0.551323
407.906593	0.544134
408.287677	0.539391
408.668700	0.547972
409.049661	0.542632
409.430560	0.536996
409.811399	0.545028
410.192176	0.527836
410.572891	0.535066
410.953545	0.522553
411.334138	0.536428
411.714669	0.528571
412.095139	0.540996
412.475547	0.524772
412.855894	0.527222
413.236180	0.525726
413.616405	0.531180
413.996568	0.521534
414.376670	0.527046
414.756711	0.532632
415.136691	0.529485
415.516609	0.521119
415.896466	0.517376
416.276262	0.513580
416.655997	0.515821
417.035670	0.496141
417.415283	0.488475
417.794834	0.492936
418.174324	0.499045
418.553753	0.507733
418.933121	0.490254
419.312428	0.483637
419.691674	0.489957
420.070859	0.478015
420.449983	0.486202
420.829045	0.475066
421.208047	0.484819
421.586988	0.477071
421.965867	0.476098
422.344686	0.465082
422.723444	0.477637
423.102141	0.494763
423.480777	0.467602
423.859352	0.488183
424.237866	0.465225
424.616319	0.466679
424.994712	0.456999
425.373044	0.467489
425.751314	0.455908
426.129524	0.472321
426.507673	0.455539
426.885762	0.449110
427.263789	0.454345
427.641756	0.464932
428.019662	0.454606
428.397508	0.453894
428.775292	0.458424
429.153016	0.449974
429.530679	0.456549
429.908282	0.449589
430.285824	0.459951
430.663305	0.438584
431.040726	0.459488
431.418086	0.459139
431.795385	0.451304
432.172624	0.451046
432.549802	0.451205
432.926920	0.449875
433.303977	0.449299
433.680974	0.447145
434.057910	0.445748
434.434786	0.444664
434.811601	0.447720
435.188355	0.430185
435.565050	0.439968
435.941683	0.440999
436.318257	0.425205
436.694770	0.426743
437.071222	0.425388
437.447614	0.430386
437.823946	0.437109
438.200218	0.427086
438.576429	0.437210
438.952580	0.430985
439.328670	0.428710
439.704700	0.435596
440.080670	0.437956
440.456580	0.419897
440.832429	0.429040
441.208218	0.441142
441.583947	0.431710
441.959616	0.431738
442.335224	0.439415
442.710773	0.431021
443.086261	0.430930
443.461689	0.445574
443.837057	0.438061
444.212365	0.429970
444.587612	0.438674
444.962800	0.430722
445.337927	0.434380
445.712995	0.461980
446.088002	0.427843
446.462949	0.439874
446.837837	0.447829
447.212664	0.438654
447.587431	0.434257
447.962139	0.410359
448.336786	0.375866
448.711374	0.388178
449.085901	0.432371
449.460369	0.439504
449.834776	0.446804
450.209124	0.431978
450.583412	0.431198
450.957640	0.427783
451.331808	0.442635
451.705917	0.467377
452.079965	0.476635
452.453954	0.471200
452.827883	0.481037
453.201752	0.482099
453.575562	0.496405
453.949311	0.492921
454.323001	0.503187
454.696632	0.505265
455.070202	0.505638
455.443713	0.504941
455.817164	0.507061
456.190556	0.510820
456.563888	0.515342
456.937160	0.518814
457.310373	0.538382
457.683526	0.544130
458.056619	0.556439
458.429653	0.563448
458.802628	0.572593
459.175542	0.575620
459.548398	0.571509
459.921194	0.574498
460.293930	0.582258
460.666607	0.576546
461.039224	0.577012
461.411782	0.582036
461.784280	0.589308
462.156719	0.600257
462.529099	0.610935
462.901419	0.629003
463.273680	0.638802
463.645882	0.646306
464.018024	0.660580
464.390106	0.663306
464.762130	0.662803
465.134094	0.662371
465.505999	0.654147
465.877845	0.646680
466.249631	0.647770
466.621358	0.661417
466.993026	0.678948
467.364634	0.691224
467.736184	0.705004
468.107674	0.716361
468.479105	0.725590
468.850477	0.734962
469.221790	0.746817
469.593043	0.759293
469.964238	0.770487
470.335373	0.776496
470.706449	0.783928
471.077467	0.791684
471.448425	0.786864
471.819324	0.784940
472.190164	0.791721
472.560945	0.808942
472.931667	0.822438
473.302330	0.829845
473.672934	0.839913
474.043479	0.842742
474.413965	0.849261
474.784393	0.856732
475.154761	0.861128
475.525070	0.866850
475.895321	0.873637
476.265513	0.878169
476.635645	0.882474
477.005719	0.887668
477.375734	0.891740
477.745691	0.895324
478.115588	0.899840
478.485427	0.903913
478.855207	0.905814
479.224928	0.906262
479.594591	0.908362
479.964194	0.914166
480.333739	0.919847
480.703226	0.924297
481.072653	0.927670
481.442022	0.931164
481.811333	0.933553
482.180584	0.937609
482.549777	0.942594
482.918912	0.945658
483.287988	0.948826
483.657005	0.950916
484.025964	0.954928
484.394864	0.956958
484.763706	0.959431
485.132489	0.962297
485.501213	0.964737
485.869879	0.966554
486.238487	0.968306
486.607036	0.971025
486.975527	0.972360
487.343959	0.973580
487.712333	0.975244
488.080648	0.977041
488.448905	0.978344
488.817104	0.979508
489.185244	0.980238
489.553326	0.981363
489.921350	0.982671
490.289315	0.981672
490.657222	0.982570
491.025070	0.982928
491.392861	0.983975
491.760593	0.984467
492.128267	0.985768
492.495883	0.986656
492.863440	0.987717
493.230939	0.988742
493.598380	0.988760
493.965763	0.989773
494.333088	0.988775
494.700354	0.989196
495.067563	0.989788
495.434713	0.991274
495.801805	0.990742
496.168839	0.991554
496.535815	0.992092
496.902733	0.991268
497.269593	0.992136
497.636395	0.991716
498.003139	0.991829
498.369825	0.993058
498.736453	0.991952
499.103023	0.993188
499.469535	0.992815
499.835989	0.993282
500.202385	0.992698
500.568723	0.993987
500.935003	0.993810
501.301226	0.993941
501.667390	0.993410
502.033497	0.993560
502.399546	0.993618
502.765537	0.994212
503.131470	0.994293
503.497345	0.993699
503.863163	0.994451
504.228923	0.994193
504.594625	0.993714
504.960269	0.994176
505.325856	0.995001
505.691385	0.994585
506.056856	0.994094
506.422270	0.994747
506.787625	0.994534
507.152924	0.995288
507.518164	0.994765
507.883347	0.994891
508.248472	0.994456
508.613540	0.994411
508.978550	0.995008
509.343503	0.995111
509.708398	0.995798
510.073236	0.995194
510.438016	0.994633
510.802738	0.995105
511.167403	0.994567
511.532010	0.995818
511.896561	0.995390
512.261053	0.994606
512.625488	0.994935
512.989866	0.995172
513.354186	0.994725
513.718449	0.994838
514.082655	0.994800
514.446803	0.995436
514.810894	0.995476
515.174927	0.995765
515.538904	0.995592
515.902822	0.995756
516.266684	0.995590
516.630488	0.995792
516.994235	0.995715
517.357925	0.995345
517.721558	0.995183
518.085133	0.994927
518.448651	0.995800
518.812112	0.995890
519.175516	0.995256
519.538863	0.995692
519.902152	0.995947
520.265385	0.994754
520.628560	0.995285
520.991678	0.994934
521.354739	0.995990
521.717743	0.995714
522.080690	0.995402
522.443580	0.995848
522.806413	0.994951
523.169189	0.995922
523.531908	0.995128
523.894569	0.995664
524.257174	0.994759
524.619722	0.995743
524.982213	0.995586
525.344647	0.995401
525.707025	0.995106
526.069345	0.995442
526.431608	0.995808
526.793815	0.995821
527.155964	0.996090
527.518057	0.996148
527.880093	0.995681
528.242072	0.995519
528.603995	0.995583
528.965860	0.995996
529.327669	0.995407
529.689421	0.995050
530.051117	0.995136
530.412755	0.995476
530.774337	0.995357
531.135862	0.996056
531.497331	0.995449
531.858743	0.996069
532.220098	0.995385
532.581396	0.995748
532.942638	0.995697
533.303824	0.996536
533.664953	0.995512
534.026025	0.996561
534.387040	0.995548
534.747999	0.995505
535.108902	0.995635
535.469748	0.996026
535.830537	0.996424
536.191270	0.995907
536.551947	0.995763
536.912567	0.995938
537.273131	0.996257
537.633638	0.995858
537.994089	0.996393
538.354483	0.995206
538.714821	0.995129
539.075103	0.996128
539.435328	0.996453
539.795497	0.995764
540.155609	0.996009
540.515665	0.995381
540.875665	0.995591
541.235609	0.996031
541.595496	0.995463
541.955328	0.995825
542.315102	0.995719
542.674821	0.995798
543.034483	0.996114
543.394090	0.995369
543.753640	0.995788
544.113134	0.995745
544.472571	0.996498
544.831953	0.996573
545.191278	0.995040
545.550548	0.995755
545.909761	0.995800
546.268918	0.996968
546.628019	0.996978
546.987064	0.995874
547.346053	0.995224
547.704986	0.995174
548.063863	0.995265
548.422684	0.996157
548.781449	0.995703
549.140158	0.996587
549.498811	0.995123
549.857408	0.995312
550.215949	0.995412
550.574434	0.995371
550.932864	0.996453
551.291237	0.995342
551.649555	0.996330
552.007817	0.995998
552.366022	0.996171
552.724173	0.996211
553.082267	0.995668
553.440305	0.996231
553.798288	0.995099
554.156215	0.995594
554.514086	0.995476
554.871902	0.996006
555.229661	0.994757
555.587365	0.995590
555.945014	0.996342
556.302606	0.995642
556.660143	0.995987
557.017625	0.995733
557.375050	0.995443
557.732421	0.995370
558.089735	0.994740
558.446994	0.994791
558.804197	0.995379
559.161345	0.995253
559.518437	0.995328
559.875474	0.996120
560.232455	0.996046
560.589381	0.995633
560.946251	0.995394
561.303065	0.995579
561.659825	0.995112
562.016528	0.995746
562.373177	0.995247
562.729770	0.995216
563.086307	0.994234
563.442789	0.995767
563.799216	0.994714
564.155587	0.995609
564.511904	0.995955
564.868164	0.995095
565.224370	0.995294
565.580520	0.995006
565.936615	0.995772
566.292654	0.995015
566.648638	0.995980
567.004567	0.995366
567.360441	0.995901
567.716260	0.995025
568.072023	0.994824
568.427732	0.995535
568.783385	0.994878
569.138982	0.995582
569.494525	0.995398
569.850013	0.995744
570.205445	0.995617
570.560823	0.994796
570.916145	0.994845
571.271412	0.995188
571.626625	0.995864
571.981782	0.995312
572.336884	0.996045
572.691931	0.995098
573.046923	0.995857
573.401860	0.995372
573.756743	0.995556
574.111570	0.995006
574.466342	0.996380
574.821059	0.995400
575.175722	0.995861
575.530330	0.995312
575.884882	0.995462
576.239380	0.994736
576.593823	0.995025
576.948211	0.995455
577.302544	0.995719
577.656823	0.995980
578.011047	0.994609
578.365216	0.995713
578.719330	0.995388
579.073389	0.994431
579.427394	0.994496
579.781344	0.995889
580.135239	0.994348
580.489080	0.995221
580.842866	0.995310
581.196597	0.994846
581.550273	0.994530
581.903895	0.994892
582.257463	0.994853
582.610975	0.994487
582.964434	0.995166
583.317837	0.995856
583.671186	0.995680
584.024481	0.994836
584.377721	0.994901
584.730906	0.995900
585.084037	0.995806
585.437113	0.995908
585.790135	0.995495
586.143103	0.995346
586.496016	0.994990
586.848874	0.995449
587.201679	0.995113
587.554428	0.995199
587.907124	0.995429
588.259765	0.996271
588.612352	0.996225
588.964884	0.995592
589.317362	0.995044
589.669786	0.995051
590.022155	0.994890
590.374470	0.994856
590.726731	0.994439
591.078937	0.994957
591.431090	0.995639
591.783188	0.995177
592.135232	0.996704
592.487222	0.995418
592.839157	0.995883
593.191038	0.995376
593.542866	0.995158
593.894639	0.994104
594.246358	0.995382
594.598022	0.995537
594.949633	0.995102
595.301190	0.994860
595.652692	0.994907
596.004141	0.995159
596.355535	0.995228
596.706876	0.994875
597.058162	0.995577
597.409395	0.994755
597.760573	0.995206
598.111698	0.995181
598.462768	0.994583
598.813785	0.994511
599.164748	0.995370
599.515657	0.994711
599.866511	0.995207
600.217312	0.995038
600.568060	0.995308
600.918753	0.995466
601.269392	0.995606
601.619978	0.995152
601.970510	0.995329
602.320988	0.995142
602.671412	0.994531
603.021783	0.995843
603.372100	0.996248
603.722363	0.995747
604.072572	0.995206
604.422728	0.994713
604.772830	0.994863
605.122878	0.995341
605.472872	0.995487
605.822813	0.995305
606.172701	0.995514
606.522534	0.995896
606.872314	0.996279
607.222041	0.995622
607.571714	0.995271
607.921333	0.994642
608.270899	0.995425
608.620411	0.994741
608.969870	0.996152
609.319276	0.995167
609.668627	0.995365
610.017926	0.994441
610.367171	0.994537
610.716362	0.994620
611.065500	0.994453
611.414585	0.995793
611.763616	0.993908
612.112594	0.994832
612.461518	0.994628
612.810389	0.994866
613.159207	0.995026
613.507971	0.994683
613.856682	0.995837
614.205340	0.994386
614.553945	0.995220
614.902496	0.994357
615.250994	0.995439
615.599439	0.994624
615.947830	0.994420
616.296169	0.994687
616.644454	0.995022
616.992686	0.995008
617.340864	0.995034
617.688990	0.994958
618.037063	0.994721
618.385082	0.994628
618.733048	0.994257
619.080961	0.994672
619.428821	0.995167
619.776628	0.993873
620.124382	0.995660
620.472083	0.995655
620.819731	0.995635
621.167326	0.995214
621.514868	0.995896
621.862357	0.995372
622.209793	0.994834
622.557176	0.995370
622.904506	0.995210
623.251783	0.995130
623.599007	0.995763
623.946179	0.994602
624.293297	0.995615
624.640363	0.995691
624.987376	0.994269
625.334336	0.994875
625.681243	0.995345
626.028097	0.995203
626.374899	0.995419
626.721647	0.995880
627.068343	0.994996
627.414987	0.995365
627.761577	0.994188
628.108115	0.994736
628.454600	0.995489
628.801032	0.995110
629.147412	0.994719
629.493739	0.995213
629.840014	0.995164
630.186236	0.994682
630.532405	0.995420
630.878521	0.994828
631.224585	0.995283
631.570597	0.994411
631.916556	0.995367
632.262462	0.993871
632.608316	0.996264
632.954117	0.994766
633.299866	0.994733
633.645562	0.994986
633.991206	0.995301
634.336797	0.994775
634.682336	0.995818
635.027823	0.995387
635.373257	0.995604
635.718639	0.995480
636.063968	0.994729
636.409245	0.994864
636.754470	0.995506
637.099642	0.995274
637.444762	0.995145
637.789829	0.994906
638.134845	0.995209
638.479808	0.995765
638.824719	0.996105
639.169577	0.995206
639.514383	0.995460
639.859137	0.995352
640.203839	0.994834
640.548489	0.994434
640.893086	0.995043
641.237632	0.995645
641.582125	0.995020
641.926566	0.996587
642.270955	0.995199
642.615292	0.995000
642.959576	0.995833
643.303809	0.995651
643.647990	0.996236
643.992118	0.995891
644.336195	0.994566
644.680219	0.995831
645.024192	0.995870
645.368112	0.994464
645.711981	0.994991
646.055797	0.996058
646.399562	0.995134
646.743274	0.996179
647.086935	0.994628
647.430544	0.994918
647.774101	0.995311
648.117606	0.995734
648.461059	0.995953
648.804460	0.995183
649.147810	0.995150
649.491108	0.995513
649.834354	0.995444
650.177548	0.995138
650.520690	0.994903
650.863781	0.995263
651.206820	0.995700
651.549807	0.994925
651.892742	0.995954
652.235626	0.995444
652.578458	0.995705
652.921238	0.995958
653.263967	0.995310
653.606644	0.995603
653.949269	0.995808
654.291843	0.995245
654.634365	0.996089
654.976836	0.994674
655.319255	0.995917
655.661622	0.996416
656.003938	0.995104
656.346203	0.994802
656.688416	0.996341
657.030577	0.995125
657.372687	0.995755
657.714746	0.995590
658.056753	0.995828
658.398708	0.994853
658.740612	0.996234
659.082465	0.995101
659.424266	0.996331
659.766016	0.994688
660.107715	0.995518
660.449362	0.995422
660.790958	0.994847
661.132503	0.996327
661.473996	0.995446
661.815438	0.996301
662.156829	0.996352
662.498168	0.996005
662.839456	0.995354
663.180693	0.995747
663.521879	0.995888
663.863013	0.995675
664.204097	0.995912
664.545129	0.995510
664.886110	0.996353
665.227040	0.995117
665.567918	0.995860
665.908746	0.995566
666.249522	0.994721
666.590248	0.995390
666.930922	0.994894
667.271545	0.995325
667.612118	0.995753
667.952639	0.995661
668.293109	0.995330
668.633528	0.994016
668.973896	0.995764
669.314213	0.995277
669.654480	0.995540
669.994695	0.995259
670.334859	0.996105
670.674973	0.995127
671.015035	0.994697
671.355047	0.995266
671.695008	0.995362
672.034918	0.995589
672.374777	0.995883
672.714585	0.994982
673.054342	0.995517
673.394049	0.995869
673.733705	0.994770
674.073310	0.995652
674.412864	0.995808
674.752368	0.995616
675.091820	0.995453
675.431223	0.995741
675.770574	0.994382
676.109875	0.995366
676.449125	0.995305
676.788324	0.995213
677.127473	0.995775
677.466571	0.995993
677.805619	0.995948
678.144616	0.996344
678.483562	0.995272
678.822458	0.996072
679.161303	0.995500
679.500098	0.995815
679.838842	0.995992
680.177535	0.996070
680.516179	0.994251
680.854771	0.995397
681.193314	0.995506
681.531805	0.995377
681.870247	0.996474
682.208638	0.995225
682.546978	0.994978
682.885268	0.995510
683.223508	0.995414
683.561697	0.995024
683.899836	0.995525
684.237925	0.995453
684.575963	0.994419
684.913951	0.995323
685.251889	0.996087
685.589776	0.995196
685.927614	0.995150
686.265401	0.995133
686.603137	0.994774
686.940824	0.995447
687.278460	0.996100
687.616046	0.994939
687.953582	0.995675
688.291068	0.995843
688.628504	0.995661
688.965889	0.994559
689.303224	0.994506
689.640510	0.996177
689.977745	0.994723
690.314930	0.995159
690.652065	0.995168
690.989150	0.994786
691.326185	0.995787
691.663170	0.996231
692.000105	0.995512
692.336990	0.996413
692.673825	0.995275
693.010610	0.996012
693.347345	0.996684
693.684030	0.994973
694.020665	0.995104
694.357251	0.995962
694.693786	0.995960
695.030272	0.995048
695.366707	0.995227
695.703093	0.995557
696.039429	0.994598
696.375716	0.996188
696.711952	0.995480
697.048139	0.996694
697.384276	0.995556
697.720363	0.996213
698.056400	0.994318
698.392388	0.994619
698.728326	0.995187
699.064214	0.996898
699.400053	0.995728
699.735842	0.996910
700.071581	0.995967
700.407270	0.996268
700.742910	0.996380
701.078501	0.995347
701.414042	0.997786
701.749533	0.995509
702.084974	0.996369
702.420366	0.996409
702.755709	0.995655
703.091002	0.996582
703.426246	0.997477
703.761440	0.994812
704.096584	0.995618
704.431679	0.996112
704.766725	0.996506
705.101721	0.996246
705.436668	0.996017
705.771565	0.996978
706.106413	0.995149
706.441212	0.997037
706.775961	0.996891
707.110661	0.995949
707.445311	0.996399
707.779913	0.996927
708.114465	0.996434
708.448967	0.996404
708.783421	0.996193
709.117825	0.996160
709.452180	0.997110
709.786485	0.996293
710.120742	0.994668
710.454949	0.995099
710.789107	0.995875
711.123216	0.994440
711.457275	0.994586
711.791286	0.996738
712.125247	0.997412
712.459159	0.994756
712.793023	0.995790
713.126837	0.995856
713.460602	0.995147
713.794318	0.994994
714.127985	0.994074
714.461602	0.996309
714.795171	0.995277
715.128691	0.995260
715.462162	0.997034
715.795584	0.995542
716.128957	0.996890
716.462281	0.996887
716.795556	0.996660
717.128782	0.996250
717.461960	0.996150
717.795088	0.996470
718.128167	0.996918
718.461198	0.995993
718.794180	0.996728
719.127113	0.996369
719.459997	0.996057
719.792833	0.995824
720.125619	0.995634
720.458357	0.996110
720.791046	0.996696
721.123686	0.996583
721.456278	0.996218
721.788821	0.996584
722.121315	0.997136
722.453761	0.996168
722.786158	0.997023
723.118506	0.996521
723.450805	0.996479
723.783056	0.997442
724.115259	0.996015
724.447412	0.996897
724.779518	0.996964
725.111574	0.995256
725.443582	0.996769
725.775542	0.997042
726.107453	0.996235
726.439315	0.996636
726.771129	0.996925
727.102895	0.996651
727.434612	0.996334
727.766281	0.997196
728.097901	0.995426
728.429473	0.996661
728.760996	0.995204
729.092471	0.995855
729.423897	0.996657
729.755276	0.995841
730.086606	0.995754
730.417887	0.996956
730.749120	0.996537
731.080305	0.995258
731.411442	0.994554
731.742530	0.995392
732.073570	0.995638
732.404562	0.995965
732.735506	0.995997
733.066401	0.995593
733.397249	0.995397
733.728048	0.995129
734.058798	0.996135
734.389501	0.996381
734.720156	0.995711
735.050762	0.997486
735.381320	0.996144
735.711831	0.995268
736.042293	0.995920
736.372707	0.997849
736.703073	0.995761
737.033391	0.996759
737.363661	0.998070
737.693883	0.996154
738.024056	0.996309
738.354182	0.996240
738.684260	0.996020
739.014290	0.996272
739.344272	0.995809
739.674207	0.995935
740.004093	0.996995
740.333931	0.997117
740.663722	0.996410
740.993464	0.996468
741.323159	0.995412
741.652806	0.996416
741.982405	0.996293
742.311956	0.997012
742.641460	0.996656
742.970915	0.996448
743.300323	0.995412
743.629683	0.996385
743.958996	0.997258
744.288260	0.995672
744.617477	0.996702
744.946647	0.996084
745.275768	0.997917
745.604842	0.995626
745.933869	0.997097
746.262847	0.998116
746.591778	0.996016
746.920662	0.997271
747.249498	0.997535
747.578286	0.998978
747.907027	0.996472
748.235720	0.997116
748.564365	0.997497
748.892963	0.996523
749.221514	0.997001
749.550017	0.996371
749.878473	0.997224
750.206881	0.998361
750.535242	0.996605
750.863555	0.995950
751.191821	0.996707
751.520039	0.996098
751.848210	0.995759
752.176334	0.996602
752.504411	0.996896
752.832440	0.996138
753.160421	0.996582
753.488356	0.996857
753.816243	0.996471
754.144082	0.996184
754.471875	0.997580
754.799620	0.997148
755.127318	0.997151
755.454969	0.997064
755.782572	0.997328
756.110129	0.997431
756.437638	0.998141
756.765100	0.996907
757.092515	0.997253
757.419882	0.997826
757.747203	0.997345
758.074477	0.998268
758.401703	0.997360
758.728882	0.996595
759.056014	0.996100
759.383099	0.996456
759.710138	0.996892
760.037129	0.997013
760.364073	0.997242
760.690970	0.997209
761.017820	0.996458
761.344623	0.998057
761.671379	0.998271
761.998088	0.996675
762.324751	0.996945
762.651366	0.996229
762.977935	0.995561
763.304456	0.995210
763.630931	0.992312
763.957359	0.992636
764.283740	0.993844
764.610074	0.995137
764.936362	0.994769
765.262602	0.995287
765.588796	0.995835
765.914943	0.996592
766.241044	0.996369
766.567097	0.996309
766.893104	0.997631
767.219064	0.996267
767.544978	0.996108
767.870845	0.997133
768.196665	0.996133
768.522438	0.998188
768.848165	0.997372
769.173846	0.997578
769.499479	0.998123
769.825066	0.997986
770.150607	0.999023
770.476101	0.997622
770.801548	0.998661
771.126949	0.999070
771.452303	0.997811
771.777611	0.998687
772.102872	0.998274
772.428087	0.997243
772.753256	0.998178
773.078378	0.997462
773.403453	0.997125
773.728482	0.999961
774.053465	0.997475
774.378401	0.998472
774.703291	0.997474
775.028135	0.999125
775.352932	0.997569
775.677683	0.998652
776.002388	0.998129
776.327046	0.997698
776.651658	0.999184
776.976224	0.998343
777.300743	0.997909
777.625216	0.997514
777.949643	0.998310
778.274024	0.996896
778.598359	0.998288
778.922647	0.997670
779.246889	0.998894
779.571086	0.998314
779.895236	0.998150
780.219339	0.999433
780.543397	0.997588
780.867409	0.998216
781.191374	0.997978
781.515294	0.999764
781.839167	0.999701
782.162995	0.998179
782.486776	0.997984
782.810511	0.999593
783.134201	0.999722
783.457844	0.999486
783.781441	0.998043
784.104993	0.998248
784.428498	0.999258
784.751958	1.000604
785.075372	0.998793
785.398739	0.997894
785.722061	0.997143
786.045337	0.998993
786.368568	0.997861
786.691752	0.998208
787.014891	0.998960
787.337983	0.997175
787.661030	0.997555
787.984031	0.999170
788.306987	0.997938
788.629897	0.995659
788.952760	0.998202
789.275579	0.998140
789.598351	0.997146
789.921078	0.998039
790.243759	0.998293
790.566395	0.997138
790.888984	0.997968
791.211529	0.998167
791.534027	0.998677
791.856480	0.998324
792.178888	0.998353
792.501249	0.997992
792.823566	1.000408
793.145836	0.999663
793.468062	0.998408
793.790241	0.999672
794.112375	0.998330
794.434464	0.998800
794.756507	0.998916
795.078505	0.996856
795.400457	0.998590
795.722364	0.998238
796.044226	0.997686
796.366042	0.997161
796.687812	0.997296
797.009538	0.997947
797.331218	0.998945
797.652852	0.998661
797.974442	0.997947
798.295986	0.997935
798.617484	0.997016
798.938938	0.998972
799.260346	0.998348
799.581709	0.998236
799.903026	0.999642
800.224299	0.998230
800.545526	0.998294
800.866708	0.998091
801.187845	0.999032
801.508936	0.999020
801.829983	0.999561
802.150984	0.998178
802.471940	0.998539
802.792851	0.998726
803.113717	0.999590
803.434538	0.999871
803.755314	0.999934
804.076045	0.999270
804.396731	0.998102
804.717372	0.998286
805.037967	1.000371
805.358518	0.999588
805.679024	0.998448
805.999485	0.999384
806.319901	0.999177
806.640272	0.999285
806.960598	0.998641
807.280879	0.998786
807.601115	0.999240
807.921306	0.999730
808.241453	0.998434
808.561554	0.998130
808.881611	0.999214
809.201623	0.998283
809.521590	0.998913
809.841513	0.999856
810.161390	0.996495
810.481223	0.998958
810.801011	0.998031
811.120755	0.999402
811.440453	0.998685
811.760107	0.998486
812.079716	0.998492
812.399281	0.999294
812.718801	0.999013
813.038276	0.998869
813.357707	0.999136
813.677093	0.998611
813.996434	0.998588
814.315731	1.000340
814.634983	0.998869
814.954191	0.999014
815.273354	0.997859
815.592473	0.998370
815.911547	0.999451
816.230577	0.998439
816.549562	0.999172
816.868502	0.997650
817.187399	0.998921
817.506250	0.998777
817.825058	0.997603
818.143821	0.998948
818.462539	0.998705
818.781213	0.998085
819.099843	0.998354
819.418429	0.997821
819.736970	0.997589
820.055466	0.996224
820.373919	0.996370
820.692327	0.995011
821.010691	0.994869
821.329011	0.992851
821.647286	0.990979
821.965517	0.988630
822.283704	0.986189
822.601847	0.984798
822.919945	0.983939
823.237999	0.987263
823.556010	0.988580
823.873976	0.989007
824.191897	0.990218
824.509775	0.992014
824.827609	0.992625
825.145398	0.993488
825.463144	0.992784
825.780845	0.992948
826.098502	0.993119
826.416116	0.993419
826.733685	0.991839
827.051210	0.988913
827.368692	0.990018
827.686129	0.991333
828.003522	0.992157
828.320872	0.993163
828.638177	0.994902
828.955439	0.995774
829.272656	0.997364
829.589830	0.996616
829.906960	0.997585
830.224046	0.996378
830.541088	0.997666
830.858086	0.997934
831.175041	0.999068
831.491952	0.997117
831.808819	0.997675
832.125642	0.998306
832.442421	0.998668
832.759157	0.998041
833.075849	0.996138
833.392497	0.994959
833.709101	0.994394
834.025662	0.993170
834.342179	0.993927
834.658653	0.995161
834.975083	0.995648
835.291469	0.996010
835.607811	0.996692
835.924110	0.997407
836.240366	0.998744
836.556578	0.998646
836.872746	0.998882
837.188871	0.998803
837.504952	0.998767
837.820990	0.999879
838.136984	0.998286
838.452935	0.998298
838.768842	0.998929
839.084706	0.999037
839.400526	0.999138
839.716303	0.996801
840.032037	0.996524
840.347727	0.996676
840.663373	0.997990
840.978977	0.997595
841.294537	0.999001
841.610054	0.998831
841.925527	0.999732
842.240957	0.999144
842.556344	0.999500
842.871687	0.999811
843.186987	0.998988
843.502244	1.000330
843.817458	0.998787
844.132629	0.999418
844.447756	0.999251
844.762840	0.999294
845.077881	1.000887
845.392879	0.998462
845.707833	0.999879
846.022745	1.000003
846.337613	0.999663
846.652438	0.999979
846.967221	0.999346
847.281960	0.999577
847.596656	1.001113
847.911309	0.999964
848.225919	0.999483
848.540485	1.000295
848.855009	1.000874
849.169490	0.999793
849.483928	0.999408
849.798323	0.999119
850.112675	1.000636
850.426984	0.999932
850.741251	1.001000
851.055474	0.999885
851.369654	1.000337
851.683792	1.000243
851.997887	1.000027
852.311938	1.000982
852.625947	0.999106
852.939914	1.000013
853.253837	1.001667
853.567718	1.001029
853.881555	1.000917
854.195350	1.000286
854.509103	1.000505
854.822812	1.001523
855.136479	1.000371
855.450103	1.000440
855.763685	1.000294
856.077224	0.999600
856.390720	0.999945
856.704173	1.001138
857.017584	1.000830
857.330953	1.000505
857.644278	1.000352
857.957561	0.999311
858.270802	1.000929
858.584000	1.000338
858.897155	0.999186
859.210268	0.999310
859.523339	1.001201
859.836367	1.000138
860.149352	0.999799
860.462295	1.000513
860.775195	1.001160
861.088054	0.999152
861.400869	1.000139
861.713642	0.999179
862.026373	0.999918
862.339062	1.000321
862.651708	1.000167
862.964312	1.001255
863.276873	0.999829
863.589392	1.000601
863.901869	1.000654
864.214303	1.000835
864.526696	0.999407
864.839045	0.999557
865.151353	0.999775
865.463619	1.000035
865.775842	1.001285
866.088023	1.000201
866.400162	1.000322
866.712258	1.000374
867.024313	1.000722
867.336325	0.999653
867.648296	1.001150
867.960224	1.000032
868.272110	1.000193
868.583954	1.000270
868.895755	1.000374
869.207515	0.999063
869.519233	1.000574
869.830909	0.999372
870.142542	0.999731
870.454134	0.999471
870.765684	0.999981
871.077191	1.000339
871.388657	1.000233
871.700081	1.000220
872.011463	1.000734
872.322803	0.999691
872.634101	0.998573
872.945357	0.997903
873.256571	0.998715
873.567744	0.998862
873.878874	0.998344
874.189963	0.998788
874.501010	1.000915
874.812015	0.999287
875.122979	1.000026
875.433900	0.999741
875.744780	0.999622
876.055618	0.998942
876.366415	0.999530
876.677169	0.998984
876.987882	0.999150
877.298554	1.000458
877.609183	0.998707
877.919771	0.999641
878.230317	0.999805
878.540822	0.999400
878.851285	0.998092
879.161707	0.997786
879.472087	0.999593
879.782425	0.997325
880.092722	0.996158
880.402977	0.993370
880.713191	0.992014
881.023363	0.987783
881.333494	0.986935
881.643583	0.987954
881.953631	0.987525
882.263637	0.986111
882.573602	0.986499
882.883526	0.988879
883.193408	0.991445
883.503248	0.991243
883.813048	0.992866
884.122806	0.993434
884.432522	0.994344
884.742197	0.995998
885.051831	0.995536
885.361424	0.996194
885.670975	0.998197
885.980485	0.996664
886.289954	0.997467
886.599382	0.996744
886.908768	0.998135
887.218113	0.997898
887.527417	0.998859
887.836680	0.998844
888.145901	0.999012
888.455082	0.999386
888.764221	0.999975
889.073319	0.998671
889.382376	0.999180
889.691392	0.998803
890.000366	0.999424
890.309300	0.999800
890.618193	0.999698
890.927044	0.999259
891.235855	0.999070
891.544625	0.999572
891.853353	0.998999
892.162041	0.998386
892.470687	0.999960
892.779293	0.998018
893.087858	0.996656
893.396381	0.997489
893.704864	0.997789
894.013306	0.996463
894.321707	0.995613
894.630068	0.993534
894.938387	0.994335
895.246665	0.994826
895.554903	0.993689
895.863100	0.996167
896.171256	0.995853
896.479371	0.995272
896.787446	0.996925
897.095480	0.998109
897.403473	0.996746
897.711425	0.998155
898.019336	0.998798
898.327207	0.998466
898.635038	0.998077
898.942827	0.999143
899.250576	0.998534
899.558284	0.999847
899.865952	0.997591
900.173579	0.998459
900.481165	0.998866
900.788711	0.998109
901.096216	0.998533
901.403681	0.999797
901.711105	0.998544
902.018489	0.998922
902.325832	0.998510
902.633135	0.998729
902.940397	0.999388
903.247619	0.998213
903.554800	0.997514
903.861941	0.995527
904.169041	0.992956
904.476101	0.993145
904.783121	0.991697
905.090100	0.992599
905.397039	0.993557
905.703938	0.994174
906.010796	0.996185
906.317614	0.996647
906.624391	0.998044
906.931129	0.999221
907.237826	0.998633
907.544483	0.999009
907.851099	0.998803
908.157675	0.998147
908.464211	0.999137
908.770707	0.999244
909.077163	1.000251
909.383578	0.999353
909.689954	0.999516
909.996289	1.000067
910.302584	0.999610
910.608839	1.001150
910.915054	0.999530
911.221229	1.000497
911.527363	0.998932
911.833458	0.999253
912.139513	1.000411
912.445527	1.001320
912.751502	0.999745
913.057436	0.999312
913.363331	1.000022
913.669186	1.000260
913.975000	0.998925
914.280775	0.999160
914.586510	0.997530
914.892205	0.996162
915.197859	0.995181
915.503475	0.996232
915.809050	0.993759
916.114585	0.992318
916.420081	0.993041
916.725536	0.993637
917.030952	0.993485
917.336328	0.994232
917.641665	0.994058
917.946961	0.994885
918.252218	0.995939
918.557435	0.995723
918.862612	0.996902
919.167750	0.997515
919.472848	0.997798
919.777906	0.999239
920.082925	0.999224
920.387904	0.998636
920.692843	0.998715
920.997743	0.997797
921.302603	0.998772
921.607423	0.998035
921.912204	1.000099
922.216946	0.999108
922.521647	1.000162
922.826310	0.999639
923.130932	0.998975
923.435516	1.000247
923.740059	1.000168
924.044564	0.998573
924.349028	0.999454
924.653454	1.000406
924.957840	0.999098
925.262186	0.999012
925.566493	0.999882
925.870761	1.000838
926.174989	1.000286
926.479178	1.000635
926.783328	1.000582
927.087438	1.000468
927.391509	0.998845
927.695541	1.000424
927.999533	1.000113
928.303486	1.000306
928.607400	1.000453
928.911275	1.000330
929.215110	1.000558
929.518906	1.000320
929.822663	1.001653
930.126381	1.002202
930.430060	1.000152
930.733699	1.001032
931.037299	1.000901
931.340861	1.002335
931.644383	0.999952
931.947866	1.000328
932.251309	1.000081
932.554714	0.999671
932.858080	1.001052
933.161407	0.999921
933.464694	1.000970
933.767943	1.000233
934.071153	1.000650
934.374323	1.001755
934.677455	1.000996
934.980548	1.000030
935.283602	1.002310
935.586617	1.001500
935.889593	1.002021
936.192530	0.999836
936.495428	0.999520
936.798287	1.000070
937.101108	1.001629
937.403890	1.000153
937.706632	1.000956
938.009336	1.000458
938.312002	0.999066
938.614628	1.000469
938.917216	1.000074
939.219765	0.999526
939.522275	1.000070
939.824747	0.999977
940.127179	0.999872
940.429573	0.999997
940.731929	0.999470
941.034246	0.999902
941.336524	0.998532
941.638763	1.000976
941.940964	0.999280
942.243126	1.000142
942.545250	1.001315
942.847335	1.001103
943.149381	1.001632
943.451389	0.999071
943.753359	1.000835
944.055290	1.001334
944.357182	1.000369
944.659036	1.000061
944.960851	1.000883
945.262628	1.001560
945.564367	1.001258
945.866067	1.000168
946.167729	1.000959
946.469352	0.999823
946.770937	0.999065
947.072484	1.001519
947.373992	1.000242
947.675462	1.000484
947.976893	1.000028
948.278286	1.001599
948.579641	1.000887
948.880958	1.000116
949.182236	1.000492
949.483476	1.000933
949.784678	1.001363
950.085841	0.999474
950.386967	0.999877
950.688054	1.000662
950.989103	0.999917
951.290114	1.000010
951.591087	1.001081
951.892021	1.000169
952.192917	0.999888
952.493776	1.001093
952.794596	1.000826
953.095378	0.999770
953.396122	0.999520
953.696828	1.001300
953.997496	1.000896
954.298126	1.001084
954.598718	1.000358
954.899272	1.001152
955.199788	1.000571
955.500266	1.001231
955.800706	1.000095
956.101108	0.999328
956.401472	1.001819
956.701798	1.000399
957.002087	1.000565
957.302337	0.999614
957.602550	1.000387
957.902724	1.000958
958.202861	1.001482
958.502960	1.000414
958.803022	1.001393
959.103045	1.000985
959.403031	1.000136
959.702979	1.002157
960.002889	1.000238
960.302762	1.001255
960.602596	1.001462
960.902393	1.000948
961.202153	1.000956
961.501875	1.000123
961.801559	1.001436
962.101205	0.999707
962.400814	1.001160
962.700385	1.001401
962.999918	1.001578
963.299414	1.000132
963.598873	1.001287
963.898293	0.999971
964.197677	1.000228
964.497022	1.000887
964.796331	1.001377
965.095601	1.002190
965.394835	1.001282
965.694030	1.001330
965.993189	1.000593
966.292309	1.001294
966.591393	1.000140
966.890439	1.001328
967.189447	1.000684
967.488419	1.001090
967.787353	1.000769
968.086249	1.002627
968.385108	1.000883
968.683930	1.002442
968.982714	1.001463
969.281462	1.001256
969.580172	1.001693
969.878844	1.000332
970.177480	1.000770
970.476078	1.002943
970.774639	0.999939
971.073162	1.000977
971.371649	1.001057
971.670098	1.000595
971.968510	1.001923
972.266885	0.999987
972.565223	1.000947
972.863524	0.999654
973.161788	0.999972
973.460014	1.001786
973.758204	1.000604
974.056356	1.000115
974.354471	0.999321
974.652550	1.001860
974.950591	1.000619
975.248595	1.000024
975.546563	1.001536
975.844493	1.001299
976.142386	1.000371
976.440243	1.000911
976.738062	1.001622
977.035845	1.000487
977.333590	1.001886
977.631299	0.999888
977.928971	1.000832
978.226606	1.001757
978.524204	0.999879
978.821765	1.001993
979.119290	1.002126
979.416777	1.001619
979.714228	1.000565
980.011642	1.001910
980.309020	1.000314
980.606360	1.000731
980.903664	1.000186
981.200931	0.999342
981.498162	1.000723
981.795356	1.001284
982.092513	1.000162
982.389633	1.001688
982.686717	0.999897
982.983764	0.999967
983.280775	1.000598
983.577749	1.001253
983.874686	0.999726
984.171587	1.000726
984.468451	1.000682
984.765279	1.000911
985.062070	1.001588
985.358824	0.999737
985.655543	1.001349
985.952224	1.001591
986.248869	1.000897
986.545478	1.001401
986.842050	1.000894
987.138586	0.999679
987.435086	1.000591
987.731549	1.002285
988.027975	1.000619
988.324366	1.001904
988.620719	1.002488
988.917037	1.001581
989.213318	1.002546
989.509563	1.001173
989.805772	1.002197
990.101944	1.001822
990.398080	1.000978
990.694180	1.002544
990.990244	0.999337
991.286271	1.000982
991.582262	1.000815
991.878217	1.000432
992.174136	1.000657
992.470019	1.001399
992.765865	1.002608
993.061676	1.001315
993.357450	1.002332
993.653188	1.001271
993.948890	1.000889
994.244556	1.000507
994.540186	1.000699
994.835780	0.999975
995.131337	1.002135
995.426859	1.001757
995.722345	1.001799
996.017795	1.000683
996.313208	1.001289
996.608586	1.000439
996.903928	1.001248
997.199234	1.001281
997.494504	1.001858
997.789738	0.999549
998.084936	1.001472
998.380099	1.000176
998.675225	1.002297
998.970316	1.000950
999.265371	1.001498
999.560390	1.000620
999.855373	1.000692
1000.150320	1.001773
1000.445232	1.000934
1000.740108	1.000957
1001.034948	1.000437
1001.329752	1.001994
1001.624521	1.001684
1001.919254	1.000136
1002.213951	1.000080
1002.508613	1.000574
1002.803239	1.000873
1003.097829	1.001376
1003.392384	1.000834
1003.686903	1.001116
1003.981386	1.000383
1004.275834	1.001551
1004.570246	0.999702
1004.864623	1.002154
1005.158964	1.002156
1005.453270	1.000129
1005.747540	1.001092
1006.041775	1.001550
1006.335974	1.000899
1006.630138	1.000869
1006.924266	1.000832
1007.218359	0.999189
1007.512416	1.002345
1007.806438	1.000440
1008.100425	1.000974
1008.394376	1.001783
1008.688292	1.000162
1008.982172	1.000552
1009.276017	1.001454
1009.569827	1.002800
1009.863602	1.000068
1010.157341	1.002567
1010.451045	1.001067
1010.744714	1.002178
1011.038347	1.002374
1011.331945	1.000411
1011.625508	1.001526
1011.919036	1.001100
1012.212528	1.002257
1012.505986	1.001288
1012.799408	1.001681
1013.092795	1.001538
1013.386147	1.001661
1013.679464	1.001895
1013.972745	1.001682
1014.265992	1.001131
1014.559204	1.000494
1014.852380	1.002181
1015.145521	1.001837
1015.438628	1.001146
1015.731699	1.000550
1016.024736	1.001864
1016.317737	1.000994
1016.610703	1.001772
1016.903635	1.002127
1017.196531	1.000437
1017.489393	0.999853
1017.782219	1.000821
1018.075011	1.000995
1018.367768	0.999889
1018.660490	1.001196
1018.953177	1.001196
1019.245829	1.001196
