Dividing Wavelength (nm)	Counts (n)	Blue Motor Position (mm): 4.900000	Red Motor Position (mm): 0.000000	
326.493990	1.004861
326.888308	1.004861
327.282561	1.004861
327.676750	1.005674
328.070874	1.007382
328.464933	1.007359
328.858929	1.006054
329.252859	1.005854
329.646726	1.005190
330.040528	1.005888
330.434265	1.006456
330.827938	1.005020
331.221547	1.006475
331.615091	1.006258
332.008571	1.007666
332.401986	1.004464
332.795338	1.005561
333.188625	1.006017
333.581847	1.006095
333.975006	1.006370
334.368100	1.006976
334.761129	1.003945
335.154095	1.006262
335.546996	1.003206
335.939833	0.998444
336.332606	0.998490
336.725315	0.997892
337.117960	0.999361
337.510540	0.997965
337.903056	0.999238
338.295508	1.000725
338.687896	0.998977
339.080220	0.998687
339.472480	0.999043
339.864676	0.998704
340.256807	0.998006
340.648875	0.999714
341.040879	0.998087
341.432818	0.998822
341.824694	0.998217
342.216506	0.999099
342.608253	0.998596
342.999937	0.998257
343.391557	1.000036
343.783113	1.000878
344.174605	0.998365
344.566033	0.998062
344.957397	0.998617
345.348697	0.998678
345.739934	0.998150
346.131106	0.997955
346.522215	0.998411
346.913260	0.999025
347.304241	0.997301
347.695159	0.998761
348.086012	0.998823
348.476802	0.997457
348.867528	0.998298
349.258191	0.999125
349.648789	0.999198
350.039324	0.998551
350.429796	0.998263
350.820203	0.997071
351.210548	0.998026
351.600828	0.998276
351.991045	0.998369
352.381198	0.998650
352.771288	0.998061
353.161314	0.998249
353.551276	0.997819
353.941175	0.996486
354.331010	0.999228
354.720782	0.999068
355.110490	0.998517
355.500135	0.999276
355.889717	0.997254
356.279235	0.997177
356.668689	0.998158
357.058080	0.996776
357.447408	0.997000
357.836672	0.997899
358.225873	0.996959
358.615010	0.999308
359.004084	0.996102
359.393095	0.998889
359.782043	0.998003
360.170927	0.997704
360.559748	0.998458
360.948505	0.996861
361.337199	0.997259
361.725830	0.997448
362.114398	0.996652
362.502903	0.996490
362.891344	0.996329
363.279722	0.996832
363.668037	0.996478
364.056289	0.997587
364.444478	0.997410
364.832603	0.996223
365.220665	0.997295
365.608665	0.995618
365.996601	0.996350
366.384474	0.995458
366.772284	0.996653
367.160031	0.994918
367.547715	0.994456
367.935336	0.994217
368.322893	0.993213
368.710388	0.990622
369.097820	0.990860
369.485189	0.988010
369.872495	0.985981
370.259738	0.984991
370.646918	0.980728
371.034035	0.980326
371.421090	0.975241
371.808081	0.972075
372.195010	0.969337
372.581875	0.962692
372.968678	0.959121
373.355418	0.955926
373.742096	0.948343
374.128710	0.944674
374.515262	0.939741
374.901751	0.933031
375.288177	0.929647
375.674540	0.921780
376.060841	0.916550
376.447079	0.908688
376.833254	0.901684
377.219367	0.897003
377.605417	0.885376
377.991404	0.883518
378.377329	0.876792
378.763191	0.871031
379.148991	0.860297
379.534727	0.853729
379.920402	0.844951
380.306013	0.841078
380.691563	0.827753
381.077049	0.822323
381.462474	0.817722
381.847835	0.806413
382.233134	0.801523
382.618371	0.803000
383.003545	0.784796
383.388657	0.782588
383.773706	0.775147
384.158693	0.770676
384.543618	0.765626
384.928480	0.756476
385.313280	0.748827
385.698017	0.747032
386.082692	0.735054
386.467305	0.733569
386.851856	0.728479
387.236344	0.723303
387.620770	0.717449
388.005133	0.711343
388.389435	0.706122
388.773674	0.703265
389.157851	0.695182
389.541965	0.692843
389.926018	0.699624
390.310008	0.685813
390.693936	0.683629
391.077802	0.675887
391.461606	0.676355
391.845348	0.666398
392.229027	0.665448
392.612645	0.663713
392.996200	0.650637
393.379694	0.644124
393.763125	0.634006
394.146494	0.638430
394.529801	0.629427
394.913047	0.621134
395.296230	0.627173
395.679351	0.618598
396.062410	0.614639
396.445408	0.618213
396.828343	0.613093
397.211217	0.607994
397.594028	0.619618
397.976778	0.611221
398.359466	0.607859
398.742092	0.602835
399.124656	0.614451
399.507158	0.603548
399.889598	0.600632
400.271977	0.591061
400.654294	0.595971
401.036549	0.594209
401.418742	0.599214
401.800874	0.584097
402.182944	0.580955
402.564952	0.572956
402.946898	0.575055
403.328783	0.575894
403.710606	0.586563
404.092367	0.561296
404.474067	0.566535
404.855705	0.565545
405.237282	0.574778
405.618797	0.560998
406.000250	0.556508
406.381642	0.545696
406.762972	0.551665
407.144240	0.550535
407.525447	0.549860
407.906593	0.542654
408.287677	0.537727
408.668700	0.547099
409.049661	0.541155
409.430560	0.535509
409.811399	0.544527
410.192176	0.525944
410.572891	0.533188
410.953545	0.520890
411.334138	0.535339
411.714669	0.527141
412.095139	0.539659
412.475547	0.523191
412.855894	0.525304
413.236180	0.524760
413.616405	0.529968
413.996568	0.520445
414.376670	0.526572
414.756711	0.531318
415.136691	0.528104
415.516609	0.519354
415.896466	0.515902
416.276262	0.511703
416.655997	0.514158
417.035670	0.495373
417.415283	0.487338
417.794834	0.491910
418.174324	0.497245
418.553753	0.506135
418.933121	0.488540
419.312428	0.482460
419.691674	0.488052
420.070859	0.476398
420.449983	0.484592
420.829045	0.473300
421.208047	0.482638
421.586988	0.474921
421.965867	0.474509
422.344686	0.462896
422.723444	0.476008
423.102141	0.492868
423.480777	0.465334
423.859352	0.486208
424.237866	0.463764
424.616319	0.464428
424.994712	0.455124
425.373044	0.466275
425.751314	0.453712
426.129524	0.470369
426.507673	0.453423
426.885762	0.447300
427.263789	0.452434
427.641756	0.462057
428.019662	0.452937
428.397508	0.451990
428.775292	0.456625
429.153016	0.447479
429.530679	0.454493
429.908282	0.447240
430.285824	0.458144
430.663305	0.435969
431.040726	0.457440
431.418086	0.456875
431.795385	0.448869
432.172624	0.448286
432.549802	0.448645
432.926920	0.447008
433.303977	0.446328
433.680974	0.443945
434.057910	0.443128
434.434786	0.441548
434.811601	0.444573
435.188355	0.426851
435.565050	0.436830
435.941683	0.437399
436.318257	0.421602
436.694770	0.422184
437.071222	0.420665
437.447614	0.425151
437.823946	0.431531
438.200218	0.420933
438.576429	0.429927
438.952580	0.423171
439.328670	0.420023
439.704700	0.426091
440.080670	0.427834
440.456580	0.409109
440.832429	0.417050
441.208218	0.427752
441.583947	0.417375
441.959616	0.416572
442.335224	0.422289
442.710773	0.412758
443.086261	0.410669
443.461689	0.424501
443.837057	0.414574
444.212365	0.404103
444.587612	0.411588
444.962800	0.401203
445.337927	0.402818
445.712995	0.428942
446.088002	0.391138
446.462949	0.401428
446.837837	0.406699
447.212664	0.394831
447.587431	0.387019
447.962139	0.356653
448.336786	0.316019
448.711374	0.326220
449.085901	0.370950
449.460369	0.375174
449.834776	0.378800
450.209124	0.357730
450.583412	0.350540
450.957640	0.342861
451.331808	0.354691
451.705917	0.378083
452.079965	0.382934
452.453954	0.371148
452.827883	0.378116
453.201752	0.372712
453.575562	0.383745
453.949311	0.372820
454.323001	0.378716
454.696632	0.374847
455.070202	0.366986
455.443713	0.358725
455.817164	0.353801
456.190556	0.349334
456.563888	0.345928
456.937160	0.343850
457.310373	0.361266
457.683526	0.359840
458.056619	0.365660
458.429653	0.365743
458.802628	0.369677
459.175542	0.363965
459.548398	0.346293
459.921194	0.338594
460.293930	0.339363
460.666607	0.316646
461.039224	0.304870
461.411782	0.300450
461.784280	0.299662
462.156719	0.303569
462.529099	0.307846
462.901419	0.324306
463.273680	0.328408
463.645882	0.327945
464.018024	0.333847
464.390106	0.326790
464.762130	0.311605
465.134094	0.294483
465.505999	0.263326
465.877845	0.233701
466.249631	0.220431
466.621358	0.227960
466.993026	0.241779
467.364634	0.248201
467.736184	0.257180
468.107674	0.265747
468.479105	0.264835
468.850477	0.271728
469.221790	0.278442
469.593043	0.288763
469.964238	0.293272
470.335373	0.292992
470.706449	0.291363
471.077467	0.291905
471.448425	0.253761
471.819324	0.229203
472.190164	0.228913
472.560945	0.257961
472.931667	0.279923
473.302330	0.284147
473.672934	0.296090
474.043479	0.283514
474.413965	0.286042
474.784393	0.289596
475.154761	0.284621
475.525070	0.281542
475.895321	0.287394
476.265513	0.281213
476.635645	0.276737
477.005719	0.276756
477.375734	0.272999
477.745691	0.266470
478.115588	0.262741
478.485427	0.256479
478.855207	0.243410
479.224928	0.225544
479.594591	0.213954
479.964194	0.217206
480.333739	0.218652
480.703226	0.219860
481.072653	0.218095
481.442022	0.213931
481.811333	0.210639
482.180584	0.213958
482.549777	0.219476
482.918912	0.222708
483.287988	0.222479
483.657005	0.222130
484.025964	0.228397
484.394864	0.225613
484.763706	0.226530
485.132489	0.231464
485.501213	0.232391
485.869879	0.230260
486.238487	0.233664
486.607036	0.231861
486.975527	0.236248
487.343959	0.232277
487.712333	0.231359
488.080648	0.232404
488.448905	0.231784
488.817104	0.233117
489.185244	0.227615
489.553326	0.224194
489.921350	0.214085
490.289315	0.196742
490.657222	0.191447
491.025070	0.193005
491.392861	0.194943
491.760593	0.200614
492.128267	0.206379
492.495883	0.211576
492.863440	0.218153
493.230939	0.224663
493.598380	0.226129
493.965763	0.228246
494.333088	0.230250
494.700354	0.231781
495.067563	0.230994
495.434713	0.234477
495.801805	0.231891
496.168839	0.233698
496.535815	0.235054
496.902733	0.234740
497.269593	0.236473
497.636395	0.234010
498.003139	0.234637
498.369825	0.237571
498.736453	0.234057
499.103023	0.235837
499.469535	0.234748
499.835989	0.235140
500.202385	0.235976
500.568723	0.239312
500.935003	0.234606
501.301226	0.238647
501.667390	0.233184
502.033497	0.231014
502.399546	0.233843
502.765537	0.235884
503.131470	0.234345
503.497345	0.230660
503.863163	0.239340
504.228923	0.232225
504.594625	0.230833
504.960269	0.236438
505.325856	0.231716
505.691385	0.236177
506.056856	0.232990
506.422270	0.232447
506.787625	0.234578
507.152924	0.232304
507.518164	0.232620
507.883347	0.234059
508.248472	0.236326
508.613540	0.231013
508.978550	0.233333
509.343503	0.233895
509.708398	0.231604
510.073236	0.229093
510.438016	0.229080
510.802738	0.230198
511.167403	0.229088
511.532010	0.231026
511.896561	0.226137
512.261053	0.224759
512.625488	0.227463
512.989866	0.227535
513.354186	0.228064
513.718449	0.229981
514.082655	0.226154
514.446803	0.228194
514.810894	0.226124
515.174927	0.228937
515.538904	0.228197
515.902822	0.225087
516.266684	0.227524
516.630488	0.228583
516.994235	0.227572
517.357925	0.226285
517.721558	0.224454
518.085133	0.224028
518.448651	0.224050
518.812112	0.226471
519.175516	0.225992
519.538863	0.223568
519.902152	0.225433
520.265385	0.222186
520.628560	0.223755
520.991678	0.224181
521.354739	0.223300
521.717743	0.224520
522.080690	0.224717
522.443580	0.222248
522.806413	0.222734
523.169189	0.222427
523.531908	0.221191
523.894569	0.224521
524.257174	0.224798
524.619722	0.222228
524.982213	0.223382
525.344647	0.222372
525.707025	0.223232
526.069345	0.221623
526.431608	0.223162
526.793815	0.221089
527.155964	0.225422
527.518057	0.224216
527.880093	0.225412
528.242072	0.223828
528.603995	0.225785
528.965860	0.227562
529.327669	0.226373
529.689421	0.227414
530.051117	0.227871
530.412755	0.225759
530.774337	0.227811
531.135862	0.228509
531.497331	0.227997
531.858743	0.230778
532.220098	0.227220
532.581396	0.229746
532.942638	0.230492
533.303824	0.231158
533.664953	0.231048
534.026025	0.232990
534.387040	0.230701
534.747999	0.230824
535.108902	0.229370
535.469748	0.234703
535.830537	0.232781
536.191270	0.232897
536.551947	0.232544
536.912567	0.232169
537.273131	0.234223
537.633638	0.234283
537.994089	0.234655
538.354483	0.235509
538.714821	0.232839
539.075103	0.232404
539.435328	0.233382
539.795497	0.237057
540.155609	0.233624
540.515665	0.231747
540.875665	0.237337
541.235609	0.235907
541.595496	0.236082
541.955328	0.232422
542.315102	0.235258
542.674821	0.236132
543.034483	0.236390
543.394090	0.236178
543.753640	0.237685
544.113134	0.232751
544.472571	0.236291
544.831953	0.233245
545.191278	0.237113
545.550548	0.236483
545.909761	0.233617
546.268918	0.234606
546.628019	0.232611
546.987064	0.235298
547.346053	0.236823
547.704986	0.234761
548.063863	0.235114
548.422684	0.235541
548.781449	0.237010
549.140158	0.235032
549.498811	0.237524
549.857408	0.240717
550.215949	0.235531
550.574434	0.238429
550.932864	0.236712
551.291237	0.234954
551.649555	0.236779
552.007817	0.236211
552.366022	0.237399
552.724173	0.237434
553.082267	0.237818
553.440305	0.234941
553.798288	0.238986
554.156215	0.235584
554.514086	0.236268
554.871902	0.239700
555.229661	0.238517
555.587365	0.239195
555.945014	0.241872
556.302606	0.238817
556.660143	0.241355
557.017625	0.237912
557.375050	0.240066
557.732421	0.237202
558.089735	0.239098
558.446994	0.238721
558.804197	0.238225
559.161345	0.237738
559.518437	0.241712
559.875474	0.239404
560.232455	0.239106
560.589381	0.240129
560.946251	0.240194
561.303065	0.237771
561.659825	0.239020
562.016528	0.240707
562.373177	0.243488
562.729770	0.240641
563.086307	0.242594
563.442789	0.240586
563.799216	0.243280
564.155587	0.242145
564.511904	0.243252
564.868164	0.243279
565.224370	0.243434
565.580520	0.244827
565.936615	0.244944
566.292654	0.247814
566.648638	0.244812
567.004567	0.245753
567.360441	0.246253
567.716260	0.248251
568.072023	0.245966
568.427732	0.246906
568.783385	0.249264
569.138982	0.247209
569.494525	0.246865
569.850013	0.249842
570.205445	0.248710
570.560823	0.250803
570.916145	0.253050
571.271412	0.251351
571.626625	0.252739
571.981782	0.253190
572.336884	0.254231
572.691931	0.253625
573.046923	0.255032
573.401860	0.255947
573.756743	0.257884
574.111570	0.256661
574.466342	0.257405
574.821059	0.256481
575.175722	0.259674
575.530330	0.259161
575.884882	0.259062
576.239380	0.261141
576.593823	0.261647
576.948211	0.261528
577.302544	0.264651
577.656823	0.264418
578.011047	0.263688
578.365216	0.265223
578.719330	0.266958
579.073389	0.266480
579.427394	0.268058
579.781344	0.268844
580.135239	0.269897
580.489080	0.269829
580.842866	0.272785
581.196597	0.273166
581.550273	0.271086
581.903895	0.272317
582.257463	0.270546
582.610975	0.274040
582.964434	0.273336
583.317837	0.275973
583.671186	0.276325
584.024481	0.276407
584.377721	0.278683
584.730906	0.279341
585.084037	0.278473
585.437113	0.280602
585.790135	0.280195
586.143103	0.282620
586.496016	0.283761
586.848874	0.281498
587.201679	0.282087
587.554428	0.285369
587.907124	0.284440
588.259765	0.284708
588.612352	0.285509
588.964884	0.289343
589.317362	0.288872
589.669786	0.288679
590.022155	0.287235
590.374470	0.286942
590.726731	0.288940
591.078937	0.293883
591.431090	0.290031
591.783188	0.293987
592.135232	0.294562
592.487222	0.294407
592.839157	0.292782
593.191038	0.295236
593.542866	0.297102
593.894639	0.300070
594.246358	0.298383
594.598022	0.297720
594.949633	0.301759
595.301190	0.302555
595.652692	0.301379
596.004141	0.297298
596.355535	0.305305
596.706876	0.306389
597.058162	0.308694
597.409395	0.305850
597.760573	0.303588
598.111698	0.306778
598.462768	0.307269
598.813785	0.308556
599.164748	0.309627
599.515657	0.310044
599.866511	0.314107
600.217312	0.309109
600.568060	0.314078
600.918753	0.310374
601.269392	0.311307
601.619978	0.314742
601.970510	0.312369
602.320988	0.312279
602.671412	0.310290
603.021783	0.312846
603.372100	0.313961
603.722363	0.313899
604.072572	0.314758
604.422728	0.314470
604.772830	0.316498
605.122878	0.316650
605.472872	0.316805
605.822813	0.314685
606.172701	0.317793
606.522534	0.315030
606.872314	0.315108
607.222041	0.316232
607.571714	0.314223
607.921333	0.315606
608.270899	0.315096
608.620411	0.311997
608.969870	0.316115
609.319276	0.315951
609.668627	0.316180
610.017926	0.314608
610.367171	0.312933
610.716362	0.313851
611.065500	0.314021
611.414585	0.312560
611.763616	0.313157
612.112594	0.313713
612.461518	0.313170
612.810389	0.310913
613.159207	0.313239
613.507971	0.315032
613.856682	0.310874
614.205340	0.312039
614.553945	0.309556
614.902496	0.312880
615.250994	0.311063
615.599439	0.311787
615.947830	0.311014
616.296169	0.312042
616.644454	0.311597
616.992686	0.311619
617.340864	0.309697
617.688990	0.313290
618.037063	0.309550
618.385082	0.311445
618.733048	0.308249
619.080961	0.310845
619.428821	0.310397
619.776628	0.309448
620.124382	0.312419
620.472083	0.312523
620.819731	0.311803
621.167326	0.315661
621.514868	0.315349
621.862357	0.319678
622.209793	0.318737
622.557176	0.321361
622.904506	0.322202
623.251783	0.324958
623.599007	0.326922
623.946179	0.326866
624.293297	0.328964
624.640363	0.332666
624.987376	0.333092
625.334336	0.335291
625.681243	0.338039
626.028097	0.338290
626.374899	0.339697
626.721647	0.339789
627.068343	0.342796
627.414987	0.343980
627.761577	0.346290
628.108115	0.344322
628.454600	0.349694
628.801032	0.346872
629.147412	0.349098
629.493739	0.350014
629.840014	0.352714
630.186236	0.349794
630.532405	0.355758
630.878521	0.352746
631.224585	0.355214
631.570597	0.359285
631.916556	0.357098
632.262462	0.356872
632.608316	0.359665
632.954117	0.360017
633.299866	0.361092
633.645562	0.361541
633.991206	0.365880
634.336797	0.368583
634.682336	0.370862
635.027823	0.372653
635.373257	0.373105
635.718639	0.377270
636.063968	0.376325
636.409245	0.381938
636.754470	0.382822
637.099642	0.384851
637.444762	0.388151
637.789829	0.387013
638.134845	0.390836
638.479808	0.391804
638.824719	0.391482
639.169577	0.395557
639.514383	0.394724
639.859137	0.399430
640.203839	0.398885
640.548489	0.399492
640.893086	0.400236
641.237632	0.401971
641.582125	0.401135
641.926566	0.402784
642.270955	0.402716
642.615292	0.402597
642.959576	0.402067
643.303809	0.403023
643.647990	0.401954
643.992118	0.402452
644.336195	0.405919
644.680219	0.404789
645.024192	0.405337
645.368112	0.398871
645.711981	0.397626
646.055797	0.392731
646.399562	0.395076
646.743274	0.388019
647.086935	0.384847
647.430544	0.385101
647.774101	0.383510
648.117606	0.384002
648.461059	0.384625
648.804460	0.386329
649.147810	0.391401
649.491108	0.393525
649.834354	0.395180
650.177548	0.400354
650.520690	0.405700
650.863781	0.407271
651.206820	0.406213
651.549807	0.410914
651.892742	0.414977
652.235626	0.414511
652.578458	0.415392
652.921238	0.421685
653.263967	0.418881
653.606644	0.423099
653.949269	0.423314
654.291843	0.426549
654.634365	0.423752
654.976836	0.426305
655.319255	0.427269
655.661622	0.428549
656.003938	0.428673
656.346203	0.430974
656.688416	0.429433
657.030577	0.432566
657.372687	0.434954
657.714746	0.435234
658.056753	0.432598
658.398708	0.436433
658.740612	0.437609
659.082465	0.432919
659.424266	0.434721
659.766016	0.433524
660.107715	0.437004
660.449362	0.435229
660.790958	0.435976
661.132503	0.437089
661.473996	0.433978
661.815438	0.435324
662.156829	0.436027
662.498168	0.435422
662.839456	0.437743
663.180693	0.435140
663.521879	0.434989
663.863013	0.436251
664.204097	0.434005
664.545129	0.431376
664.886110	0.431738
665.227040	0.429122
665.567918	0.431998
665.908746	0.429627
666.249522	0.429376
666.590248	0.429706
666.930922	0.427601
667.271545	0.427397
667.612118	0.427675
667.952639	0.429218
668.293109	0.428021
668.633528	0.430489
668.973896	0.430368
669.314213	0.430728
669.654480	0.432584
669.994695	0.432758
670.334859	0.433584
670.674973	0.434072
671.015035	0.433915
671.355047	0.434084
671.695008	0.434884
672.034918	0.436580
672.374777	0.436304
672.714585	0.437573
673.054342	0.437370
673.394049	0.437713
673.733705	0.435402
674.073310	0.435883
674.412864	0.439371
674.752368	0.439840
675.091820	0.440026
675.431223	0.444709
675.770574	0.443819
676.109875	0.447179
676.449125	0.446969
676.788324	0.449681
677.127473	0.454652
677.466571	0.454752
677.805619	0.456429
678.144616	0.457454
678.483562	0.459421
678.822458	0.461934
679.161303	0.462219
679.500098	0.463489
679.838842	0.465266
680.177535	0.463710
680.516179	0.462162
680.854771	0.461749
681.193314	0.455071
681.531805	0.446295
681.870247	0.435138
682.208638	0.427620
682.546978	0.426881
682.885268	0.428306
683.223508	0.434263
683.561697	0.438426
683.899836	0.440973
684.237925	0.443899
684.575963	0.446772
684.913951	0.450329
685.251889	0.445378
685.589776	0.447530
685.927614	0.450041
686.265401	0.444242
686.603137	0.445636
686.940824	0.439440
687.278460	0.437866
687.616046	0.437376
687.953582	0.432311
688.291068	0.433483
688.628504	0.428914
688.965889	0.431468
689.303224	0.435341
689.640510	0.439206
689.977745	0.445002
690.314930	0.452954
690.652065	0.457859
690.989150	0.465252
691.326185	0.472116
691.663170	0.476684
692.000105	0.484405
692.336990	0.490816
692.673825	0.493360
693.010610	0.500159
693.347345	0.506540
693.684030	0.507422
694.020665	0.512112
694.357251	0.520698
694.693786	0.520198
695.030272	0.523729
695.366707	0.528186
695.703093	0.531367
696.039429	0.528981
696.375716	0.531635
696.711952	0.533125
697.048139	0.536193
697.384276	0.538240
697.720363	0.535940
698.056400	0.534783
698.392388	0.540856
698.728326	0.543590
699.064214	0.546378
699.400053	0.547059
699.735842	0.551128
700.071581	0.553408
700.407270	0.556641
700.742910	0.559523
701.078501	0.565391
701.414042	0.566411
701.749533	0.569164
702.084974	0.577912
702.420366	0.570878
702.755709	0.578145
703.091002	0.585915
703.426246	0.579491
703.761440	0.584775
704.096584	0.589663
704.431679	0.587298
704.766725	0.588937
705.101721	0.590728
705.436668	0.587563
705.771565	0.593693
706.106413	0.589825
706.441212	0.585893
706.775961	0.584489
707.110661	0.587646
707.445311	0.583965
707.779913	0.580659
708.114465	0.579690
708.448967	0.575997
708.783421	0.568192
709.117825	0.562808
709.452180	0.562533
709.786485	0.556817
710.120742	0.545734
710.454949	0.547947
710.789107	0.539557
711.123216	0.531015
711.457275	0.532577
711.791286	0.524389
712.125247	0.523400
712.459159	0.533825
712.793023	0.524666
713.126837	0.530093
713.460602	0.530273
713.794318	0.539110
714.127985	0.538384
714.461602	0.548996
714.795171	0.551260
715.128691	0.560462
715.462162	0.567080
715.795584	0.573648
716.128957	0.576190
716.462281	0.583119
716.795556	0.585407
717.128782	0.591484
717.461960	0.600965
717.795088	0.599099
718.128167	0.606295
718.461198	0.614348
718.794180	0.615067
719.127113	0.617086
719.459997	0.620815
719.792833	0.627568
720.125619	0.629101
720.458357	0.634666
720.791046	0.634761
721.123686	0.637850
721.456278	0.644391
721.788821	0.642182
722.121315	0.646652
722.453761	0.651347
722.786158	0.647791
723.118506	0.644201
723.450805	0.652179
723.783056	0.649191
724.115259	0.645813
724.447412	0.646041
724.779518	0.646905
725.111574	0.645545
725.443582	0.641370
725.775542	0.642805
726.107453	0.635939
726.439315	0.635637
726.771129	0.634579
727.102895	0.627273
727.434612	0.620268
727.766281	0.618568
728.097901	0.617238
728.429473	0.616868
728.760996	0.615305
729.092471	0.615981
729.423897	0.619467
729.755276	0.618354
730.086606	0.617808
730.417887	0.613159
730.749120	0.603220
731.080305	0.595069
731.411442	0.590158
731.742530	0.594508
732.073570	0.594594
732.404562	0.587343
732.735506	0.588109
733.066401	0.593540
733.397249	0.602147
733.728048	0.614047
734.058798	0.626425
734.389501	0.637557
734.720156	0.647563
735.050762	0.654803
735.381320	0.656096
735.711831	0.663949
736.042293	0.669430
736.372707	0.666026
736.703073	0.670084
737.033391	0.672699
737.363661	0.669334
737.693883	0.665319
738.024056	0.663924
738.354182	0.663209
738.684260	0.653291
739.014290	0.649325
739.344272	0.650427
739.674207	0.643031
740.004093	0.642481
740.333931	0.643610
740.663722	0.643647
740.993464	0.643664
741.323159	0.648082
741.652806	0.652613
741.982405	0.657317
742.311956	0.663184
742.641460	0.663505
742.970915	0.667997
743.300323	0.675485
743.629683	0.681831
743.958996	0.684169
744.288260	0.687870
744.617477	0.694362
744.946647	0.695252
745.275768	0.701524
745.604842	0.701456
745.933869	0.711245
746.262847	0.712818
746.591778	0.705946
746.920662	0.712280
747.249498	0.718354
747.578286	0.709444
747.907027	0.705730
748.235720	0.705724
748.564365	0.701446
748.892963	0.700734
749.221514	0.704990
749.550017	0.708573
749.878473	0.709536
750.206881	0.716357
750.535242	0.716071
750.863555	0.715528
751.191821	0.716240
751.520039	0.720000
751.848210	0.724586
752.176334	0.717640
752.504411	0.716867
752.832440	0.724717
753.160421	0.729030
753.488356	0.727074
753.816243	0.724415
754.144082	0.733021
754.471875	0.736290
754.799620	0.732965
755.127318	0.734096
755.454969	0.733594
755.782572	0.733810
756.110129	0.737883
756.437638	0.740660
756.765100	0.737717
757.092515	0.734791
757.419882	0.733745
757.747203	0.738383
758.074477	0.739396
758.401703	0.735368
758.728882	0.730082
759.056014	0.729200
759.383099	0.728895
759.710138	0.729733
760.037129	0.725586
760.364073	0.720260
760.690970	0.722622
761.017820	0.727133
761.344623	0.724140
761.671379	0.714856
761.998088	0.703296
762.324751	0.679428
762.651366	0.637136
762.977935	0.568837
763.304456	0.517855
763.630931	0.507781
763.957359	0.547195
764.283740	0.591622
764.610074	0.619483
764.936362	0.650555
765.262602	0.678604
765.588796	0.700204
765.914943	0.717398
766.241044	0.734779
766.567097	0.741763
766.893104	0.752191
767.219064	0.758359
767.544978	0.765449
767.870845	0.778699
768.196665	0.782024
768.522438	0.781186
768.848165	0.782480
769.173846	0.791367
769.499479	0.796180
769.825066	0.800192
770.150607	0.803918
770.476101	0.799674
770.801548	0.802163
771.126949	0.812958
771.452303	0.816529
771.777611	0.814768
772.102872	0.813431
772.428087	0.819919
772.753256	0.822445
773.078378	0.825556
773.403453	0.834019
773.728482	0.838745
774.053465	0.831308
774.378401	0.835147
774.703291	0.844321
775.028135	0.844427
775.352932	0.844247
775.677683	0.848831
776.002388	0.849054
776.327046	0.848944
776.651658	0.852030
776.976224	0.856651
777.300743	0.854561
777.625216	0.857234
777.949643	0.859878
778.274024	0.858798
778.598359	0.860458
778.922647	0.858961
779.246889	0.860556
779.571086	0.863406
779.895236	0.865937
780.219339	0.863763
780.543397	0.859503
780.867409	0.859733
781.191374	0.860790
781.515294	0.861725
781.839167	0.862747
782.162995	0.864592
782.486776	0.860843
782.810511	0.862451
783.134201	0.866413
783.457844	0.864869
783.781441	0.866470
784.104993	0.873058
784.428498	0.873230
784.751958	0.869809
785.075372	0.871899
785.398739	0.875102
785.722061	0.870205
786.045337	0.867543
786.368568	0.870860
786.691752	0.873916
787.014891	0.858906
787.337983	0.850118
787.661030	0.843421
787.984031	0.825603
788.306987	0.813136
788.629897	0.813982
788.952760	0.818873
789.275579	0.823050
789.598351	0.839760
789.921078	0.852292
790.243759	0.853607
790.566395	0.858316
790.888984	0.865957
791.211529	0.871568
791.534027	0.874787
791.856480	0.876841
792.178888	0.882268
792.501249	0.883471
792.823566	0.886627
793.145836	0.885833
793.468062	0.887949
793.790241	0.888103
794.112375	0.886150
794.434464	0.882203
794.756507	0.880120
795.078505	0.878626
795.400457	0.874466
795.722364	0.862586
796.044226	0.856062
796.366042	0.853467
796.687812	0.856969
797.009538	0.852863
797.331218	0.857491
797.652852	0.860950
797.974442	0.866671
798.295986	0.866659
798.617484	0.868473
798.938938	0.874170
799.260346	0.877705
799.581709	0.879093
799.903026	0.883209
800.224299	0.882619
800.545526	0.886460
800.866708	0.890027
801.187845	0.894842
801.508936	0.893723
801.829983	0.891387
802.150984	0.895914
802.471940	0.900525
802.792851	0.898133
803.113717	0.901456
803.434538	0.898949
803.755314	0.902850
804.076045	0.902088
804.396731	0.902617
804.717372	0.901583
805.037967	0.904589
805.358518	0.902045
805.679024	0.898271
805.999485	0.900353
806.319901	0.899317
806.640272	0.900119
806.960598	0.898851
807.280879	0.895770
807.601115	0.894802
807.921306	0.898980
808.241453	0.899538
808.561554	0.897560
808.881611	0.896333
809.201623	0.899062
809.521590	0.899079
809.841513	0.900062
810.161390	0.897767
810.481223	0.900729
810.801011	0.904227
811.120755	0.904891
811.440453	0.904190
811.760107	0.904519
812.079716	0.903092
812.399281	0.905625
812.718801	0.909021
813.038276	0.910665
813.357707	0.908385
813.677093	0.908372
813.996434	0.909168
814.315731	0.911534
814.634983	0.912846
814.954191	0.912628
815.273354	0.906375
815.592473	0.904326
815.911547	0.903811
816.230577	0.900950
816.549562	0.898639
816.868502	0.897675
817.187399	0.896282
817.506250	0.890786
817.825058	0.891319
818.143821	0.888795
818.462539	0.883342
818.781213	0.875444
819.099843	0.864424
819.418429	0.846880
819.736970	0.830451
820.055466	0.809487
820.373919	0.784765
820.692327	0.751209
821.010691	0.715335
821.329011	0.634313
821.647286	0.517165
821.965517	0.402901
822.283704	0.359492
822.601847	0.360244
822.919945	0.396124
823.237999	0.430748
823.556010	0.479362
823.873976	0.535597
824.191897	0.586837
824.509775	0.631013
824.827609	0.676324
825.145398	0.699226
825.463144	0.701114
825.780845	0.683744
826.098502	0.666341
826.416116	0.620014
826.733685	0.574092
827.051210	0.565579
827.368692	0.580687
827.686129	0.618974
828.003522	0.674493
828.320872	0.722274
828.638177	0.766262
828.955439	0.800294
829.272656	0.821699
829.589830	0.839441
829.906960	0.854806
830.224046	0.868116
830.541088	0.878504
830.858086	0.883255
831.175041	0.890476
831.491952	0.889502
831.808819	0.884077
832.125642	0.877837
832.442421	0.864529
832.759157	0.841302
833.075849	0.793043
833.392497	0.728655
833.709101	0.687615
834.025662	0.696282
834.342179	0.729120
834.658653	0.769268
834.975083	0.806672
835.291469	0.833228
835.607811	0.855578
835.924110	0.873265
836.240366	0.890550
836.556578	0.902683
836.872746	0.909930
837.188871	0.917809
837.504952	0.923514
837.820990	0.926468
838.136984	0.930633
838.452935	0.933812
838.768842	0.935201
839.084706	0.928437
839.400526	0.902138
839.716303	0.859899
840.032037	0.837600
840.347727	0.840757
840.663373	0.857855
840.978977	0.880987
841.294537	0.905252
841.610054	0.920321
841.925527	0.929249
842.240957	0.935175
842.556344	0.943467
842.871687	0.948670
843.186987	0.953313
843.502244	0.954866
843.817458	0.954120
844.132629	0.959903
844.447756	0.963145
844.762840	0.964959
845.077881	0.965461
845.392879	0.963625
845.707833	0.966347
846.022745	0.968749
846.337613	0.968647
846.652438	0.969301
846.967221	0.968320
847.281960	0.969913
847.596656	0.971353
847.911309	0.971292
848.225919	0.970910
848.540485	0.973555
848.855009	0.973828
849.169490	0.971759
849.483928	0.972401
849.798323	0.971290
850.112675	0.974952
850.426984	0.973377
850.741251	0.974473
851.055474	0.973942
851.369654	0.973061
851.683792	0.972504
851.997887	0.972565
852.311938	0.975323
852.625947	0.973377
852.939914	0.971323
853.253837	0.973401
853.567718	0.973916
853.881555	0.974415
854.195350	0.972379
854.509103	0.973737
854.822812	0.975387
855.136479	0.975360
855.450103	0.973720
855.763685	0.974155
856.077224	0.974312
856.390720	0.975856
856.704173	0.974027
857.017584	0.972208
857.330953	0.971684
857.644278	0.971666
857.957561	0.972842
858.270802	0.971830
858.584000	0.972476
858.897155	0.970693
859.210268	0.970974
859.523339	0.973565
859.836367	0.974758
860.149352	0.974213
860.462295	0.974474
860.775195	0.973365
861.088054	0.971421
861.400869	0.974174
861.713642	0.973917
862.026373	0.976150
862.339062	0.975202
862.651708	0.973915
862.964312	0.973161
863.276873	0.973317
863.589392	0.971827
863.901869	0.970058
864.214303	0.969553
864.526696	0.968369
864.839045	0.967580
865.151353	0.966388
865.463619	0.965874
865.775842	0.966625
866.088023	0.966282
866.400162	0.967010
866.712258	0.967993
867.024313	0.967634
867.336325	0.968627
867.648296	0.967304
867.960224	0.966654
868.272110	0.966814
868.583954	0.968296
868.895755	0.967657
869.207515	0.965698
869.519233	0.963711
869.830909	0.964560
870.142542	0.966141
870.454134	0.965745
870.765684	0.963755
871.077191	0.962736
871.388657	0.962436
871.700081	0.963013
872.011463	0.962631
872.322803	0.961319
872.634101	0.959845
872.945357	0.957370
873.256571	0.955699
873.567744	0.956673
873.878874	0.958016
874.189963	0.957072
874.501010	0.957300
874.812015	0.952975
875.122979	0.954057
875.433900	0.956419
875.744780	0.957322
876.055618	0.954052
876.366415	0.952192
876.677169	0.953221
876.987882	0.955062
877.298554	0.954399
877.609183	0.950496
877.919771	0.947927
878.230317	0.946421
878.540822	0.943186
878.851285	0.938303
879.161707	0.928923
879.472087	0.917788
879.782425	0.899913
880.092722	0.865313
880.402977	0.810500
880.713191	0.746555
881.023363	0.686511
881.333494	0.651288
881.643583	0.624078
881.953631	0.624184
882.263637	0.652328
882.573602	0.692838
882.883526	0.718984
883.193408	0.744634
883.503248	0.767586
883.813048	0.796165
884.122806	0.826113
884.432522	0.849364
884.742197	0.870690
885.051831	0.882364
885.361424	0.893788
885.670975	0.905752
885.980485	0.914083
886.289954	0.920620
886.599382	0.925449
886.908768	0.930505
887.218113	0.936283
887.527417	0.941958
887.836680	0.944416
888.145901	0.946572
888.455082	0.949948
888.764221	0.953643
889.073319	0.956122
889.382376	0.956871
889.691392	0.954444
890.000366	0.957069
890.309300	0.956402
890.618193	0.956396
890.927044	0.954889
891.235855	0.954966
891.544625	0.955685
891.853353	0.955280
892.162041	0.951793
892.470687	0.946437
892.779293	0.941153
893.087858	0.936406
893.396381	0.928406
893.704864	0.912785
894.013306	0.890157
894.321707	0.863130
894.630068	0.846935
894.938387	0.841350
895.246665	0.843534
895.554903	0.855187
895.863100	0.870638
896.171256	0.887300
896.479371	0.907658
896.787446	0.919923
897.095480	0.927551
897.403473	0.930549
897.711425	0.934598
898.019336	0.942789
898.327207	0.948140
898.635038	0.947147
898.942827	0.948203
899.250576	0.950895
899.558284	0.956240
899.865952	0.956949
900.173579	0.959007
900.481165	0.959380
900.788711	0.961277
901.096216	0.965253
901.403681	0.966503
901.711105	0.965435
902.018489	0.967326
902.325832	0.966275
902.633135	0.964297
902.940397	0.960634
903.247619	0.945120
903.554800	0.920101
903.861941	0.877762
904.169041	0.841284
904.476101	0.823089
904.783121	0.824525
905.090100	0.840668
905.397039	0.862770
905.703938	0.886310
906.010796	0.906680
906.317614	0.923546
906.624391	0.937454
906.931129	0.947008
907.237826	0.956368
907.544483	0.962381
907.851099	0.967072
908.157675	0.970408
908.464211	0.973148
908.770707	0.976145
909.077163	0.978580
909.383578	0.979140
909.689954	0.978474
909.996289	0.979938
910.302584	0.981361
910.608839	0.983840
910.915054	0.981986
911.221229	0.982836
911.527363	0.980927
911.833458	0.981175
912.139513	0.981395
912.445527	0.981220
912.751502	0.978851
913.057436	0.975250
913.363331	0.974920
913.669186	0.970128
913.975000	0.964534
914.280775	0.957521
914.586510	0.950120
914.892205	0.937680
915.197859	0.914180
915.503475	0.887762
915.809050	0.865486
916.114585	0.859465
916.420081	0.856765
916.725536	0.855438
917.030952	0.862301
917.336328	0.875011
917.641665	0.891494
917.946961	0.908621
918.252218	0.919312
918.557435	0.929637
918.862612	0.938530
919.167750	0.944066
919.472848	0.949371
919.777906	0.956096
920.082925	0.961265
920.387904	0.964513
920.692843	0.964791
920.997743	0.967966
921.302603	0.970818
921.607423	0.972512
921.912204	0.974928
922.216946	0.976499
922.521647	0.977266
922.826310	0.978306
923.130932	0.981833
923.435516	0.982799
923.740059	0.982970
924.044564	0.983686
924.349028	0.983472
924.653454	0.986607
924.957840	0.987453
925.262186	0.987840
925.566493	0.988222
925.870761	0.989091
926.174989	0.990092
926.479178	0.992727
926.783328	0.992371
927.087438	0.992590
927.391509	0.992246
927.695541	0.992914
927.999533	0.993205
928.303486	0.994167
928.607400	0.994927
928.911275	0.994755
929.215110	0.995678
929.518906	0.994410
929.822663	0.996353
930.126381	0.996384
930.430060	0.995049
930.733699	0.995356
931.037299	0.994325
931.340861	0.995577
931.644383	0.992354
931.947866	0.995137
932.251309	0.995366
932.554714	0.993943
932.858080	0.995617
933.161407	0.994530
933.464694	0.995976
933.767943	0.995683
934.071153	0.996013
934.374323	0.996869
934.677455	0.994814
934.980548	0.996647
935.283602	0.996111
935.586617	0.995703
935.889593	0.996634
936.192530	0.996175
936.495428	0.996403
936.798287	0.994186
937.101108	0.995313
937.403890	0.992716
937.706632	0.993603
938.009336	0.991627
938.312002	0.989478
938.614628	0.988805
938.917216	0.986843
939.219765	0.985967
939.522275	0.986727
939.824747	0.986517
940.127179	0.988192
940.429573	0.989376
940.731929	0.988188
941.034246	0.989260
941.336524	0.989062
941.638763	0.989897
941.940964	0.988633
942.243126	0.990494
942.545250	0.992060
942.847335	0.992271
943.149381	0.993778
943.451389	0.992268
943.753359	0.993375
944.055290	0.994501
944.357182	0.993869
944.659036	0.994738
944.960851	0.994853
945.262628	0.995375
945.564367	0.994964
945.866067	0.993851
946.167729	0.993634
946.469352	0.993551
946.770937	0.992468
947.072484	0.995247
947.373992	0.994750
947.675462	0.993729
947.976893	0.993995
948.278286	0.995414
948.579641	0.996260
948.880958	0.996128
949.182236	0.995066
949.483476	0.995707
949.784678	0.995439
950.085841	0.995875
950.386967	0.995261
950.688054	0.995979
950.989103	0.994389
951.290114	0.993042
951.591087	0.994013
951.892021	0.992910
952.192917	0.994046
952.493776	0.992412
952.794596	0.992131
953.095378	0.992290
953.396122	0.991708
953.696828	0.993498
953.997496	0.993336
954.298126	0.995811
954.598718	0.994685
954.899272	0.995052
955.199788	0.995235
955.500266	0.996749
955.800706	0.996001
956.101108	0.997316
956.401472	0.999063
956.701798	0.997544
957.002087	0.999588
957.302337	0.999292
957.602550	0.999087
957.902724	0.999338
958.202861	0.998947
958.502960	0.999940
958.803022	1.000809
959.103045	0.999657
959.403031	1.001906
959.702979	1.001527
960.002889	1.000762
960.302762	0.999718
960.602596	1.001697
960.902393	1.000843
961.202153	1.001027
961.501875	1.002709
961.801559	1.001319
962.101205	1.001772
962.400814	1.002506
962.700385	1.002387
962.999918	1.001212
963.299414	1.001148
963.598873	1.002055
963.898293	1.000735
964.197677	1.001353
964.497022	1.000970
964.796331	1.001742
965.095601	1.002968
965.394835	1.000976
965.694030	1.002332
965.993189	1.001448
966.292309	1.002116
966.591393	1.001125
966.890439	1.002635
967.189447	1.001789
967.488419	1.001229
967.787353	1.001317
968.086249	1.002712
968.385108	1.001501
968.683930	1.002671
968.982714	1.001830
969.281462	1.002478
969.580172	1.001921
969.878844	1.003020
970.177480	1.001543
970.476078	1.003083
970.774639	1.001613
971.073162	1.000728
971.371649	1.000467
971.670098	1.000678
971.968510	1.000977
972.266885	1.001031
972.565223	1.001180
972.863524	0.999722
973.161788	1.001212
973.460014	1.002824
973.758204	1.000548
974.056356	1.000279
974.354471	1.000921
974.652550	1.002222
974.950591	1.000024
975.248595	1.000312
975.546563	1.003217
975.844493	1.001049
976.142386	1.000054
976.440243	1.001039
976.738062	1.001837
977.035845	1.000081
977.333590	1.002888
977.631299	1.002575
977.928971	1.002275
978.226606	1.001852
978.524204	1.001436
978.821765	1.003716
979.119290	1.003516
979.416777	1.001613
979.714228	1.001343
980.011642	1.002881
980.309020	1.001652
980.606360	1.001637
980.903664	1.001571
981.200931	1.000506
981.498162	1.000080
981.795356	1.000064
982.092513	0.999185
982.389633	0.998620
982.686717	0.996523
982.983764	0.995638
983.280775	0.995731
983.577749	0.997021
983.874686	0.996332
984.171587	0.995541
984.468451	0.998171
984.765279	0.999965
985.062070	1.000216
985.358824	1.000445
985.655543	1.001664
985.952224	1.001942
986.248869	1.001819
986.545478	1.002873
986.842050	1.002117
987.138586	1.001769
987.435086	1.001403
987.731549	1.003243
988.027975	1.004399
988.324366	1.003329
988.620719	1.003877
988.917037	1.003185
989.213318	1.003362
989.509563	1.002316
989.805772	1.004376
990.101944	1.002947
990.398080	1.003597
990.694180	1.003897
990.990244	1.002665
991.286271	1.002954
991.582262	1.003549
991.878217	1.002512
992.174136	1.003956
992.470019	1.003007
992.765865	1.004511
993.061676	1.003555
993.357450	1.002709
993.653188	1.004353
993.948890	1.002432
994.244556	1.002334
994.540186	1.002857
994.835780	1.002143
995.131337	1.003452
995.426859	1.002208
995.722345	1.001103
996.017795	1.001716
996.313208	1.001938
996.608586	1.001442
996.903928	1.001189
997.199234	1.000644
997.494504	1.001903
997.789738	1.000388
998.084936	1.002680
998.380099	1.001076
998.675225	1.002259
998.970316	1.003365
999.265371	1.003486
999.560390	1.003790
999.855373	1.003514
1000.150320	1.003824
1000.445232	1.003091
1000.740108	1.003230
1001.034948	1.002805
1001.329752	1.004617
1001.624521	1.003373
1001.919254	1.002813
1002.213951	1.004317
1002.508613	1.002725
1002.803239	1.004135
1003.097829	1.004835
1003.392384	1.004246
1003.686903	1.003658
1003.981386	1.003428
1004.275834	1.004974
1004.570246	1.002434
1004.864623	1.004714
1005.158964	1.003670
1005.453270	1.002977
1005.747540	1.003243
1006.041775	1.004425
1006.335974	1.003740
1006.630138	1.004585
1006.924266	1.002883
1007.218359	1.003105
1007.512416	1.004843
1007.806438	1.003935
1008.100425	1.004115
1008.394376	1.003859
1008.688292	1.003681
1008.982172	1.003354
1009.276017	1.005033
1009.569827	1.004736
1009.863602	1.003596
1010.157341	1.004438
1010.451045	1.002922
1010.744714	1.005120
1011.038347	1.004604
1011.331945	1.003121
1011.625508	1.003972
1011.919036	1.003583
1012.212528	1.003991
1012.505986	1.004686
1012.799408	1.004443
1013.092795	1.004674
1013.386147	1.003767
1013.679464	1.005502
1013.972745	1.004107
1014.265992	1.004141
1014.559204	1.004086
1014.852380	1.004857
1015.145521	1.003145
1015.438628	1.004031
1015.731699	1.003847
1016.024736	1.005017
1016.317737	1.004728
1016.610703	1.004803
1016.903635	1.004015
1017.196531	1.003172
1017.489393	1.003644
1017.782219	1.004038
1018.075011	1.003451
1018.367768	1.003544
1018.660490	1.004156
1018.953177	1.004156
1019.245829	1.004156
