Dividing Wavelength (nm)	Counts (n)	Blue Motor Position (mm): 12.300000	Red Motor Position (mm): 0.000000	
326.493990	1.004416
326.888308	1.004416
327.282561	1.004416
327.676750	1.004136
328.070874	1.004407
328.464933	1.004826
328.858929	1.005809
329.252859	1.004262
329.646726	1.004098
330.040528	1.004481
330.434265	1.004506
330.827938	1.004831
331.221547	1.004860
331.615091	1.004714
332.008571	1.004923
332.401986	1.003436
332.795338	1.004014
333.188625	1.005826
333.581847	1.004882
333.975006	1.003420
334.368100	1.005154
334.761129	1.002793
335.154095	1.004112
335.546996	1.003264
335.939833	0.999032
336.332606	0.999287
336.725315	0.999480
337.117960	1.000714
337.510540	0.999180
337.903056	1.000622
338.295508	1.001352
338.687896	1.000202
339.080220	0.999961
339.472480	0.999550
339.864676	1.000127
340.256807	0.997861
340.648875	1.000575
341.040879	0.999250
341.432818	0.999878
341.824694	0.999589
342.216506	1.000175
342.608253	0.998673
342.999937	0.999890
343.391557	0.999067
343.783113	1.001172
344.174605	0.999522
344.566033	0.998246
344.957397	1.000673
345.348697	0.999703
345.739934	0.999753
346.131106	1.000392
346.522215	0.998746
346.913260	0.998723
347.304241	0.999233
347.695159	0.998634
348.086012	0.999012
348.476802	0.997667
348.867528	0.998873
349.258191	1.000076
349.648789	0.999251
350.039324	1.000923
350.429796	0.998370
350.820203	0.997419
351.210548	0.999474
351.600828	1.000285
351.991045	0.998923
352.381198	0.999956
352.771288	0.998228
353.161314	1.000179
353.551276	0.998736
353.941175	0.997719
354.331010	0.998886
354.720782	0.999201
355.110490	0.998508
355.500135	0.999863
355.889717	0.997847
356.279235	0.997779
356.668689	0.998344
357.058080	0.998452
357.447408	0.998120
357.836672	0.998745
358.225873	0.997666
358.615010	0.999028
359.004084	0.996744
359.393095	0.998719
359.782043	0.997773
360.170927	0.999332
360.559748	0.998859
360.948505	0.998341
361.337199	0.997847
361.725830	0.998347
362.114398	0.997819
362.502903	0.996361
362.891344	0.996223
363.279722	0.996254
363.668037	0.998685
364.056289	0.996824
364.444478	0.999277
364.832603	0.997034
365.220665	0.997557
365.608665	0.996579
365.996601	0.997457
366.384474	0.995556
366.772284	0.996506
367.160031	0.996369
367.547715	0.995303
367.935336	0.995332
368.322893	0.993990
368.710388	0.992714
369.097820	0.992187
369.485189	0.988747
369.872495	0.987471
370.259738	0.985545
370.646918	0.982040
371.034035	0.979615
371.421090	0.976083
371.808081	0.970665
372.195010	0.969270
372.581875	0.963685
372.968678	0.960356
373.355418	0.957187
373.742096	0.948711
374.128710	0.943775
374.515262	0.939615
374.901751	0.933967
375.288177	0.928861
375.674540	0.922120
376.060841	0.917028
376.447079	0.910427
376.833254	0.902279
377.219367	0.898122
377.605417	0.886419
377.991404	0.883321
378.377329	0.877490
378.763191	0.871136
379.148991	0.862322
379.534727	0.854133
379.920402	0.845444
380.306013	0.842077
380.691563	0.829674
381.077049	0.823009
381.462474	0.818548
381.847835	0.806638
382.233134	0.803325
382.618371	0.802970
383.003545	0.785030
383.388657	0.783894
383.773706	0.775399
384.158693	0.772188
384.543618	0.766941
384.928480	0.758355
385.313280	0.747998
385.698017	0.747474
386.082692	0.736592
386.467305	0.733989
386.851856	0.728830
387.236344	0.722857
387.620770	0.717591
388.005133	0.711757
388.389435	0.707204
388.773674	0.703853
389.157851	0.695643
389.541965	0.693657
389.926018	0.700349
390.310008	0.686632
390.693936	0.682787
391.077802	0.675249
391.461606	0.677488
391.845348	0.666789
392.229027	0.666358
392.612645	0.664256
392.996200	0.651073
393.379694	0.644534
393.763125	0.634865
394.146494	0.638672
394.529801	0.630194
394.913047	0.622452
395.296230	0.628215
395.679351	0.618842
396.062410	0.615206
396.445408	0.619012
396.828343	0.613936
397.211217	0.608938
397.594028	0.621313
397.976778	0.611807
398.359466	0.607487
398.742092	0.603100
399.124656	0.615028
399.507158	0.603669
399.889598	0.600989
400.271977	0.591725
400.654294	0.595712
401.036549	0.594736
401.418742	0.598664
401.800874	0.585233
402.182944	0.581732
402.564952	0.572893
402.946898	0.574833
403.328783	0.575407
403.710606	0.587553
404.092367	0.562046
404.474067	0.567508
404.855705	0.565473
405.237282	0.574666
405.618797	0.561663
406.000250	0.556758
406.381642	0.546793
406.762972	0.552234
407.144240	0.550683
407.525447	0.550441
407.906593	0.542991
408.287677	0.539369
408.668700	0.547351
409.049661	0.541452
409.430560	0.535813
409.811399	0.544584
410.192176	0.526449
410.572891	0.533973
410.953545	0.522272
411.334138	0.535423
411.714669	0.527543
412.095139	0.539999
412.475547	0.523737
412.855894	0.526239
413.236180	0.524419
413.616405	0.530164
413.996568	0.520794
414.376670	0.527094
414.756711	0.532164
415.136691	0.528620
415.516609	0.520029
415.896466	0.516718
416.276262	0.512987
416.655997	0.514003
417.035670	0.495768
417.415283	0.487036
417.794834	0.492564
418.174324	0.497634
418.553753	0.506313
418.933121	0.488533
419.312428	0.482781
419.691674	0.489005
420.070859	0.476958
420.449983	0.485259
420.829045	0.473917
421.208047	0.483279
421.586988	0.475961
421.965867	0.474839
422.344686	0.463644
422.723444	0.476008
423.102141	0.493565
423.480777	0.466001
423.859352	0.486181
424.237866	0.463794
424.616319	0.465048
424.994712	0.455722
425.373044	0.466382
425.751314	0.453799
426.129524	0.470282
426.507673	0.454513
426.885762	0.447666
427.263789	0.453292
427.641756	0.462689
428.019662	0.453171
428.397508	0.452012
428.775292	0.455997
429.153016	0.448502
429.530679	0.454640
429.908282	0.448255
430.285824	0.457835
430.663305	0.436770
431.040726	0.457598
431.418086	0.457319
431.795385	0.449128
432.172624	0.447989
432.549802	0.448431
432.926920	0.447753
433.303977	0.447281
433.680974	0.444145
434.057910	0.442915
434.434786	0.442185
434.811601	0.444998
435.188355	0.427409
435.565050	0.436031
435.941683	0.437841
436.318257	0.421537
436.694770	0.422676
437.071222	0.420773
437.447614	0.425319
437.823946	0.432008
438.200218	0.420895
438.576429	0.430498
438.952580	0.423526
439.328670	0.420116
439.704700	0.426300
440.080670	0.427822
440.456580	0.409474
440.832429	0.417199
441.208218	0.428199
441.583947	0.417474
441.959616	0.416381
442.335224	0.422174
442.710773	0.412623
443.086261	0.410604
443.461689	0.425168
443.837057	0.414591
444.212365	0.405024
444.587612	0.411825
444.962800	0.401440
445.337927	0.403385
445.712995	0.429623
446.088002	0.390930
446.462949	0.401753
446.837837	0.406594
447.212664	0.395238
447.587431	0.387275
447.962139	0.356949
448.336786	0.316216
448.711374	0.326897
449.085901	0.371028
449.460369	0.375267
449.834776	0.378759
450.209124	0.357993
450.583412	0.350686
450.957640	0.343534
451.331808	0.355414
451.705917	0.378716
452.079965	0.382764
452.453954	0.371430
452.827883	0.377916
453.201752	0.372974
453.575562	0.384279
453.949311	0.372725
454.323001	0.378704
454.696632	0.375195
455.070202	0.367362
455.443713	0.358929
455.817164	0.353946
456.190556	0.349607
456.563888	0.346481
456.937160	0.344059
457.310373	0.361586
457.683526	0.360130
458.056619	0.366118
458.429653	0.366466
458.802628	0.370061
459.175542	0.364262
459.548398	0.346559
459.921194	0.339321
460.293930	0.339278
460.666607	0.316543
461.039224	0.304938
461.411782	0.300657
461.784280	0.299835
462.156719	0.304178
462.529099	0.308433
462.901419	0.324543
463.273680	0.328881
463.645882	0.328325
464.018024	0.334428
464.390106	0.326834
464.762130	0.311653
465.134094	0.294752
465.505999	0.263601
465.877845	0.233757
466.249631	0.220699
466.621358	0.228130
466.993026	0.242179
467.364634	0.248423
467.736184	0.257303
468.107674	0.265914
468.479105	0.264974
468.850477	0.271997
469.221790	0.278995
469.593043	0.289147
469.964238	0.293827
470.335373	0.293279
470.706449	0.291675
471.077467	0.292048
471.448425	0.254124
471.819324	0.229521
472.190164	0.229293
472.560945	0.257889
472.931667	0.280216
473.302330	0.284271
473.672934	0.296431
474.043479	0.284284
474.413965	0.286187
474.784393	0.289710
475.154761	0.284689
475.525070	0.281767
475.895321	0.287626
476.265513	0.281623
476.635645	0.277168
477.005719	0.276780
477.375734	0.273678
477.745691	0.266930
478.115588	0.263128
478.485427	0.256763
478.855207	0.243804
479.224928	0.225998
479.594591	0.214155
479.964194	0.217534
480.333739	0.218649
480.703226	0.220194
481.072653	0.218603
481.442022	0.214192
481.811333	0.210952
482.180584	0.214308
482.549777	0.219408
482.918912	0.223175
483.287988	0.222500
483.657005	0.222272
484.025964	0.228744
484.394864	0.226037
484.763706	0.226615
485.132489	0.231616
485.501213	0.232429
485.869879	0.230917
486.238487	0.233881
486.607036	0.231967
486.975527	0.236786
487.343959	0.232286
487.712333	0.231653
488.080648	0.232944
488.448905	0.231949
488.817104	0.233218
489.185244	0.227582
489.553326	0.224566
489.921350	0.214510
490.289315	0.197021
490.657222	0.191911
491.025070	0.193416
491.392861	0.195529
491.760593	0.201193
492.128267	0.206711
492.495883	0.212122
492.863440	0.218364
493.230939	0.225062
493.598380	0.226395
493.965763	0.228527
494.333088	0.230691
494.700354	0.232430
495.067563	0.231561
495.434713	0.234770
495.801805	0.232462
496.168839	0.234103
496.535815	0.235440
496.902733	0.235196
497.269593	0.236791
497.636395	0.234470
498.003139	0.234700
498.369825	0.237692
498.736453	0.234454
499.103023	0.235905
499.469535	0.235365
499.835989	0.235404
500.202385	0.236558
500.568723	0.239401
500.935003	0.234619
501.301226	0.239343
501.667390	0.233307
502.033497	0.231489
502.399546	0.234347
502.765537	0.236235
503.131470	0.234713
503.497345	0.231256
503.863163	0.239798
504.228923	0.232595
504.594625	0.231435
504.960269	0.236972
505.325856	0.232121
505.691385	0.236608
506.056856	0.233327
506.422270	0.232928
506.787625	0.235232
507.152924	0.232713
507.518164	0.232899
507.883347	0.234457
508.248472	0.236648
508.613540	0.231390
508.978550	0.234368
509.343503	0.234247
509.708398	0.232198
510.073236	0.229627
510.438016	0.229419
510.802738	0.230450
511.167403	0.229472
511.532010	0.231786
511.896561	0.226946
512.261053	0.225344
512.625488	0.227803
512.989866	0.228259
513.354186	0.228519
513.718449	0.230367
514.082655	0.226644
514.446803	0.228852
514.810894	0.226746
515.174927	0.229429
515.538904	0.228842
515.902822	0.226053
516.266684	0.227936
516.630488	0.229391
516.994235	0.228152
517.357925	0.226994
517.721558	0.225219
518.085133	0.224625
518.448651	0.224844
518.812112	0.227191
519.175516	0.226748
519.538863	0.224447
519.902152	0.225970
520.265385	0.222674
520.628560	0.224299
520.991678	0.225277
521.354739	0.223759
521.717743	0.225164
522.080690	0.225603
522.443580	0.223309
522.806413	0.223918
523.169189	0.223294
523.531908	0.222139
523.894569	0.225752
524.257174	0.225465
524.619722	0.223583
524.982213	0.224593
525.344647	0.223260
525.707025	0.224391
526.069345	0.222546
526.431608	0.224503
526.793815	0.222056
527.155964	0.226637
527.518057	0.225407
527.880093	0.226436
528.242072	0.224967
528.603995	0.226850
528.965860	0.228660
529.327669	0.227607
529.689421	0.228381
530.051117	0.229496
530.412755	0.227113
530.774337	0.229221
531.135862	0.229955
531.497331	0.229358
531.858743	0.231975
532.220098	0.228638
532.581396	0.231336
532.942638	0.231905
533.303824	0.232859
533.664953	0.232896
534.026025	0.234660
534.387040	0.232603
534.747999	0.232268
535.108902	0.231410
535.469748	0.236589
535.830537	0.234164
536.191270	0.234880
536.551947	0.234191
536.912567	0.233999
537.273131	0.235951
537.633638	0.236049
537.994089	0.236631
538.354483	0.237816
538.714821	0.234651
539.075103	0.234409
539.435328	0.235220
539.795497	0.239060
540.155609	0.235504
540.515665	0.233951
540.875665	0.239428
541.235609	0.238017
541.595496	0.237661
541.955328	0.234721
542.315102	0.237325
542.674821	0.238484
543.034483	0.238422
543.394090	0.238049
543.753640	0.240137
544.113134	0.235192
544.472571	0.238542
544.831953	0.235328
545.191278	0.239535
545.550548	0.238913
545.909761	0.235767
546.268918	0.236502
546.628019	0.234888
546.987064	0.237222
547.346053	0.239245
547.704986	0.237224
548.063863	0.237148
548.422684	0.237657
548.781449	0.239334
549.140158	0.237204
549.498811	0.239984
549.857408	0.242912
550.215949	0.237952
550.574434	0.240962
550.932864	0.239126
551.291237	0.237463
551.649555	0.238949
552.007817	0.238756
552.366022	0.239492
552.724173	0.239744
553.082267	0.240071
553.440305	0.236929
553.798288	0.241498
554.156215	0.237869
554.514086	0.238753
554.871902	0.241986
555.229661	0.241065
555.587365	0.241780
555.945014	0.244058
556.302606	0.241184
556.660143	0.243790
557.017625	0.240366
557.375050	0.242394
557.732421	0.239334
558.089735	0.241322
558.446994	0.241372
558.804197	0.240650
559.161345	0.240657
559.518437	0.243716
559.875474	0.242086
560.232455	0.241579
560.589381	0.242351
560.946251	0.242712
561.303065	0.240310
561.659825	0.241552
562.016528	0.243406
562.373177	0.245906
562.729770	0.243228
563.086307	0.245054
563.442789	0.243194
563.799216	0.246042
564.155587	0.244852
564.511904	0.246015
564.868164	0.245844
565.224370	0.245807
565.580520	0.247525
565.936615	0.247543
566.292654	0.250614
566.648638	0.247806
567.004567	0.248440
567.360441	0.248993
567.716260	0.250785
568.072023	0.249030
568.427732	0.250077
568.783385	0.252177
569.138982	0.250440
569.494525	0.250006
569.850013	0.253243
570.205445	0.251367
570.560823	0.254100
570.916145	0.256316
571.271412	0.254475
571.626625	0.255793
571.981782	0.256587
572.336884	0.257145
572.691931	0.257307
573.046923	0.258570
573.401860	0.259706
573.756743	0.261626
574.111570	0.260357
574.466342	0.260763
574.821059	0.260090
575.175722	0.263169
575.530330	0.262933
575.884882	0.262913
576.239380	0.265357
576.593823	0.265589
576.948211	0.265543
577.302544	0.268621
577.656823	0.268383
578.011047	0.268168
578.365216	0.269359
578.719330	0.271639
579.073389	0.271122
579.427394	0.272285
579.781344	0.273805
580.135239	0.275001
580.489080	0.274668
580.842866	0.277484
581.196597	0.277869
581.550273	0.276940
581.903895	0.278026
582.257463	0.276106
582.610975	0.279851
582.964434	0.279008
583.317837	0.281513
583.671186	0.282620
584.024481	0.282758
584.377721	0.285227
584.730906	0.286382
585.084037	0.285351
585.437113	0.287572
585.790135	0.287092
586.143103	0.290516
586.496016	0.291473
586.848874	0.289362
587.201679	0.290072
587.554428	0.294001
587.907124	0.292745
588.259765	0.293592
588.612352	0.294741
588.964884	0.298742
589.317362	0.298444
589.669786	0.298653
590.022155	0.297069
590.374470	0.297236
590.726731	0.298940
591.078937	0.304345
591.431090	0.301268
591.783188	0.305481
592.135232	0.306275
592.487222	0.306144
592.839157	0.304829
593.191038	0.307538
593.542866	0.309583
593.894639	0.313127
594.246358	0.312261
594.598022	0.311875
594.949633	0.315738
595.301190	0.317162
595.652692	0.316172
596.004141	0.312674
596.355535	0.320956
596.706876	0.322156
597.058162	0.324988
597.409395	0.322650
597.760573	0.320986
598.111698	0.324313
598.462768	0.325428
598.813785	0.326813
599.164748	0.328954
599.515657	0.329677
599.866511	0.333709
600.217312	0.329260
600.568060	0.334815
600.918753	0.332123
601.269392	0.333452
601.619978	0.337500
601.970510	0.335838
602.320988	0.336177
602.671412	0.334985
603.021783	0.337940
603.372100	0.339793
603.722363	0.340493
604.072572	0.342183
604.422728	0.342122
604.772830	0.345243
605.122878	0.345713
605.472872	0.346848
605.822813	0.346246
606.172701	0.349494
606.522534	0.347740
606.872314	0.348527
607.222041	0.350397
607.571714	0.349088
607.921333	0.351350
608.270899	0.352589
608.620411	0.350134
608.969870	0.354913
609.319276	0.355976
609.668627	0.356790
610.017926	0.356224
610.367171	0.356586
610.716362	0.357900
611.065500	0.359324
611.414585	0.359650
611.763616	0.360523
612.112594	0.362692
612.461518	0.363555
612.810389	0.362386
613.159207	0.365540
613.507971	0.368618
613.856682	0.366124
614.205340	0.368384
614.553945	0.367280
614.902496	0.372408
615.250994	0.371845
615.599439	0.373951
615.947830	0.374764
616.296169	0.377264
616.644454	0.378360
616.992686	0.380135
617.340864	0.380175
617.688990	0.384710
618.037063	0.382774
618.385082	0.386411
618.733048	0.385433
619.080961	0.388757
619.428821	0.390184
619.776628	0.391930
620.124382	0.395283
620.472083	0.397501
620.819731	0.397848
621.167326	0.402812
621.514868	0.403831
621.862357	0.408896
622.209793	0.409711
622.557176	0.413782
622.904506	0.415741
623.251783	0.419130
623.599007	0.423013
623.946179	0.423918
624.293297	0.427583
624.640363	0.431758
624.987376	0.434293
625.334336	0.437195
625.681243	0.441506
626.028097	0.443667
626.374899	0.446226
626.721647	0.448595
627.068343	0.452190
627.414987	0.455101
627.761577	0.458549
628.108115	0.458753
628.454600	0.465704
628.801032	0.466077
629.147412	0.468293
629.493739	0.471074
629.840014	0.475311
630.186236	0.475209
630.532405	0.482051
630.878521	0.481445
631.224585	0.485159
631.570597	0.489981
631.916556	0.491564
632.262462	0.492617
632.608316	0.497378
632.954117	0.499355
633.299866	0.501523
633.645562	0.504033
633.991206	0.509557
634.336797	0.513483
634.682336	0.517276
635.027823	0.520041
635.373257	0.521341
635.718639	0.526972
636.063968	0.527754
636.409245	0.533610
636.754470	0.536160
637.099642	0.540513
637.444762	0.544707
637.789829	0.545781
638.134845	0.550521
638.479808	0.552941
638.824719	0.554568
639.169577	0.559320
639.514383	0.560834
639.859137	0.566284
640.203839	0.567284
640.548489	0.570370
640.893086	0.572185
641.237632	0.576476
641.582125	0.576893
641.926566	0.581018
642.270955	0.581885
642.615292	0.584140
642.959576	0.585911
643.303809	0.588512
643.647990	0.589977
643.992118	0.591676
644.336195	0.594980
644.680219	0.597330
645.024192	0.598830
645.368112	0.596517
645.711981	0.598172
646.055797	0.596141
646.399562	0.601125
646.743274	0.598774
647.086935	0.597677
647.430544	0.599881
647.774101	0.601830
648.117606	0.603032
648.461059	0.605450
648.804460	0.609409
649.147810	0.613577
649.491108	0.617077
649.834354	0.619997
650.177548	0.625364
650.520690	0.630733
650.863781	0.633458
651.206820	0.635877
651.549807	0.639783
651.892742	0.644884
652.235626	0.646222
652.578458	0.648641
652.921238	0.654435
653.263967	0.654549
653.606644	0.658022
653.949269	0.660749
654.291843	0.664285
654.634365	0.664327
654.976836	0.668342
655.319255	0.669828
655.661622	0.673273
656.003938	0.675696
656.346203	0.677182
656.688416	0.680282
657.030577	0.682767
657.372687	0.686066
657.714746	0.688001
658.056753	0.688256
658.398708	0.692978
658.740612	0.694848
659.082465	0.695369
659.424266	0.696109
659.766016	0.698121
660.107715	0.702583
660.449362	0.703698
660.790958	0.705539
661.132503	0.708028
661.473996	0.708920
661.815438	0.710767
662.156829	0.712570
662.498168	0.715130
662.839456	0.716431
663.180693	0.718325
663.521879	0.718491
663.863013	0.721305
664.204097	0.722826
664.545129	0.723062
664.886110	0.725547
665.227040	0.725376
665.567918	0.727179
665.908746	0.728816
666.249522	0.729699
666.590248	0.732031
666.930922	0.732511
667.271545	0.734830
667.612118	0.735575
667.952639	0.737788
668.293109	0.740052
668.633528	0.742447
668.973896	0.743930
669.314213	0.745609
669.654480	0.748469
669.994695	0.749608
670.334859	0.751448
670.674973	0.754921
671.015035	0.756475
671.355047	0.758295
671.695008	0.759049
672.034918	0.761257
672.374777	0.763063
672.714585	0.764276
673.054342	0.766303
673.394049	0.767096
673.733705	0.768537
674.073310	0.771486
674.412864	0.772587
674.752368	0.774878
675.091820	0.776975
675.431223	0.780480
675.770574	0.781553
676.109875	0.784880
676.449125	0.786603
676.788324	0.789107
677.127473	0.792170
677.466571	0.794857
677.805619	0.796583
678.144616	0.799419
678.483562	0.801497
678.822458	0.804081
679.161303	0.805647
679.500098	0.807357
679.838842	0.809586
680.177535	0.810202
680.516179	0.810566
680.854771	0.812543
681.193314	0.810552
681.531805	0.808233
681.870247	0.806625
682.208638	0.804004
682.546978	0.804635
682.885268	0.807552
683.223508	0.811257
683.561697	0.814209
683.899836	0.816645
684.237925	0.819019
684.575963	0.820418
684.913951	0.823273
685.251889	0.823382
685.589776	0.823415
685.927614	0.825186
686.265401	0.825722
686.603137	0.825909
686.940824	0.825236
687.278460	0.825651
687.616046	0.825713
687.953582	0.823843
688.291068	0.825541
688.628504	0.826382
688.965889	0.826457
689.303224	0.828460
689.640510	0.832803
689.977745	0.836256
690.314930	0.839904
690.652065	0.843549
690.989150	0.846823
691.326185	0.851590
691.663170	0.854838
692.000105	0.858624
692.336990	0.861549
692.673825	0.863609
693.010610	0.866784
693.347345	0.869893
693.684030	0.872254
694.020665	0.874088
694.357251	0.877253
694.693786	0.877498
695.030272	0.878538
695.366707	0.881721
695.703093	0.883901
696.039429	0.884419
696.375716	0.886679
696.711952	0.886172
697.048139	0.888644
697.384276	0.889370
697.720363	0.890236
698.056400	0.890280
698.392388	0.891929
698.728326	0.893661
699.064214	0.896495
699.400053	0.896251
699.735842	0.899666
700.071581	0.901188
700.407270	0.903193
700.742910	0.904847
701.078501	0.906251
701.414042	0.908332
701.749533	0.908599
702.084974	0.912260
702.420366	0.912460
702.755709	0.914025
703.091002	0.917049
703.426246	0.917000
703.761440	0.917843
704.096584	0.918625
704.431679	0.920116
704.766725	0.921273
705.101721	0.922873
705.436668	0.923036
705.771565	0.924121
706.106413	0.923207
706.441212	0.924842
706.775961	0.925322
707.110661	0.924611
707.445311	0.925676
707.779913	0.926550
708.114465	0.927135
708.448967	0.926068
708.783421	0.925623
709.117825	0.924209
709.452180	0.924224
709.786485	0.923070
710.120742	0.921150
710.454949	0.920317
710.789107	0.919252
711.123216	0.917539
711.457275	0.916276
711.791286	0.916449
712.125247	0.918190
712.459159	0.917571
712.793023	0.917648
713.126837	0.921182
713.460602	0.920131
713.794318	0.922356
714.127985	0.924369
714.461602	0.927660
714.795171	0.928808
715.128691	0.931506
715.462162	0.934005
715.795584	0.936789
716.128957	0.938622
716.462281	0.939505
716.795556	0.941320
717.128782	0.943551
717.461960	0.945104
717.795088	0.944916
718.128167	0.947960
718.461198	0.948389
718.794180	0.949201
719.127113	0.950140
719.459997	0.950956
719.792833	0.952326
720.125619	0.953226
720.458357	0.954093
720.791046	0.955295
721.123686	0.955890
721.456278	0.956430
721.788821	0.956408
722.121315	0.958054
722.453761	0.958219
722.786158	0.958418
723.118506	0.959168
723.450805	0.958644
723.783056	0.960472
724.115259	0.959502
724.447412	0.960016
724.779518	0.959521
725.111574	0.959656
725.443582	0.959780
725.775542	0.960297
726.107453	0.959392
726.439315	0.961021
726.771129	0.960077
727.102895	0.958031
727.434612	0.957829
727.766281	0.958295
728.097901	0.957830
728.429473	0.959727
728.760996	0.958085
729.092471	0.958643
729.423897	0.960256
729.755276	0.960713
730.086606	0.960084
730.417887	0.960390
730.749120	0.958909
731.080305	0.960190
731.411442	0.958443
731.742530	0.959290
732.073570	0.960132
732.404562	0.960052
732.735506	0.960020
733.066401	0.960242
733.397249	0.962092
733.728048	0.965765
734.058798	0.967559
734.389501	0.969121
734.720156	0.969500
735.050762	0.970743
735.381320	0.970279
735.711831	0.971954
736.042293	0.972346
736.372707	0.972694
736.703073	0.972247
737.033391	0.972718
737.363661	0.974503
737.693883	0.972421
738.024056	0.971656
738.354182	0.972851
738.684260	0.971947
739.014290	0.970827
739.344272	0.970239
739.674207	0.971384
740.004093	0.970548
740.333931	0.970961
740.663722	0.970373
740.993464	0.971197
741.323159	0.971764
741.652806	0.972677
741.982405	0.973554
742.311956	0.974449
742.641460	0.975728
742.970915	0.974689
743.300323	0.976383
743.629683	0.977137
743.958996	0.978872
744.288260	0.977635
744.617477	0.978801
744.946647	0.978373
745.275768	0.980654
745.604842	0.979880
745.933869	0.980543
746.262847	0.981214
746.591778	0.980808
746.920662	0.981191
747.249498	0.982618
747.578286	0.982334
747.907027	0.981226
748.235720	0.981524
748.564365	0.980936
748.892963	0.980817
749.221514	0.981716
749.550017	0.981508
749.878473	0.981877
750.206881	0.983729
750.535242	0.982706
750.863555	0.982639
751.191821	0.982626
751.520039	0.982596
751.848210	0.982699
752.176334	0.982815
752.504411	0.982786
752.832440	0.982612
753.160421	0.984048
753.488356	0.983060
753.816243	0.983569
754.144082	0.984485
754.471875	0.985059
754.799620	0.985638
755.127318	0.985477
755.454969	0.984663
755.782572	0.985604
756.110129	0.984500
756.437638	0.986674
756.765100	0.986267
757.092515	0.984361
757.419882	0.985977
757.747203	0.984816
758.074477	0.986896
758.401703	0.985218
758.728882	0.985007
759.056014	0.984703
759.383099	0.985416
759.710138	0.984771
760.037129	0.984070
760.364073	0.984763
760.690970	0.984651
761.017820	0.983423
761.344623	0.985590
761.671379	0.985389
761.998088	0.983987
762.324751	0.984040
762.651366	0.981206
762.977935	0.976248
763.304456	0.973999
763.630931	0.970546
763.957359	0.972574
764.283740	0.975473
764.610074	0.979803
764.936362	0.980982
765.262602	0.981933
765.588796	0.983583
765.914943	0.985511
766.241044	0.986117
766.567097	0.986324
766.893104	0.987618
767.219064	0.986825
767.544978	0.988838
767.870845	0.988730
768.196665	0.989682
768.522438	0.989736
768.848165	0.990305
769.173846	0.990044
769.499479	0.990882
769.825066	0.991619
770.150607	0.991995
770.476101	0.991311
770.801548	0.991520
771.126949	0.991424
771.452303	0.990660
771.777611	0.992903
772.102872	0.992319
772.428087	0.991046
772.753256	0.992292
773.078378	0.993163
773.403453	0.991530
773.728482	0.994267
774.053465	0.992736
774.378401	0.992153
774.703291	0.993286
775.028135	0.993801
775.352932	0.992044
775.677683	0.993966
776.002388	0.994145
776.327046	0.993581
776.651658	0.995831
776.976224	0.994869
777.300743	0.993979
777.625216	0.993655
777.949643	0.994767
778.274024	0.993515
778.598359	0.994128
778.922647	0.993771
779.246889	0.994488
779.571086	0.994403
779.895236	0.995122
780.219339	0.995865
780.543397	0.993739
780.867409	0.994781
781.191374	0.994348
781.515294	0.994953
781.839167	0.994950
782.162995	0.994901
782.486776	0.994577
782.810511	0.994414
783.134201	0.994714
783.457844	0.994901
783.781441	0.994570
784.104993	0.994695
784.428498	0.994631
784.751958	0.995564
785.075372	0.995706
785.398739	0.995004
785.722061	0.994382
786.045337	0.995209
786.368568	0.995058
786.691752	0.995773
787.014891	0.994407
787.337983	0.992774
787.661030	0.993515
787.984031	0.993655
788.306987	0.993091
788.629897	0.990923
788.952760	0.992268
789.275579	0.993013
789.598351	0.992458
789.921078	0.994790
790.243759	0.994611
790.566395	0.993317
790.888984	0.996198
791.211529	0.995339
791.534027	0.994991
791.856480	0.995314
792.178888	0.995371
792.501249	0.995106
792.823566	0.995879
793.145836	0.996269
793.468062	0.996518
793.790241	0.995465
794.112375	0.995094
794.434464	0.995381
794.756507	0.995987
795.078505	0.995232
795.400457	0.996060
795.722364	0.995822
796.044226	0.994851
796.366042	0.994308
796.687812	0.993784
797.009538	0.993449
797.331218	0.994732
797.652852	0.995135
797.974442	0.994986
798.295986	0.995938
798.617484	0.994347
798.938938	0.995503
799.260346	0.995121
799.581709	0.994830
799.903026	0.995741
800.224299	0.994455
800.545526	0.994561
800.866708	0.995925
801.187845	0.995560
801.508936	0.996531
801.829983	0.995763
802.150984	0.996089
802.471940	0.996104
802.792851	0.995641
803.113717	0.997812
803.434538	0.996479
803.755314	0.997184
804.076045	0.996604
804.396731	0.996555
804.717372	0.994928
805.037967	0.997180
805.358518	0.996800
805.679024	0.996291
805.999485	0.996353
806.319901	0.997532
806.640272	0.997214
806.960598	0.997082
807.280879	0.996064
807.601115	0.997070
807.921306	0.998530
808.241453	0.995617
808.561554	0.996196
808.881611	0.996727
809.201623	0.995115
809.521590	0.996641
809.841513	0.996820
810.161390	0.996175
810.481223	0.994533
810.801011	0.995963
811.120755	0.997283
811.440453	0.995643
811.760107	0.996888
812.079716	0.996791
812.399281	0.997245
812.718801	0.996596
813.038276	0.996796
813.357707	0.995983
813.677093	0.997281
813.996434	0.996840
814.315731	0.997547
814.634983	0.996896
814.954191	0.997207
815.273354	0.996951
815.592473	0.995513
815.911547	0.996139
816.230577	0.995899
816.549562	0.996043
816.868502	0.994749
817.187399	0.997647
817.506250	0.995990
817.825058	0.994845
818.143821	0.995816
818.462539	0.994806
818.781213	0.994440
819.099843	0.994960
819.418429	0.993537
819.736970	0.991862
820.055466	0.990160
820.373919	0.990576
820.692327	0.988338
821.010691	0.986411
821.329011	0.981375
821.647286	0.975758
821.965517	0.969072
822.283704	0.961609
822.601847	0.959714
822.919945	0.961659
823.237999	0.965686
823.556010	0.968469
823.873976	0.972328
824.191897	0.976112
824.509775	0.978829
824.827609	0.980580
825.145398	0.982263
825.463144	0.982985
825.780845	0.983304
826.098502	0.983300
826.416116	0.981962
826.733685	0.977729
827.051210	0.973949
827.368692	0.976499
827.686129	0.977915
828.003522	0.982314
828.320872	0.984271
828.638177	0.986390
828.955439	0.990217
829.272656	0.990950
829.589830	0.990824
829.906960	0.992318
830.224046	0.993077
830.541088	0.993611
830.858086	0.993717
831.175041	0.994766
831.491952	0.994515
831.808819	0.993788
832.125642	0.994139
832.442421	0.993778
832.759157	0.993364
833.075849	0.988656
833.392497	0.986462
833.709101	0.984596
834.025662	0.982975
834.342179	0.984794
834.658653	0.987663
834.975083	0.989481
835.291469	0.991373
835.607811	0.991661
835.924110	0.992564
836.240366	0.996007
836.556578	0.994905
836.872746	0.995389
837.188871	0.995848
837.504952	0.995834
837.820990	0.996582
838.136984	0.996157
838.452935	0.996496
838.768842	0.996962
839.084706	0.997433
839.400526	0.996370
839.716303	0.992753
840.032037	0.992270
840.347727	0.991088
840.663373	0.992807
840.978977	0.994567
841.294537	0.995877
841.610054	0.996357
841.925527	0.996216
842.240957	0.996902
842.556344	0.997169
842.871687	0.997719
843.186987	0.997563
843.502244	0.998573
843.817458	0.997394
844.132629	0.998350
844.447756	0.999407
844.762840	0.998803
845.077881	1.000465
845.392879	0.997476
845.707833	0.998443
846.022745	0.998569
846.337613	0.999615
846.652438	0.998931
846.967221	0.999361
847.281960	0.999120
847.596656	0.999567
847.911309	0.999568
848.225919	0.998278
848.540485	1.000541
848.855009	1.000210
849.169490	0.999353
849.483928	0.999700
849.798323	0.998316
850.112675	1.000410
850.426984	1.000219
850.741251	1.000520
851.055474	1.000121
851.369654	0.999823
851.683792	0.999396
851.997887	0.999393
852.311938	0.999883
852.625947	0.998646
852.939914	0.998830
853.253837	1.000985
853.567718	0.999125
853.881555	0.998398
854.195350	1.000999
854.509103	1.000064
854.822812	0.999356
855.136479	0.998519
855.450103	1.000993
855.763685	1.000358
856.077224	0.999982
856.390720	0.999897
856.704173	0.999455
857.017584	0.999250
857.330953	0.999003
857.644278	0.999633
857.957561	0.998673
858.270802	1.000313
858.584000	0.999518
858.897155	0.998907
859.210268	0.999274
859.523339	1.000380
859.836367	0.999977
860.149352	0.999301
860.462295	1.000066
860.775195	0.999865
861.088054	0.998565
861.400869	0.999064
861.713642	0.998721
862.026373	1.000021
862.339062	1.000686
862.651708	0.998669
862.964312	0.999216
863.276873	0.999511
863.589392	0.999363
863.901869	0.998536
864.214303	0.999341
864.526696	0.999275
864.839045	0.998980
865.151353	0.998740
865.463619	0.998483
865.775842	0.998985
866.088023	1.000042
866.400162	0.999552
866.712258	0.999453
867.024313	0.999385
867.336325	0.999664
867.648296	0.999448
867.960224	1.000337
868.272110	0.999186
868.583954	0.999036
868.895755	0.999706
869.207515	0.998675
869.519233	0.999558
869.830909	0.998997
870.142542	0.998379
870.454134	0.998346
870.765684	0.998838
871.077191	0.998739
871.388657	0.998313
871.700081	0.998942
872.011463	0.999271
872.322803	0.998433
872.634101	0.997914
872.945357	0.997575
873.256571	0.997288
873.567744	0.997543
873.878874	0.997218
874.189963	0.998321
874.501010	0.998838
874.812015	0.998164
875.122979	0.998272
875.433900	0.996454
875.744780	0.998231
876.055618	0.997207
876.366415	0.996067
876.677169	0.996737
876.987882	0.997565
877.298554	0.998193
877.609183	0.997044
877.919771	0.996845
878.230317	0.997397
878.540822	0.995170
878.851285	0.995191
879.161707	0.995587
879.472087	0.995570
879.782425	0.991628
880.092722	0.989812
880.402977	0.985373
880.713191	0.980352
881.023363	0.972739
881.333494	0.969419
881.643583	0.969634
881.953631	0.969215
882.263637	0.968690
882.573602	0.971346
882.883526	0.973957
883.193408	0.977140
883.503248	0.979803
883.813048	0.981797
884.122806	0.983800
884.432522	0.986789
884.742197	0.989603
885.051831	0.990304
885.361424	0.990861
885.670975	0.993392
885.980485	0.993086
886.289954	0.993777
886.599382	0.993507
886.908768	0.995434
887.218113	0.994815
887.527417	0.995077
887.836680	0.996613
888.145901	0.996932
888.455082	0.998387
888.764221	0.997304
889.073319	0.995767
889.382376	0.998074
889.691392	0.995993
890.000366	0.997501
890.309300	0.997368
890.618193	0.997240
890.927044	0.995672
891.235855	0.996298
891.544625	0.996710
891.853353	0.997163
892.162041	0.995823
892.470687	0.997051
892.779293	0.995731
893.087858	0.993819
893.396381	0.993454
893.704864	0.991503
894.013306	0.991009
894.321707	0.988986
894.630068	0.985590
894.938387	0.984041
895.246665	0.984797
895.554903	0.986175
895.863100	0.987790
896.171256	0.988456
896.479371	0.989875
896.787446	0.992432
897.095480	0.992676
897.403473	0.993835
897.711425	0.994140
898.019336	0.996084
898.327207	0.996415
898.635038	0.993943
898.942827	0.995819
899.250576	0.995876
899.558284	0.997196
899.865952	0.996448
900.173579	0.997222
900.481165	0.996148
900.788711	0.996657
901.096216	0.997114
901.403681	0.997266
901.711105	0.996734
902.018489	0.997149
902.325832	0.996681
902.633135	0.996314
902.940397	0.997880
903.247619	0.995806
903.554800	0.992796
903.861941	0.989278
904.169041	0.984787
904.476101	0.981966
904.783121	0.981826
905.090100	0.983513
905.397039	0.986647
905.703938	0.987383
906.010796	0.990554
906.317614	0.992628
906.624391	0.994595
906.931129	0.997012
907.237826	0.995549
907.544483	0.997037
907.851099	0.996821
908.157675	0.996826
908.464211	0.999023
908.770707	0.996735
909.077163	0.998064
909.383578	0.998687
909.689954	0.997717
909.996289	0.999147
910.302584	0.999922
910.608839	0.998958
910.915054	0.998731
911.221229	0.999785
911.527363	0.998343
911.833458	0.998374
912.139513	0.998758
912.445527	0.998694
912.751502	0.998586
913.057436	0.997298
913.363331	0.999178
913.669186	0.998400
913.975000	0.996369
914.280775	0.996968
914.586510	0.994427
914.892205	0.991906
915.197859	0.989908
915.503475	0.988207
915.809050	0.986405
916.114585	0.981909
916.420081	0.982234
916.725536	0.982521
917.030952	0.983420
917.336328	0.984667
917.641665	0.986116
917.946961	0.988281
918.252218	0.989581
918.557435	0.991761
918.862612	0.992946
919.167750	0.994439
919.472848	0.996183
919.777906	0.997041
920.082925	0.997327
920.387904	0.996719
920.692843	0.996915
920.997743	0.995890
921.302603	0.996665
921.607423	0.998217
921.912204	0.997793
922.216946	0.998588
922.521647	0.998535
922.826310	0.997743
923.130932	0.998544
923.435516	0.999098
923.740059	0.998620
924.044564	0.998039
924.349028	0.998023
924.653454	0.999902
924.957840	0.998091
925.262186	0.999576
925.566493	0.999190
925.870761	1.000228
926.174989	0.999220
926.479178	0.999961
926.783328	1.000996
927.087438	0.999985
927.391509	0.998479
927.695541	0.999829
927.999533	1.000341
928.303486	1.000425
928.607400	1.000510
928.911275	1.000284
929.215110	1.000656
929.518906	1.001704
929.822663	1.000272
930.126381	1.002210
930.430060	1.000514
930.733699	1.001091
931.037299	1.000800
931.340861	1.001125
931.644383	0.999753
931.947866	1.001186
932.251309	1.000890
932.554714	1.000906
932.858080	1.001064
933.161407	0.999335
933.464694	1.001258
933.767943	1.000229
934.071153	1.001404
934.374323	1.000677
934.677455	1.000828
934.980548	1.000707
935.283602	1.001032
935.586617	1.000111
935.889593	1.001575
936.192530	1.001596
936.495428	1.001467
936.798287	0.999927
937.101108	1.000398
937.403890	1.001038
937.706632	1.001804
938.009336	1.000236
938.312002	1.000470
938.614628	0.999188
938.917216	0.998983
939.219765	0.998962
939.522275	1.000233
939.824747	0.999830
940.127179	0.999216
940.429573	1.000296
940.731929	0.998637
941.034246	0.998675
941.336524	0.999438
941.638763	0.999102
941.940964	0.998836
942.243126	1.000056
942.545250	1.001048
942.847335	1.001895
943.149381	1.000780
943.451389	0.998975
943.753359	1.000358
944.055290	1.001178
944.357182	1.000928
944.659036	0.999718
944.960851	1.000236
945.262628	1.001026
945.564367	0.999578
945.866067	1.000171
946.167729	1.001376
946.469352	1.000377
946.770937	0.998091
947.072484	1.000808
947.373992	1.000515
947.675462	0.999923
947.976893	0.999219
948.278286	1.001831
948.579641	1.001499
948.880958	0.999915
949.182236	1.000874
949.483476	1.001228
949.784678	1.001103
950.085841	1.001139
950.386967	0.999904
950.688054	1.000995
950.989103	0.999490
951.290114	0.999842
951.591087	1.000795
951.892021	0.998907
952.192917	0.999699
952.493776	0.999328
952.794596	1.000492
953.095378	1.000108
953.396122	0.999393
953.696828	1.000523
953.997496	1.000037
954.298126	1.000318
954.598718	1.000602
954.899272	1.001013
955.199788	1.000554
955.500266	1.001712
955.800706	1.001772
956.101108	0.999577
956.401472	1.003132
956.701798	1.001533
957.002087	1.000684
957.302337	1.001241
957.602550	1.000852
957.902724	1.001987
958.202861	1.000772
958.502960	1.000779
958.803022	1.002294
959.103045	1.002191
959.403031	1.002799
959.702979	1.002468
960.002889	1.001461
960.302762	1.002183
960.602596	1.002903
960.902393	1.001311
961.202153	1.002480
961.501875	1.002120
961.801559	1.001968
962.101205	1.001184
962.400814	1.002024
962.700385	1.001794
962.999918	1.002520
963.299414	1.000299
963.598873	1.002906
963.898293	1.000415
964.197677	1.002411
964.497022	1.001755
964.796331	1.002370
965.095601	1.002372
965.394835	1.000924
965.694030	1.003300
965.993189	1.000328
966.292309	1.002420
966.591393	1.000633
966.890439	1.003371
967.189447	1.001786
967.488419	1.003235
967.787353	1.001030
968.086249	1.002567
968.385108	1.001759
968.683930	1.001996
968.982714	1.002563
969.281462	1.002117
969.580172	1.002106
969.878844	1.002738
970.177480	1.001576
970.476078	1.002523
970.774639	1.001935
971.073162	1.001468
971.371649	1.001968
971.670098	1.001995
971.968510	1.001555
972.266885	1.001269
972.565223	1.002504
972.863524	1.000779
973.161788	1.000869
973.460014	1.002713
973.758204	1.001274
974.056356	1.001545
974.354471	1.001479
974.652550	1.002642
974.950591	1.002798
975.248595	1.001645
975.546563	1.003008
975.844493	1.002785
976.142386	1.001174
976.440243	1.002389
976.738062	1.002340
977.035845	1.001058
977.333590	1.002696
977.631299	1.002163
977.928971	1.002731
978.226606	1.002821
978.524204	1.001772
978.821765	1.002818
979.119290	1.003656
979.416777	1.003025
979.714228	1.002305
980.011642	1.002680
980.309020	1.002220
980.606360	1.001399
980.903664	1.002612
981.200931	1.001888
981.498162	1.001729
981.795356	1.001560
982.092513	1.002100
982.389633	1.003352
982.686717	0.999805
982.983764	1.001171
983.280775	1.001677
983.577749	1.001978
983.874686	1.000067
984.171587	1.000667
984.468451	1.002306
984.765279	1.002626
985.062070	1.003211
985.358824	1.002655
985.655543	1.003132
985.952224	1.002201
986.248869	1.002221
986.545478	1.002665
986.842050	1.002866
987.138586	1.001656
987.435086	1.001847
987.731549	1.003963
988.027975	1.004384
988.324366	1.002457
988.620719	1.003573
988.917037	1.002459
989.213318	1.003767
989.509563	1.002079
989.805772	1.002659
990.101944	1.004317
990.398080	1.002718
990.694180	1.003669
990.990244	1.002482
991.286271	1.001869
991.582262	1.002593
991.878217	1.001879
992.174136	1.002600
992.470019	1.002529
992.765865	1.004271
993.061676	1.002994
993.357450	1.002682
993.653188	1.003494
993.948890	1.002379
994.244556	1.002216
994.540186	1.003738
994.835780	1.001868
995.131337	1.003189
995.426859	1.002677
995.722345	1.001800
996.017795	1.002535
996.313208	1.002721
996.608586	1.001921
996.903928	1.003668
997.199234	1.002474
997.494504	1.003037
997.789738	1.000477
998.084936	1.002835
998.380099	1.002839
998.675225	1.003074
998.970316	1.003856
999.265371	1.002222
999.560390	1.002916
999.855373	1.002833
1000.150320	1.002949
1000.445232	1.003119
1000.740108	1.002394
1001.034948	1.002150
1001.329752	1.004397
1001.624521	1.002618
1001.919254	1.001670
1002.213951	1.003443
1002.508613	1.002689
1002.803239	1.002919
1003.097829	1.003644
1003.392384	1.002825
1003.686903	1.002763
1003.981386	1.003369
1004.275834	1.004187
1004.570246	1.003185
1004.864623	1.003904
1005.158964	1.002723
1005.453270	1.002747
1005.747540	1.003399
1006.041775	1.004462
1006.335974	1.003848
1006.630138	1.004459
1006.924266	1.003041
1007.218359	1.001109
1007.512416	1.002964
1007.806438	1.002785
1008.100425	1.003612
1008.394376	1.004161
1008.688292	1.003542
1008.982172	1.002704
1009.276017	1.004873
1009.569827	1.004142
1009.863602	1.002177
1010.157341	1.003842
1010.451045	1.003173
1010.744714	1.003768
1011.038347	1.003781
1011.331945	1.002257
1011.625508	1.004307
1011.919036	1.003526
1012.212528	1.004288
1012.505986	1.002939
1012.799408	1.002918
1013.092795	1.003095
1013.386147	1.003644
1013.679464	1.004100
1013.972745	1.002993
1014.265992	1.004072
1014.559204	1.003537
1014.852380	1.002710
1015.145521	1.003481
1015.438628	1.002967
1015.731699	1.002895
1016.024736	1.003071
1016.317737	1.003445
1016.610703	1.002827
1016.903635	1.003568
1017.196531	1.002474
1017.489393	1.002245
1017.782219	1.002115
1018.075011	1.003814
1018.367768	1.001644
1018.660490	1.003487
1018.953177	1.003487
1019.245829	1.003487
