Dividing Wavelength (nm)	Counts (n)	Blue Motor Position (mm): 3.700000	Red Motor Position (mm): 0.000000	
326.493990	1.004735
326.888308	1.004735
327.282561	1.004735
327.676750	1.006718
328.070874	1.006583
328.464933	1.008440
328.858929	1.007399
329.252859	1.007021
329.646726	1.006573
330.040528	1.005980
330.434265	1.005933
330.827938	1.005711
331.221547	1.005715
331.615091	1.006298
332.008571	1.007203
332.401986	1.005134
332.795338	1.005590
333.188625	1.006223
333.581847	1.005790
333.975006	1.005804
334.368100	1.006797
334.761129	1.005354
335.154095	1.005378
335.546996	1.003223
335.939833	0.998913
336.332606	1.000353
336.725315	0.998669
337.117960	1.000753
337.510540	0.998949
337.903056	0.999822
338.295508	1.000127
338.687896	1.000775
339.080220	0.999061
339.472480	0.998623
339.864676	0.999884
340.256807	0.997997
340.648875	0.999803
341.040879	0.998858
341.432818	1.000139
341.824694	0.998357
342.216506	0.999504
342.608253	0.998670
342.999937	0.999156
343.391557	0.999131
343.783113	1.001469
344.174605	0.999736
344.566033	0.998848
344.957397	0.999391
345.348697	0.998795
345.739934	0.999092
346.131106	0.998049
346.522215	0.998141
346.913260	0.998720
347.304241	0.997997
347.695159	0.998891
348.086012	0.999831
348.476802	0.998464
348.867528	0.998155
349.258191	0.999213
349.648789	1.000703
350.039324	0.998898
350.429796	0.999273
350.820203	0.997339
351.210548	0.999430
351.600828	0.998981
351.991045	0.999326
352.381198	0.999470
352.771288	0.998080
353.161314	0.998293
353.551276	0.998615
353.941175	0.997001
354.331010	0.999250
354.720782	0.998358
355.110490	0.997949
355.500135	0.999211
355.889717	0.997768
356.279235	0.997460
356.668689	0.998687
357.058080	0.998448
357.447408	0.998284
357.836672	0.998139
358.225873	0.998461
358.615010	0.998523
359.004084	0.997725
359.393095	0.998711
359.782043	0.997820
360.170927	0.997567
360.559748	0.998453
360.948505	0.997521
361.337199	0.997725
361.725830	0.997491
362.114398	0.997730
362.502903	0.996480
362.891344	0.995881
363.279722	0.997547
363.668037	0.997940
364.056289	0.997429
364.444478	0.997649
364.832603	0.996409
365.220665	0.997953
365.608665	0.997362
365.996601	0.996990
366.384474	0.996603
366.772284	0.997466
367.160031	0.995375
367.547715	0.994558
367.935336	0.994378
368.322893	0.993551
368.710388	0.993237
369.097820	0.991319
369.485189	0.988221
369.872495	0.987619
370.259738	0.984809
370.646918	0.982417
371.034035	0.979592
371.421090	0.976413
371.808081	0.971959
372.195010	0.968592
372.581875	0.963936
372.968678	0.959749
373.355418	0.955468
373.742096	0.947611
374.128710	0.944354
374.515262	0.940340
374.901751	0.933582
375.288177	0.928471
375.674540	0.922854
376.060841	0.915336
376.447079	0.909602
376.833254	0.902450
377.219367	0.897931
377.605417	0.887441
377.991404	0.883668
378.377329	0.877228
378.763191	0.870062
379.148991	0.860393
379.534727	0.853596
379.920402	0.845052
380.306013	0.840995
380.691563	0.828669
381.077049	0.822819
381.462474	0.818798
381.847835	0.807739
382.233134	0.802337
382.618371	0.802520
383.003545	0.785273
383.388657	0.783188
383.773706	0.775691
384.158693	0.771611
384.543618	0.766858
384.928480	0.757244
385.313280	0.747818
385.698017	0.746851
386.082692	0.736456
386.467305	0.734315
386.851856	0.728982
387.236344	0.724087
387.620770	0.717747
388.005133	0.712136
388.389435	0.705530
388.773674	0.703778
389.157851	0.695702
389.541965	0.693897
389.926018	0.700249
390.310008	0.686714
390.693936	0.683779
391.077802	0.675606
391.461606	0.676693
391.845348	0.667021
392.229027	0.665787
392.612645	0.664422
392.996200	0.651268
393.379694	0.644013
393.763125	0.634539
394.146494	0.639019
394.529801	0.629253
394.913047	0.621842
395.296230	0.627403
395.679351	0.619068
396.062410	0.615093
396.445408	0.618359
396.828343	0.613599
397.211217	0.608433
397.594028	0.620698
397.976778	0.611003
398.359466	0.607270
398.742092	0.603391
399.124656	0.614768
399.507158	0.603294
399.889598	0.599984
400.271977	0.591444
400.654294	0.596099
401.036549	0.594403
401.418742	0.598629
401.800874	0.585090
402.182944	0.581601
402.564952	0.572777
402.946898	0.575393
403.328783	0.576274
403.710606	0.587020
404.092367	0.561710
404.474067	0.567032
404.855705	0.565739
405.237282	0.574952
405.618797	0.560936
406.000250	0.556625
406.381642	0.546589
406.762972	0.552345
407.144240	0.550641
407.525447	0.550385
407.906593	0.543209
408.287677	0.538641
408.668700	0.547076
409.049661	0.541137
409.430560	0.536204
409.811399	0.544653
410.192176	0.525978
410.572891	0.533345
410.953545	0.521522
411.334138	0.535377
411.714669	0.527841
412.095139	0.538974
412.475547	0.523860
412.855894	0.525231
413.236180	0.525336
413.616405	0.530381
413.996568	0.520510
414.376670	0.526555
414.756711	0.531596
415.136691	0.528064
415.516609	0.519648
415.896466	0.516380
416.276262	0.512241
416.655997	0.513959
417.035670	0.495849
417.415283	0.487308
417.794834	0.491838
418.174324	0.497793
418.553753	0.506289
418.933121	0.488380
419.312428	0.482880
419.691674	0.488943
420.070859	0.476653
420.449983	0.484825
420.829045	0.473676
421.208047	0.483094
421.586988	0.475966
421.965867	0.474648
422.344686	0.463654
422.723444	0.475932
423.102141	0.493136
423.480777	0.466073
423.859352	0.486949
424.237866	0.463870
424.616319	0.464692
424.994712	0.455695
425.373044	0.466458
425.751314	0.454635
426.129524	0.470614
426.507673	0.453843
426.885762	0.447285
427.263789	0.453292
427.641756	0.462649
428.019662	0.452702
428.397508	0.452615
428.775292	0.456370
429.153016	0.448186
429.530679	0.454718
429.908282	0.447994
430.285824	0.457995
430.663305	0.436635
431.040726	0.457590
431.418086	0.457126
431.795385	0.449250
432.172624	0.448663
432.549802	0.448755
432.926920	0.447420
433.303977	0.446573
433.680974	0.443760
434.057910	0.442719
434.434786	0.441953
434.811601	0.444679
435.188355	0.427018
435.565050	0.436438
435.941683	0.437853
436.318257	0.421022
436.694770	0.422725
437.071222	0.420906
437.447614	0.424758
437.823946	0.431841
438.200218	0.420778
438.576429	0.430883
438.952580	0.423642
439.328670	0.420063
439.704700	0.426842
440.080670	0.427757
440.456580	0.409206
440.832429	0.417121
441.208218	0.428468
441.583947	0.417088
441.959616	0.416616
442.335224	0.422362
442.710773	0.412542
443.086261	0.411152
443.461689	0.424990
443.837057	0.414492
444.212365	0.404996
444.587612	0.411852
444.962800	0.401356
445.337927	0.403328
445.712995	0.429333
446.088002	0.391360
446.462949	0.402197
446.837837	0.406523
447.212664	0.394977
447.587431	0.386579
447.962139	0.357114
448.336786	0.316107
448.711374	0.326432
449.085901	0.370974
449.460369	0.375467
449.834776	0.378462
450.209124	0.357769
450.583412	0.350681
450.957640	0.343545
451.331808	0.354854
451.705917	0.378543
452.079965	0.383229
452.453954	0.371132
452.827883	0.378220
453.201752	0.372997
453.575562	0.384289
453.949311	0.372667
454.323001	0.378976
454.696632	0.374589
455.070202	0.367163
455.443713	0.358752
455.817164	0.353751
456.190556	0.349483
456.563888	0.346606
456.937160	0.343858
457.310373	0.361164
457.683526	0.360013
458.056619	0.365903
458.429653	0.366127
458.802628	0.369651
459.175542	0.364440
459.548398	0.346413
459.921194	0.339292
460.293930	0.339362
460.666607	0.316599
461.039224	0.304974
461.411782	0.300702
461.784280	0.300060
462.156719	0.303662
462.529099	0.308610
462.901419	0.324654
463.273680	0.328802
463.645882	0.328383
464.018024	0.334289
464.390106	0.327320
464.762130	0.312061
465.134094	0.294495
465.505999	0.263339
465.877845	0.233927
466.249631	0.220621
466.621358	0.228047
466.993026	0.242278
467.364634	0.248397
467.736184	0.257012
468.107674	0.265818
468.479105	0.264871
468.850477	0.271964
469.221790	0.278433
469.593043	0.289088
469.964238	0.293384
470.335373	0.292985
470.706449	0.291393
471.077467	0.291861
471.448425	0.254202
471.819324	0.229223
472.190164	0.229002
472.560945	0.257823
472.931667	0.280223
473.302330	0.284418
473.672934	0.296223
474.043479	0.284451
474.413965	0.286025
474.784393	0.289302
475.154761	0.284449
475.525070	0.281698
475.895321	0.287656
476.265513	0.281611
476.635645	0.276956
477.005719	0.276719
477.375734	0.273538
477.745691	0.266749
478.115588	0.263061
478.485427	0.256403
478.855207	0.243490
479.224928	0.225936
479.594591	0.214097
479.964194	0.217305
480.333739	0.218695
480.703226	0.219875
481.072653	0.218437
481.442022	0.214261
481.811333	0.210626
482.180584	0.214019
482.549777	0.219424
482.918912	0.222791
483.287988	0.222565
483.657005	0.222184
484.025964	0.228658
484.394864	0.225936
484.763706	0.226485
485.132489	0.231749
485.501213	0.232353
485.869879	0.230921
486.238487	0.233873
486.607036	0.231658
486.975527	0.236439
487.343959	0.232215
487.712333	0.231567
488.080648	0.232683
488.448905	0.231877
488.817104	0.233271
489.185244	0.227589
489.553326	0.224618
489.921350	0.214263
490.289315	0.196725
490.657222	0.191626
491.025070	0.193144
491.392861	0.195210
491.760593	0.200656
492.128267	0.206536
492.495883	0.212013
492.863440	0.218012
493.230939	0.224678
493.598380	0.226361
493.965763	0.228448
494.333088	0.230455
494.700354	0.232182
495.067563	0.230962
495.434713	0.234303
495.801805	0.231976
496.168839	0.233852
496.535815	0.235239
496.902733	0.234930
497.269593	0.236816
497.636395	0.234310
498.003139	0.234770
498.369825	0.237702
498.736453	0.234032
499.103023	0.236041
499.469535	0.235287
499.835989	0.235376
500.202385	0.236106
500.568723	0.239275
500.935003	0.234744
501.301226	0.238676
501.667390	0.233034
502.033497	0.231106
502.399546	0.234236
502.765537	0.235879
503.131470	0.234767
503.497345	0.231129
503.863163	0.239340
504.228923	0.232459
504.594625	0.231068
504.960269	0.236983
505.325856	0.231896
505.691385	0.236389
506.056856	0.233011
506.422270	0.232329
506.787625	0.234628
507.152924	0.232164
507.518164	0.232878
507.883347	0.234382
508.248472	0.236195
508.613540	0.230952
508.978550	0.233486
509.343503	0.233832
509.708398	0.231916
510.073236	0.229271
510.438016	0.229160
510.802738	0.229998
511.167403	0.229126
511.532010	0.231378
511.896561	0.226727
512.261053	0.224965
512.625488	0.227385
512.989866	0.227544
513.354186	0.228166
513.718449	0.229875
514.082655	0.226313
514.446803	0.228436
514.810894	0.226190
515.174927	0.228820
515.538904	0.228598
515.902822	0.225081
516.266684	0.227689
516.630488	0.228949
516.994235	0.227636
517.357925	0.226482
517.721558	0.224550
518.085133	0.224248
518.448651	0.224164
518.812112	0.226474
519.175516	0.226285
519.538863	0.223598
519.902152	0.225565
520.265385	0.222447
520.628560	0.223913
520.991678	0.224509
521.354739	0.223511
521.717743	0.224720
522.080690	0.224773
522.443580	0.222153
522.806413	0.222866
523.169189	0.222803
523.531908	0.221348
523.894569	0.224919
524.257174	0.224984
524.619722	0.222567
524.982213	0.223544
525.344647	0.222592
525.707025	0.223348
526.069345	0.221553
526.431608	0.223367
526.793815	0.221051
527.155964	0.225373
527.518057	0.224408
527.880093	0.225252
528.242072	0.223833
528.603995	0.225833
528.965860	0.227458
529.327669	0.226672
529.689421	0.227428
530.051117	0.228075
530.412755	0.225843
530.774337	0.228223
531.135862	0.228714
531.497331	0.227686
531.858743	0.230929
532.220098	0.227427
532.581396	0.230030
532.942638	0.230587
533.303824	0.231940
533.664953	0.231286
534.026025	0.233307
534.387040	0.231030
534.747999	0.230620
535.108902	0.229559
535.469748	0.234729
535.830537	0.232413
536.191270	0.232963
536.551947	0.232494
536.912567	0.232343
537.273131	0.234230
537.633638	0.234649
537.994089	0.234813
538.354483	0.235941
538.714821	0.232852
539.075103	0.232718
539.435328	0.233529
539.795497	0.237051
540.155609	0.233705
540.515665	0.232087
540.875665	0.237433
541.235609	0.236268
541.595496	0.236005
541.955328	0.232929
542.315102	0.235120
542.674821	0.236558
543.034483	0.236334
543.394090	0.236193
543.753640	0.237950
544.113134	0.233237
544.472571	0.236245
544.831953	0.233384
545.191278	0.237440
545.550548	0.236593
545.909761	0.233695
546.268918	0.234672
546.628019	0.232675
546.987064	0.235381
547.346053	0.237214
547.704986	0.235116
548.063863	0.235137
548.422684	0.235372
548.781449	0.237541
549.140158	0.234990
549.498811	0.237615
549.857408	0.240642
550.215949	0.235475
550.574434	0.238465
550.932864	0.236634
551.291237	0.235190
551.649555	0.236771
552.007817	0.236361
552.366022	0.237508
552.724173	0.237437
553.082267	0.237931
553.440305	0.234913
553.798288	0.239026
554.156215	0.235664
554.514086	0.236392
554.871902	0.239702
555.229661	0.238897
555.587365	0.239429
555.945014	0.241802
556.302606	0.238916
556.660143	0.241244
557.017625	0.237891
557.375050	0.240112
557.732421	0.237129
558.089735	0.238765
558.446994	0.239145
558.804197	0.238170
559.161345	0.238232
559.518437	0.241713
559.875474	0.239553
560.232455	0.239142
560.589381	0.240251
560.946251	0.240474
561.303065	0.237651
561.659825	0.239210
562.016528	0.240827
562.373177	0.243394
562.729770	0.240884
563.086307	0.242775
563.442789	0.240747
563.799216	0.243569
564.155587	0.242368
564.511904	0.243587
564.868164	0.243532
565.224370	0.243057
565.580520	0.244903
565.936615	0.244960
566.292654	0.248258
566.648638	0.245168
567.004567	0.245887
567.360441	0.246477
567.716260	0.248359
568.072023	0.246286
568.427732	0.246975
568.783385	0.249581
569.138982	0.247496
569.494525	0.247248
569.850013	0.250142
570.205445	0.248552
570.560823	0.251104
570.916145	0.253031
571.271412	0.251045
571.626625	0.252897
571.981782	0.253425
572.336884	0.254051
572.691931	0.253937
573.046923	0.255346
573.401860	0.256546
573.756743	0.258298
574.111570	0.257046
574.466342	0.257363
574.821059	0.256485
575.175722	0.259296
575.530330	0.259181
575.884882	0.259274
576.239380	0.261484
576.593823	0.262070
576.948211	0.261392
577.302544	0.264716
577.656823	0.264455
578.011047	0.264176
578.365216	0.265225
578.719330	0.267225
579.073389	0.266518
579.427394	0.268039
579.781344	0.269119
580.135239	0.270175
580.489080	0.270175
580.842866	0.273173
581.196597	0.272487
581.550273	0.271627
581.903895	0.272474
582.257463	0.270558
582.610975	0.274223
582.964434	0.273588
583.317837	0.275876
583.671186	0.276558
584.024481	0.276677
584.377721	0.278844
584.730906	0.279612
585.084037	0.278849
585.437113	0.280764
585.790135	0.280341
586.143103	0.283238
586.496016	0.283894
586.848874	0.281575
587.201679	0.282243
587.554428	0.285683
587.907124	0.284513
588.259765	0.285104
588.612352	0.285634
588.964884	0.289828
589.317362	0.288903
589.669786	0.289135
590.022155	0.287505
590.374470	0.286798
590.726731	0.288992
591.078937	0.293779
591.431090	0.290266
591.783188	0.294243
592.135232	0.295081
592.487222	0.294685
592.839157	0.293040
593.191038	0.295071
593.542866	0.296969
593.894639	0.299995
594.246358	0.298871
594.598022	0.297956
594.949633	0.301641
595.301190	0.302574
595.652692	0.301710
596.004141	0.297760
596.355535	0.305529
596.706876	0.306408
597.058162	0.309024
597.409395	0.305970
597.760573	0.303733
598.111698	0.307228
598.462768	0.307356
598.813785	0.308635
599.164748	0.309800
599.515657	0.310425
599.866511	0.313565
600.217312	0.309023
600.568060	0.314466
600.918753	0.310940
601.269392	0.311464
601.619978	0.315013
601.970510	0.312607
602.320988	0.312871
602.671412	0.310360
603.021783	0.313222
603.372100	0.314338
603.722363	0.314291
604.072572	0.315266
604.422728	0.314647
604.772830	0.316690
605.122878	0.316456
605.472872	0.316980
605.822813	0.315094
606.172701	0.318045
606.522534	0.315270
606.872314	0.315247
607.222041	0.316315
607.571714	0.314348
607.921333	0.315832
608.270899	0.315508
608.620411	0.312007
608.969870	0.316328
609.319276	0.316235
609.668627	0.316007
610.017926	0.314784
610.367171	0.313356
610.716362	0.314002
611.065500	0.314000
611.414585	0.312700
611.763616	0.313323
612.112594	0.313611
612.461518	0.312978
612.810389	0.311117
613.159207	0.312999
613.507971	0.314973
613.856682	0.310884
614.205340	0.311943
614.553945	0.309747
614.902496	0.313075
615.250994	0.311223
615.599439	0.311861
615.947830	0.311183
616.296169	0.312364
616.644454	0.311929
616.992686	0.311815
617.340864	0.309392
617.688990	0.313084
618.037063	0.310055
618.385082	0.311484
618.733048	0.308479
619.080961	0.310969
619.428821	0.310425
619.776628	0.309622
620.124382	0.312216
620.472083	0.312709
620.819731	0.311930
621.167326	0.315744
621.514868	0.315641
621.862357	0.319344
622.209793	0.319092
622.557176	0.321848
622.904506	0.322916
623.251783	0.325092
623.599007	0.327306
623.946179	0.326965
624.293297	0.328840
624.640363	0.332978
624.987376	0.333580
625.334336	0.335553
625.681243	0.338306
626.028097	0.338495
626.374899	0.339567
626.721647	0.339952
627.068343	0.342745
627.414987	0.344161
627.761577	0.346445
628.108115	0.344077
628.454600	0.349701
628.801032	0.347240
629.147412	0.349199
629.493739	0.349809
629.840014	0.352867
630.186236	0.350017
630.532405	0.355419
630.878521	0.352890
631.224585	0.355536
631.570597	0.358778
631.916556	0.357369
632.262462	0.357129
632.608316	0.359681
632.954117	0.360483
633.299866	0.361167
633.645562	0.361736
633.991206	0.366256
634.336797	0.368828
634.682336	0.371150
635.027823	0.372822
635.373257	0.373361
635.718639	0.377197
636.063968	0.376467
636.409245	0.381840
636.754470	0.382489
637.099642	0.384796
637.444762	0.388462
637.789829	0.387721
638.134845	0.390731
638.479808	0.392329
638.824719	0.391716
639.169577	0.395881
639.514383	0.394822
639.859137	0.399673
640.203839	0.398685
640.548489	0.399369
640.893086	0.400699
641.237632	0.402208
641.582125	0.400928
641.926566	0.403212
642.270955	0.402801
642.615292	0.402672
642.959576	0.402156
643.303809	0.403044
643.647990	0.402496
643.992118	0.403197
644.336195	0.405880
644.680219	0.404312
645.024192	0.405950
645.368112	0.398786
645.711981	0.397790
646.055797	0.393507
646.399562	0.395707
646.743274	0.388319
647.086935	0.384899
647.430544	0.385456
647.774101	0.383755
648.117606	0.383880
648.461059	0.384091
648.804460	0.386350
649.147810	0.391969
649.491108	0.393624
649.834354	0.394876
650.177548	0.400376
650.520690	0.406111
650.863781	0.406960
651.206820	0.406216
651.549807	0.410755
651.892742	0.414847
652.235626	0.414559
652.578458	0.415491
652.921238	0.421647
653.263967	0.419484
653.606644	0.422742
653.949269	0.423112
654.291843	0.427135
654.634365	0.424113
654.976836	0.427159
655.319255	0.427189
655.661622	0.428313
656.003938	0.429134
656.346203	0.431746
656.688416	0.429376
657.030577	0.432824
657.372687	0.435295
657.714746	0.435452
658.056753	0.432863
658.398708	0.436540
658.740612	0.437972
659.082465	0.434112
659.424266	0.434562
659.766016	0.434236
660.107715	0.437326
660.449362	0.435834
660.790958	0.436097
661.132503	0.437523
661.473996	0.434367
661.815438	0.435475
662.156829	0.435752
662.498168	0.436420
662.839456	0.437634
663.180693	0.435879
663.521879	0.435492
663.863013	0.436162
664.204097	0.434989
664.545129	0.431423
664.886110	0.431967
665.227040	0.429513
665.567918	0.432342
665.908746	0.429878
666.249522	0.429547
666.590248	0.430525
666.930922	0.428849
667.271545	0.427439
667.612118	0.427538
667.952639	0.429493
668.293109	0.427919
668.633528	0.430281
668.973896	0.430615
669.314213	0.430956
669.654480	0.432696
669.994695	0.432939
670.334859	0.433468
670.674973	0.433880
671.015035	0.434057
671.355047	0.433986
671.695008	0.435263
672.034918	0.437238
672.374777	0.436047
672.714585	0.438004
673.054342	0.437564
673.394049	0.437464
673.733705	0.435110
674.073310	0.436332
674.412864	0.439325
674.752368	0.439921
675.091820	0.440009
675.431223	0.444913
675.770574	0.444507
676.109875	0.447681
676.449125	0.447311
676.788324	0.449992
677.127473	0.454842
677.466571	0.455136
677.805619	0.456994
678.144616	0.457863
678.483562	0.460073
678.822458	0.462558
679.161303	0.463048
679.500098	0.463549
679.838842	0.465741
680.177535	0.463758
680.516179	0.462950
680.854771	0.462163
681.193314	0.455334
681.531805	0.446747
681.870247	0.435021
682.208638	0.427608
682.546978	0.426345
682.885268	0.428124
683.223508	0.434633
683.561697	0.438972
683.899836	0.441176
684.237925	0.444496
684.575963	0.447302
684.913951	0.450503
685.251889	0.445647
685.589776	0.448151
685.927614	0.450468
686.265401	0.444580
686.603137	0.445749
686.940824	0.439917
687.278460	0.438488
687.616046	0.437802
687.953582	0.432917
688.291068	0.433638
688.628504	0.429035
688.965889	0.431779
689.303224	0.435737
689.640510	0.439847
689.977745	0.445072
690.314930	0.453234
690.652065	0.458396
690.989150	0.465400
691.326185	0.471986
691.663170	0.476540
692.000105	0.484353
692.336990	0.490745
692.673825	0.493206
693.010610	0.500187
693.347345	0.506648
693.684030	0.507391
694.020665	0.512068
694.357251	0.521101
694.693786	0.520846
695.030272	0.523636
695.366707	0.528315
695.703093	0.531817
696.039429	0.529157
696.375716	0.531650
696.711952	0.534215
697.048139	0.535864
697.384276	0.538726
697.720363	0.536791
698.056400	0.535166
698.392388	0.541307
698.728326	0.544164
699.064214	0.546342
699.400053	0.546978
699.735842	0.551061
700.071581	0.553816
700.407270	0.556598
700.742910	0.559785
701.078501	0.565873
701.414042	0.566697
701.749533	0.569460
702.084974	0.578850
702.420366	0.570763
702.755709	0.578926
703.091002	0.586051
703.426246	0.579515
703.761440	0.585767
704.096584	0.590050
704.431679	0.586790
704.766725	0.589491
705.101721	0.590963
705.436668	0.587165
705.771565	0.594748
706.106413	0.590511
706.441212	0.585909
706.775961	0.585725
707.110661	0.587033
707.445311	0.584565
707.779913	0.581960
708.114465	0.580202
708.448967	0.577266
708.783421	0.568390
709.117825	0.563559
709.452180	0.562929
709.786485	0.557247
710.120742	0.546663
710.454949	0.548670
710.789107	0.540839
711.123216	0.531202
711.457275	0.532661
711.791286	0.524073
712.125247	0.523624
712.459159	0.533587
712.793023	0.525588
713.126837	0.530814
713.460602	0.530808
713.794318	0.539453
714.127985	0.538458
714.461602	0.549524
714.795171	0.551926
715.128691	0.560218
715.462162	0.567419
715.795584	0.574515
716.128957	0.576361
716.462281	0.582743
716.795556	0.586622
717.128782	0.591812
717.461960	0.601314
717.795088	0.599649
718.128167	0.606630
718.461198	0.614581
718.794180	0.615278
719.127113	0.618076
719.459997	0.621864
719.792833	0.627799
720.125619	0.629225
720.458357	0.634959
720.791046	0.634373
721.123686	0.638653
721.456278	0.644969
721.788821	0.641586
722.121315	0.647681
722.453761	0.651152
722.786158	0.649328
723.118506	0.645193
723.450805	0.652322
723.783056	0.649505
724.115259	0.646313
724.447412	0.645860
724.779518	0.647019
725.111574	0.646673
725.443582	0.641680
725.775542	0.643959
726.107453	0.636161
726.439315	0.636243
726.771129	0.634554
727.102895	0.627121
727.434612	0.621095
727.766281	0.618779
728.097901	0.618016
728.429473	0.617106
728.760996	0.615904
729.092471	0.615899
729.423897	0.619475
729.755276	0.618382
730.086606	0.618144
730.417887	0.614160
730.749120	0.603929
731.080305	0.594727
731.411442	0.590447
731.742530	0.594314
732.073570	0.595109
732.404562	0.587385
732.735506	0.588914
733.066401	0.593085
733.397249	0.602286
733.728048	0.613258
734.058798	0.626234
734.389501	0.638053
734.720156	0.648344
735.050762	0.655043
735.381320	0.655954
735.711831	0.664839
736.042293	0.670177
736.372707	0.666575
736.703073	0.670622
737.033391	0.672397
737.363661	0.669818
737.693883	0.664893
738.024056	0.664060
738.354182	0.664815
738.684260	0.653329
739.014290	0.650020
739.344272	0.650911
739.674207	0.644435
740.004093	0.643139
740.333931	0.643743
740.663722	0.643730
740.993464	0.644321
741.323159	0.647248
741.652806	0.652666
741.982405	0.657780
742.311956	0.662793
742.641460	0.664584
742.970915	0.668589
743.300323	0.675438
743.629683	0.682620
743.958996	0.685326
744.288260	0.689444
744.617477	0.694885
744.946647	0.696218
745.275768	0.702448
745.604842	0.701315
745.933869	0.711595
746.262847	0.713583
746.591778	0.705383
746.920662	0.712192
747.249498	0.719063
747.578286	0.709457
747.907027	0.706186
748.235720	0.706427
748.564365	0.701814
748.892963	0.700930
749.221514	0.705271
749.550017	0.708960
749.878473	0.710215
750.206881	0.715571
750.535242	0.716653
750.863555	0.715323
751.191821	0.717251
751.520039	0.721528
751.848210	0.724700
752.176334	0.718715
752.504411	0.717287
752.832440	0.725415
753.160421	0.729208
753.488356	0.727780
753.816243	0.724637
754.144082	0.733672
754.471875	0.737073
754.799620	0.732863
755.127318	0.733988
755.454969	0.733739
755.782572	0.734420
756.110129	0.737438
756.437638	0.741796
756.765100	0.737723
757.092515	0.734848
757.419882	0.734853
757.747203	0.739965
758.074477	0.739554
758.401703	0.735742
758.728882	0.731372
759.056014	0.730140
759.383099	0.729369
759.710138	0.729830
760.037129	0.726212
760.364073	0.720536
760.690970	0.723137
761.017820	0.727089
761.344623	0.723260
761.671379	0.715484
761.998088	0.703441
762.324751	0.679669
762.651366	0.636757
762.977935	0.569687
763.304456	0.517489
763.630931	0.508176
763.957359	0.546735
764.283740	0.591141
764.610074	0.618704
764.936362	0.650787
765.262602	0.679284
765.588796	0.700146
765.914943	0.717301
766.241044	0.734987
766.567097	0.741994
766.893104	0.752240
767.219064	0.759244
767.544978	0.765578
767.870845	0.777833
768.196665	0.783434
768.522438	0.780517
768.848165	0.782359
769.173846	0.790515
769.499479	0.795924
769.825066	0.800740
770.150607	0.804978
770.476101	0.801070
770.801548	0.801359
771.126949	0.813460
771.452303	0.817051
771.777611	0.816330
772.102872	0.814451
772.428087	0.820661
772.753256	0.823742
773.078378	0.825780
773.403453	0.834003
773.728482	0.839260
774.053465	0.831712
774.378401	0.835340
774.703291	0.844627
775.028135	0.845055
775.352932	0.844270
775.677683	0.849646
776.002388	0.848978
776.327046	0.849081
776.651658	0.853158
776.976224	0.856421
777.300743	0.855391
777.625216	0.857416
777.949643	0.860439
778.274024	0.858845
778.598359	0.861208
778.922647	0.859321
779.246889	0.860823
779.571086	0.864442
779.895236	0.867473
780.219339	0.865336
780.543397	0.859830
780.867409	0.859259
781.191374	0.860978
781.515294	0.862875
781.839167	0.862332
782.162995	0.864362
782.486776	0.861466
782.810511	0.863581
783.134201	0.867360
783.457844	0.865195
783.781441	0.868518
784.104993	0.872913
784.428498	0.873171
784.751958	0.870307
785.075372	0.872368
785.398739	0.874805
785.722061	0.869975
786.045337	0.867837
786.368568	0.872606
786.691752	0.873419
787.014891	0.860046
787.337983	0.851155
787.661030	0.844028
787.984031	0.825072
788.306987	0.813564
788.629897	0.814192
788.952760	0.819401
789.275579	0.824089
789.598351	0.839831
789.921078	0.852023
790.243759	0.854859
790.566395	0.859483
790.888984	0.866920
791.211529	0.870578
791.534027	0.874907
791.856480	0.876525
792.178888	0.881620
792.501249	0.883475
792.823566	0.886365
793.145836	0.885734
793.468062	0.887473
793.790241	0.888544
794.112375	0.885719
794.434464	0.882833
794.756507	0.881678
795.078505	0.879899
795.400457	0.875003
795.722364	0.862930
796.044226	0.857205
796.366042	0.854290
796.687812	0.857392
797.009538	0.853255
797.331218	0.858039
797.652852	0.861342
797.974442	0.865622
798.295986	0.868625
798.617484	0.869334
798.938938	0.874460
799.260346	0.878313
799.581709	0.879941
799.903026	0.883395
800.224299	0.884076
800.545526	0.885918
800.866708	0.890095
801.187845	0.895328
801.508936	0.894011
801.829983	0.892741
802.150984	0.896725
802.471940	0.901068
802.792851	0.900161
803.113717	0.901824
803.434538	0.899168
803.755314	0.902128
804.076045	0.902998
804.396731	0.903142
804.717372	0.902727
805.037967	0.905925
805.358518	0.903634
805.679024	0.898272
805.999485	0.901066
806.319901	0.899136
806.640272	0.902781
806.960598	0.900912
807.280879	0.897007
807.601115	0.893566
807.921306	0.900001
808.241453	0.899784
808.561554	0.897307
808.881611	0.897198
809.201623	0.898474
809.521590	0.898793
809.841513	0.901116
810.161390	0.898875
810.481223	0.900916
810.801011	0.904863
811.120755	0.906599
811.440453	0.905196
811.760107	0.904377
812.079716	0.904155
812.399281	0.907205
812.718801	0.909272
813.038276	0.910254
813.357707	0.909693
813.677093	0.907974
813.996434	0.909480
814.315731	0.912521
814.634983	0.913106
814.954191	0.911786
815.273354	0.906667
815.592473	0.904161
815.911547	0.905358
816.230577	0.901447
816.549562	0.898828
816.868502	0.898008
817.187399	0.896432
817.506250	0.891676
817.825058	0.891806
818.143821	0.888575
818.462539	0.884082
818.781213	0.875574
819.099843	0.864941
819.418429	0.847946
819.736970	0.831315
820.055466	0.810365
820.373919	0.784254
820.692327	0.750386
821.010691	0.715449
821.329011	0.633986
821.647286	0.516681
821.965517	0.402457
822.283704	0.359409
822.601847	0.360279
822.919945	0.395516
823.237999	0.430609
823.556010	0.478222
823.873976	0.535172
824.191897	0.586552
824.509775	0.630841
824.827609	0.676814
825.145398	0.699804
825.463144	0.701788
825.780845	0.684498
826.098502	0.665879
826.416116	0.620133
826.733685	0.574594
827.051210	0.565359
827.368692	0.580825
827.686129	0.618648
828.003522	0.673606
828.320872	0.722294
828.638177	0.766158
828.955439	0.800787
829.272656	0.822035
829.589830	0.839168
829.906960	0.856024
830.224046	0.869038
830.541088	0.879061
830.858086	0.883946
831.175041	0.890787
831.491952	0.889418
831.808819	0.885959
832.125642	0.878272
832.442421	0.865246
832.759157	0.841196
833.075849	0.793204
833.392497	0.728094
833.709101	0.687186
834.025662	0.697204
834.342179	0.728831
834.658653	0.769547
834.975083	0.806092
835.291469	0.834321
835.607811	0.856148
835.924110	0.873178
836.240366	0.891066
836.556578	0.902655
836.872746	0.911852
837.188871	0.917594
837.504952	0.923760
837.820990	0.926684
838.136984	0.930168
838.452935	0.933780
838.768842	0.933929
839.084706	0.927939
839.400526	0.901819
839.716303	0.860265
840.032037	0.837549
840.347727	0.841671
840.663373	0.859760
840.978977	0.882512
841.294537	0.905859
841.610054	0.921738
841.925527	0.929526
842.240957	0.935223
842.556344	0.944517
842.871687	0.949989
843.186987	0.952887
843.502244	0.955131
843.817458	0.955836
844.132629	0.960018
844.447756	0.965132
844.762840	0.964695
845.077881	0.966227
845.392879	0.963046
845.707833	0.966415
846.022745	0.968406
846.337613	0.970063
846.652438	0.969393
846.967221	0.969491
847.281960	0.970540
847.596656	0.971045
847.911309	0.972040
848.225919	0.971904
848.540485	0.974734
848.855009	0.973576
849.169490	0.973194
849.483928	0.973054
849.798323	0.972147
850.112675	0.975115
850.426984	0.974821
850.741251	0.974738
851.055474	0.974675
851.369654	0.972598
851.683792	0.973393
851.997887	0.974038
852.311938	0.974878
852.625947	0.974698
852.939914	0.972611
853.253837	0.975050
853.567718	0.974577
853.881555	0.975300
854.195350	0.973574
854.509103	0.974111
854.822812	0.974793
855.136479	0.975537
855.450103	0.973231
855.763685	0.973495
856.077224	0.974361
856.390720	0.975052
856.704173	0.974595
857.017584	0.974508
857.330953	0.971875
857.644278	0.971473
857.957561	0.972448
858.270802	0.973719
858.584000	0.973359
858.897155	0.971692
859.210268	0.970645
859.523339	0.973090
859.836367	0.975323
860.149352	0.974659
860.462295	0.973826
860.775195	0.974664
861.088054	0.972664
861.400869	0.974506
861.713642	0.973215
862.026373	0.976135
862.339062	0.975903
862.651708	0.973307
862.964312	0.973323
863.276873	0.973313
863.589392	0.972935
863.901869	0.970369
864.214303	0.969058
864.526696	0.968059
864.839045	0.968164
865.151353	0.967229
865.463619	0.966055
865.775842	0.965965
866.088023	0.967960
866.400162	0.967599
866.712258	0.967114
867.024313	0.967424
867.336325	0.968836
867.648296	0.969560
867.960224	0.965327
868.272110	0.967261
868.583954	0.969043
868.895755	0.968815
869.207515	0.965938
869.519233	0.964137
869.830909	0.964631
870.142542	0.965569
870.454134	0.965749
870.765684	0.963320
871.077191	0.963097
871.388657	0.962557
871.700081	0.963501
872.011463	0.963790
872.322803	0.962410
872.634101	0.960600
872.945357	0.957318
873.256571	0.956454
873.567744	0.958216
873.878874	0.957687
874.189963	0.957895
874.501010	0.957541
874.812015	0.954583
875.122979	0.955097
875.433900	0.956744
875.744780	0.958441
876.055618	0.954925
876.366415	0.953569
876.677169	0.953639
876.987882	0.955050
877.298554	0.955823
877.609183	0.951121
877.919771	0.947514
878.230317	0.946486
878.540822	0.943123
878.851285	0.939534
879.161707	0.929934
879.472087	0.918030
879.782425	0.899801
880.092722	0.865527
880.402977	0.811105
880.713191	0.747346
881.023363	0.685769
881.333494	0.651345
881.643583	0.623742
881.953631	0.624072
882.263637	0.652399
882.573602	0.692737
882.883526	0.718911
883.193408	0.744166
883.503248	0.766659
883.813048	0.795055
884.122806	0.826954
884.432522	0.851182
884.742197	0.870677
885.051831	0.882167
885.361424	0.892609
885.670975	0.906929
885.980485	0.915165
886.289954	0.921598
886.599382	0.926321
886.908768	0.930775
887.218113	0.936971
887.527417	0.941506
887.836680	0.943777
888.145901	0.947326
888.455082	0.950554
888.764221	0.954179
889.073319	0.955890
889.382376	0.958165
889.691392	0.955717
890.000366	0.957399
890.309300	0.957839
890.618193	0.957566
890.927044	0.954293
891.235855	0.955731
891.544625	0.955479
891.853353	0.954814
892.162041	0.951662
892.470687	0.947100
892.779293	0.941389
893.087858	0.935963
893.396381	0.927678
893.704864	0.914564
894.013306	0.890459
894.321707	0.863439
894.630068	0.847292
894.938387	0.842113
895.246665	0.843410
895.554903	0.855817
895.863100	0.870632
896.171256	0.887754
896.479371	0.908186
896.787446	0.920838
897.095480	0.928012
897.403473	0.930703
897.711425	0.936303
898.019336	0.942637
898.327207	0.948003
898.635038	0.947058
898.942827	0.948177
899.250576	0.951378
899.558284	0.956828
899.865952	0.957945
900.173579	0.958632
900.481165	0.959528
900.788711	0.962057
901.096216	0.964212
901.403681	0.966740
901.711105	0.964704
902.018489	0.966465
902.325832	0.966889
902.633135	0.965138
902.940397	0.958980
903.247619	0.945058
903.554800	0.919982
903.861941	0.878878
904.169041	0.840666
904.476101	0.822749
904.783121	0.823950
905.090100	0.840340
905.397039	0.863681
905.703938	0.885717
906.010796	0.907556
906.317614	0.924087
906.624391	0.937273
906.931129	0.947168
907.237826	0.955818
907.544483	0.961498
907.851099	0.967970
908.157675	0.970596
908.464211	0.974281
908.770707	0.975097
909.077163	0.979180
909.383578	0.979887
909.689954	0.979010
909.996289	0.979838
910.302584	0.982647
910.608839	0.983184
910.915054	0.983477
911.221229	0.983766
911.527363	0.981387
911.833458	0.981914
912.139513	0.983213
912.445527	0.981641
912.751502	0.978393
913.057436	0.975357
913.363331	0.974419
913.669186	0.970632
913.975000	0.966187
914.280775	0.959589
914.586510	0.950363
914.892205	0.937006
915.197859	0.914530
915.503475	0.886728
915.809050	0.866589
916.114585	0.859994
916.420081	0.857612
916.725536	0.854796
917.030952	0.861979
917.336328	0.875470
917.641665	0.891665
917.946961	0.907477
918.252218	0.918799
918.557435	0.929830
918.862612	0.937603
919.167750	0.943781
919.472848	0.950137
919.777906	0.957427
920.082925	0.962212
920.387904	0.964640
920.692843	0.966447
920.997743	0.967515
921.302603	0.972550
921.607423	0.973282
921.912204	0.976135
922.216946	0.977943
922.521647	0.977974
922.826310	0.979217
923.130932	0.981962
923.435516	0.983681
923.740059	0.983742
924.044564	0.984910
924.349028	0.984166
924.653454	0.987267
924.957840	0.988212
925.262186	0.988259
925.566493	0.988208
925.870761	0.989085
926.174989	0.990908
926.479178	0.991657
926.783328	0.992614
927.087438	0.993251
927.391509	0.992775
927.695541	0.994462
927.999533	0.995387
928.303486	0.995457
928.607400	0.996472
928.911275	0.996429
929.215110	0.996052
929.518906	0.997037
929.822663	0.996044
930.126381	0.995655
930.430060	0.994907
930.733699	0.995443
931.037299	0.995514
931.340861	0.995879
931.644383	0.994474
931.947866	0.995130
932.251309	0.994360
932.554714	0.994781
932.858080	0.994260
933.161407	0.994527
933.464694	0.995866
933.767943	0.995748
934.071153	0.997014
934.374323	0.997176
934.677455	0.995262
934.980548	0.995870
935.283602	0.996778
935.586617	0.997393
935.889593	0.997485
936.192530	0.996868
936.495428	0.996540
936.798287	0.994659
937.101108	0.994686
937.403890	0.994125
937.706632	0.994830
938.009336	0.992087
938.312002	0.989324
938.614628	0.989346
938.917216	0.987467
939.219765	0.986647
939.522275	0.987869
939.824747	0.987691
940.127179	0.988226
940.429573	0.989627
940.731929	0.988231
941.034246	0.990379
941.336524	0.990211
941.638763	0.991235
941.940964	0.991275
942.243126	0.991253
942.545250	0.992885
942.847335	0.993092
943.149381	0.993852
943.451389	0.992463
943.753359	0.993766
944.055290	0.995942
944.357182	0.995777
944.659036	0.995159
944.960851	0.994842
945.262628	0.994782
945.564367	0.995127
945.866067	0.995304
946.167729	0.995053
946.469352	0.994614
946.770937	0.993239
947.072484	0.995325
947.373992	0.995811
947.675462	0.994646
947.976893	0.994660
948.278286	0.997241
948.579641	0.996070
948.880958	0.995963
949.182236	0.995881
949.483476	0.997202
949.784678	0.995177
950.085841	0.996460
950.386967	0.996457
950.688054	0.996834
950.989103	0.994695
951.290114	0.994479
951.591087	0.994973
951.892021	0.993629
952.192917	0.993573
952.493776	0.994319
952.794596	0.992980
953.095378	0.992082
953.396122	0.992868
953.696828	0.993164
953.997496	0.994887
954.298126	0.996115
954.598718	0.994013
954.899272	0.996016
955.199788	0.996309
955.500266	0.998064
955.800706	0.996514
956.101108	0.998194
956.401472	1.000131
956.701798	0.998785
957.002087	0.999973
957.302337	0.998185
957.602550	0.999040
957.902724	0.999746
958.202861	0.999835
958.502960	0.998808
958.803022	1.001617
959.103045	1.000630
959.403031	1.001574
959.702979	1.002551
960.002889	1.001321
960.302762	0.999586
960.602596	1.002005
960.902393	1.002206
961.202153	1.002793
961.501875	1.002563
961.801559	1.001783
962.101205	1.000738
962.400814	1.001417
962.700385	1.002679
962.999918	1.002742
963.299414	1.001710
963.598873	1.001581
963.898293	1.001719
964.197677	1.001105
964.497022	1.003498
964.796331	1.002296
965.095601	1.003255
965.394835	1.002973
965.694030	1.003216
965.993189	1.002199
966.292309	1.002681
966.591393	1.001603
966.890439	1.003087
967.189447	1.002540
967.488419	1.002949
967.787353	1.002176
968.086249	1.003554
968.385108	1.001814
968.683930	1.003386
968.982714	1.002604
969.281462	1.003051
969.580172	1.002045
969.878844	1.003710
970.177480	1.003385
970.476078	1.002955
970.774639	1.002805
971.073162	1.002967
971.371649	1.001061
971.670098	1.000979
971.968510	1.002661
972.266885	1.000915
972.565223	1.002551
972.863524	1.001593
973.161788	1.000773
973.460014	1.002904
973.758204	1.001505
974.056356	1.002134
974.354471	1.001063
974.652550	1.003550
974.950591	1.001974
975.248595	1.002722
975.546563	1.003004
975.844493	1.003850
976.142386	1.001052
976.440243	1.002191
976.738062	1.002840
977.035845	1.002436
977.333590	1.002208
977.631299	1.001835
977.928971	1.002594
978.226606	1.003433
978.524204	1.001753
978.821765	1.003052
979.119290	1.004278
979.416777	1.002495
979.714228	1.002749
980.011642	1.002805
980.309020	1.002432
980.606360	1.001788
980.903664	1.003684
981.200931	1.001886
981.498162	1.001585
981.795356	1.000883
982.092513	0.999339
982.389633	0.998867
982.686717	0.997031
982.983764	0.996350
983.280775	0.995907
983.577749	0.996568
983.874686	0.996653
984.171587	0.997775
984.468451	0.999048
984.765279	0.999209
985.062070	0.999984
985.358824	1.001079
985.655543	1.000873
985.952224	1.001553
986.248869	1.001935
986.545478	1.003305
986.842050	1.002727
987.138586	1.002683
987.435086	1.002672
987.731549	1.004507
988.027975	1.004554
988.324366	1.003038
988.620719	1.002775
988.917037	1.003286
989.213318	1.004567
989.509563	1.003821
989.805772	1.003817
990.101944	1.004037
990.398080	1.004136
990.694180	1.004399
990.990244	1.003334
991.286271	1.004293
991.582262	1.004952
991.878217	1.003197
992.174136	1.004665
992.470019	1.004432
992.765865	1.004617
993.061676	1.004970
993.357450	1.004324
993.653188	1.005068
993.948890	1.002790
994.244556	1.002036
994.540186	1.003678
994.835780	1.002067
995.131337	1.002584
995.426859	1.002934
995.722345	1.002376
996.017795	1.001879
996.313208	1.002421
996.608586	1.000960
996.903928	1.002424
997.199234	1.001695
997.494504	1.003228
997.789738	1.000511
998.084936	1.003062
998.380099	1.002169
998.675225	1.004402
998.970316	1.004165
999.265371	1.005011
999.560390	1.002828
999.855373	1.003175
1000.150320	1.003667
1000.445232	1.004927
1000.740108	1.004108
1001.034948	1.003645
1001.329752	1.005611
1001.624521	1.004054
1001.919254	1.002372
1002.213951	1.004460
1002.508613	1.003811
1002.803239	1.004056
1003.097829	1.004296
1003.392384	1.004263
1003.686903	1.004470
1003.981386	1.004405
1004.275834	1.005103
1004.570246	1.003174
1004.864623	1.005012
1005.158964	1.004897
1005.453270	1.003116
1005.747540	1.003562
1006.041775	1.004424
1006.335974	1.004850
1006.630138	1.004287
1006.924266	1.003124
1007.218359	1.003045
1007.512416	1.005439
1007.806438	1.004563
1008.100425	1.004341
1008.394376	1.005494
1008.688292	1.004442
1008.982172	1.004493
1009.276017	1.003885
1009.569827	1.005287
1009.863602	1.002815
1010.157341	1.006019
1010.451045	1.004081
1010.744714	1.005744
1011.038347	1.004159
1011.331945	1.004537
1011.625508	1.005253
1011.919036	1.004165
1012.212528	1.004100
1012.505986	1.004414
1012.799408	1.005594
1013.092795	1.004957
1013.386147	1.003949
1013.679464	1.004636
1013.972745	1.004653
1014.265992	1.004288
1014.559204	1.004133
1014.852380	1.005270
1015.145521	1.005450
1015.438628	1.006148
1015.731699	1.004718
1016.024736	1.005789
1016.317737	1.005076
1016.610703	1.005188
1016.903635	1.004036
1017.196531	1.005278
1017.489393	1.004448
1017.782219	1.004446
1018.075011	1.005120
1018.367768	1.003039
1018.660490	1.004548
1018.953177	1.004548
1019.245829	1.004548
