Dividing Wavelength (nm)	Counts (n)	Blue Motor Position (mm): 30.700000	Red Motor Position (mm): 0.000000	
326.493990	1.000175
326.888308	1.000175
327.282561	1.000175
327.676750	1.001808
328.070874	1.002122
328.464933	1.001712
328.858929	1.001044
329.252859	1.000920
329.646726	1.000947
330.040528	1.000892
330.434265	1.000936
330.827938	1.001107
331.221547	1.001234
331.615091	1.002520
332.008571	1.003044
332.401986	1.001685
332.795338	1.000822
333.188625	1.001908
333.581847	1.001612
333.975006	1.000992
334.368100	1.002027
334.761129	1.000308
335.154095	1.000090
335.546996	1.000305
335.939833	0.999363
336.332606	0.999370
336.725315	0.999174
337.117960	1.000412
337.510540	0.999491
337.903056	1.000513
338.295508	1.000330
338.687896	1.001228
339.080220	0.999090
339.472480	0.999218
339.864676	1.000956
340.256807	0.998628
340.648875	1.001892
341.040879	1.000485
341.432818	1.000195
341.824694	1.000252
342.216506	1.000298
342.608253	0.999451
342.999937	0.999756
343.391557	0.999569
343.783113	1.000786
344.174605	0.999982
344.566033	1.000937
344.957397	1.000253
345.348697	1.000062
345.739934	0.999631
346.131106	0.999773
346.522215	0.999533
346.913260	0.999735
347.304241	0.998645
347.695159	0.999713
348.086012	1.000077
348.476802	0.999532
348.867528	0.999017
349.258191	0.999357
349.648789	1.000161
350.039324	1.001109
350.429796	0.999771
350.820203	0.999208
351.210548	0.999615
351.600828	1.000280
351.991045	0.999867
352.381198	0.999789
352.771288	0.999444
353.161314	1.000667
353.551276	0.998975
353.941175	0.998241
354.331010	0.999101
354.720782	0.999094
355.110490	0.999598
355.500135	0.999554
355.889717	0.999343
356.279235	0.999007
356.668689	0.999114
357.058080	0.999573
357.447408	0.997593
357.836672	0.998670
358.225873	0.998043
358.615010	0.998946
359.004084	0.997075
359.393095	0.999292
359.782043	0.999908
360.170927	0.999063
360.559748	0.999337
360.948505	0.998724
361.337199	0.998340
361.725830	0.999422
362.114398	0.999282
362.502903	0.997552
362.891344	0.996947
363.279722	0.997529
363.668037	0.999364
364.056289	0.998696
364.444478	0.999729
364.832603	0.999035
365.220665	0.998338
365.608665	0.997594
365.996601	0.996846
366.384474	0.997664
366.772284	0.998157
367.160031	0.995487
367.547715	0.996592
367.935336	0.995324
368.322893	0.995143
368.710388	0.994520
369.097820	0.991862
369.485189	0.988883
369.872495	0.986491
370.259738	0.985137
370.646918	0.983197
371.034035	0.980452
371.421090	0.978479
371.808081	0.973274
372.195010	0.969782
372.581875	0.965301
372.968678	0.960429
373.355418	0.957924
373.742096	0.949129
374.128710	0.944058
374.515262	0.941055
374.901751	0.934229
375.288177	0.930673
375.674540	0.922860
376.060841	0.917363
376.447079	0.910375
376.833254	0.904156
377.219367	0.898093
377.605417	0.888176
377.991404	0.884531
378.377329	0.878590
378.763191	0.872103
379.148991	0.862303
379.534727	0.855014
379.920402	0.847047
380.306013	0.842454
380.691563	0.829633
381.077049	0.824177
381.462474	0.818994
381.847835	0.808046
382.233134	0.803082
382.618371	0.803222
383.003545	0.786759
383.388657	0.785202
383.773706	0.777007
384.158693	0.772356
384.543618	0.767529
384.928480	0.758896
385.313280	0.749118
385.698017	0.747240
386.082692	0.736771
386.467305	0.735032
386.851856	0.729593
387.236344	0.724545
387.620770	0.718998
388.005133	0.713299
388.389435	0.707702
388.773674	0.705536
389.157851	0.696139
389.541965	0.695464
389.926018	0.701161
390.310008	0.687168
390.693936	0.685158
391.077802	0.677120
391.461606	0.678596
391.845348	0.667902
392.229027	0.667580
392.612645	0.664228
392.996200	0.652627
393.379694	0.645382
393.763125	0.635109
394.146494	0.639959
394.529801	0.630772
394.913047	0.621904
395.296230	0.628296
395.679351	0.619583
396.062410	0.617123
396.445408	0.619067
396.828343	0.614691
397.211217	0.610027
397.594028	0.621536
397.976778	0.612311
398.359466	0.608761
398.742092	0.604457
399.124656	0.616152
399.507158	0.604014
399.889598	0.602344
400.271977	0.593073
400.654294	0.597380
401.036549	0.595899
401.418742	0.600307
401.800874	0.585956
402.182944	0.582887
402.564952	0.574645
402.946898	0.576622
403.328783	0.577959
403.710606	0.588402
404.092367	0.563169
404.474067	0.569062
404.855705	0.568001
405.237282	0.576508
405.618797	0.562802
406.000250	0.558473
406.381642	0.547566
406.762972	0.554487
407.144240	0.552624
407.525447	0.551874
407.906593	0.545010
408.287677	0.540611
408.668700	0.548551
409.049661	0.543028
409.430560	0.537643
409.811399	0.546142
410.192176	0.528315
410.572891	0.535558
410.953545	0.523761
411.334138	0.536802
411.714669	0.529400
412.095139	0.541779
412.475547	0.526333
412.855894	0.528155
413.236180	0.527096
413.616405	0.532771
413.996568	0.522444
414.376670	0.529196
414.756711	0.533529
415.136691	0.530221
415.516609	0.522295
415.896466	0.518395
416.276262	0.515643
416.655997	0.516847
417.035670	0.497783
417.415283	0.489989
417.794834	0.494899
418.174324	0.500473
418.553753	0.509905
418.933121	0.492166
419.312428	0.486542
419.691674	0.492127
420.070859	0.480755
420.449983	0.488940
420.829045	0.479120
421.208047	0.488835
421.586988	0.482222
421.965867	0.481895
422.344686	0.471747
422.723444	0.485238
423.102141	0.503496
423.480777	0.477481
423.859352	0.499344
424.237866	0.478426
424.616319	0.481016
424.994712	0.473575
425.373044	0.485445
425.751314	0.475392
426.129524	0.494258
426.507673	0.480458
426.885762	0.476138
427.263789	0.484387
427.641756	0.495550
428.019662	0.489254
428.397508	0.491730
428.775292	0.499038
429.153016	0.494500
429.530679	0.503910
429.908282	0.500394
430.285824	0.513444
430.663305	0.498325
431.040726	0.521157
431.418086	0.525050
431.795385	0.522090
432.172624	0.526676
432.549802	0.531368
432.926920	0.535407
433.303977	0.540166
433.680974	0.543055
434.057910	0.547140
434.434786	0.552591
434.811601	0.560597
435.188355	0.552444
435.565050	0.566161
435.941683	0.574033
436.318257	0.568012
436.694770	0.576081
437.071222	0.582076
437.447614	0.592699
437.823946	0.603311
438.200218	0.603146
438.576429	0.616761
438.952580	0.621215
439.328670	0.626062
439.704700	0.638874
440.080670	0.647361
440.456580	0.644157
440.832429	0.658616
441.208218	0.672618
441.583947	0.673962
441.959616	0.681658
442.335224	0.693893
442.710773	0.696879
443.086261	0.705646
443.461689	0.720039
443.837057	0.723165
444.212365	0.727654
444.587612	0.739750
444.962800	0.742914
445.337927	0.752004
445.712995	0.772322
446.088002	0.764545
446.462949	0.776257
446.837837	0.787432
447.212664	0.788391
447.587431	0.795251
447.962139	0.793484
448.336786	0.784683
448.711374	0.796822
449.085901	0.820439
449.460369	0.830390
449.834776	0.838484
450.209124	0.840485
450.583412	0.845627
450.957640	0.849293
451.331808	0.860581
451.705917	0.871775
452.079965	0.879729
452.453954	0.883964
452.827883	0.890381
453.201752	0.895990
453.575562	0.902260
453.949311	0.907127
454.323001	0.912100
454.696632	0.916169
455.070202	0.920079
455.443713	0.923860
455.817164	0.926875
456.190556	0.931835
456.563888	0.935825
456.937160	0.939052
457.310373	0.944238
457.683526	0.948783
458.056619	0.953003
458.429653	0.956002
458.802628	0.959339
459.175542	0.962036
459.548398	0.963044
459.921194	0.964849
460.293930	0.967727
460.666607	0.968304
461.039224	0.968764
461.411782	0.970812
461.784280	0.972903
462.156719	0.976442
462.529099	0.978864
462.901419	0.981299
463.273680	0.982080
463.645882	0.983492
464.018024	0.986180
464.390106	0.985761
464.762130	0.987518
465.134094	0.987924
465.505999	0.987190
465.877845	0.986174
466.249631	0.987405
466.621358	0.988092
466.993026	0.990314
467.364634	0.991134
467.736184	0.991953
468.107674	0.992351
468.479105	0.992560
468.850477	0.993609
469.221790	0.994330
469.593043	0.993984
469.964238	0.995011
470.335373	0.994587
470.706449	0.995268
471.077467	0.996024
471.448425	0.996183
471.819324	0.995547
472.190164	0.994843
472.560945	0.995354
472.931667	0.996260
473.302330	0.996210
473.672934	0.996294
474.043479	0.996441
474.413965	0.997581
474.784393	0.996850
475.154761	0.997010
475.525070	0.996186
475.895321	0.996600
476.265513	0.997043
476.635645	0.997381
477.005719	0.997145
477.375734	0.996955
477.745691	0.996161
478.115588	0.996955
478.485427	0.997482
478.855207	0.996788
479.224928	0.996637
479.594591	0.996863
479.964194	0.996672
480.333739	0.997097
480.703226	0.995627
481.072653	0.996735
481.442022	0.997201
481.811333	0.996522
482.180584	0.996156
482.549777	0.996987
482.918912	0.996697
483.287988	0.996935
483.657005	0.996874
484.025964	0.996873
484.394864	0.996837
484.763706	0.997049
485.132489	0.997696
485.501213	0.997339
485.869879	0.996866
486.238487	0.996928
486.607036	0.997652
486.975527	0.997640
487.343959	0.996219
487.712333	0.997604
488.080648	0.997230
488.448905	0.997415
488.817104	0.997695
489.185244	0.996926
489.553326	0.997837
489.921350	0.997964
490.289315	0.997285
490.657222	0.996621
491.025070	0.997393
491.392861	0.996985
491.760593	0.997104
492.128267	0.997198
492.495883	0.996553
492.863440	0.997798
493.230939	0.997731
493.598380	0.998363
493.965763	0.997401
494.333088	0.996659
494.700354	0.996961
495.067563	0.997293
495.434713	0.997429
495.801805	0.996860
496.168839	0.997501
496.535815	0.997278
496.902733	0.997762
497.269593	0.997102
497.636395	0.996678
498.003139	0.996729
498.369825	0.998360
498.736453	0.997530
499.103023	0.997528
499.469535	0.997819
499.835989	0.997874
500.202385	0.997895
500.568723	0.997844
500.935003	0.997698
501.301226	0.998424
501.667390	0.997545
502.033497	0.998238
502.399546	0.997574
502.765537	0.997333
503.131470	0.997311
503.497345	0.997792
503.863163	0.997730
504.228923	0.997393
504.594625	0.997420
504.960269	0.997710
505.325856	0.998275
505.691385	0.998595
506.056856	0.998403
506.422270	0.998069
506.787625	0.998284
507.152924	0.998197
507.518164	0.997300
507.883347	0.997723
508.248472	0.997842
508.613540	0.997774
508.978550	0.998240
509.343503	0.997936
509.708398	0.998537
510.073236	0.998210
510.438016	0.997733
510.802738	0.997957
511.167403	0.997627
511.532010	0.998055
511.896561	0.998219
512.261053	0.997512
512.625488	0.997789
512.989866	0.997545
513.354186	0.997515
513.718449	0.998208
514.082655	0.997398
514.446803	0.997566
514.810894	0.998723
515.174927	0.998398
515.538904	0.998486
515.902822	0.997860
516.266684	0.997931
516.630488	0.998125
516.994235	0.998017
517.357925	0.998625
517.721558	0.997811
518.085133	0.998044
518.448651	0.998017
518.812112	0.998350
519.175516	0.997632
519.538863	0.997246
519.902152	0.998295
520.265385	0.997406
520.628560	0.997377
520.991678	0.997674
521.354739	0.998306
521.717743	0.997899
522.080690	0.997752
522.443580	0.998141
522.806413	0.997313
523.169189	0.998238
523.531908	0.997248
523.894569	0.998065
524.257174	0.998038
524.619722	0.997721
524.982213	0.997725
525.344647	0.997959
525.707025	0.997802
526.069345	0.997037
526.431608	0.998080
526.793815	0.998150
527.155964	0.998332
527.518057	0.998052
527.880093	0.997711
528.242072	0.998054
528.603995	0.998063
528.965860	0.997924
529.327669	0.997276
529.689421	0.997592
530.051117	0.997878
530.412755	0.998433
530.774337	0.997784
531.135862	0.998852
531.497331	0.997232
531.858743	0.998204
532.220098	0.997523
532.581396	0.997868
532.942638	0.997842
533.303824	0.998788
533.664953	0.997319
534.026025	0.998092
534.387040	0.997915
534.747999	0.997315
535.108902	0.997438
535.469748	0.998583
535.830537	0.997917
536.191270	0.997599
536.551947	0.997289
536.912567	0.998144
537.273131	0.997871
537.633638	0.997226
537.994089	0.998051
538.354483	0.997995
538.714821	0.997749
539.075103	0.997789
539.435328	0.998364
539.795497	0.997694
540.155609	0.997948
540.515665	0.998147
540.875665	0.997631
541.235609	0.997759
541.595496	0.997394
541.955328	0.997030
542.315102	0.998003
542.674821	0.998291
543.034483	0.998129
543.394090	0.997068
543.753640	0.997996
544.113134	0.997467
544.472571	0.997616
544.831953	0.997463
545.191278	0.998267
545.550548	0.996954
545.909761	0.997382
546.268918	0.998096
546.628019	0.998401
546.987064	0.997028
547.346053	0.997205
547.704986	0.997738
548.063863	0.997270
548.422684	0.998046
548.781449	0.997367
549.140158	0.997164
549.498811	0.997338
549.857408	0.996976
550.215949	0.996786
550.574434	0.996936
550.932864	0.997580
551.291237	0.997453
551.649555	0.998260
552.007817	0.997774
552.366022	0.997611
552.724173	0.998257
553.082267	0.997152
553.440305	0.996732
553.798288	0.997094
554.156215	0.997392
554.514086	0.997316
554.871902	0.997427
555.229661	0.996964
555.587365	0.997433
555.945014	0.998263
556.302606	0.997165
556.660143	0.997429
557.017625	0.997368
557.375050	0.997670
557.732421	0.997997
558.089735	0.997178
558.446994	0.997855
558.804197	0.997760
559.161345	0.996658
559.518437	0.997143
559.875474	0.997535
560.232455	0.997944
560.589381	0.997544
560.946251	0.997075
561.303065	0.997648
561.659825	0.997291
562.016528	0.998188
562.373177	0.997264
562.729770	0.997062
563.086307	0.996360
563.442789	0.997529
563.799216	0.996712
564.155587	0.996825
564.511904	0.997589
564.868164	0.996420
565.224370	0.997051
565.580520	0.997063
565.936615	0.997024
566.292654	0.996517
566.648638	0.998239
567.004567	0.996920
567.360441	0.997539
567.716260	0.996909
568.072023	0.997442
568.427732	0.997684
568.783385	0.997315
569.138982	0.997383
569.494525	0.996900
569.850013	0.997761
570.205445	0.997507
570.560823	0.996769
570.916145	0.997470
571.271412	0.997085
571.626625	0.997852
571.981782	0.997627
572.336884	0.997888
572.691931	0.997586
573.046923	0.997293
573.401860	0.998188
573.756743	0.997905
574.111570	0.997635
574.466342	0.997910
574.821059	0.997240
575.175722	0.997818
575.530330	0.997387
575.884882	0.997745
576.239380	0.997349
576.593823	0.997248
576.948211	0.997669
577.302544	0.997324
577.656823	0.997667
578.011047	0.996880
578.365216	0.998245
578.719330	0.997942
579.073389	0.996906
579.427394	0.997206
579.781344	0.997806
580.135239	0.996957
580.489080	0.997187
580.842866	0.997193
581.196597	0.997582
581.550273	0.997265
581.903895	0.997797
582.257463	0.997397
582.610975	0.997280
582.964434	0.997427
583.317837	0.997398
583.671186	0.997720
584.024481	0.997296
584.377721	0.996659
584.730906	0.998016
585.084037	0.998478
585.437113	0.997543
585.790135	0.997637
586.143103	0.997071
586.496016	0.997690
586.848874	0.997640
587.201679	0.997625
587.554428	0.996707
587.907124	0.997409
588.259765	0.997590
588.612352	0.997597
588.964884	0.997425
589.317362	0.997707
589.669786	0.996924
590.022155	0.997380
590.374470	0.997578
590.726731	0.996911
591.078937	0.996984
591.431090	0.997338
591.783188	0.997327
592.135232	0.997994
592.487222	0.997716
592.839157	0.997155
593.191038	0.997646
593.542866	0.997795
593.894639	0.996386
594.246358	0.997414
594.598022	0.997478
594.949633	0.997704
595.301190	0.997321
595.652692	0.997038
596.004141	0.996817
596.355535	0.997262
596.706876	0.997819
597.058162	0.997401
597.409395	0.997641
597.760573	0.997126
598.111698	0.996976
598.462768	0.996983
598.813785	0.997029
599.164748	0.996254
599.515657	0.996468
599.866511	0.998190
600.217312	0.997930
600.568060	0.997395
600.918753	0.997590
601.269392	0.997726
601.619978	0.997258
601.970510	0.997610
602.320988	0.997533
602.671412	0.996719
603.021783	0.997884
603.372100	0.998179
603.722363	0.997800
604.072572	0.997762
604.422728	0.996632
604.772830	0.996980
605.122878	0.997485
605.472872	0.998019
605.822813	0.996316
606.172701	0.998243
606.522534	0.997829
606.872314	0.997858
607.222041	0.997296
607.571714	0.997657
607.921333	0.997447
608.270899	0.997230
608.620411	0.997943
608.969870	0.997910
609.319276	0.997813
609.668627	0.997324
610.017926	0.996875
610.367171	0.997576
610.716362	0.997987
611.065500	0.996746
611.414585	0.997404
611.763616	0.996421
612.112594	0.997770
612.461518	0.996435
612.810389	0.997158
613.159207	0.997213
613.507971	0.996443
613.856682	0.998510
614.205340	0.997048
614.553945	0.997181
614.902496	0.996567
615.250994	0.997289
615.599439	0.997508
615.947830	0.996440
616.296169	0.997368
616.644454	0.997133
616.992686	0.997850
617.340864	0.997450
617.688990	0.996926
618.037063	0.997753
618.385082	0.996622
618.733048	0.995953
619.080961	0.996888
619.428821	0.997464
619.776628	0.996414
620.124382	0.998005
620.472083	0.997519
620.819731	0.998245
621.167326	0.997592
621.514868	0.997540
621.862357	0.996920
622.209793	0.997120
622.557176	0.996994
622.904506	0.997219
623.251783	0.997424
623.599007	0.997938
623.946179	0.997117
624.293297	0.997926
624.640363	0.997981
624.987376	0.996447
625.334336	0.997374
625.681243	0.997851
626.028097	0.997494
626.374899	0.997626
626.721647	0.997699
627.068343	0.997658
627.414987	0.998167
627.761577	0.996675
628.108115	0.997292
628.454600	0.997887
628.801032	0.997624
629.147412	0.997591
629.493739	0.998122
629.840014	0.997246
630.186236	0.997334
630.532405	0.997936
630.878521	0.997076
631.224585	0.997098
631.570597	0.996603
631.916556	0.997286
632.262462	0.996917
632.608316	0.997828
632.954117	0.997198
633.299866	0.997415
633.645562	0.997213
633.991206	0.997970
634.336797	0.997810
634.682336	0.997940
635.027823	0.997293
635.373257	0.997790
635.718639	0.997309
636.063968	0.996728
636.409245	0.996938
636.754470	0.997008
637.099642	0.998061
637.444762	0.998093
637.789829	0.997184
638.134845	0.997898
638.479808	0.997492
638.824719	0.997953
639.169577	0.997851
639.514383	0.997356
639.859137	0.998243
640.203839	0.997514
640.548489	0.997003
640.893086	0.997106
641.237632	0.997568
641.582125	0.997565
641.926566	0.997323
642.270955	0.997775
642.615292	0.997222
642.959576	0.997799
643.303809	0.998119
643.647990	0.997850
643.992118	0.997726
644.336195	0.996893
644.680219	0.998071
645.024192	0.998217
645.368112	0.997102
645.711981	0.998161
646.055797	0.996994
646.399562	0.996539
646.743274	0.997466
647.086935	0.997523
647.430544	0.997238
647.774101	0.996713
648.117606	0.998072
648.461059	0.997569
648.804460	0.997258
649.147810	0.997802
649.491108	0.997970
649.834354	0.997545
650.177548	0.997604
650.520690	0.998011
650.863781	0.997599
651.206820	0.998651
651.549807	0.997814
651.892742	0.998603
652.235626	0.997836
652.578458	0.998028
652.921238	0.998492
653.263967	0.998044
653.606644	0.997528
653.949269	0.998109
654.291843	0.997740
654.634365	0.998655
654.976836	0.997590
655.319255	0.999061
655.661622	0.997637
656.003938	0.997862
656.346203	0.997013
656.688416	0.998142
657.030577	0.996920
657.372687	0.997580
657.714746	0.997484
658.056753	0.997238
658.398708	0.996957
658.740612	0.998038
659.082465	0.996809
659.424266	0.997857
659.766016	0.996868
660.107715	0.998399
660.449362	0.997347
660.790958	0.997348
661.132503	0.998196
661.473996	0.997197
661.815438	0.997554
662.156829	0.997700
662.498168	0.997397
662.839456	0.996216
663.180693	0.997983
663.521879	0.998383
663.863013	0.998140
664.204097	0.997396
664.545129	0.997346
664.886110	0.997439
665.227040	0.997956
665.567918	0.997525
665.908746	0.997774
666.249522	0.997337
666.590248	0.997026
666.930922	0.997212
667.271545	0.997218
667.612118	0.997790
667.952639	0.997817
668.293109	0.997540
668.633528	0.997655
668.973896	0.997723
669.314213	0.996670
669.654480	0.997596
669.994695	0.997082
670.334859	0.996359
670.674973	0.997791
671.015035	0.997007
671.355047	0.997857
671.695008	0.996400
672.034918	0.997268
672.374777	0.998050
672.714585	0.997598
673.054342	0.998075
673.394049	0.997871
673.733705	0.997365
674.073310	0.997332
674.412864	0.997257
674.752368	0.996364
675.091820	0.997941
675.431223	0.997885
675.770574	0.996756
676.109875	0.997527
676.449125	0.997166
676.788324	0.997420
677.127473	0.997955
677.466571	0.997798
677.805619	0.997816
678.144616	0.998018
678.483562	0.997888
678.822458	0.998038
679.161303	0.997269
679.500098	0.997701
679.838842	0.998267
680.177535	0.997493
680.516179	0.996857
680.854771	0.997025
681.193314	0.997954
681.531805	0.997171
681.870247	0.996905
682.208638	0.997668
682.546978	0.997272
682.885268	0.997303
683.223508	0.997579
683.561697	0.997273
683.899836	0.997849
684.237925	0.996732
684.575963	0.996808
684.913951	0.996724
685.251889	0.996792
685.589776	0.997528
685.927614	0.997970
686.265401	0.996220
686.603137	0.997342
686.940824	0.997208
687.278460	0.997712
687.616046	0.996385
687.953582	0.996687
688.291068	0.996839
688.628504	0.996529
688.965889	0.996501
689.303224	0.995613
689.640510	0.996715
689.977745	0.996137
690.314930	0.997072
690.652065	0.996326
690.989150	0.996417
691.326185	0.996799
691.663170	0.997688
692.000105	0.997895
692.336990	0.998193
692.673825	0.997284
693.010610	0.997716
693.347345	0.997955
693.684030	0.997705
694.020665	0.997351
694.357251	0.997589
694.693786	0.997593
695.030272	0.997052
695.366707	0.996504
695.703093	0.997197
696.039429	0.996795
696.375716	0.998217
696.711952	0.997506
697.048139	0.998215
697.384276	0.997356
697.720363	0.997059
698.056400	0.996183
698.392388	0.996375
698.728326	0.997677
699.064214	0.998500
699.400053	0.997695
699.735842	0.998193
700.071581	0.997664
700.407270	0.997745
700.742910	0.997764
701.078501	0.997327
701.414042	0.997626
701.749533	0.996676
702.084974	0.997533
702.420366	0.997364
702.755709	0.997128
703.091002	0.998905
703.426246	0.998225
703.761440	0.996701
704.096584	0.996649
704.431679	0.997532
704.766725	0.997898
705.101721	0.997662
705.436668	0.997819
705.771565	0.997088
706.106413	0.997094
706.441212	0.997318
706.775961	0.997315
707.110661	0.996252
707.445311	0.998050
707.779913	0.998269
708.114465	0.998351
708.448967	0.998789
708.783421	0.997945
709.117825	0.997609
709.452180	0.997659
709.786485	0.997702
710.120742	0.996014
710.454949	0.996408
710.789107	0.997606
711.123216	0.995640
711.457275	0.995666
711.791286	0.996899
712.125247	0.998594
712.459159	0.996726
712.793023	0.996181
713.126837	0.996798
713.460602	0.996865
713.794318	0.996943
714.127985	0.996622
714.461602	0.997157
714.795171	0.996899
715.128691	0.997213
715.462162	0.998074
715.795584	0.996413
716.128957	0.997958
716.462281	0.997667
716.795556	0.996839
717.128782	0.997609
717.461960	0.996870
717.795088	0.997278
718.128167	0.997360
718.461198	0.997624
718.794180	0.998556
719.127113	0.997334
719.459997	0.997489
719.792833	0.997256
720.125619	0.996824
720.458357	0.997038
720.791046	0.997549
721.123686	0.997312
721.456278	0.997007
721.788821	0.997782
722.121315	0.997919
722.453761	0.998269
722.786158	0.996674
723.118506	0.997555
723.450805	0.997018
723.783056	0.997817
724.115259	0.997252
724.447412	0.998427
724.779518	0.997971
725.111574	0.996835
725.443582	0.998135
725.775542	0.997534
726.107453	0.998220
726.439315	0.998396
726.771129	0.998146
727.102895	0.997341
727.434612	0.997466
727.766281	0.997842
728.097901	0.996367
728.429473	0.997286
728.760996	0.996349
729.092471	0.997935
729.423897	0.997504
729.755276	0.997411
730.086606	0.996642
730.417887	0.997539
730.749120	0.998208
731.080305	0.996756
731.411442	0.996120
731.742530	0.996336
732.073570	0.997037
732.404562	0.996155
732.735506	0.996638
733.066401	0.996529
733.397249	0.996722
733.728048	0.998013
734.058798	0.997533
734.389501	0.998235
734.720156	0.996787
735.050762	0.997299
735.381320	0.997166
735.711831	0.996916
736.042293	0.997573
736.372707	0.998160
736.703073	0.997121
737.033391	0.997371
737.363661	0.997391
737.693883	0.996998
738.024056	0.996909
738.354182	0.997792
738.684260	0.997613
739.014290	0.996976
739.344272	0.997276
739.674207	0.997241
740.004093	0.997334
740.333931	0.997414
740.663722	0.997182
740.993464	0.996752
741.323159	0.997201
741.652806	0.997359
741.982405	0.997746
742.311956	0.997691
742.641460	0.998074
742.970915	0.997275
743.300323	0.996327
743.629683	0.997384
743.958996	0.997989
744.288260	0.997118
744.617477	0.997548
744.946647	0.997226
745.275768	0.997528
745.604842	0.997438
745.933869	0.998125
746.262847	0.998331
746.591778	0.996586
746.920662	0.998034
747.249498	0.998953
747.578286	0.999293
747.907027	0.997317
748.235720	0.998112
748.564365	0.998456
748.892963	0.998222
749.221514	0.997626
749.550017	0.997131
749.878473	0.998058
750.206881	0.998508
750.535242	0.997569
750.863555	0.997231
751.191821	0.997439
751.520039	0.996497
751.848210	0.996250
752.176334	0.997209
752.504411	0.996728
752.832440	0.996455
753.160421	0.998002
753.488356	0.998535
753.816243	0.997502
754.144082	0.996842
754.471875	0.998175
754.799620	0.998329
755.127318	0.997421
755.454969	0.997743
755.782572	0.999113
756.110129	0.997431
756.437638	0.998919
756.765100	0.997814
757.092515	0.997993
757.419882	0.997748
757.747203	0.997644
758.074477	0.998707
758.401703	0.997602
758.728882	0.998444
759.056014	0.997665
759.383099	0.997477
759.710138	0.996626
760.037129	0.997060
760.364073	0.997404
760.690970	0.997026
761.017820	0.997298
761.344623	0.997361
761.671379	0.997619
761.998088	0.996780
762.324751	0.996978
762.651366	0.996442
762.977935	0.995701
763.304456	0.995816
763.630931	0.994143
763.957359	0.994321
764.283740	0.994242
764.610074	0.995548
764.936362	0.995573
765.262602	0.996693
765.588796	0.997464
765.914943	0.996811
766.241044	0.996781
766.567097	0.997741
766.893104	0.998160
767.219064	0.996391
767.544978	0.998617
767.870845	0.997878
768.196665	0.997362
768.522438	0.997804
768.848165	0.998105
769.173846	0.998162
769.499479	0.999760
769.825066	0.998465
770.150607	0.999178
770.476101	0.998928
770.801548	0.998664
771.126949	0.998744
771.452303	0.999129
771.777611	0.998701
772.102872	0.998175
772.428087	0.997522
772.753256	0.998077
773.078378	0.998884
773.403453	0.997746
773.728482	1.000416
774.053465	0.997779
774.378401	0.999505
774.703291	0.999267
775.028135	0.999925
775.352932	0.996915
775.677683	0.998441
776.002388	0.998846
776.327046	0.998601
776.651658	1.000153
776.976224	0.998513
777.300743	0.998384
777.625216	0.998848
777.949643	0.999337
778.274024	0.997957
778.598359	0.999158
778.922647	0.999359
779.246889	0.999781
779.571086	0.999032
779.895236	0.999333
780.219339	0.999682
780.543397	0.997837
780.867409	0.999792
781.191374	0.998490
781.515294	0.999445
781.839167	0.999515
782.162995	0.998418
782.486776	0.996960
782.810511	0.998538
783.134201	0.998555
783.457844	0.998791
783.781441	0.999382
784.104993	0.998290
784.428498	0.998858
784.751958	0.999553
785.075372	0.999654
785.398739	0.997905
785.722061	0.998729
786.045337	0.999277
786.368568	0.997507
786.691752	0.998558
787.014891	0.997938
787.337983	0.997793
787.661030	0.998156
787.984031	0.998660
788.306987	0.997873
788.629897	0.997194
788.952760	0.998083
789.275579	0.998115
789.598351	0.999047
789.921078	0.999935
790.243759	0.998552
790.566395	0.997511
790.888984	0.998638
791.211529	0.999330
791.534027	0.998998
791.856480	0.998512
792.178888	0.998425
792.501249	0.998272
792.823566	0.999855
793.145836	0.998882
793.468062	0.998774
793.790241	0.999776
794.112375	0.998532
794.434464	0.999067
794.756507	0.999521
795.078505	0.999075
795.400457	0.999295
795.722364	0.999156
796.044226	0.997949
796.366042	0.997554
796.687812	0.997235
797.009538	0.998879
797.331218	0.997673
797.652852	0.999273
797.974442	0.997368
798.295986	0.998631
798.617484	0.997532
798.938938	0.998641
799.260346	0.997057
799.581709	0.997304
799.903026	0.999666
800.224299	0.997875
800.545526	0.997645
800.866708	0.998492
801.187845	0.999299
801.508936	0.999231
801.829983	0.999548
802.150984	0.998443
802.471940	0.999236
802.792851	0.998186
803.113717	1.000134
803.434538	0.999271
803.755314	0.999377
804.076045	0.999750
804.396731	0.999070
804.717372	0.997367
805.037967	0.999355
805.358518	0.998710
805.679024	0.997805
805.999485	0.999761
806.319901	0.998551
806.640272	1.000389
806.960598	0.998703
807.280879	0.998131
807.601115	0.999526
807.921306	0.999931
808.241453	0.998167
808.561554	0.999438
808.881611	0.999190
809.201623	0.998821
809.521590	0.998701
809.841513	0.999699
810.161390	0.997982
810.481223	0.997898
810.801011	0.999125
811.120755	1.000552
811.440453	0.997760
811.760107	0.999569
812.079716	0.999234
812.399281	0.998518
812.718801	0.997857
813.038276	0.998522
813.357707	0.998228
813.677093	0.999650
813.996434	0.997904
814.315731	1.000387
814.634983	0.999508
814.954191	0.999346
815.273354	0.998272
815.592473	0.997725
815.911547	0.999385
816.230577	0.998948
816.549562	0.999151
816.868502	0.998099
817.187399	0.999109
817.506250	0.998269
817.825058	0.997386
818.143821	0.997682
818.462539	0.997826
818.781213	0.998787
819.099843	0.998001
819.418429	0.997464
819.736970	0.998266
820.055466	0.996632
820.373919	0.996335
820.692327	0.994936
821.010691	0.995033
821.329011	0.992513
821.647286	0.989929
821.965517	0.987412
822.283704	0.986454
822.601847	0.984653
822.919945	0.985560
823.237999	0.987648
823.556010	0.987936
823.873976	0.990025
824.191897	0.990818
824.509775	0.992498
824.827609	0.993419
825.145398	0.993810
825.463144	0.992796
825.780845	0.993978
826.098502	0.993233
826.416116	0.992422
826.733685	0.991270
827.051210	0.989457
827.368692	0.990828
827.686129	0.990740
828.003522	0.994032
828.320872	0.994505
828.638177	0.995491
828.955439	0.996563
829.272656	0.996215
829.589830	0.996781
829.906960	0.998035
830.224046	0.997379
830.541088	0.997321
830.858086	0.997686
831.175041	0.998244
831.491952	0.997735
831.808819	0.997087
832.125642	0.997256
832.442421	0.997882
832.759157	0.997058
833.075849	0.995712
833.392497	0.994597
833.709101	0.992646
834.025662	0.994251
834.342179	0.994088
834.658653	0.995665
834.975083	0.995069
835.291469	0.996363
835.607811	0.996410
835.924110	0.997149
836.240366	0.998758
836.556578	0.999259
836.872746	0.998349
837.188871	0.999161
837.504952	0.998816
837.820990	0.998094
838.136984	0.998301
838.452935	0.997929
838.768842	0.998863
839.084706	0.998353
839.400526	0.998911
839.716303	0.996604
840.032037	0.996454
840.347727	0.996890
840.663373	0.996921
840.978977	0.997643
841.294537	0.998928
841.610054	0.998762
841.925527	0.999212
842.240957	0.998820
842.556344	0.998350
842.871687	0.998552
843.186987	0.998984
843.502244	1.000217
843.817458	0.998790
844.132629	0.999075
844.447756	0.999726
844.762840	0.999083
845.077881	1.000635
845.392879	0.998769
845.707833	1.000257
846.022745	0.999870
846.337613	0.999642
846.652438	1.000028
846.967221	1.001199
847.281960	0.999977
847.596656	1.000620
847.911309	0.999660
848.225919	0.999287
848.540485	0.999729
848.855009	1.001977
849.169490	0.999308
849.483928	0.999398
849.798323	0.998722
850.112675	0.999963
850.426984	1.000516
850.741251	1.000450
851.055474	1.000553
851.369654	0.999633
851.683792	0.999563
851.997887	0.998904
852.311938	0.999782
852.625947	0.999164
852.939914	0.999200
853.253837	1.000341
853.567718	0.999568
853.881555	1.000384
854.195350	0.999652
854.509103	1.000788
854.822812	0.999765
855.136479	1.000102
855.450103	1.000580
855.763685	1.000223
856.077224	1.000143
856.390720	1.000191
856.704173	1.000483
857.017584	1.001597
857.330953	1.000295
857.644278	0.999498
857.957561	0.999637
858.270802	0.999378
858.584000	1.000528
858.897155	0.998948
859.210268	1.000070
859.523339	1.000615
859.836367	1.000118
860.149352	0.999072
860.462295	1.000391
860.775195	0.999943
861.088054	0.998110
861.400869	0.999913
861.713642	0.998681
862.026373	1.000413
862.339062	1.000558
862.651708	1.000062
862.964312	1.000185
863.276873	0.999990
863.589392	0.999162
863.901869	0.999996
864.214303	0.999839
864.526696	0.999161
864.839045	1.000089
865.151353	0.999531
865.463619	0.999415
865.775842	1.000434
866.088023	1.000329
866.400162	0.999353
866.712258	1.000772
867.024313	1.000068
867.336325	1.000773
867.648296	0.999267
867.960224	0.999641
868.272110	1.000949
868.583954	0.998974
868.895755	0.999770
869.207515	0.999373
869.519233	1.000295
869.830909	0.999073
870.142542	0.998713
870.454134	1.000639
870.765684	0.999918
871.077191	0.999950
871.388657	0.998883
871.700081	0.999705
872.011463	0.999990
872.322803	0.999326
872.634101	0.999211
872.945357	0.998757
873.256571	0.998855
873.567744	0.999574
873.878874	0.999203
874.189963	0.998958
874.501010	0.999961
874.812015	0.999229
875.122979	0.999705
875.433900	0.999364
875.744780	0.999950
876.055618	0.998261
876.366415	0.998268
876.677169	0.998934
876.987882	0.999012
877.298554	1.000348
877.609183	1.000131
877.919771	0.999686
878.230317	0.999821
878.540822	0.997544
878.851285	0.997513
879.161707	0.997651
879.472087	0.998461
879.782425	0.996134
880.092722	0.995845
880.402977	0.993538
880.713191	0.990939
881.023363	0.987469
881.333494	0.987203
881.643583	0.987286
881.953631	0.986830
882.263637	0.987644
882.573602	0.987586
882.883526	0.989465
883.193408	0.990896
883.503248	0.991106
883.813048	0.992183
884.122806	0.994652
884.432522	0.994266
884.742197	0.996244
885.051831	0.995414
885.361424	0.996828
885.670975	0.998438
885.980485	0.997705
886.289954	0.996835
886.599382	0.997260
886.908768	0.997753
887.218113	0.997195
887.527417	0.998073
887.836680	0.999031
888.145901	0.999243
888.455082	1.000187
888.764221	0.999764
889.073319	0.998567
889.382376	1.000331
889.691392	0.998083
890.000366	0.999793
890.309300	0.999241
890.618193	0.998856
890.927044	0.998685
891.235855	0.998742
891.544625	0.999383
891.853353	0.998530
892.162041	0.999015
892.470687	0.998761
892.779293	0.998361
893.087858	0.997154
893.396381	0.997796
893.704864	0.997075
894.013306	0.996406
894.321707	0.995924
894.630068	0.995005
894.938387	0.993166
895.246665	0.994014
895.554903	0.993163
895.863100	0.995534
896.171256	0.996023
896.479371	0.995892
896.787446	0.996473
897.095480	0.997960
897.403473	0.998244
897.711425	0.998002
898.019336	0.998132
898.327207	0.998433
898.635038	0.996769
898.942827	0.999370
899.250576	0.998988
899.558284	0.998684
899.865952	0.997676
900.173579	0.999443
900.481165	0.998914
900.788711	0.998253
901.096216	0.998091
901.403681	0.998826
901.711105	0.998989
902.018489	0.999652
902.325832	0.999290
902.633135	0.997864
902.940397	0.999731
903.247619	0.999119
903.554800	0.997868
903.861941	0.995209
904.169041	0.993752
904.476101	0.992200
904.783121	0.991673
905.090100	0.993071
905.397039	0.993656
905.703938	0.994711
906.010796	0.996151
906.317614	0.995687
906.624391	0.998038
906.931129	0.998279
907.237826	0.998592
907.544483	0.998971
907.851099	0.997779
908.157675	0.997897
908.464211	0.999858
908.770707	0.999077
909.077163	0.999337
909.383578	1.000086
909.689954	0.998535
909.996289	1.000232
910.302584	0.999707
910.608839	1.000641
910.915054	0.999629
911.221229	1.000891
911.527363	1.000494
911.833458	0.999556
912.139513	0.998895
912.445527	0.999001
912.751502	0.999760
913.057436	0.999100
913.363331	1.000169
913.669186	0.999476
913.975000	0.998938
914.280775	0.999417
914.586510	0.998223
914.892205	0.997020
915.197859	0.996485
915.503475	0.995486
915.809050	0.992420
916.114585	0.991569
916.420081	0.992652
916.725536	0.992073
917.030952	0.993738
917.336328	0.994555
917.641665	0.993905
917.946961	0.994571
918.252218	0.995068
918.557435	0.995929
918.862612	0.997556
919.167750	0.998346
919.472848	0.997511
919.777906	0.999288
920.082925	0.998585
920.387904	0.999240
920.692843	0.999636
920.997743	0.998358
921.302603	0.999458
921.607423	0.997270
921.912204	0.998988
922.216946	1.000055
922.521647	0.999253
922.826310	0.998952
923.130932	0.999133
923.435516	1.000669
923.740059	0.999380
924.044564	0.999350
924.349028	0.998434
924.653454	1.000539
924.957840	0.999994
925.262186	1.000220
925.566493	1.000119
925.870761	0.999730
926.174989	1.000654
926.479178	1.000028
926.783328	0.999223
927.087438	0.998921
927.391509	1.000296
927.695541	1.000514
927.999533	1.000485
928.303486	0.999947
928.607400	1.001465
928.911275	1.000596
929.215110	1.001031
929.518906	1.000996
929.822663	1.001035
930.126381	1.000571
930.430060	1.000669
930.733699	1.000757
931.037299	1.001190
931.340861	0.999592
931.644383	1.000072
931.947866	1.001587
932.251309	1.000745
932.554714	1.000346
932.858080	1.000443
933.161407	1.000693
933.464694	1.000985
933.767943	1.000371
934.071153	1.000457
934.374323	1.001483
934.677455	1.000319
934.980548	0.999873
935.283602	1.000606
935.586617	0.999074
935.889593	1.001621
936.192530	1.000755
936.495428	0.999486
936.798287	0.999731
937.101108	0.999543
937.403890	0.999057
937.706632	1.001557
938.009336	1.000166
938.312002	1.000318
938.614628	1.000403
938.917216	0.999183
939.219765	0.999345
939.522275	0.999796
939.824747	0.999114
940.127179	0.999379
940.429573	1.000378
940.731929	0.998922
941.034246	1.000313
941.336524	0.999230
941.638763	0.999015
941.940964	1.000316
942.243126	0.999801
942.545250	1.000749
942.847335	1.000368
943.149381	1.001019
943.451389	0.999500
943.753359	0.999997
944.055290	1.000987
944.357182	1.000905
944.659036	1.000456
944.960851	1.000452
945.262628	1.001116
945.564367	0.999868
945.866067	0.999905
946.167729	1.001563
946.469352	1.000113
946.770937	0.998689
947.072484	1.000821
947.373992	1.000597
947.675462	1.000013
947.976893	1.000875
948.278286	1.002004
948.579641	1.000370
948.880958	1.001109
949.182236	0.999670
949.483476	1.001383
949.784678	1.000977
950.085841	1.001066
950.386967	1.000050
950.688054	1.000014
950.989103	0.999990
951.290114	0.999100
951.591087	1.001357
951.892021	1.000337
952.192917	1.000920
952.493776	1.000699
952.794596	0.999805
953.095378	0.999855
953.396122	0.999093
953.696828	1.000276
953.997496	1.000058
954.298126	1.001258
954.598718	1.000572
954.899272	1.000053
955.199788	0.999744
955.500266	1.000581
955.800706	1.000136
956.101108	1.000064
956.401472	1.002015
956.701798	1.000462
957.002087	0.999533
957.302337	0.999943
957.602550	1.000890
957.902724	1.000836
958.202861	1.000217
958.502960	0.998932
958.803022	1.002160
959.103045	1.000223
959.403031	1.001118
959.702979	1.002003
960.002889	1.000863
960.302762	0.999808
960.602596	1.001529
960.902393	1.000614
961.202153	1.000683
961.501875	1.001624
961.801559	1.000938
962.101205	1.001572
962.400814	1.002361
962.700385	1.001575
962.999918	1.001333
963.299414	0.999700
963.598873	1.001329
963.898293	1.001259
964.197677	0.999476
964.497022	1.000086
964.796331	1.000718
965.095601	1.001438
965.394835	1.000871
965.694030	1.002206
965.993189	1.000300
966.292309	1.001145
966.591393	1.000414
966.890439	1.002269
967.189447	1.000500
967.488419	1.000705
967.787353	0.999414
968.086249	1.001808
968.385108	1.000276
968.683930	1.001961
968.982714	1.001495
969.281462	1.001357
969.580172	0.998955
969.878844	1.002287
970.177480	1.000798
970.476078	1.002695
970.774639	1.001851
971.073162	1.000845
971.371649	1.000202
971.670098	0.999632
971.968510	1.000907
972.266885	1.000383
972.565223	1.000631
972.863524	0.999844
973.161788	0.999703
973.460014	1.001574
973.758204	1.000509
974.056356	1.001164
974.354471	1.000492
974.652550	1.002337
974.950591	0.998874
975.248595	1.000014
975.546563	1.001230
975.844493	1.001596
976.142386	0.999121
976.440243	1.002301
976.738062	1.000691
977.035845	0.999176
977.333590	1.001843
977.631299	1.000578
977.928971	1.000317
978.226606	1.001059
978.524204	1.000635
978.821765	1.001402
979.119290	1.000698
979.416777	1.001899
979.714228	1.000749
980.011642	1.001551
980.309020	0.999994
980.606360	1.000224
980.903664	1.000374
981.200931	1.000134
981.498162	1.000420
981.795356	1.000978
982.092513	1.000824
982.389633	1.001367
982.686717	1.000124
982.983764	0.999880
983.280775	1.000647
983.577749	1.002473
983.874686	0.999278
984.171587	0.999700
984.468451	0.999843
984.765279	1.001027
985.062070	1.001020
985.358824	1.000404
985.655543	1.001146
985.952224	1.000838
986.248869	1.000391
986.545478	1.001652
986.842050	1.000150
987.138586	1.000968
987.435086	1.000247
987.731549	1.001964
988.027975	1.002273
988.324366	1.000338
988.620719	1.002080
988.917037	0.999829
989.213318	1.002582
989.509563	1.001418
989.805772	1.001328
990.101944	1.002467
990.398080	1.000882
990.694180	1.001894
990.990244	1.000264
991.286271	1.001135
991.582262	1.001728
991.878217	1.000724
992.174136	1.002304
992.470019	1.001094
992.765865	1.003581
993.061676	1.001868
993.357450	1.001221
993.653188	1.001696
993.948890	1.000485
994.244556	1.000903
994.540186	1.000456
994.835780	1.000730
995.131337	1.002024
995.426859	1.001135
995.722345	1.000646
996.017795	1.001422
996.313208	1.000930
996.608586	1.000240
996.903928	1.000275
997.199234	1.000465
997.494504	1.002192
997.789738	0.999270
998.084936	1.000803
998.380099	0.998904
998.675225	1.001796
998.970316	1.000216
999.265371	1.000152
999.560390	1.001470
999.855373	1.001721
1000.150320	1.000661
1000.445232	1.000603
1000.740108	1.001036
1001.034948	0.999885
1001.329752	1.002238
1001.624521	1.001236
1001.919254	1.000908
1002.213951	1.001309
1002.508613	1.000108
1002.803239	1.000231
1003.097829	1.001664
1003.392384	1.001231
1003.686903	1.001480
1003.981386	1.001024
1004.275834	1.002927
1004.570246	1.000195
1004.864623	1.000442
1005.158964	1.001014
1005.453270	1.001018
1005.747540	1.000858
1006.041775	1.001754
1006.335974	1.001362
1006.630138	1.001683
1006.924266	1.000127
1007.218359	0.998742
1007.512416	1.001244
1007.806438	1.000197
1008.100425	1.001222
1008.394376	1.001428
1008.688292	1.000930
1008.982172	1.000050
1009.276017	1.001296
1009.569827	1.002309
1009.863602	1.000005
1010.157341	1.002001
1010.451045	1.001224
1010.744714	1.002098
1011.038347	1.002467
1011.331945	0.999579
1011.625508	1.001268
1011.919036	1.001134
1012.212528	1.002242
1012.505986	1.001228
1012.799408	1.001672
1013.092795	1.001866
1013.386147	1.000587
1013.679464	1.001956
1013.972745	1.000561
1014.265992	1.000841
1014.559204	1.000766
1014.852380	1.001610
1015.145521	1.001078
1015.438628	1.001268
1015.731699	1.001077
1016.024736	1.001834
1016.317737	1.000499
1016.610703	1.001838
1016.903635	1.000673
1017.196531	1.000648
1017.489393	1.001527
1017.782219	0.999671
1018.075011	1.000314
1018.367768	0.999459
1018.660490	1.000495
1018.953177	1.000495
1019.245829	1.000495
