Dividing Wavelength (nm)	Counts (n)	Blue Motor Position (mm): 9.300000	Red Motor Position (mm): 0.000000	
326.493990	1.004057
326.888308	1.004057
327.282561	1.004057
327.676750	1.006128
328.070874	1.005567
328.464933	1.004976
328.858929	1.005676
329.252859	1.004093
329.646726	1.004489
330.040528	1.004863
330.434265	1.005310
330.827938	1.005398
331.221547	1.005073
331.615091	1.006212
332.008571	1.006322
332.401986	1.004810
332.795338	1.004846
333.188625	1.005344
333.581847	1.004419
333.975006	1.004371
334.368100	1.004964
334.761129	1.004154
335.154095	1.005449
335.546996	1.002789
335.939833	0.998755
336.332606	0.999280
336.725315	0.998570
337.117960	1.000136
337.510540	0.998976
337.903056	0.998978
338.295508	0.999758
338.687896	1.000001
339.080220	0.999453
339.472480	0.998150
339.864676	0.999463
340.256807	0.997742
340.648875	0.999157
341.040879	0.999649
341.432818	1.000184
341.824694	0.998341
342.216506	0.999074
342.608253	0.998313
342.999937	0.998504
343.391557	0.997469
343.783113	1.001096
344.174605	0.999280
344.566033	0.997756
344.957397	0.999403
345.348697	0.998915
345.739934	1.000298
346.131106	0.997743
346.522215	0.998579
346.913260	0.998317
347.304241	0.997890
347.695159	0.999312
348.086012	0.998811
348.476802	0.998338
348.867528	0.996860
349.258191	0.998815
349.648789	0.998425
350.039324	0.997562
350.429796	0.998245
350.820203	0.997843
351.210548	0.997823
351.600828	0.998102
351.991045	0.998418
352.381198	0.998295
352.771288	0.999117
353.161314	0.999354
353.551276	0.996778
353.941175	0.996063
354.331010	0.998339
354.720782	0.998467
355.110490	0.998092
355.500135	0.997398
355.889717	0.997448
356.279235	0.997201
356.668689	0.998722
357.058080	0.997663
357.447408	0.997747
357.836672	0.998136
358.225873	0.997855
358.615010	0.997469
359.004084	0.997313
359.393095	0.998425
359.782043	0.997235
360.170927	0.997861
360.559748	0.998337
360.948505	0.997315
361.337199	0.996524
361.725830	0.997687
362.114398	0.997094
362.502903	0.998072
362.891344	0.996574
363.279722	0.996561
363.668037	0.997140
364.056289	0.996448
364.444478	0.997835
364.832603	0.995709
365.220665	0.996830
365.608665	0.995619
365.996601	0.996036
366.384474	0.995375
366.772284	0.996105
367.160031	0.994911
367.547715	0.995303
367.935336	0.994191
368.322893	0.991765
368.710388	0.992360
369.097820	0.991863
369.485189	0.987005
369.872495	0.986966
370.259738	0.985419
370.646918	0.980614
371.034035	0.980088
371.421090	0.977310
371.808081	0.970938
372.195010	0.969481
372.581875	0.964111
372.968678	0.958594
373.355418	0.955754
373.742096	0.947554
374.128710	0.943929
374.515262	0.939650
374.901751	0.932933
375.288177	0.928696
375.674540	0.922429
376.060841	0.915317
376.447079	0.909108
376.833254	0.903187
377.219367	0.897903
377.605417	0.885660
377.991404	0.882668
378.377329	0.875976
378.763191	0.870176
379.148991	0.861281
379.534727	0.853251
379.920402	0.844995
380.306013	0.841563
380.691563	0.827839
381.077049	0.823004
381.462474	0.819295
381.847835	0.806791
382.233134	0.801991
382.618371	0.802119
383.003545	0.785278
383.388657	0.782950
383.773706	0.775599
384.158693	0.771598
384.543618	0.765664
384.928480	0.758073
385.313280	0.747027
385.698017	0.747248
386.082692	0.736234
386.467305	0.733468
386.851856	0.729338
387.236344	0.723427
387.620770	0.717077
388.005133	0.712008
388.389435	0.706877
388.773674	0.703918
389.157851	0.695109
389.541965	0.693083
389.926018	0.699970
390.310008	0.686449
390.693936	0.683738
391.077802	0.675918
391.461606	0.676821
391.845348	0.666019
392.229027	0.665530
392.612645	0.663519
392.996200	0.651209
393.379694	0.644172
393.763125	0.634428
394.146494	0.638640
394.529801	0.629836
394.913047	0.621575
395.296230	0.628181
395.679351	0.618265
396.062410	0.615306
396.445408	0.618218
396.828343	0.613100
397.211217	0.607816
397.594028	0.621301
397.976778	0.611305
398.359466	0.607431
398.742092	0.603031
399.124656	0.615204
399.507158	0.603573
399.889598	0.600705
400.271977	0.591031
400.654294	0.596033
401.036549	0.594700
401.418742	0.598733
401.800874	0.584651
402.182944	0.581950
402.564952	0.572912
402.946898	0.574936
403.328783	0.575925
403.710606	0.586840
404.092367	0.561569
404.474067	0.566548
404.855705	0.565628
405.237282	0.574715
405.618797	0.560462
406.000250	0.556488
406.381642	0.546626
406.762972	0.551695
407.144240	0.550064
407.525447	0.550063
407.906593	0.542824
408.287677	0.538069
408.668700	0.546708
409.049661	0.540801
409.430560	0.535066
409.811399	0.544047
410.192176	0.526202
410.572891	0.532929
410.953545	0.521509
411.334138	0.535310
411.714669	0.527145
412.095139	0.539460
412.475547	0.524045
412.855894	0.525407
413.236180	0.524461
413.616405	0.529713
413.996568	0.520179
414.376670	0.526974
414.756711	0.532437
415.136691	0.528245
415.516609	0.519576
415.896466	0.516470
416.276262	0.511349
416.655997	0.513745
417.035670	0.495632
417.415283	0.487194
417.794834	0.492343
418.174324	0.497823
418.553753	0.506541
418.933121	0.488680
419.312428	0.483110
419.691674	0.488463
420.070859	0.475894
420.449983	0.484414
420.829045	0.473645
421.208047	0.482318
421.586988	0.475443
421.965867	0.474220
422.344686	0.463069
422.723444	0.475959
423.102141	0.492987
423.480777	0.465596
423.859352	0.486661
424.237866	0.463892
424.616319	0.464850
424.994712	0.455480
425.373044	0.465691
425.751314	0.453557
426.129524	0.470896
426.507673	0.453300
426.885762	0.447499
427.263789	0.452535
427.641756	0.462576
428.019662	0.452720
428.397508	0.451904
428.775292	0.456682
429.153016	0.448245
429.530679	0.454465
429.908282	0.447571
430.285824	0.457893
430.663305	0.436582
431.040726	0.457807
431.418086	0.456805
431.795385	0.449290
432.172624	0.448177
432.549802	0.448294
432.926920	0.447472
433.303977	0.447088
433.680974	0.443501
434.057910	0.443022
434.434786	0.441988
434.811601	0.444784
435.188355	0.426686
435.565050	0.436494
435.941683	0.437598
436.318257	0.421374
436.694770	0.422186
437.071222	0.420651
437.447614	0.424853
437.823946	0.431471
438.200218	0.420513
438.576429	0.430442
438.952580	0.423048
439.328670	0.419912
439.704700	0.426756
440.080670	0.427601
440.456580	0.409200
440.832429	0.416945
441.208218	0.427887
441.583947	0.416870
441.959616	0.416815
442.335224	0.422387
442.710773	0.412746
443.086261	0.410987
443.461689	0.424230
443.837057	0.414517
444.212365	0.404589
444.587612	0.411811
444.962800	0.401603
445.337927	0.402724
445.712995	0.429148
446.088002	0.390633
446.462949	0.401812
446.837837	0.406048
447.212664	0.395067
447.587431	0.386650
447.962139	0.356759
448.336786	0.316040
448.711374	0.326224
449.085901	0.370986
449.460369	0.375037
449.834776	0.378543
450.209124	0.357651
450.583412	0.350437
450.957640	0.342808
451.331808	0.354712
451.705917	0.378071
452.079965	0.383098
452.453954	0.370967
452.827883	0.377915
453.201752	0.372785
453.575562	0.383813
453.949311	0.372487
454.323001	0.378521
454.696632	0.374792
455.070202	0.366859
455.443713	0.358824
455.817164	0.353860
456.190556	0.349183
456.563888	0.346333
456.937160	0.343841
457.310373	0.361194
457.683526	0.359998
458.056619	0.365816
458.429653	0.365905
458.802628	0.369900
459.175542	0.363974
459.548398	0.346478
459.921194	0.339062
460.293930	0.338931
460.666607	0.316866
461.039224	0.304492
461.411782	0.300243
461.784280	0.299801
462.156719	0.303916
462.529099	0.308377
462.901419	0.324323
463.273680	0.328502
463.645882	0.328462
464.018024	0.334280
464.390106	0.326869
464.762130	0.311283
465.134094	0.294239
465.505999	0.263159
465.877845	0.233772
466.249631	0.220453
466.621358	0.228102
466.993026	0.241964
467.364634	0.248174
467.736184	0.256996
468.107674	0.265921
468.479105	0.264745
468.850477	0.271930
469.221790	0.278614
469.593043	0.288813
469.964238	0.293594
470.335373	0.293158
470.706449	0.291499
471.077467	0.291595
471.448425	0.253892
471.819324	0.229267
472.190164	0.228757
472.560945	0.257554
472.931667	0.279981
473.302330	0.284528
473.672934	0.296177
474.043479	0.283994
474.413965	0.286203
474.784393	0.289412
475.154761	0.284529
475.525070	0.281429
475.895321	0.287596
476.265513	0.281402
476.635645	0.276883
477.005719	0.276650
477.375734	0.273308
477.745691	0.266583
478.115588	0.262878
478.485427	0.256546
478.855207	0.243377
479.224928	0.225422
479.594591	0.214131
479.964194	0.217343
480.333739	0.218262
480.703226	0.219795
481.072653	0.218176
481.442022	0.213844
481.811333	0.210652
482.180584	0.214157
482.549777	0.219450
482.918912	0.222877
483.287988	0.222298
483.657005	0.222165
484.025964	0.228589
484.394864	0.225768
484.763706	0.226447
485.132489	0.231484
485.501213	0.232234
485.869879	0.230759
486.238487	0.233756
486.607036	0.231532
486.975527	0.236484
487.343959	0.232303
487.712333	0.231224
488.080648	0.232588
488.448905	0.232010
488.817104	0.233023
489.185244	0.227802
489.553326	0.224441
489.921350	0.214349
490.289315	0.196739
490.657222	0.191523
491.025070	0.192984
491.392861	0.195122
491.760593	0.200641
492.128267	0.206468
492.495883	0.211973
492.863440	0.218354
493.230939	0.224512
493.598380	0.226299
493.965763	0.228177
494.333088	0.230842
494.700354	0.232019
495.067563	0.231003
495.434713	0.234484
495.801805	0.232133
496.168839	0.233770
496.535815	0.235139
496.902733	0.234975
497.269593	0.236360
497.636395	0.234050
498.003139	0.234516
498.369825	0.237866
498.736453	0.234233
499.103023	0.235446
499.469535	0.235042
499.835989	0.235395
500.202385	0.236083
500.568723	0.239319
500.935003	0.234649
501.301226	0.238867
501.667390	0.233155
502.033497	0.231218
502.399546	0.234086
502.765537	0.236059
503.131470	0.234553
503.497345	0.230690
503.863163	0.239307
504.228923	0.232522
504.594625	0.230997
504.960269	0.236463
505.325856	0.231639
505.691385	0.236369
506.056856	0.232927
506.422270	0.232249
506.787625	0.234677
507.152924	0.232073
507.518164	0.232458
507.883347	0.234084
508.248472	0.236002
508.613540	0.231070
508.978550	0.233481
509.343503	0.234246
509.708398	0.231762
510.073236	0.229269
510.438016	0.228928
510.802738	0.229957
511.167403	0.229323
511.532010	0.231133
511.896561	0.226653
512.261053	0.225130
512.625488	0.227284
512.989866	0.227699
513.354186	0.227997
513.718449	0.229746
514.082655	0.226404
514.446803	0.228573
514.810894	0.226115
515.174927	0.228811
515.538904	0.228408
515.902822	0.225197
516.266684	0.227228
516.630488	0.228745
516.994235	0.227748
517.357925	0.226610
517.721558	0.224414
518.085133	0.224147
518.448651	0.223894
518.812112	0.226963
519.175516	0.226019
519.538863	0.223785
519.902152	0.225570
520.265385	0.222135
520.628560	0.223887
520.991678	0.224602
521.354739	0.223342
521.717743	0.224271
522.080690	0.224734
522.443580	0.222424
522.806413	0.222973
523.169189	0.222697
523.531908	0.221594
523.894569	0.225016
524.257174	0.224745
524.619722	0.222576
524.982213	0.223650
525.344647	0.222589
525.707025	0.223312
526.069345	0.221477
526.431608	0.223508
526.793815	0.221213
527.155964	0.225600
527.518057	0.224288
527.880093	0.225479
528.242072	0.223773
528.603995	0.225961
528.965860	0.227721
529.327669	0.226623
529.689421	0.227565
530.051117	0.228372
530.412755	0.226039
530.774337	0.228336
531.135862	0.228918
531.497331	0.228105
531.858743	0.230885
532.220098	0.227464
532.581396	0.230228
532.942638	0.230631
533.303824	0.231743
533.664953	0.231326
534.026025	0.233612
534.387040	0.231251
534.747999	0.231100
535.108902	0.229990
535.469748	0.235141
535.830537	0.233165
536.191270	0.233459
536.551947	0.232588
536.912567	0.233190
537.273131	0.234761
537.633638	0.235112
537.994089	0.235257
538.354483	0.236299
538.714821	0.233180
539.075103	0.233360
539.435328	0.233678
539.795497	0.237614
540.155609	0.234535
540.515665	0.232059
540.875665	0.238273
541.235609	0.236745
541.595496	0.236819
541.955328	0.233488
542.315102	0.236160
542.674821	0.237040
543.034483	0.237154
543.394090	0.236767
543.753640	0.238940
544.113134	0.233562
544.472571	0.237074
544.831953	0.233883
545.191278	0.238344
545.550548	0.237369
545.909761	0.234439
546.268918	0.235117
546.628019	0.233605
546.987064	0.236358
547.346053	0.237953
547.704986	0.235847
548.063863	0.235963
548.422684	0.236140
548.781449	0.237885
549.140158	0.235905
549.498811	0.238717
549.857408	0.241371
550.215949	0.236434
550.574434	0.239538
550.932864	0.237447
551.291237	0.236174
551.649555	0.237736
552.007817	0.237338
552.366022	0.238292
552.724173	0.238288
553.082267	0.238713
553.440305	0.235556
553.798288	0.239916
554.156215	0.236539
554.514086	0.237081
554.871902	0.240658
555.229661	0.239423
555.587365	0.240299
555.945014	0.242795
556.302606	0.239734
556.660143	0.242322
557.017625	0.238996
557.375050	0.240869
557.732421	0.237977
558.089735	0.239809
558.446994	0.240044
558.804197	0.239345
559.161345	0.239214
559.518437	0.242459
559.875474	0.240425
560.232455	0.239813
560.589381	0.241315
560.946251	0.241392
561.303065	0.238624
561.659825	0.239877
562.016528	0.241639
562.373177	0.244231
562.729770	0.241585
563.086307	0.243847
563.442789	0.241797
563.799216	0.244297
564.155587	0.243290
564.511904	0.244558
564.868164	0.244340
565.224370	0.244172
565.580520	0.246049
565.936615	0.245823
566.292654	0.248779
566.648638	0.245865
567.004567	0.246964
567.360441	0.247458
567.716260	0.249407
568.072023	0.246751
568.427732	0.247748
568.783385	0.250416
569.138982	0.248090
569.494525	0.247737
569.850013	0.250884
570.205445	0.249220
570.560823	0.251897
570.916145	0.253678
571.271412	0.252107
571.626625	0.253714
571.981782	0.254023
572.336884	0.254964
572.691931	0.254624
573.046923	0.256146
573.401860	0.256711
573.756743	0.258650
574.111570	0.257413
574.466342	0.258149
574.821059	0.257311
575.175722	0.260342
575.530330	0.259887
575.884882	0.260025
576.239380	0.262020
576.593823	0.262558
576.948211	0.262159
577.302544	0.265199
577.656823	0.264998
578.011047	0.264757
578.365216	0.265752
578.719330	0.267683
579.073389	0.267114
579.427394	0.268749
579.781344	0.269857
580.135239	0.270627
580.489080	0.270464
580.842866	0.273397
581.196597	0.274025
581.550273	0.272054
581.903895	0.273043
582.257463	0.271178
582.610975	0.274611
582.964434	0.274089
583.317837	0.276348
583.671186	0.276666
584.024481	0.276898
584.377721	0.279045
584.730906	0.280116
585.084037	0.279376
585.437113	0.281500
585.790135	0.280612
586.143103	0.283721
586.496016	0.284371
586.848874	0.282227
587.201679	0.282851
587.554428	0.286315
587.907124	0.285020
588.259765	0.285953
588.612352	0.286300
588.964884	0.289780
589.317362	0.289485
589.669786	0.289692
590.022155	0.288337
590.374470	0.287566
590.726731	0.289316
591.078937	0.294579
591.431090	0.290734
591.783188	0.294459
592.135232	0.295407
592.487222	0.295071
592.839157	0.293408
593.191038	0.295309
593.542866	0.297469
593.894639	0.300902
594.246358	0.299223
594.598022	0.299089
594.949633	0.302082
595.301190	0.303065
595.652692	0.301868
596.004141	0.298176
596.355535	0.305939
596.706876	0.306834
597.058162	0.309308
597.409395	0.306060
597.760573	0.304261
598.111698	0.307427
598.462768	0.307842
598.813785	0.309144
599.164748	0.310608
599.515657	0.310966
599.866511	0.314041
600.217312	0.309463
600.568060	0.314805
600.918753	0.311473
601.269392	0.312408
601.619978	0.315592
601.970510	0.313254
602.320988	0.313095
602.671412	0.311160
603.021783	0.313693
603.372100	0.314861
603.722363	0.314479
604.072572	0.315534
604.422728	0.315213
604.772830	0.317461
605.122878	0.317057
605.472872	0.317652
605.822813	0.315897
606.172701	0.318352
606.522534	0.315781
606.872314	0.315918
607.222041	0.317075
607.571714	0.315042
607.921333	0.316743
608.270899	0.316344
608.620411	0.313003
608.969870	0.316709
609.319276	0.317264
609.668627	0.316944
610.017926	0.315581
610.367171	0.314364
610.716362	0.314602
611.065500	0.315131
611.414585	0.313551
611.763616	0.313910
612.112594	0.315029
612.461518	0.313670
612.810389	0.311995
613.159207	0.314258
613.507971	0.315976
613.856682	0.312008
614.205340	0.313199
614.553945	0.310434
614.902496	0.314086
615.250994	0.312245
615.599439	0.313084
615.947830	0.312596
616.296169	0.313188
616.644454	0.312714
616.992686	0.312939
617.340864	0.310956
617.688990	0.314398
618.037063	0.311028
618.385082	0.312997
618.733048	0.309999
619.080961	0.312133
619.428821	0.311855
619.776628	0.311424
620.124382	0.313635
620.472083	0.314033
620.819731	0.313312
621.167326	0.317343
621.514868	0.316796
621.862357	0.321087
622.209793	0.320367
622.557176	0.323280
622.904506	0.324056
623.251783	0.326550
623.599007	0.328879
623.946179	0.328069
624.293297	0.330266
624.640363	0.334236
624.987376	0.335042
625.334336	0.337177
625.681243	0.339424
626.028097	0.339656
626.374899	0.341105
626.721647	0.341764
627.068343	0.344619
627.414987	0.346093
627.761577	0.347996
628.108115	0.346027
628.454600	0.352026
628.801032	0.349214
629.147412	0.351601
629.493739	0.352099
629.840014	0.354777
630.186236	0.352382
630.532405	0.358139
630.878521	0.355277
631.224585	0.357784
631.570597	0.361530
631.916556	0.360442
632.262462	0.360240
632.608316	0.362713
632.954117	0.363436
633.299866	0.364324
633.645562	0.365059
633.991206	0.369089
634.336797	0.371804
634.682336	0.374428
635.027823	0.375807
635.373257	0.376668
635.718639	0.380351
636.063968	0.379664
636.409245	0.385281
636.754470	0.386126
637.099642	0.388666
637.444762	0.392133
637.789829	0.391183
638.134845	0.394612
638.479808	0.395607
638.824719	0.396170
639.169577	0.400268
639.514383	0.398956
639.859137	0.404053
640.203839	0.403110
640.548489	0.403926
640.893086	0.405399
641.237632	0.406922
641.582125	0.405836
641.926566	0.408271
642.270955	0.407574
642.615292	0.408062
642.959576	0.407685
643.303809	0.408024
643.647990	0.408074
643.992118	0.408801
644.336195	0.411987
644.680219	0.410710
645.024192	0.411639
645.368112	0.405823
645.711981	0.404454
646.055797	0.400603
646.399562	0.403111
646.743274	0.396479
647.086935	0.393017
647.430544	0.393656
647.774101	0.393218
648.117606	0.392887
648.461059	0.393173
648.804460	0.395805
649.147810	0.400788
649.491108	0.403361
649.834354	0.404929
650.177548	0.410384
650.520690	0.415414
650.863781	0.417304
651.206820	0.416946
651.549807	0.421820
651.892742	0.426151
652.235626	0.425974
652.578458	0.426806
652.921238	0.433332
653.263967	0.431686
653.606644	0.435018
653.949269	0.435582
654.291843	0.439497
654.634365	0.437184
654.976836	0.440811
655.319255	0.441252
655.661622	0.443014
656.003938	0.443537
656.346203	0.446138
656.688416	0.444831
657.030577	0.447981
657.372687	0.449752
657.714746	0.451297
658.056753	0.449055
658.398708	0.453085
658.740612	0.454332
659.082465	0.451529
659.424266	0.452202
659.766016	0.451609
660.107715	0.455334
660.449362	0.454559
660.790958	0.455469
661.132503	0.456755
661.473996	0.454715
661.815438	0.456051
662.156829	0.456496
662.498168	0.457592
662.839456	0.458920
663.180693	0.457764
663.521879	0.457231
663.863013	0.458943
664.204097	0.458248
664.545129	0.455466
664.886110	0.456380
665.227040	0.455319
665.567918	0.457504
665.908746	0.456197
666.249522	0.456795
666.590248	0.458067
666.930922	0.456099
667.271545	0.456127
667.612118	0.456530
667.952639	0.458077
668.293109	0.458333
668.633528	0.461249
668.973896	0.461124
669.314213	0.461833
669.654480	0.465289
669.994695	0.464967
670.334859	0.465762
670.674973	0.467880
671.015035	0.467426
671.355047	0.468943
671.695008	0.470313
672.034918	0.472246
672.374777	0.472544
672.714585	0.474405
673.054342	0.474556
673.394049	0.475321
673.733705	0.474312
674.073310	0.476511
674.412864	0.477916
674.752368	0.480537
675.091820	0.481469
675.431223	0.485376
675.770574	0.485846
676.109875	0.488775
676.449125	0.488734
676.788324	0.492219
677.127473	0.497650
677.466571	0.497481
677.805619	0.499935
678.144616	0.502554
678.483562	0.504033
678.822458	0.506715
679.161303	0.507966
679.500098	0.509153
679.838842	0.511031
680.177535	0.511614
680.516179	0.510629
680.854771	0.510805
681.193314	0.505568
681.531805	0.498424
681.870247	0.490485
682.208638	0.484771
682.546978	0.483910
682.885268	0.485758
683.223508	0.492779
683.561697	0.496749
683.899836	0.499417
684.237925	0.503519
684.575963	0.506862
684.913951	0.509154
685.251889	0.507948
685.589776	0.509194
685.927614	0.511417
686.265401	0.509444
686.603137	0.510387
686.940824	0.507393
687.278460	0.506892
687.616046	0.507685
687.953582	0.503527
688.291068	0.505483
688.628504	0.503294
688.965889	0.505650
689.303224	0.509303
689.640510	0.513790
689.977745	0.519364
690.314930	0.527097
690.652065	0.530849
690.989150	0.536947
691.326185	0.544193
691.663170	0.549609
692.000105	0.555663
692.336990	0.561773
692.673825	0.565595
693.010610	0.571196
693.347345	0.575470
693.684030	0.580171
694.020665	0.583594
694.357251	0.591069
694.693786	0.592102
695.030272	0.595882
695.366707	0.600417
695.703093	0.603150
696.039429	0.602407
696.375716	0.606253
696.711952	0.607781
697.048139	0.609519
697.384276	0.612524
697.720363	0.612647
698.056400	0.613046
698.392388	0.618121
698.728326	0.620056
699.064214	0.622792
699.400053	0.624695
699.735842	0.630338
700.071581	0.631486
700.407270	0.635087
700.742910	0.637529
701.078501	0.642330
701.414042	0.645620
701.749533	0.647960
702.084974	0.654489
702.420366	0.650539
702.755709	0.657361
703.091002	0.662766
703.426246	0.660533
703.761440	0.663590
704.096584	0.666855
704.431679	0.667426
704.766725	0.669736
705.101721	0.672603
705.436668	0.670666
705.771565	0.674350
706.106413	0.671902
706.441212	0.672039
706.775961	0.672537
707.110661	0.671927
707.445311	0.669423
707.779913	0.671847
708.114465	0.669769
708.448967	0.665382
708.783421	0.661354
709.117825	0.659585
709.452180	0.658185
709.786485	0.654031
710.120742	0.646706
710.454949	0.648246
710.789107	0.643354
711.123216	0.637015
711.457275	0.637927
711.791286	0.633566
712.125247	0.635363
712.459159	0.639107
712.793023	0.633061
713.126837	0.643654
713.460602	0.642681
713.794318	0.646512
714.127985	0.647967
714.461602	0.658654
714.795171	0.659117
715.128691	0.666139
715.462162	0.673494
715.795584	0.679446
716.128957	0.682332
716.462281	0.685370
716.795556	0.689096
717.128782	0.695668
717.461960	0.702790
717.795088	0.702743
718.128167	0.709128
718.461198	0.713338
718.794180	0.714755
719.127113	0.719781
719.459997	0.722319
719.792833	0.726089
720.125619	0.726860
720.458357	0.733150
720.791046	0.734596
721.123686	0.736013
721.456278	0.741973
721.788821	0.740813
722.121315	0.745095
722.453761	0.746611
722.786158	0.748153
723.118506	0.745826
723.450805	0.749337
723.783056	0.747933
724.115259	0.748588
724.447412	0.749846
724.779518	0.748181
725.111574	0.748646
725.443582	0.746555
725.775542	0.749154
726.107453	0.745138
726.439315	0.745690
726.771129	0.742870
727.102895	0.737890
727.434612	0.736006
727.766281	0.733692
728.097901	0.731776
728.429473	0.734287
728.760996	0.732658
729.092471	0.732989
729.423897	0.737659
729.755276	0.738796
730.086606	0.737576
730.417887	0.733489
730.749120	0.728430
731.080305	0.725457
731.411442	0.721952
731.742530	0.723580
732.073570	0.724346
732.404562	0.721479
732.735506	0.722995
733.066401	0.725860
733.397249	0.732803
733.728048	0.739577
734.058798	0.752687
734.389501	0.761169
734.720156	0.765879
735.050762	0.772111
735.381320	0.775628
735.711831	0.778165
736.042293	0.783224
736.372707	0.784096
736.703073	0.785613
737.033391	0.786028
737.363661	0.784939
737.693883	0.784626
738.024056	0.782977
738.354182	0.782024
738.684260	0.776564
739.014290	0.773202
739.344272	0.773070
739.674207	0.770376
740.004093	0.769870
740.333931	0.769943
740.663722	0.772074
740.993464	0.772879
741.323159	0.774761
741.652806	0.779516
741.982405	0.783289
742.311956	0.787354
742.641460	0.788999
742.970915	0.792286
743.300323	0.797441
743.629683	0.800986
743.958996	0.805302
744.288260	0.807345
744.617477	0.812817
744.946647	0.813465
745.275768	0.819005
745.604842	0.820358
745.933869	0.823317
746.262847	0.826159
746.591778	0.824385
746.920662	0.827211
747.249498	0.830029
747.578286	0.828703
747.907027	0.824513
748.235720	0.821796
748.564365	0.822064
748.892963	0.823810
749.221514	0.824752
749.550017	0.826052
749.878473	0.827748
750.206881	0.833395
750.535242	0.833870
750.863555	0.834119
751.191821	0.835920
751.520039	0.836397
751.848210	0.837497
752.176334	0.837443
752.504411	0.839192
752.832440	0.840939
753.160421	0.842858
753.488356	0.843981
753.816243	0.843512
754.144082	0.846657
754.471875	0.849150
754.799620	0.848623
755.127318	0.848655
755.454969	0.849061
755.782572	0.850141
756.110129	0.850136
756.437638	0.852955
756.765100	0.852377
757.092515	0.851782
757.419882	0.851516
757.747203	0.853503
758.074477	0.853082
758.401703	0.851814
758.728882	0.850617
759.056014	0.850325
759.383099	0.849543
759.710138	0.847728
760.037129	0.846486
760.364073	0.846616
760.690970	0.848583
761.017820	0.849038
761.344623	0.847466
761.671379	0.844665
761.998088	0.840024
762.324751	0.827230
762.651366	0.800642
762.977935	0.758192
763.304456	0.730513
763.630931	0.729615
763.957359	0.751176
764.283740	0.777900
764.610074	0.797902
764.936362	0.816942
765.262602	0.830050
765.588796	0.843347
765.914943	0.851831
766.241044	0.860415
766.567097	0.866180
766.893104	0.871683
767.219064	0.874911
767.544978	0.879640
767.870845	0.885332
768.196665	0.887740
768.522438	0.889116
768.848165	0.891599
769.173846	0.894893
769.499479	0.897146
769.825066	0.899026
770.150607	0.901578
770.476101	0.902006
770.801548	0.902571
771.126949	0.907535
771.452303	0.909699
771.777611	0.910143
772.102872	0.909739
772.428087	0.912053
772.753256	0.915361
773.078378	0.916166
773.403453	0.919342
773.728482	0.921712
774.053465	0.921089
774.378401	0.922637
774.703291	0.925659
775.028135	0.927091
775.352932	0.925708
775.677683	0.929775
776.002388	0.929675
776.327046	0.929208
776.651658	0.931837
776.976224	0.933844
777.300743	0.933576
777.625216	0.935166
777.949643	0.935096
778.274024	0.934693
778.598359	0.936658
778.922647	0.936466
779.246889	0.937076
779.571086	0.938420
779.895236	0.938689
780.219339	0.938344
780.543397	0.937658
780.867409	0.937448
781.191374	0.937735
781.515294	0.938761
781.839167	0.938557
782.162995	0.939581
782.486776	0.939736
782.810511	0.939777
783.134201	0.941916
783.457844	0.941825
783.781441	0.941928
784.104993	0.944718
784.428498	0.944513
784.751958	0.945214
785.075372	0.945998
785.398739	0.946658
785.722061	0.944110
786.045337	0.944361
786.368568	0.944946
786.691752	0.945607
787.014891	0.941162
787.337983	0.936446
787.661030	0.930522
787.984031	0.922210
788.306987	0.918258
788.629897	0.917052
788.952760	0.922084
789.275579	0.926502
789.598351	0.932510
789.921078	0.938509
790.243759	0.940917
790.566395	0.943580
790.888984	0.946305
791.211529	0.949071
791.534027	0.950800
791.856480	0.952552
792.178888	0.952667
792.501249	0.954273
792.823566	0.955550
793.145836	0.956344
793.468062	0.956081
793.790241	0.958283
794.112375	0.955461
794.434464	0.954939
794.756507	0.953984
795.078505	0.954306
795.400457	0.950436
795.722364	0.944858
796.044226	0.941818
796.366042	0.939996
796.687812	0.941436
797.009538	0.942710
797.331218	0.945047
797.652852	0.947167
797.974442	0.947811
798.295986	0.950026
798.617484	0.950336
798.938938	0.952089
799.260346	0.954068
799.581709	0.954795
799.903026	0.956909
800.224299	0.957614
800.545526	0.957876
800.866708	0.960091
801.187845	0.961317
801.508936	0.961548
801.829983	0.962477
802.150984	0.962760
802.471940	0.964874
802.792851	0.963820
803.113717	0.965440
803.434538	0.965238
803.755314	0.965717
804.076045	0.964836
804.396731	0.964820
804.717372	0.964422
805.037967	0.965594
805.358518	0.965547
805.679024	0.962715
805.999485	0.964634
806.319901	0.962835
806.640272	0.965554
806.960598	0.964052
807.280879	0.963152
807.601115	0.962614
807.921306	0.964483
808.241453	0.964234
808.561554	0.964687
808.881611	0.965161
809.201623	0.964173
809.521590	0.965550
809.841513	0.965287
810.161390	0.964300
810.481223	0.965698
810.801011	0.967872
811.120755	0.969183
811.440453	0.968073
811.760107	0.968782
812.079716	0.968221
812.399281	0.969297
812.718801	0.969813
813.038276	0.971323
813.357707	0.971742
813.677093	0.971080
813.996434	0.971646
814.315731	0.972681
814.634983	0.973482
814.954191	0.972731
815.273354	0.972065
815.592473	0.970432
815.911547	0.970842
816.230577	0.968456
816.549562	0.968727
816.868502	0.968094
817.187399	0.968853
817.506250	0.967625
817.825058	0.967146
818.143821	0.966639
818.462539	0.965649
818.781213	0.962384
819.099843	0.960100
819.418429	0.952895
819.736970	0.947511
820.055466	0.940839
820.373919	0.934263
820.692327	0.926379
821.010691	0.912130
821.329011	0.876564
821.647286	0.814929
821.965517	0.753925
822.283704	0.729504
822.601847	0.734678
822.919945	0.762653
823.237999	0.793226
823.556010	0.820719
823.873976	0.844833
824.191897	0.867474
824.509775	0.885168
824.827609	0.899281
825.145398	0.906795
825.463144	0.908578
825.780845	0.904758
826.098502	0.895810
826.416116	0.877256
826.733685	0.857565
827.051210	0.853485
827.368692	0.864551
827.686129	0.882147
828.003522	0.902943
828.320872	0.917308
828.638177	0.930501
828.955439	0.942212
829.272656	0.949343
829.589830	0.954333
829.906960	0.961339
830.224046	0.963351
830.541088	0.966768
830.858086	0.968801
831.175041	0.971418
831.491952	0.970304
831.808819	0.969989
832.125642	0.969448
832.442421	0.965984
832.759157	0.958329
833.075849	0.940857
833.392497	0.921625
833.709101	0.907687
834.025662	0.910576
834.342179	0.922383
834.658653	0.936540
834.975083	0.949073
835.291469	0.955284
835.607811	0.962482
835.924110	0.967460
836.240366	0.972306
836.556578	0.975646
836.872746	0.977523
837.188871	0.978825
837.504952	0.980986
837.820990	0.982634
838.136984	0.982852
838.452935	0.983460
838.768842	0.985065
839.084706	0.982244
839.400526	0.975978
839.716303	0.961033
840.032037	0.954911
840.347727	0.955784
840.663373	0.962764
840.978977	0.969479
841.294537	0.977615
841.610054	0.980666
841.925527	0.984068
842.240957	0.985141
842.556344	0.986584
842.871687	0.987779
843.186987	0.990018
843.502244	0.990215
843.817458	0.990202
844.132629	0.990656
844.447756	0.991879
844.762840	0.992367
845.077881	0.992752
845.392879	0.991581
845.707833	0.992433
846.022745	0.993037
846.337613	0.994519
846.652438	0.993185
846.967221	0.992918
847.281960	0.994275
847.596656	0.993704
847.911309	0.994338
848.225919	0.992900
848.540485	0.994514
848.855009	0.995491
849.169490	0.994653
849.483928	0.994389
849.798323	0.993361
850.112675	0.994748
850.426984	0.994854
850.741251	0.995740
851.055474	0.995210
851.369654	0.995756
851.683792	0.994051
851.997887	0.994880
852.311938	0.994324
852.625947	0.994515
852.939914	0.994853
853.253837	0.995617
853.567718	0.995374
853.881555	0.995051
854.195350	0.995635
854.509103	0.994381
854.822812	0.994936
855.136479	0.994806
855.450103	0.996327
855.763685	0.995297
856.077224	0.994298
856.390720	0.994981
856.704173	0.995466
857.017584	0.995735
857.330953	0.994916
857.644278	0.994023
857.957561	0.994160
858.270802	0.994773
858.584000	0.994659
858.897155	0.994416
859.210268	0.994366
859.523339	0.995455
859.836367	0.995863
860.149352	0.995264
860.462295	0.994484
860.775195	0.995510
861.088054	0.993488
861.400869	0.994998
861.713642	0.995092
862.026373	0.995500
862.339062	0.995987
862.651708	0.995342
862.964312	0.994987
863.276873	0.995600
863.589392	0.993649
863.901869	0.994485
864.214303	0.994860
864.526696	0.993914
864.839045	0.993991
865.151353	0.994329
865.463619	0.992468
865.775842	0.994443
866.088023	0.994843
866.400162	0.994491
866.712258	0.994805
867.024313	0.993731
867.336325	0.994525
867.648296	0.994411
867.960224	0.994830
868.272110	0.994642
868.583954	0.993479
868.895755	0.994856
869.207515	0.992579
869.519233	0.994844
869.830909	0.993343
870.142542	0.992632
870.454134	0.993872
870.765684	0.992788
871.077191	0.993768
871.388657	0.992699
871.700081	0.993554
872.011463	0.993731
872.322803	0.992002
872.634101	0.991597
872.945357	0.991306
873.256571	0.990792
873.567744	0.992054
873.878874	0.991454
874.189963	0.991498
874.501010	0.992123
874.812015	0.990608
875.122979	0.991017
875.433900	0.991094
875.744780	0.991199
876.055618	0.990480
876.366415	0.991303
876.677169	0.991056
876.987882	0.990797
877.298554	0.991389
877.609183	0.990489
877.919771	0.990520
878.230317	0.990191
878.540822	0.988048
878.851285	0.988614
879.161707	0.986518
879.472087	0.985822
879.782425	0.979612
880.092722	0.972373
880.402977	0.958279
880.713191	0.935702
881.023363	0.907557
881.333494	0.892600
881.643583	0.888641
881.953631	0.894685
882.263637	0.904463
882.573602	0.916621
882.883526	0.927309
883.193408	0.936738
883.503248	0.944312
883.813048	0.952478
884.122806	0.959514
884.432522	0.965400
884.742197	0.971169
885.051831	0.975106
885.361424	0.977444
885.670975	0.981291
885.980485	0.982445
886.289954	0.984060
886.599382	0.983529
886.908768	0.985886
887.218113	0.986309
887.527417	0.988407
887.836680	0.989784
888.145901	0.990928
888.455082	0.991151
888.764221	0.991569
889.073319	0.990656
889.382376	0.991927
889.691392	0.991159
890.000366	0.992567
890.309300	0.991533
890.618193	0.992505
890.927044	0.991358
891.235855	0.991593
891.544625	0.992070
891.853353	0.991740
892.162041	0.990902
892.470687	0.990957
892.779293	0.987976
893.087858	0.986613
893.396381	0.984615
893.704864	0.981618
894.013306	0.976811
894.321707	0.970165
894.630068	0.964975
894.938387	0.963462
895.246665	0.964669
895.554903	0.968197
895.863100	0.972854
896.171256	0.975187
896.479371	0.979071
896.787446	0.982861
897.095480	0.985117
897.403473	0.986619
897.711425	0.986879
898.019336	0.989538
898.327207	0.989270
898.635038	0.989218
898.942827	0.989683
899.250576	0.990995
899.558284	0.991430
899.865952	0.991533
900.173579	0.992278
900.481165	0.991771
900.788711	0.992614
901.096216	0.992371
901.403681	0.993623
901.711105	0.993107
902.018489	0.993961
902.325832	0.992859
902.633135	0.993476
902.940397	0.992699
903.247619	0.989985
903.554800	0.982647
903.861941	0.973957
904.169041	0.962707
904.476101	0.958316
904.783121	0.957134
905.090100	0.961502
905.397039	0.968200
905.703938	0.974013
906.010796	0.979312
906.317614	0.982553
906.624391	0.986922
906.931129	0.989890
907.237826	0.990091
907.544483	0.992335
907.851099	0.991620
908.157675	0.993646
908.464211	0.994780
908.770707	0.995543
909.077163	0.995171
909.383578	0.996133
909.689954	0.996344
909.996289	0.996957
910.302584	0.996165
910.608839	0.998258
910.915054	0.996010
911.221229	0.998179
911.527363	0.995904
911.833458	0.997233
912.139513	0.996790
912.445527	0.996729
912.751502	0.996569
913.057436	0.994762
913.363331	0.996574
913.669186	0.995276
913.975000	0.994175
914.280775	0.992323
914.586510	0.988911
914.892205	0.985250
915.197859	0.981731
915.503475	0.974593
915.809050	0.969025
916.114585	0.964461
916.420081	0.963780
916.725536	0.965672
917.030952	0.969066
917.336328	0.971937
917.641665	0.974041
917.946961	0.977857
918.252218	0.980457
918.557435	0.983151
918.862612	0.986438
919.167750	0.987478
919.472848	0.988908
919.777906	0.991068
920.082925	0.991829
920.387904	0.992651
920.692843	0.991785
920.997743	0.993067
921.302603	0.994505
921.607423	0.994541
921.912204	0.995491
922.216946	0.996281
922.521647	0.995751
922.826310	0.995496
923.130932	0.995951
923.435516	0.997216
923.740059	0.995306
924.044564	0.996254
924.349028	0.995910
924.653454	0.998123
924.957840	0.997446
925.262186	0.998099
925.566493	0.998370
925.870761	0.998644
926.174989	0.997438
926.479178	0.998847
926.783328	0.999701
927.087438	0.999036
927.391509	0.997962
927.695541	0.999752
927.999533	1.000298
928.303486	0.999992
928.607400	1.000201
928.911275	0.999776
929.215110	0.999953
929.518906	1.000245
929.822663	0.999815
930.126381	1.000741
930.430060	1.000472
930.733699	1.000497
931.037299	0.999926
931.340861	1.000002
931.644383	0.998340
931.947866	1.000519
932.251309	0.999745
932.554714	0.999659
932.858080	1.000332
933.161407	0.999458
933.464694	0.999405
933.767943	0.999756
934.071153	0.999471
934.374323	1.000747
934.677455	0.999822
934.980548	1.000123
935.283602	1.000356
935.586617	0.999444
935.889593	1.000773
936.192530	1.000854
936.495428	0.999887
936.798287	0.998395
937.101108	0.999735
937.403890	0.999140
937.706632	1.000483
938.009336	0.999637
938.312002	0.997700
938.614628	0.998341
938.917216	0.997542
939.219765	0.997456
939.522275	0.999187
939.824747	0.998878
940.127179	0.997637
940.429573	0.998676
940.731929	0.998476
941.034246	0.997201
941.336524	0.997199
941.638763	0.999550
941.940964	0.998481
942.243126	0.998121
942.545250	0.999594
942.847335	0.999103
943.149381	0.999467
943.451389	0.998222
943.753359	0.999394
944.055290	1.000257
944.357182	1.000078
944.659036	0.998385
944.960851	0.999155
945.262628	1.001046
945.564367	0.999166
945.866067	0.999708
946.167729	1.000365
946.469352	0.999736
946.770937	0.997354
947.072484	1.000167
947.373992	0.999745
947.675462	0.998953
947.976893	0.999205
948.278286	1.000999
948.579641	1.000503
948.880958	0.999574
949.182236	1.000659
949.483476	1.000010
949.784678	1.000051
950.085841	1.000257
950.386967	0.998241
950.688054	1.000344
950.989103	0.998274
951.290114	0.998773
951.591087	1.000237
951.892021	0.999703
952.192917	0.999297
952.493776	0.999524
952.794596	0.998167
953.095378	0.999048
953.396122	0.999299
953.696828	1.000826
953.997496	1.000974
954.298126	0.999888
954.598718	0.998995
954.899272	1.000045
955.199788	0.999257
955.500266	1.000881
955.800706	0.999690
956.101108	0.999573
956.401472	1.002411
956.701798	1.001316
957.002087	1.000792
957.302337	1.001507
957.602550	1.002148
957.902724	1.001090
958.202861	1.000731
958.502960	1.001655
958.803022	1.002007
959.103045	1.001715
959.403031	1.002744
959.702979	1.001771
960.002889	1.002109
960.302762	1.000946
960.602596	1.002610
960.902393	1.000610
961.202153	1.002527
961.501875	1.002192
961.801559	1.003073
962.101205	1.001525
962.400814	1.001958
962.700385	1.002309
962.999918	1.002631
963.299414	1.002050
963.598873	1.001888
963.898293	1.002610
964.197677	1.001239
964.497022	1.002856
964.796331	1.000236
965.095601	1.002822
965.394835	1.001457
965.694030	1.002998
965.993189	1.000746
966.292309	1.002345
966.591393	1.000622
966.890439	1.002703
967.189447	1.000913
967.488419	1.001357
967.787353	1.001700
968.086249	1.002339
968.385108	1.000916
968.683930	1.003576
968.982714	1.002275
969.281462	1.001590
969.580172	1.001758
969.878844	1.002822
970.177480	1.001748
970.476078	1.003235
970.774639	1.002979
971.073162	1.002007
971.371649	1.001453
971.670098	1.002440
971.968510	1.002169
972.266885	1.001822
972.565223	1.001530
972.863524	1.001092
973.161788	1.002783
973.460014	1.003228
973.758204	1.001969
974.056356	1.001147
974.354471	1.001554
974.652550	1.002291
974.950591	1.001191
975.248595	1.000660
975.546563	1.002769
975.844493	1.002898
976.142386	1.001586
976.440243	1.003020
976.738062	1.003783
977.035845	1.001081
977.333590	1.003576
977.631299	1.001711
977.928971	1.002064
978.226606	1.001205
978.524204	1.001989
978.821765	1.002765
979.119290	1.002685
979.416777	1.001805
979.714228	1.001976
980.011642	1.003277
980.309020	1.002090
980.606360	1.002240
980.903664	1.003401
981.200931	1.002225
981.498162	1.001840
981.795356	1.002168
982.092513	1.001842
982.389633	1.002315
982.686717	1.000444
982.983764	1.000933
983.280775	1.000695
983.577749	1.000950
983.874686	1.000773
984.171587	1.000885
984.468451	1.001287
984.765279	1.003093
985.062070	1.001884
985.358824	1.001464
985.655543	1.002605
985.952224	1.003454
986.248869	1.002259
986.545478	1.004385
986.842050	1.002333
987.138586	1.001835
987.435086	1.001456
987.731549	1.004708
988.027975	1.003696
988.324366	1.001725
988.620719	1.003588
988.917037	1.002458
989.213318	1.002976
989.509563	1.003227
989.805772	1.003649
990.101944	1.003465
990.398080	1.002734
990.694180	1.003867
990.990244	1.002079
991.286271	1.003336
991.582262	1.001649
991.878217	1.002785
992.174136	1.003598
992.470019	1.003317
992.765865	1.004244
993.061676	1.003355
993.357450	1.003418
993.653188	1.003587
993.948890	1.002949
994.244556	1.002786
994.540186	1.001997
994.835780	1.002368
995.131337	1.003840
995.426859	1.003383
995.722345	1.002972
996.017795	1.001759
996.313208	1.002812
996.608586	1.002356
996.903928	1.001961
997.199234	1.002403
997.494504	1.003258
997.789738	1.001551
998.084936	1.002949
998.380099	1.002113
998.675225	1.004158
998.970316	1.002702
999.265371	1.003306
999.560390	1.002722
999.855373	1.003179
1000.150320	1.002882
1000.445232	1.003793
1000.740108	1.003294
1001.034948	1.002292
1001.329752	1.004373
1001.624521	1.003141
1001.919254	1.002188
1002.213951	1.003782
1002.508613	1.003019
1002.803239	1.002420
1003.097829	1.003084
1003.392384	1.003147
1003.686903	1.003542
1003.981386	1.002847
1004.275834	1.004771
1004.570246	1.002141
1004.864623	1.002662
1005.158964	1.003776
1005.453270	1.003192
1005.747540	1.002844
1006.041775	1.004231
1006.335974	1.003097
1006.630138	1.003989
1006.924266	1.002464
1007.218359	1.001939
1007.512416	1.003576
1007.806438	1.002911
1008.100425	1.003650
1008.394376	1.004285
1008.688292	1.003518
1008.982172	1.002891
1009.276017	1.004405
1009.569827	1.003306
1009.863602	1.003165
1010.157341	1.003470
1010.451045	1.002726
1010.744714	1.005144
1011.038347	1.004411
1011.331945	1.002623
1011.625508	1.002000
1011.919036	1.002563
1012.212528	1.004567
1012.505986	1.003362
1012.799408	1.003451
1013.092795	1.003670
1013.386147	1.003034
1013.679464	1.003164
1013.972745	1.003574
1014.265992	1.002300
1014.559204	1.003088
1014.852380	1.004014
1015.145521	1.002826
1015.438628	1.004471
1015.731699	1.003375
1016.024736	1.003674
1016.317737	1.003770
1016.610703	1.004572
1016.903635	1.003951
1017.196531	1.003600
1017.489393	1.002666
1017.782219	1.002846
1018.075011	1.002253
1018.367768	1.003770
1018.660490	1.003565
1018.953177	1.003565
1019.245829	1.003565
