Dividing Wavelength (nm)	Counts (n)	Blue Motor Position (mm): 8.000000	Red Motor Position (mm): 0.000000	
326.493990	1.003069
326.888308	1.003069
327.282561	1.003069
327.676750	1.005217
328.070874	1.005922
328.464933	1.006950
328.858929	1.004990
329.252859	1.004960
329.646726	1.005170
330.040528	1.004244
330.434265	1.005050
330.827938	1.004164
331.221547	1.005094
331.615091	1.005872
332.008571	1.005977
332.401986	1.005374
332.795338	1.004799
333.188625	1.005115
333.581847	1.004432
333.975006	1.005678
334.368100	1.005415
334.761129	1.004363
335.154095	1.005517
335.546996	1.002426
335.939833	0.997638
336.332606	0.999740
336.725315	0.997275
337.117960	0.999288
337.510540	0.998107
337.903056	0.998461
338.295508	0.998439
338.687896	0.999374
339.080220	0.997922
339.472480	0.999130
339.864676	0.999165
340.256807	0.997743
340.648875	0.999375
341.040879	0.997812
341.432818	0.999853
341.824694	0.997318
342.216506	0.998508
342.608253	0.997940
342.999937	0.997854
343.391557	0.998169
343.783113	0.999318
344.174605	0.998670
344.566033	0.997660
344.957397	0.999851
345.348697	0.999361
345.739934	0.999201
346.131106	0.998798
346.522215	0.997638
346.913260	0.998813
347.304241	0.997060
347.695159	0.998729
348.086012	0.998331
348.476802	0.997602
348.867528	0.997045
349.258191	0.997907
349.648789	0.997904
350.039324	0.998794
350.429796	0.997929
350.820203	0.996716
351.210548	0.998130
351.600828	0.997512
351.991045	0.998697
352.381198	0.998011
352.771288	0.997991
353.161314	0.997615
353.551276	0.997332
353.941175	0.996468
354.331010	0.997678
354.720782	0.997999
355.110490	0.998265
355.500135	0.997307
355.889717	0.997105
356.279235	0.997835
356.668689	0.997222
357.058080	0.996879
357.447408	0.996477
357.836672	0.998408
358.225873	0.996576
358.615010	0.996475
359.004084	0.995371
359.393095	0.997265
359.782043	0.997322
360.170927	0.997073
360.559748	0.997535
360.948505	0.997627
361.337199	0.997103
361.725830	0.997424
362.114398	0.997577
362.502903	0.997835
362.891344	0.996312
363.279722	0.996324
363.668037	0.997707
364.056289	0.995400
364.444478	0.997779
364.832603	0.997090
365.220665	0.997718
365.608665	0.994652
365.996601	0.995414
366.384474	0.993981
366.772284	0.995725
367.160031	0.994042
367.547715	0.995643
367.935336	0.994123
368.322893	0.991948
368.710388	0.991398
369.097820	0.990424
369.485189	0.987376
369.872495	0.985899
370.259738	0.983241
370.646918	0.980984
371.034035	0.978840
371.421090	0.976095
371.808081	0.970539
372.195010	0.967814
372.581875	0.963069
372.968678	0.958534
373.355418	0.956195
373.742096	0.948465
374.128710	0.943151
374.515262	0.939426
374.901751	0.932292
375.288177	0.927921
375.674540	0.920807
376.060841	0.915673
376.447079	0.908734
376.833254	0.901708
377.219367	0.896703
377.605417	0.885777
377.991404	0.881899
378.377329	0.876027
378.763191	0.869269
379.148991	0.860781
379.534727	0.852739
379.920402	0.845005
380.306013	0.841707
380.691563	0.828902
381.077049	0.820872
381.462474	0.818566
381.847835	0.805816
382.233134	0.802380
382.618371	0.801985
383.003545	0.785662
383.388657	0.782613
383.773706	0.775915
384.158693	0.771376
384.543618	0.766023
384.928480	0.757552
385.313280	0.746887
385.698017	0.746896
386.082692	0.734517
386.467305	0.733351
386.851856	0.728310
387.236344	0.723119
387.620770	0.717102
388.005133	0.711762
388.389435	0.705804
388.773674	0.703933
389.157851	0.694764
389.541965	0.692619
389.926018	0.699680
390.310008	0.685577
390.693936	0.683506
391.077802	0.675301
391.461606	0.677237
391.845348	0.665866
392.229027	0.664872
392.612645	0.663762
392.996200	0.650808
393.379694	0.644084
393.763125	0.634078
394.146494	0.638756
394.529801	0.628962
394.913047	0.621024
395.296230	0.626911
395.679351	0.618580
396.062410	0.615654
396.445408	0.618044
396.828343	0.613020
397.211217	0.608243
397.594028	0.620407
397.976778	0.610780
398.359466	0.607751
398.742092	0.602135
399.124656	0.614773
399.507158	0.602649
399.889598	0.600057
400.271977	0.590866
400.654294	0.594875
401.036549	0.594813
401.418742	0.598583
401.800874	0.584099
402.182944	0.580749
402.564952	0.572288
402.946898	0.575074
403.328783	0.575789
403.710606	0.586851
404.092367	0.561786
404.474067	0.567115
404.855705	0.564793
405.237282	0.573869
405.618797	0.560167
406.000250	0.556502
406.381642	0.546434
406.762972	0.551284
407.144240	0.550052
407.525447	0.549162
407.906593	0.543131
408.287677	0.537805
408.668700	0.546751
409.049661	0.539957
409.430560	0.535547
409.811399	0.544588
410.192176	0.525543
410.572891	0.533212
410.953545	0.521476
411.334138	0.534871
411.714669	0.527396
412.095139	0.538918
412.475547	0.523254
412.855894	0.525310
413.236180	0.524731
413.616405	0.529050
413.996568	0.520302
414.376670	0.526424
414.756711	0.530923
415.136691	0.528017
415.516609	0.518791
415.896466	0.515832
416.276262	0.511673
416.655997	0.513108
417.035670	0.495179
417.415283	0.486990
417.794834	0.492046
418.174324	0.497079
418.553753	0.506233
418.933121	0.488222
419.312428	0.482501
419.691674	0.487913
420.070859	0.476238
420.449983	0.484720
420.829045	0.473401
421.208047	0.482357
421.586988	0.475614
421.965867	0.474616
422.344686	0.463282
422.723444	0.475457
423.102141	0.492576
423.480777	0.465222
423.859352	0.486446
424.237866	0.463102
424.616319	0.464290
424.994712	0.455332
425.373044	0.465301
425.751314	0.453839
426.129524	0.470044
426.507673	0.454002
426.885762	0.447321
427.263789	0.452762
427.641756	0.462688
428.019662	0.452925
428.397508	0.451301
428.775292	0.456415
429.153016	0.447673
429.530679	0.454168
429.908282	0.447317
430.285824	0.458288
430.663305	0.436343
431.040726	0.456990
431.418086	0.456863
431.795385	0.449296
432.172624	0.447701
432.549802	0.448551
432.926920	0.447421
433.303977	0.446409
433.680974	0.443763
434.057910	0.441962
434.434786	0.441261
434.811601	0.444387
435.188355	0.426969
435.565050	0.436217
435.941683	0.437374
436.318257	0.421049
436.694770	0.422278
437.071222	0.420206
437.447614	0.424466
437.823946	0.431394
438.200218	0.420750
438.576429	0.430102
438.952580	0.423169
439.328670	0.419479
439.704700	0.425969
440.080670	0.427394
440.456580	0.409145
440.832429	0.416891
441.208218	0.427600
441.583947	0.416970
441.959616	0.416234
442.335224	0.422216
442.710773	0.412169
443.086261	0.410513
443.461689	0.424833
443.837057	0.414556
444.212365	0.404083
444.587612	0.411550
444.962800	0.401270
445.337927	0.403050
445.712995	0.428920
446.088002	0.390670
446.462949	0.401257
446.837837	0.406200
447.212664	0.394851
447.587431	0.386637
447.962139	0.356942
448.336786	0.315820
448.711374	0.326169
449.085901	0.370614
449.460369	0.374942
449.834776	0.378319
450.209124	0.357704
450.583412	0.350480
450.957640	0.343202
451.331808	0.354967
451.705917	0.378321
452.079965	0.382781
452.453954	0.371095
452.827883	0.377926
453.201752	0.372192
453.575562	0.383770
453.949311	0.372133
454.323001	0.378358
454.696632	0.374368
455.070202	0.367122
455.443713	0.358717
455.817164	0.353349
456.190556	0.349629
456.563888	0.346037
456.937160	0.343539
457.310373	0.361008
457.683526	0.359708
458.056619	0.365592
458.429653	0.365832
458.802628	0.369644
459.175542	0.363670
459.548398	0.346175
459.921194	0.338969
460.293930	0.338627
460.666607	0.316572
461.039224	0.304595
461.411782	0.300286
461.784280	0.299418
462.156719	0.303555
462.529099	0.308032
462.901419	0.324403
463.273680	0.328656
463.645882	0.327794
464.018024	0.333831
464.390106	0.326832
464.762130	0.311261
465.134094	0.294035
465.505999	0.263056
465.877845	0.233521
466.249631	0.220489
466.621358	0.227814
466.993026	0.242052
467.364634	0.248339
467.736184	0.256734
468.107674	0.265392
468.479105	0.264920
468.850477	0.271613
469.221790	0.278665
469.593043	0.288589
469.964238	0.293421
470.335373	0.292974
470.706449	0.291206
471.077467	0.291788
471.448425	0.253685
471.819324	0.228992
472.190164	0.228640
472.560945	0.257622
472.931667	0.280180
473.302330	0.284210
473.672934	0.295789
474.043479	0.284223
474.413965	0.285889
474.784393	0.288889
475.154761	0.284497
475.525070	0.281413
475.895321	0.287226
476.265513	0.281248
476.635645	0.276848
477.005719	0.276593
477.375734	0.273257
477.745691	0.266595
478.115588	0.262584
478.485427	0.256438
478.855207	0.243467
479.224928	0.225696
479.594591	0.213838
479.964194	0.217140
480.333739	0.218394
480.703226	0.219694
481.072653	0.218095
481.442022	0.213859
481.811333	0.210520
482.180584	0.213905
482.549777	0.219229
482.918912	0.222616
483.287988	0.222223
483.657005	0.221887
484.025964	0.228397
484.394864	0.225588
484.763706	0.226273
485.132489	0.231482
485.501213	0.232084
485.869879	0.230491
486.238487	0.233286
486.607036	0.231670
486.975527	0.236247
487.343959	0.232092
487.712333	0.231069
488.080648	0.232385
488.448905	0.231678
488.817104	0.232767
489.185244	0.227532
489.553326	0.224404
489.921350	0.214147
490.289315	0.196766
490.657222	0.191620
491.025070	0.192758
491.392861	0.194831
491.760593	0.200490
492.128267	0.206403
492.495883	0.211939
492.863440	0.218164
493.230939	0.224842
493.598380	0.226068
493.965763	0.228109
494.333088	0.230490
494.700354	0.232091
495.067563	0.231015
495.434713	0.234299
495.801805	0.232002
496.168839	0.233594
496.535815	0.235067
496.902733	0.234776
497.269593	0.236495
497.636395	0.234184
498.003139	0.234450
498.369825	0.237510
498.736453	0.234306
499.103023	0.235409
499.469535	0.234965
499.835989	0.235395
500.202385	0.236129
500.568723	0.239470
500.935003	0.234376
501.301226	0.238619
501.667390	0.232786
502.033497	0.230989
502.399546	0.233943
502.765537	0.235960
503.131470	0.234389
503.497345	0.230805
503.863163	0.239184
504.228923	0.232371
504.594625	0.230976
504.960269	0.236340
505.325856	0.231997
505.691385	0.236327
506.056856	0.232810
506.422270	0.232231
506.787625	0.234514
507.152924	0.232298
507.518164	0.232607
507.883347	0.234055
508.248472	0.236279
508.613540	0.230828
508.978550	0.233578
509.343503	0.234057
509.708398	0.231672
510.073236	0.229185
510.438016	0.228937
510.802738	0.230013
511.167403	0.228968
511.532010	0.231155
511.896561	0.226341
512.261053	0.225168
512.625488	0.227528
512.989866	0.227797
513.354186	0.227869
513.718449	0.229714
514.082655	0.226060
514.446803	0.228406
514.810894	0.225951
515.174927	0.228811
515.538904	0.228250
515.902822	0.225203
516.266684	0.227397
516.630488	0.228688
516.994235	0.227377
517.357925	0.226427
517.721558	0.224380
518.085133	0.224091
518.448651	0.224078
518.812112	0.226331
519.175516	0.226001
519.538863	0.223488
519.902152	0.225549
520.265385	0.221964
520.628560	0.223771
520.991678	0.224272
521.354739	0.223165
521.717743	0.224392
522.080690	0.224740
522.443580	0.222118
522.806413	0.222935
523.169189	0.222357
523.531908	0.221170
523.894569	0.224869
524.257174	0.224819
524.619722	0.222317
524.982213	0.223520
525.344647	0.222166
525.707025	0.223435
526.069345	0.221309
526.431608	0.223111
526.793815	0.221291
527.155964	0.225161
527.518057	0.224159
527.880093	0.224845
528.242072	0.223412
528.603995	0.225791
528.965860	0.227285
529.327669	0.226214
529.689421	0.227032
530.051117	0.227941
530.412755	0.225671
530.774337	0.228140
531.135862	0.228436
531.497331	0.227481
531.858743	0.230675
532.220098	0.227474
532.581396	0.229822
532.942638	0.230437
533.303824	0.231524
533.664953	0.231021
534.026025	0.233138
534.387040	0.231015
534.747999	0.230505
535.108902	0.229335
535.469748	0.234525
535.830537	0.232660
536.191270	0.233049
536.551947	0.232405
536.912567	0.232514
537.273131	0.234084
537.633638	0.234356
537.994089	0.234865
538.354483	0.235932
538.714821	0.232700
539.075103	0.232808
539.435328	0.233233
539.795497	0.237114
540.155609	0.233911
540.515665	0.231893
540.875665	0.237526
541.235609	0.236160
541.595496	0.236448
541.955328	0.232829
542.315102	0.235538
542.674821	0.236586
543.034483	0.236721
543.394090	0.236280
543.753640	0.238109
544.113134	0.233119
544.472571	0.236617
544.831953	0.233450
545.191278	0.237798
545.550548	0.236856
545.909761	0.233642
546.268918	0.234699
546.628019	0.232618
546.987064	0.235512
547.346053	0.237105
547.704986	0.235161
548.063863	0.235328
548.422684	0.235441
548.781449	0.237476
549.140158	0.235419
549.498811	0.237887
549.857408	0.241276
550.215949	0.235681
550.574434	0.239101
550.932864	0.236921
551.291237	0.235448
551.649555	0.237239
552.007817	0.236693
552.366022	0.237676
552.724173	0.237840
553.082267	0.238099
553.440305	0.234900
553.798288	0.239176
554.156215	0.236091
554.514086	0.236847
554.871902	0.239827
555.229661	0.239251
555.587365	0.239513
555.945014	0.242135
556.302606	0.239232
556.660143	0.241785
557.017625	0.238251
557.375050	0.240456
557.732421	0.237391
558.089735	0.239427
558.446994	0.239312
558.804197	0.238540
559.161345	0.238584
559.518437	0.241831
559.875474	0.239991
560.232455	0.239247
560.589381	0.240492
560.946251	0.240626
561.303065	0.238300
561.659825	0.239717
562.016528	0.241205
562.373177	0.243833
562.729770	0.241013
563.086307	0.242946
563.442789	0.240860
563.799216	0.243568
564.155587	0.242547
564.511904	0.243791
564.868164	0.243645
565.224370	0.243738
565.580520	0.245375
565.936615	0.245288
566.292654	0.248249
566.648638	0.245361
567.004567	0.246332
567.360441	0.246603
567.716260	0.248613
568.072023	0.246399
568.427732	0.247284
568.783385	0.249574
569.138982	0.247615
569.494525	0.247717
569.850013	0.250226
570.205445	0.248591
570.560823	0.251294
570.916145	0.253272
571.271412	0.251825
571.626625	0.252660
571.981782	0.253682
572.336884	0.254506
572.691931	0.254331
573.046923	0.255493
573.401860	0.256503
573.756743	0.258295
574.111570	0.257361
574.466342	0.257548
574.821059	0.256699
575.175722	0.259627
575.530330	0.259696
575.884882	0.259648
576.239380	0.261327
576.593823	0.261857
576.948211	0.261312
577.302544	0.265012
577.656823	0.264648
578.011047	0.264467
578.365216	0.265075
578.719330	0.267357
579.073389	0.266710
579.427394	0.268177
579.781344	0.269371
580.135239	0.270241
580.489080	0.270542
580.842866	0.272935
581.196597	0.273047
581.550273	0.271345
581.903895	0.272856
582.257463	0.270757
582.610975	0.273949
582.964434	0.273658
583.317837	0.276067
583.671186	0.276152
584.024481	0.276301
584.377721	0.278810
584.730906	0.279684
585.084037	0.278919
585.437113	0.280793
585.790135	0.280016
586.143103	0.282955
586.496016	0.284059
586.848874	0.281819
587.201679	0.282621
587.554428	0.285419
587.907124	0.284591
588.259765	0.285091
588.612352	0.285763
588.964884	0.289765
589.317362	0.288693
589.669786	0.289182
590.022155	0.287482
590.374470	0.286827
590.726731	0.288932
591.078937	0.293944
591.431090	0.290299
591.783188	0.294270
592.135232	0.294895
592.487222	0.294829
592.839157	0.292899
593.191038	0.294944
593.542866	0.296954
593.894639	0.300481
594.246358	0.298852
594.598022	0.298247
594.949633	0.301805
595.301190	0.302534
595.652692	0.301476
596.004141	0.297218
596.355535	0.305625
596.706876	0.306226
597.058162	0.308814
597.409395	0.305887
597.760573	0.303844
598.111698	0.307285
598.462768	0.307367
598.813785	0.308490
599.164748	0.310021
599.515657	0.310263
599.866511	0.313977
600.217312	0.309011
600.568060	0.314048
600.918753	0.310911
601.269392	0.311678
601.619978	0.314953
601.970510	0.312501
602.320988	0.312431
602.671412	0.310357
603.021783	0.313006
603.372100	0.314264
603.722363	0.313930
604.072572	0.314785
604.422728	0.314373
604.772830	0.316658
605.122878	0.316487
605.472872	0.317057
605.822813	0.315298
606.172701	0.318083
606.522534	0.315015
606.872314	0.315439
607.222041	0.316276
607.571714	0.314263
607.921333	0.315950
608.270899	0.315581
608.620411	0.312403
608.969870	0.316456
609.319276	0.316433
609.668627	0.315820
610.017926	0.314738
610.367171	0.313620
610.716362	0.313876
611.065500	0.314204
611.414585	0.312951
611.763616	0.312996
612.112594	0.314171
612.461518	0.313324
612.810389	0.310644
613.159207	0.313362
613.507971	0.315057
613.856682	0.311101
614.205340	0.311882
614.553945	0.309574
614.902496	0.313003
615.250994	0.311418
615.599439	0.311805
615.947830	0.311440
616.296169	0.312417
616.644454	0.312235
616.992686	0.311834
617.340864	0.309852
617.688990	0.313000
618.037063	0.309780
618.385082	0.311596
618.733048	0.308665
619.080961	0.310936
619.428821	0.310556
619.776628	0.310023
620.124382	0.312300
620.472083	0.312376
620.819731	0.311852
621.167326	0.315932
621.514868	0.315486
621.862357	0.319725
622.209793	0.319081
622.557176	0.321672
622.904506	0.322408
623.251783	0.324982
623.599007	0.327443
623.946179	0.326232
624.293297	0.329191
624.640363	0.333045
624.987376	0.333324
625.334336	0.335815
625.681243	0.338218
626.028097	0.338620
626.374899	0.339404
626.721647	0.340144
627.068343	0.343494
627.414987	0.344562
627.761577	0.346491
628.108115	0.344409
628.454600	0.350158
628.801032	0.347463
629.147412	0.349141
629.493739	0.350146
629.840014	0.352853
630.186236	0.349886
630.532405	0.356093
630.878521	0.353275
631.224585	0.355690
631.570597	0.359301
631.916556	0.357728
632.262462	0.357492
632.608316	0.359763
632.954117	0.360730
633.299866	0.361520
633.645562	0.362276
633.991206	0.366145
634.336797	0.369032
634.682336	0.371563
635.027823	0.373171
635.373257	0.373760
635.718639	0.377313
636.063968	0.376433
636.409245	0.382518
636.754470	0.382703
637.099642	0.385178
637.444762	0.388681
637.789829	0.388183
638.134845	0.391125
638.479808	0.392196
638.824719	0.392469
639.169577	0.396366
639.514383	0.395113
639.859137	0.399801
640.203839	0.399036
640.548489	0.399312
640.893086	0.401074
641.237632	0.402329
641.582125	0.401686
641.926566	0.403759
642.270955	0.403234
642.615292	0.403010
642.959576	0.402748
643.303809	0.403205
643.647990	0.402622
643.992118	0.403451
644.336195	0.406328
644.680219	0.405434
645.024192	0.405575
645.368112	0.399684
645.711981	0.398389
646.055797	0.393539
646.399562	0.395895
646.743274	0.388631
647.086935	0.385715
647.430544	0.385716
647.774101	0.384756
648.117606	0.384783
648.461059	0.384662
648.804460	0.387123
649.147810	0.392564
649.491108	0.394030
649.834354	0.395795
650.177548	0.400862
650.520690	0.406508
650.863781	0.407929
651.206820	0.407256
651.549807	0.411902
651.892742	0.416054
652.235626	0.415546
652.578458	0.416509
652.921238	0.422976
653.263967	0.420423
653.606644	0.424068
653.949269	0.423979
654.291843	0.428213
654.634365	0.425314
654.976836	0.427322
655.319255	0.428201
655.661622	0.429540
656.003938	0.429968
656.346203	0.432475
656.688416	0.430824
657.030577	0.433920
657.372687	0.436331
657.714746	0.437366
658.056753	0.434063
658.398708	0.438076
658.740612	0.439130
659.082465	0.435400
659.424266	0.435897
659.766016	0.435750
660.107715	0.438487
660.449362	0.437273
660.790958	0.437832
661.132503	0.438984
661.473996	0.436156
661.815438	0.437032
662.156829	0.437608
662.498168	0.438534
662.839456	0.439663
663.180693	0.437655
663.521879	0.437699
663.863013	0.438483
664.204097	0.437258
664.545129	0.434075
664.886110	0.434374
665.227040	0.432235
665.567918	0.435015
665.908746	0.432697
666.249522	0.432623
666.590248	0.433376
666.930922	0.431798
667.271545	0.431007
667.612118	0.430718
667.952639	0.433140
668.293109	0.431625
668.633528	0.434688
668.973896	0.434144
669.314213	0.435068
669.654480	0.437067
669.994695	0.436574
670.334859	0.437587
670.674973	0.438156
671.015035	0.438535
671.355047	0.438479
671.695008	0.439708
672.034918	0.441684
672.374777	0.441097
672.714585	0.442290
673.054342	0.442420
673.394049	0.442529
673.733705	0.440192
674.073310	0.442392
674.412864	0.444586
674.752368	0.445610
675.091820	0.446147
675.431223	0.450568
675.770574	0.450182
676.109875	0.453406
676.449125	0.453739
676.788324	0.456112
677.127473	0.461106
677.466571	0.461616
677.805619	0.463297
678.144616	0.464834
678.483562	0.466651
678.822458	0.469082
679.161303	0.470160
679.500098	0.471069
679.838842	0.471758
680.177535	0.471830
680.516179	0.470536
680.854771	0.469851
681.193314	0.463720
681.531805	0.455518
681.870247	0.444790
682.208638	0.437129
682.546978	0.437030
682.885268	0.438924
683.223508	0.445118
683.561697	0.448817
683.899836	0.451776
684.237925	0.454779
684.575963	0.458406
684.913951	0.461600
685.251889	0.457909
685.589776	0.459741
685.927614	0.462110
686.265401	0.457381
686.603137	0.458908
686.940824	0.453785
687.278460	0.452383
687.616046	0.451823
687.953582	0.447812
688.291068	0.449430
688.628504	0.445120
688.965889	0.447372
689.303224	0.451539
689.640510	0.456021
689.977745	0.461717
690.314930	0.469259
690.652065	0.473915
690.989150	0.481163
691.326185	0.488000
691.663170	0.492552
692.000105	0.499163
692.336990	0.506618
692.673825	0.509056
693.010610	0.515964
693.347345	0.521162
693.684030	0.523644
694.020665	0.528172
694.357251	0.536430
694.693786	0.537180
695.030272	0.540439
695.366707	0.544685
695.703093	0.548214
696.039429	0.546085
696.375716	0.549274
696.711952	0.550938
697.048139	0.552601
697.384276	0.555672
697.720363	0.554801
698.056400	0.553328
698.392388	0.559713
698.728326	0.561902
699.064214	0.564436
699.400053	0.565323
699.735842	0.569822
700.071581	0.572619
700.407270	0.575661
700.742910	0.578659
701.078501	0.583515
701.414042	0.586020
701.749533	0.588650
702.084974	0.597593
702.420366	0.590885
702.755709	0.598032
703.091002	0.605363
703.426246	0.600132
703.761440	0.604215
704.096584	0.609056
704.431679	0.606769
704.766725	0.609812
705.101721	0.612280
705.436668	0.608541
705.771565	0.614178
706.106413	0.610842
706.441212	0.608568
706.775961	0.608054
707.110661	0.609244
707.445311	0.606290
707.779913	0.605213
708.114465	0.603640
708.448967	0.600114
708.783421	0.593490
709.117825	0.589170
709.452180	0.589075
709.786485	0.583896
710.120742	0.574681
710.454949	0.576417
710.789107	0.569307
711.123216	0.561169
711.457275	0.561950
711.791286	0.556304
712.125247	0.556777
712.459159	0.564433
712.793023	0.556843
713.126837	0.564606
713.460602	0.565109
713.794318	0.571029
714.127985	0.571385
714.461602	0.582239
714.795171	0.583360
715.128691	0.591484
715.462162	0.599032
715.795584	0.605676
716.128957	0.608479
716.462281	0.613349
716.795556	0.616997
717.128782	0.623218
717.461960	0.631881
717.795088	0.631462
718.128167	0.636973
718.461198	0.643196
718.794180	0.645160
719.127113	0.648634
719.459997	0.651582
719.792833	0.656806
720.125619	0.658216
720.458357	0.664779
720.791046	0.665447
721.123686	0.668520
721.456278	0.675136
721.788821	0.673046
722.121315	0.678309
722.453761	0.680662
722.786158	0.679649
723.118506	0.677368
723.450805	0.682638
723.783056	0.679809
724.115259	0.678661
724.447412	0.679494
724.779518	0.679323
725.111574	0.678986
725.443582	0.675524
725.775542	0.677965
726.107453	0.671609
726.439315	0.672258
726.771129	0.670381
727.102895	0.664369
727.434612	0.658982
727.766281	0.656965
728.097901	0.656713
728.429473	0.655900
728.760996	0.655432
729.092471	0.655081
729.423897	0.660030
729.755276	0.659994
730.086606	0.659566
730.417887	0.653689
730.749120	0.646084
731.080305	0.640575
731.411442	0.636209
731.742530	0.638923
732.073570	0.638776
732.404562	0.634071
732.735506	0.635490
733.066401	0.639681
733.397249	0.647274
733.728048	0.657673
734.058798	0.670987
734.389501	0.681922
734.720156	0.688980
735.050762	0.695614
735.381320	0.698881
735.711831	0.704559
736.042293	0.710106
736.372707	0.708347
736.703073	0.710575
737.033391	0.712141
737.363661	0.710264
737.693883	0.706962
738.024056	0.705875
738.354182	0.705366
738.684260	0.697395
739.014290	0.694229
739.344272	0.693881
739.674207	0.689292
740.004093	0.688594
740.333931	0.689177
740.663722	0.690435
740.993464	0.692102
741.323159	0.694778
741.652806	0.699574
741.982405	0.703761
742.311956	0.709297
742.641460	0.710663
742.970915	0.714160
743.300323	0.720164
743.629683	0.725225
743.958996	0.728338
744.288260	0.731639
744.617477	0.737549
744.946647	0.739441
745.275768	0.745428
745.604842	0.746079
745.933869	0.752151
746.262847	0.754522
746.591778	0.750291
746.920662	0.755724
747.249498	0.760176
747.578286	0.754099
747.907027	0.751621
748.235720	0.748863
748.564365	0.747003
748.892963	0.748172
749.221514	0.750467
749.550017	0.752639
749.878473	0.754782
750.206881	0.761178
750.535242	0.761405
750.863555	0.761225
751.191821	0.762123
751.520039	0.764472
751.848210	0.766741
752.176334	0.763248
752.504411	0.763853
752.832440	0.769603
753.160421	0.773000
753.488356	0.772043
753.816243	0.771099
754.144082	0.777413
754.471875	0.780326
754.799620	0.777982
755.127318	0.777854
755.454969	0.779338
755.782572	0.780206
756.110129	0.782079
756.437638	0.784796
756.765100	0.784052
757.092515	0.782098
757.419882	0.781390
757.747203	0.785298
758.074477	0.785043
758.401703	0.782769
758.728882	0.780470
759.056014	0.778349
759.383099	0.777165
759.710138	0.776475
760.037129	0.773854
760.364073	0.771348
760.690970	0.773347
761.017820	0.775657
761.344623	0.773948
761.671379	0.767867
761.998088	0.758827
762.324751	0.739860
762.651366	0.702829
762.977935	0.643977
763.304456	0.604063
763.630931	0.600015
763.957359	0.630566
764.283740	0.668068
764.610074	0.693786
764.936362	0.721438
765.262602	0.742263
765.588796	0.759980
765.914943	0.774811
766.241044	0.788428
766.567097	0.794679
766.893104	0.802936
767.219064	0.807616
767.544978	0.814112
767.870845	0.823420
768.196665	0.825552
768.522438	0.826624
768.848165	0.828631
769.173846	0.835928
769.499479	0.838150
769.825066	0.841198
770.150607	0.844789
770.476101	0.843409
770.801548	0.845238
771.126949	0.852984
771.452303	0.855988
771.777611	0.856623
772.102872	0.855044
772.428087	0.860009
772.753256	0.863297
773.078378	0.865010
773.403453	0.871017
773.728482	0.874692
774.053465	0.870442
774.378401	0.874321
774.703291	0.879491
775.028135	0.880279
775.352932	0.879963
775.677683	0.884002
776.002388	0.884205
776.327046	0.883429
776.651658	0.888128
776.976224	0.889683
777.300743	0.889842
777.625216	0.891431
777.949643	0.892795
778.274024	0.892016
778.598359	0.894673
778.922647	0.893631
779.246889	0.894828
779.571086	0.897189
779.895236	0.898043
780.219339	0.898105
780.543397	0.894872
780.867409	0.894506
781.191374	0.895008
781.515294	0.896831
781.839167	0.896171
782.162995	0.897734
782.486776	0.896219
782.810511	0.897170
783.134201	0.901146
783.457844	0.900630
783.781441	0.901120
784.104993	0.904389
784.428498	0.904482
784.751958	0.903920
785.075372	0.905383
785.398739	0.906577
785.722061	0.904511
786.045337	0.902783
786.368568	0.903727
786.691752	0.905839
787.014891	0.897233
787.337983	0.889678
787.661030	0.881295
787.984031	0.867842
788.306987	0.860334
788.629897	0.859960
788.952760	0.865513
789.275579	0.870221
789.598351	0.881147
789.921078	0.891901
790.243759	0.893664
790.566395	0.898202
790.888984	0.903151
791.211529	0.906108
791.534027	0.909417
791.856480	0.912234
792.178888	0.914372
792.501249	0.915191
792.823566	0.918804
793.145836	0.918504
793.468062	0.919491
793.790241	0.920265
794.112375	0.917148
794.434464	0.915382
794.756507	0.914926
795.078505	0.914032
795.400457	0.908737
795.722364	0.901396
796.044226	0.896078
796.366042	0.893283
796.687812	0.895574
797.009538	0.894523
797.331218	0.898410
797.652852	0.901615
797.974442	0.903621
798.295986	0.906337
798.617484	0.906927
798.938938	0.910930
799.260346	0.912544
799.581709	0.915257
799.903026	0.917359
800.224299	0.917635
800.545526	0.920642
800.866708	0.923247
801.187845	0.926080
801.508936	0.926124
801.829983	0.925525
802.150984	0.928750
802.471940	0.929421
802.792851	0.930254
803.113717	0.931031
803.434538	0.929487
803.755314	0.933303
804.076045	0.932674
804.396731	0.932435
804.717372	0.930537
805.037967	0.933142
805.358518	0.932478
805.679024	0.930508
805.999485	0.930368
806.319901	0.929983
806.640272	0.932688
806.960598	0.929700
807.280879	0.928045
807.601115	0.926896
807.921306	0.929924
808.241453	0.929136
808.561554	0.929874
808.881611	0.929864
809.201623	0.930646
809.521590	0.931097
809.841513	0.931789
810.161390	0.929914
810.481223	0.933310
810.801011	0.934337
811.120755	0.936543
811.440453	0.935959
811.760107	0.935546
812.079716	0.935198
812.399281	0.937477
812.718801	0.938877
813.038276	0.939213
813.357707	0.940095
813.677093	0.939628
813.996434	0.940898
814.315731	0.941834
814.634983	0.942564
814.954191	0.943508
815.273354	0.939350
815.592473	0.938245
815.911547	0.937275
816.230577	0.935680
816.549562	0.934349
816.868502	0.932412
817.187399	0.933572
817.506250	0.930246
817.825058	0.930452
818.143821	0.927624
818.462539	0.924758
818.781213	0.919698
819.099843	0.913581
819.418429	0.899842
819.736970	0.889309
820.055466	0.874333
820.373919	0.859358
820.692327	0.838780
821.010691	0.812089
821.329011	0.748907
821.647286	0.650828
821.965517	0.557759
822.283704	0.523016
822.601847	0.526541
822.919945	0.563658
823.237999	0.605323
823.556010	0.646512
823.873976	0.691048
824.191897	0.729267
824.509775	0.761713
824.827609	0.791935
825.145398	0.806695
825.463144	0.808355
825.780845	0.798008
826.098502	0.781084
826.416116	0.748666
826.733685	0.712476
827.051210	0.705583
827.368692	0.720833
827.686129	0.754676
828.003522	0.793072
828.320872	0.825858
828.638177	0.854383
828.955439	0.875354
829.272656	0.890154
829.589830	0.900036
829.906960	0.912280
830.224046	0.919792
830.541088	0.926678
830.858086	0.929541
831.175041	0.934881
831.491952	0.933535
831.808819	0.931898
832.125642	0.926686
832.442421	0.919249
832.759157	0.901579
833.075849	0.868582
833.392497	0.825150
833.709101	0.799679
834.025662	0.807098
834.342179	0.830834
834.658653	0.858043
834.975083	0.882440
835.291469	0.901558
835.607811	0.915027
835.924110	0.925468
836.240366	0.936210
836.556578	0.943698
836.872746	0.949092
837.188871	0.952229
837.504952	0.955226
837.820990	0.957878
838.136984	0.959210
838.452935	0.962231
838.768842	0.962344
839.084706	0.958504
839.400526	0.941123
839.716303	0.911573
840.032037	0.897570
840.347727	0.901345
840.663373	0.916001
840.978977	0.932257
841.294537	0.945832
841.610054	0.955498
841.925527	0.960714
842.240957	0.964706
842.556344	0.968114
842.871687	0.971555
843.186987	0.972926
843.502244	0.974785
843.817458	0.975714
844.132629	0.977875
844.447756	0.980075
844.762840	0.979863
845.077881	0.981861
845.392879	0.979339
845.707833	0.981129
846.022745	0.981615
846.337613	0.982756
846.652438	0.983495
846.967221	0.983178
847.281960	0.984044
847.596656	0.985288
847.911309	0.984751
848.225919	0.983766
848.540485	0.986079
848.855009	0.986934
849.169490	0.986122
849.483928	0.985425
849.798323	0.985204
850.112675	0.986636
850.426984	0.986263
850.741251	0.986170
851.055474	0.985179
851.369654	0.984278
851.683792	0.984941
851.997887	0.986346
852.311938	0.986799
852.625947	0.985969
852.939914	0.985063
853.253837	0.986641
853.567718	0.986759
853.881555	0.986416
854.195350	0.985013
854.509103	0.986438
854.822812	0.986283
855.136479	0.986229
855.450103	0.987012
855.763685	0.985103
856.077224	0.986991
856.390720	0.986950
856.704173	0.986805
857.017584	0.986195
857.330953	0.985473
857.644278	0.985889
857.957561	0.985394
858.270802	0.986030
858.584000	0.985495
858.897155	0.985584
859.210268	0.984511
859.523339	0.987058
859.836367	0.986587
860.149352	0.986211
860.462295	0.986236
860.775195	0.987104
861.088054	0.985193
861.400869	0.987650
861.713642	0.986617
862.026373	0.987312
862.339062	0.988313
862.651708	0.985777
862.964312	0.985973
863.276873	0.986418
863.589392	0.984578
863.901869	0.985088
864.214303	0.985727
864.526696	0.984203
864.839045	0.984099
865.151353	0.982609
865.463619	0.982011
865.775842	0.982699
866.088023	0.984687
866.400162	0.983650
866.712258	0.983778
867.024313	0.983472
867.336325	0.984974
867.648296	0.983867
867.960224	0.983018
868.272110	0.984044
868.583954	0.984581
868.895755	0.985611
869.207515	0.983397
869.519233	0.983271
869.830909	0.982125
870.142542	0.983140
870.454134	0.983021
870.765684	0.981608
871.077191	0.982968
871.388657	0.981597
871.700081	0.982349
872.011463	0.981961
872.322803	0.980643
872.634101	0.979517
872.945357	0.979587
873.256571	0.978406
873.567744	0.979523
873.878874	0.979197
874.189963	0.978135
874.501010	0.981142
874.812015	0.978148
875.122979	0.977822
875.433900	0.978724
875.744780	0.980039
876.055618	0.977865
876.366415	0.977808
876.677169	0.978311
876.987882	0.978366
877.298554	0.980924
877.609183	0.977591
877.919771	0.975930
878.230317	0.976803
878.540822	0.973387
878.851285	0.971317
879.161707	0.968154
879.472087	0.963700
879.782425	0.953120
880.092722	0.934435
880.402977	0.902153
880.713191	0.855025
881.023363	0.805824
881.333494	0.776669
881.643583	0.762683
881.953631	0.771604
882.263637	0.793691
882.573602	0.821417
882.883526	0.842227
883.193408	0.860592
883.503248	0.878228
883.813048	0.893654
884.122806	0.911125
884.432522	0.924310
884.742197	0.936090
885.051831	0.942282
885.361424	0.948818
885.670975	0.955262
885.980485	0.959634
886.289954	0.962712
886.599382	0.965309
886.908768	0.968430
887.218113	0.969698
887.527417	0.972297
887.836680	0.973835
888.145901	0.975353
888.455082	0.978711
888.764221	0.979162
889.073319	0.979472
889.382376	0.981169
889.691392	0.979294
890.000366	0.980768
890.309300	0.980999
890.618193	0.980912
890.927044	0.980632
891.235855	0.979408
891.544625	0.979413
891.853353	0.979664
892.162041	0.977941
892.470687	0.975750
892.779293	0.972245
893.087858	0.969386
893.396381	0.965867
893.704864	0.957987
894.013306	0.945245
894.321707	0.929612
894.630068	0.921530
894.938387	0.917022
895.246665	0.922448
895.554903	0.928600
895.863100	0.939129
896.171256	0.947705
896.479371	0.956049
896.787446	0.962732
897.095480	0.967133
897.403473	0.969211
897.711425	0.971955
898.019336	0.974716
898.327207	0.977048
898.635038	0.976113
898.942827	0.976717
899.250576	0.977996
899.558284	0.980306
899.865952	0.980741
900.173579	0.981861
900.481165	0.982206
900.788711	0.984226
901.096216	0.985734
901.403681	0.984786
901.711105	0.985021
902.018489	0.985816
902.325832	0.984691
902.633135	0.984289
902.940397	0.983272
903.247619	0.976113
903.554800	0.962598
903.861941	0.939159
904.169041	0.917238
904.476101	0.907493
904.783121	0.909905
905.090100	0.920101
905.397039	0.933727
905.703938	0.946656
906.010796	0.956024
906.317614	0.963597
906.624391	0.971396
906.931129	0.975330
907.237826	0.979584
907.544483	0.982500
907.851099	0.985274
908.157675	0.987382
908.464211	0.989594
908.770707	0.988270
909.077163	0.990223
909.383578	0.991986
909.689954	0.991548
909.996289	0.990843
910.302584	0.993056
910.608839	0.993547
910.915054	0.992860
911.221229	0.993805
911.527363	0.992160
911.833458	0.991486
912.139513	0.991724
912.445527	0.991833
912.751502	0.991653
913.057436	0.989158
913.363331	0.989996
913.669186	0.987765
913.975000	0.985599
914.280775	0.981587
914.586510	0.976807
914.892205	0.969666
915.197859	0.958712
915.503475	0.945937
915.809050	0.932450
916.114585	0.926653
916.420081	0.925737
916.725536	0.927739
917.030952	0.933062
917.336328	0.940711
917.641665	0.947552
917.946961	0.955275
918.252218	0.961403
918.557435	0.967562
918.862612	0.970481
919.167750	0.974349
919.472848	0.977127
919.777906	0.980167
920.082925	0.983322
920.387904	0.984977
920.692843	0.984397
920.997743	0.985596
921.302603	0.987509
921.607423	0.987023
921.912204	0.989375
922.216946	0.990253
922.521647	0.989992
922.826310	0.990866
923.130932	0.992885
923.435516	0.992376
923.740059	0.994181
924.044564	0.993304
924.349028	0.993050
924.653454	0.994336
924.957840	0.994987
925.262186	0.995072
925.566493	0.996086
925.870761	0.996032
926.174989	0.995660
926.479178	0.997242
926.783328	0.998457
927.087438	0.996967
927.391509	0.996602
927.695541	0.997749
927.999533	0.998620
928.303486	0.998415
928.607400	0.999122
928.911275	0.998928
929.215110	0.999666
929.518906	0.998533
929.822663	0.999341
930.126381	0.999260
930.430060	0.998266
930.733699	0.999594
931.037299	0.998013
931.340861	0.998248
931.644383	0.996815
931.947866	0.998484
932.251309	0.999661
932.554714	0.998217
932.858080	0.998934
933.161407	0.996495
933.464694	0.997535
933.767943	0.999436
934.071153	0.998705
934.374323	0.998551
934.677455	0.998077
934.980548	0.997565
935.283602	0.999406
935.586617	0.999131
935.889593	0.999717
936.192530	0.998686
936.495428	0.998941
936.798287	0.998412
937.101108	0.998333
937.403890	0.996694
937.706632	0.997669
938.009336	0.995808
938.312002	0.997035
938.614628	0.995449
938.917216	0.994767
939.219765	0.994531
939.522275	0.994498
939.824747	0.995954
940.127179	0.996001
940.429573	0.995725
940.731929	0.994658
941.034246	0.996387
941.336524	0.994353
941.638763	0.996111
941.940964	0.996909
942.243126	0.995872
942.545250	0.997971
942.847335	0.996618
943.149381	0.996886
943.451389	0.996716
943.753359	0.997855
944.055290	0.999607
944.357182	0.997996
944.659036	0.998610
944.960851	0.998112
945.262628	0.998560
945.564367	0.998239
945.866067	0.997777
946.167729	0.996993
946.469352	0.997886
946.770937	0.996523
947.072484	0.998869
947.373992	0.998113
947.675462	0.997652
947.976893	0.997597
948.278286	0.999787
948.579641	0.999226
948.880958	0.998735
949.182236	0.998545
949.483476	0.999774
949.784678	0.999597
950.085841	0.999142
950.386967	0.996827
950.688054	0.999130
950.989103	0.997386
951.290114	0.997789
951.591087	0.998832
951.892021	0.997933
952.192917	0.998289
952.493776	0.998173
952.794596	0.997414
953.095378	0.997265
953.396122	0.996425
953.696828	0.998458
953.997496	0.997840
954.298126	0.999489
954.598718	0.997779
954.899272	0.997859
955.199788	0.998578
955.500266	0.999496
955.800706	0.999553
956.101108	1.000187
956.401472	1.000678
956.701798	0.999468
957.002087	1.000589
957.302337	1.001496
957.602550	0.999972
957.902724	0.999821
958.202861	0.999687
958.502960	1.000759
958.803022	1.002299
959.103045	1.000555
959.403031	1.002734
959.702979	1.000921
960.002889	1.000769
960.302762	1.000480
960.602596	1.002455
960.902393	1.000897
961.202153	1.001779
961.501875	1.002137
961.801559	1.002266
962.101205	1.000661
962.400814	1.002275
962.700385	1.001770
962.999918	1.002219
963.299414	1.001180
963.598873	1.002681
963.898293	1.001447
964.197677	1.001998
964.497022	1.001849
964.796331	1.001811
965.095601	1.002319
965.394835	1.001777
965.694030	1.002007
965.993189	1.000948
966.292309	1.002516
966.591393	1.001107
966.890439	1.003594
967.189447	1.002458
967.488419	1.002372
967.787353	1.001794
968.086249	1.001050
968.385108	1.002316
968.683930	1.003502
968.982714	1.002589
969.281462	1.002499
969.580172	1.001279
969.878844	1.003252
970.177480	1.001937
970.476078	1.003473
970.774639	1.002032
971.073162	1.001136
971.371649	1.001374
971.670098	1.000844
971.968510	1.001888
972.266885	1.000934
972.565223	1.002702
972.863524	0.999832
973.161788	1.001154
973.460014	1.002958
973.758204	1.000879
974.056356	1.001184
974.354471	1.001244
974.652550	1.002097
974.950591	1.001015
975.248595	1.001024
975.546563	1.002348
975.844493	1.002367
976.142386	1.000232
976.440243	1.002565
976.738062	1.002288
977.035845	1.000013
977.333590	1.003559
977.631299	1.000799
977.928971	1.002159
978.226606	1.001815
978.524204	1.001246
978.821765	1.002268
979.119290	1.004011
979.416777	1.001849
979.714228	1.001162
980.011642	1.004026
980.309020	1.001766
980.606360	1.001596
980.903664	1.001290
981.200931	1.001557
981.498162	1.001562
981.795356	1.001573
982.092513	1.000861
982.389633	1.001439
982.686717	0.999974
982.983764	0.999708
983.280775	0.998987
983.577749	1.000371
983.874686	0.998968
984.171587	0.999424
984.468451	0.999762
984.765279	1.000797
985.062070	1.001262
985.358824	1.001573
985.655543	1.001423
985.952224	1.002751
986.248869	1.001837
986.545478	1.003401
986.842050	1.002461
987.138586	1.001756
987.435086	1.001457
987.731549	1.003147
988.027975	1.003714
988.324366	1.002033
988.620719	1.003131
988.917037	1.002018
989.213318	1.003469
989.509563	1.004284
989.805772	1.001901
990.101944	1.003392
990.398080	1.003326
990.694180	1.003552
990.990244	1.001397
991.286271	1.002489
991.582262	1.002708
991.878217	1.001124
992.174136	1.003056
992.470019	1.003147
992.765865	1.004225
993.061676	1.002847
993.357450	1.003795
993.653188	1.002866
993.948890	1.002774
994.244556	1.003439
994.540186	1.003131
994.835780	1.002702
995.131337	1.003212
995.426859	1.002234
995.722345	1.003028
996.017795	1.001216
996.313208	1.003123
996.608586	1.001756
996.903928	1.001974
997.199234	1.001902
997.494504	1.004172
997.789738	1.000995
998.084936	1.003053
998.380099	1.001158
998.675225	1.002948
998.970316	1.002649
999.265371	1.002070
999.560390	1.003103
999.855373	1.002260
1000.150320	1.003253
1000.445232	1.003257
1000.740108	1.002880
1001.034948	1.002951
1001.329752	1.004417
1001.624521	1.002649
1001.919254	1.003411
1002.213951	1.002807
1002.508613	1.003107
1002.803239	1.003310
1003.097829	1.004064
1003.392384	1.003999
1003.686903	1.004151
1003.981386	1.002826
1004.275834	1.004445
1004.570246	1.003065
1004.864623	1.003359
1005.158964	1.003379
1005.453270	1.002844
1005.747540	1.002108
1006.041775	1.003092
1006.335974	1.003781
1006.630138	1.003603
1006.924266	1.001373
1007.218359	1.001432
1007.512416	1.004046
1007.806438	1.002808
1008.100425	1.004195
1008.394376	1.004342
1008.688292	1.002907
1008.982172	1.002875
1009.276017	1.003947
1009.569827	1.003842
1009.863602	1.002298
1010.157341	1.004156
1010.451045	1.003536
1010.744714	1.003974
1011.038347	1.004002
1011.331945	1.001954
1011.625508	1.002965
1011.919036	1.003212
1012.212528	1.002566
1012.505986	1.003913
1012.799408	1.003163
1013.092795	1.004207
1013.386147	1.002317
1013.679464	1.004482
1013.972745	1.004078
1014.265992	1.003556
1014.559204	1.002136
1014.852380	1.003725
1015.145521	1.003239
1015.438628	1.003268
1015.731699	1.004229
1016.024736	1.004769
1016.317737	1.003001
1016.610703	1.003325
1016.903635	1.003427
1017.196531	1.003611
1017.489393	1.004266
1017.782219	1.002996
1018.075011	1.002584
1018.367768	1.002439
1018.660490	1.003931
1018.953177	1.003931
1019.245829	1.003931
