Dividing Wavelength (nm)	Counts (n)	Blue Motor Position (mm): 5.200000	Red Motor Position (mm): 0.000000	
326.493990	1.006230
326.888308	1.006230
327.282561	1.006230
327.676750	1.006723
328.070874	1.006803
328.464933	1.005725
328.858929	1.006585
329.252859	1.005375
329.646726	1.004956
330.040528	1.004475
330.434265	1.005578
330.827938	1.005580
331.221547	1.004872
331.615091	1.007440
332.008571	1.006622
332.401986	1.005621
332.795338	1.004911
333.188625	1.005795
333.581847	1.004751
333.975006	1.005263
334.368100	1.005532
334.761129	1.004149
335.154095	1.004998
335.546996	1.003166
335.939833	0.998717
336.332606	0.999552
336.725315	0.999344
337.117960	0.998879
337.510540	0.998234
337.903056	0.999129
338.295508	0.999633
338.687896	0.998440
339.080220	0.999652
339.472480	0.997981
339.864676	0.999802
340.256807	0.999178
340.648875	0.999440
341.040879	0.999548
341.432818	0.999713
341.824694	0.999574
342.216506	0.998551
342.608253	0.999582
342.999937	0.998790
343.391557	0.998931
343.783113	1.000031
344.174605	0.999173
344.566033	0.997043
344.957397	0.999197
345.348697	0.999527
345.739934	0.998887
346.131106	0.998500
346.522215	0.998380
346.913260	0.998483
347.304241	0.997635
347.695159	0.999363
348.086012	0.998528
348.476802	0.998211
348.867528	0.997780
349.258191	0.999528
349.648789	0.998190
350.039324	0.997852
350.429796	0.998237
350.820203	0.996876
351.210548	0.998341
351.600828	0.998981
351.991045	0.998431
352.381198	0.997575
352.771288	0.998156
353.161314	0.997330
353.551276	0.997837
353.941175	0.996017
354.331010	0.997854
354.720782	0.997134
355.110490	0.998244
355.500135	0.998487
355.889717	0.998225
356.279235	0.996842
356.668689	0.998204
357.058080	0.997824
357.447408	0.998038
357.836672	0.997813
358.225873	0.997616
358.615010	0.997741
359.004084	0.996783
359.393095	0.998359
359.782043	0.996626
360.170927	0.998325
360.559748	0.996963
360.948505	0.996523
361.337199	0.997413
361.725830	0.997240
362.114398	0.997311
362.502903	0.997268
362.891344	0.996570
363.279722	0.996890
363.668037	0.997966
364.056289	0.996943
364.444478	0.997507
364.832603	0.996271
365.220665	0.997399
365.608665	0.995741
365.996601	0.996432
366.384474	0.994574
366.772284	0.995831
367.160031	0.994926
367.547715	0.995236
367.935336	0.994952
368.322893	0.993369
368.710388	0.992879
369.097820	0.990814
369.485189	0.986904
369.872495	0.986373
370.259738	0.985047
370.646918	0.981664
371.034035	0.978985
371.421090	0.975727
371.808081	0.970795
372.195010	0.969055
372.581875	0.963032
372.968678	0.958983
373.355418	0.955280
373.742096	0.948580
374.128710	0.943810
374.515262	0.939748
374.901751	0.932592
375.288177	0.928195
375.674540	0.921437
376.060841	0.915796
376.447079	0.908870
376.833254	0.901775
377.219367	0.897843
377.605417	0.885225
377.991404	0.881927
378.377329	0.876438
378.763191	0.869696
379.148991	0.861288
379.534727	0.853149
379.920402	0.844641
380.306013	0.841519
380.691563	0.828204
381.077049	0.822696
381.462474	0.818083
381.847835	0.806432
382.233134	0.802365
382.618371	0.802445
383.003545	0.785438
383.388657	0.782310
383.773706	0.775321
384.158693	0.771457
384.543618	0.766233
384.928480	0.757274
385.313280	0.747262
385.698017	0.746398
386.082692	0.734995
386.467305	0.733354
386.851856	0.727861
387.236344	0.723394
387.620770	0.717979
388.005133	0.711259
388.389435	0.706324
388.773674	0.703220
389.157851	0.695266
389.541965	0.693032
389.926018	0.699322
390.310008	0.687010
390.693936	0.683282
391.077802	0.675563
391.461606	0.676464
391.845348	0.665821
392.229027	0.665496
392.612645	0.663801
392.996200	0.650681
393.379694	0.643705
393.763125	0.634075
394.146494	0.638649
394.529801	0.629352
394.913047	0.621165
395.296230	0.626773
395.679351	0.618386
396.062410	0.614529
396.445408	0.617859
396.828343	0.613384
397.211217	0.608533
397.594028	0.619804
397.976778	0.610565
398.359466	0.607273
398.742092	0.602506
399.124656	0.615053
399.507158	0.603149
399.889598	0.600068
400.271977	0.591441
400.654294	0.594864
401.036549	0.594020
401.418742	0.598518
401.800874	0.584149
402.182944	0.581167
402.564952	0.573305
402.946898	0.575111
403.328783	0.574676
403.710606	0.586865
404.092367	0.561635
404.474067	0.566628
404.855705	0.565101
405.237282	0.573963
405.618797	0.560772
406.000250	0.556466
406.381642	0.546529
406.762972	0.551325
407.144240	0.550261
407.525447	0.549858
407.906593	0.542821
408.287677	0.538543
408.668700	0.546443
409.049661	0.541357
409.430560	0.535770
409.811399	0.544225
410.192176	0.525796
410.572891	0.533349
410.953545	0.521680
411.334138	0.534784
411.714669	0.527275
412.095139	0.539535
412.475547	0.523223
412.855894	0.525609
413.236180	0.525139
413.616405	0.529682
413.996568	0.520328
414.376670	0.526322
414.756711	0.531179
415.136691	0.527999
415.516609	0.519405
415.896466	0.516231
416.276262	0.512088
416.655997	0.513564
417.035670	0.494861
417.415283	0.486554
417.794834	0.491701
418.174324	0.497057
418.553753	0.505858
418.933121	0.488128
419.312428	0.482548
419.691674	0.488135
420.070859	0.476618
420.449983	0.484013
420.829045	0.473698
421.208047	0.482740
421.586988	0.475794
421.965867	0.474207
422.344686	0.463017
422.723444	0.476248
423.102141	0.492669
423.480777	0.465589
423.859352	0.486605
424.237866	0.463764
424.616319	0.464243
424.994712	0.455416
425.373044	0.465990
425.751314	0.453409
426.129524	0.470370
426.507673	0.454153
426.885762	0.446905
427.263789	0.452640
427.641756	0.462780
428.019662	0.452627
428.397508	0.451800
428.775292	0.456154
429.153016	0.448408
429.530679	0.454353
429.908282	0.447577
430.285824	0.457412
430.663305	0.436457
431.040726	0.457482
431.418086	0.457561
431.795385	0.448931
432.172624	0.447770
432.549802	0.447970
432.926920	0.446870
433.303977	0.446843
433.680974	0.443794
434.057910	0.442341
434.434786	0.441600
434.811601	0.444529
435.188355	0.426874
435.565050	0.436513
435.941683	0.437120
436.318257	0.420676
436.694770	0.422349
437.071222	0.420613
437.447614	0.424615
437.823946	0.431422
438.200218	0.420804
438.576429	0.430439
438.952580	0.423702
439.328670	0.419886
439.704700	0.426328
440.080670	0.427532
440.456580	0.408939
440.832429	0.417370
441.208218	0.427817
441.583947	0.416941
441.959616	0.416627
442.335224	0.421779
442.710773	0.412866
443.086261	0.410940
443.461689	0.425245
443.837057	0.414438
444.212365	0.404454
444.587612	0.411095
444.962800	0.401252
445.337927	0.403377
445.712995	0.429046
446.088002	0.390614
446.462949	0.401627
446.837837	0.406339
447.212664	0.395229
447.587431	0.386385
447.962139	0.356847
448.336786	0.316041
448.711374	0.326106
449.085901	0.370347
449.460369	0.374993
449.834776	0.378176
450.209124	0.357888
450.583412	0.349930
450.957640	0.343461
451.331808	0.354989
451.705917	0.378423
452.079965	0.382617
452.453954	0.371291
452.827883	0.377387
453.201752	0.372778
453.575562	0.383663
453.949311	0.372763
454.323001	0.378495
454.696632	0.374439
455.070202	0.367021
455.443713	0.358845
455.817164	0.353533
456.190556	0.349326
456.563888	0.346456
456.937160	0.343768
457.310373	0.361369
457.683526	0.359910
458.056619	0.365853
458.429653	0.365902
458.802628	0.369873
459.175542	0.363522
459.548398	0.346863
459.921194	0.338846
460.293930	0.339321
460.666607	0.316716
461.039224	0.304990
461.411782	0.300744
461.784280	0.299734
462.156719	0.303827
462.529099	0.308366
462.901419	0.324220
463.273680	0.328848
463.645882	0.328120
464.018024	0.334141
464.390106	0.326829
464.762130	0.311368
465.134094	0.294500
465.505999	0.263228
465.877845	0.233612
466.249631	0.220783
466.621358	0.227912
466.993026	0.241891
467.364634	0.248368
467.736184	0.257017
468.107674	0.265826
468.479105	0.264978
468.850477	0.271769
469.221790	0.278499
469.593043	0.288613
469.964238	0.293665
470.335373	0.292975
470.706449	0.291455
471.077467	0.291732
471.448425	0.253793
471.819324	0.229112
472.190164	0.228713
472.560945	0.257320
472.931667	0.280130
473.302330	0.284227
473.672934	0.296193
474.043479	0.284059
474.413965	0.285929
474.784393	0.289571
475.154761	0.284285
475.525070	0.281690
475.895321	0.287169
476.265513	0.281405
476.635645	0.276957
477.005719	0.276505
477.375734	0.273234
477.745691	0.266643
478.115588	0.262833
478.485427	0.256392
478.855207	0.243308
479.224928	0.225488
479.594591	0.213859
479.964194	0.217042
480.333739	0.218400
480.703226	0.219793
481.072653	0.218124
481.442022	0.213909
481.811333	0.210630
482.180584	0.213874
482.549777	0.219635
482.918912	0.222704
483.287988	0.222427
483.657005	0.222027
484.025964	0.228480
484.394864	0.225804
484.763706	0.226284
485.132489	0.231221
485.501213	0.231938
485.869879	0.230532
486.238487	0.233633
486.607036	0.231560
486.975527	0.236335
487.343959	0.232014
487.712333	0.231124
488.080648	0.232582
488.448905	0.231797
488.817104	0.233075
489.185244	0.227372
489.553326	0.224236
489.921350	0.214232
490.289315	0.196620
490.657222	0.191440
491.025070	0.192940
491.392861	0.194862
491.760593	0.200764
492.128267	0.206568
492.495883	0.211990
492.863440	0.218029
493.230939	0.224614
493.598380	0.226231
493.965763	0.228206
494.333088	0.230370
494.700354	0.231902
495.067563	0.230958
495.434713	0.234385
495.801805	0.232048
496.168839	0.233573
496.535815	0.235039
496.902733	0.234825
497.269593	0.236453
497.636395	0.234216
498.003139	0.234498
498.369825	0.237467
498.736453	0.234066
499.103023	0.235469
499.469535	0.235025
499.835989	0.235014
500.202385	0.236166
500.568723	0.239380
500.935003	0.234432
501.301226	0.238565
501.667390	0.232965
502.033497	0.231080
502.399546	0.233913
502.765537	0.235776
503.131470	0.234369
503.497345	0.230896
503.863163	0.239164
504.228923	0.232132
504.594625	0.231055
504.960269	0.236305
505.325856	0.231925
505.691385	0.236025
506.056856	0.232810
506.422270	0.232448
506.787625	0.234919
507.152924	0.232415
507.518164	0.232745
507.883347	0.234334
508.248472	0.236308
508.613540	0.230874
508.978550	0.233149
509.343503	0.233901
509.708398	0.231576
510.073236	0.229206
510.438016	0.228953
510.802738	0.229892
511.167403	0.229037
511.532010	0.231189
511.896561	0.226757
512.261053	0.225163
512.625488	0.227276
512.989866	0.227779
513.354186	0.228128
513.718449	0.229759
514.082655	0.226093
514.446803	0.228259
514.810894	0.226259
515.174927	0.229037
515.538904	0.228291
515.902822	0.225463
516.266684	0.227234
516.630488	0.228794
516.994235	0.227429
517.357925	0.226408
517.721558	0.224644
518.085133	0.224088
518.448651	0.223883
518.812112	0.226683
519.175516	0.226239
519.538863	0.223584
519.902152	0.225557
520.265385	0.222167
520.628560	0.223711
520.991678	0.224076
521.354739	0.223341
521.717743	0.224315
522.080690	0.224666
522.443580	0.222202
522.806413	0.223024
523.169189	0.222401
523.531908	0.221362
523.894569	0.224779
524.257174	0.224777
524.619722	0.222257
524.982213	0.223294
525.344647	0.222104
525.707025	0.223287
526.069345	0.221337
526.431608	0.223068
526.793815	0.221278
527.155964	0.225134
527.518057	0.223930
527.880093	0.225283
528.242072	0.223903
528.603995	0.225774
528.965860	0.227262
529.327669	0.226277
529.689421	0.227242
530.051117	0.228329
530.412755	0.225892
530.774337	0.227890
531.135862	0.228464
531.497331	0.227943
531.858743	0.230601
532.220098	0.227146
532.581396	0.229640
532.942638	0.230394
533.303824	0.231440
533.664953	0.231037
534.026025	0.232923
534.387040	0.230784
534.747999	0.230565
535.108902	0.229477
535.469748	0.234787
535.830537	0.232519
536.191270	0.232866
536.551947	0.232368
536.912567	0.232482
537.273131	0.234242
537.633638	0.234566
537.994089	0.234675
538.354483	0.235729
538.714821	0.232783
539.075103	0.232611
539.435328	0.233415
539.795497	0.237074
540.155609	0.233858
540.515665	0.232024
540.875665	0.237497
541.235609	0.235865
541.595496	0.236177
541.955328	0.232901
542.315102	0.235150
542.674821	0.236198
543.034483	0.236441
543.394090	0.236263
543.753640	0.237828
544.113134	0.232818
544.472571	0.236264
544.831953	0.233302
545.191278	0.237431
545.550548	0.236537
545.909761	0.233626
546.268918	0.234275
546.628019	0.232520
546.987064	0.235275
547.346053	0.236829
547.704986	0.234856
548.063863	0.235226
548.422684	0.235552
548.781449	0.237254
549.140158	0.235070
549.498811	0.237537
549.857408	0.240497
550.215949	0.235212
550.574434	0.238341
550.932864	0.236585
551.291237	0.235101
551.649555	0.236921
552.007817	0.236655
552.366022	0.237080
552.724173	0.237511
553.082267	0.237501
553.440305	0.234727
553.798288	0.238878
554.156215	0.235454
554.514086	0.236135
554.871902	0.239458
555.229661	0.238483
555.587365	0.239209
555.945014	0.241866
556.302606	0.238652
556.660143	0.241348
557.017625	0.237722
557.375050	0.239998
557.732421	0.236922
558.089735	0.238714
558.446994	0.238384
558.804197	0.238122
559.161345	0.237836
559.518437	0.241316
559.875474	0.239600
560.232455	0.238650
560.589381	0.239884
560.946251	0.240126
561.303065	0.237607
561.659825	0.238973
562.016528	0.240803
562.373177	0.243389
562.729770	0.240697
563.086307	0.242710
563.442789	0.240645
563.799216	0.243212
564.155587	0.242171
564.511904	0.243545
564.868164	0.243482
565.224370	0.242910
565.580520	0.245240
565.936615	0.244819
566.292654	0.247954
566.648638	0.244812
567.004567	0.245703
567.360441	0.246303
567.716260	0.248467
568.072023	0.246213
568.427732	0.246839
568.783385	0.249330
569.138982	0.247434
569.494525	0.247333
569.850013	0.249936
570.205445	0.248502
570.560823	0.250848
570.916145	0.253332
571.271412	0.251249
571.626625	0.252816
571.981782	0.253190
572.336884	0.253746
572.691931	0.253726
573.046923	0.255354
573.401860	0.256024
573.756743	0.257765
574.111570	0.256990
574.466342	0.257283
574.821059	0.256270
575.175722	0.259454
575.530330	0.259022
575.884882	0.259292
576.239380	0.261268
576.593823	0.262039
576.948211	0.261358
577.302544	0.264738
577.656823	0.264141
578.011047	0.264312
578.365216	0.265103
578.719330	0.267033
579.073389	0.266526
579.427394	0.267908
579.781344	0.268678
580.135239	0.270126
580.489080	0.269834
580.842866	0.272490
581.196597	0.272906
581.550273	0.271288
581.903895	0.272542
582.257463	0.270459
582.610975	0.274077
582.964434	0.273533
583.317837	0.275780
583.671186	0.276021
584.024481	0.276364
584.377721	0.278538
584.730906	0.279571
585.084037	0.278970
585.437113	0.280536
585.790135	0.280004
586.143103	0.282698
586.496016	0.283811
586.848874	0.281589
587.201679	0.282263
587.554428	0.285704
587.907124	0.284605
588.259765	0.285021
588.612352	0.285885
588.964884	0.289424
589.317362	0.288859
589.669786	0.288982
590.022155	0.287180
590.374470	0.286627
590.726731	0.288911
591.078937	0.293646
591.431090	0.290270
591.783188	0.293952
592.135232	0.294489
592.487222	0.294357
592.839157	0.292913
593.191038	0.294885
593.542866	0.296935
593.894639	0.300208
594.246358	0.298906
594.598022	0.298125
594.949633	0.301515
595.301190	0.302252
595.652692	0.301190
596.004141	0.297370
596.355535	0.305638
596.706876	0.306117
597.058162	0.308565
597.409395	0.305798
597.760573	0.302927
598.111698	0.306722
598.462768	0.307047
598.813785	0.308671
599.164748	0.309803
599.515657	0.309702
599.866511	0.313667
600.217312	0.308993
600.568060	0.314370
600.918753	0.310575
601.269392	0.311518
601.619978	0.314789
601.970510	0.312504
602.320988	0.312657
602.671412	0.310662
603.021783	0.312786
603.372100	0.314211
603.722363	0.313725
604.072572	0.314796
604.422728	0.314303
604.772830	0.316382
605.122878	0.316206
605.472872	0.316944
605.822813	0.315156
606.172701	0.317987
606.522534	0.315043
606.872314	0.314889
607.222041	0.315938
607.571714	0.314288
607.921333	0.315552
608.270899	0.315700
608.620411	0.311931
608.969870	0.315916
609.319276	0.316366
609.668627	0.315895
610.017926	0.314416
610.367171	0.312946
610.716362	0.313517
611.065500	0.314107
611.414585	0.312550
611.763616	0.313031
612.112594	0.313805
612.461518	0.312919
612.810389	0.310756
613.159207	0.313108
613.507971	0.314588
613.856682	0.310943
614.205340	0.311927
614.553945	0.309304
614.902496	0.312703
615.250994	0.311400
615.599439	0.311732
615.947830	0.310893
616.296169	0.311920
616.644454	0.311753
616.992686	0.311533
617.340864	0.309807
617.688990	0.313085
618.037063	0.309781
618.385082	0.311690
618.733048	0.308290
619.080961	0.310729
619.428821	0.310295
619.776628	0.309901
620.124382	0.312324
620.472083	0.312462
620.819731	0.311598
621.167326	0.315395
621.514868	0.315159
621.862357	0.319269
622.209793	0.318987
622.557176	0.321451
622.904506	0.322203
623.251783	0.324884
623.599007	0.327247
623.946179	0.326542
624.293297	0.328830
624.640363	0.332620
624.987376	0.333209
625.334336	0.335403
625.681243	0.337857
626.028097	0.338292
626.374899	0.339539
626.721647	0.340056
627.068343	0.342459
627.414987	0.343888
627.761577	0.346277
628.108115	0.344225
628.454600	0.349302
628.801032	0.346686
629.147412	0.349028
629.493739	0.350098
629.840014	0.352810
630.186236	0.350031
630.532405	0.355705
630.878521	0.352662
631.224585	0.354887
631.570597	0.358726
631.916556	0.357147
632.262462	0.356970
632.608316	0.359727
632.954117	0.360232
633.299866	0.360972
633.645562	0.361436
633.991206	0.365864
634.336797	0.368391
634.682336	0.371596
635.027823	0.372290
635.373257	0.373093
635.718639	0.376926
636.063968	0.375964
636.409245	0.381756
636.754470	0.382285
637.099642	0.385029
637.444762	0.388143
637.789829	0.387216
638.134845	0.390984
638.479808	0.391767
638.824719	0.391396
639.169577	0.396386
639.514383	0.394893
639.859137	0.398920
640.203839	0.398373
640.548489	0.399622
640.893086	0.399765
641.237632	0.402143
641.582125	0.400963
641.926566	0.403115
642.270955	0.402530
642.615292	0.402375
642.959576	0.401890
643.303809	0.402315
643.647990	0.402340
643.992118	0.402745
644.336195	0.405859
644.680219	0.404652
645.024192	0.405083
645.368112	0.398592
645.711981	0.397959
646.055797	0.392648
646.399562	0.394778
646.743274	0.387872
647.086935	0.384535
647.430544	0.384963
647.774101	0.383425
648.117606	0.383621
648.461059	0.384088
648.804460	0.386302
649.147810	0.391761
649.491108	0.393335
649.834354	0.395088
650.177548	0.400024
650.520690	0.405346
650.863781	0.406565
651.206820	0.406033
651.549807	0.410776
651.892742	0.414456
652.235626	0.413877
652.578458	0.414972
652.921238	0.421861
653.263967	0.419157
653.606644	0.422853
653.949269	0.422675
654.291843	0.426533
654.634365	0.423675
654.976836	0.426829
655.319255	0.427172
655.661622	0.428326
656.003938	0.428626
656.346203	0.431482
656.688416	0.428924
657.030577	0.432695
657.372687	0.434774
657.714746	0.435686
658.056753	0.432065
658.398708	0.436571
658.740612	0.437263
659.082465	0.433816
659.424266	0.434234
659.766016	0.433790
660.107715	0.436859
660.449362	0.435342
660.790958	0.435781
661.132503	0.436570
661.473996	0.434233
661.815438	0.435143
662.156829	0.435716
662.498168	0.435940
662.839456	0.437648
663.180693	0.435071
663.521879	0.435094
663.863013	0.436174
664.204097	0.434433
664.545129	0.431624
664.886110	0.431263
665.227040	0.428988
665.567918	0.431875
665.908746	0.429955
666.249522	0.429008
666.590248	0.430398
666.930922	0.428007
667.271545	0.427437
667.612118	0.427383
667.952639	0.428938
668.293109	0.427484
668.633528	0.430430
668.973896	0.430442
669.314213	0.430526
669.654480	0.432673
669.994695	0.432317
670.334859	0.433562
670.674973	0.434123
671.015035	0.433952
671.355047	0.433665
671.695008	0.435247
672.034918	0.436915
672.374777	0.436165
672.714585	0.437023
673.054342	0.437119
673.394049	0.437068
673.733705	0.435028
674.073310	0.435507
674.412864	0.439391
674.752368	0.439702
675.091820	0.439933
675.431223	0.444736
675.770574	0.443962
676.109875	0.447554
676.449125	0.447100
676.788324	0.449576
677.127473	0.455399
677.466571	0.454626
677.805619	0.456168
678.144616	0.457464
678.483562	0.459138
678.822458	0.461714
679.161303	0.462114
679.500098	0.463265
679.838842	0.464424
680.177535	0.463744
680.516179	0.462497
680.854771	0.461488
681.193314	0.455492
681.531805	0.446203
681.870247	0.435280
682.208638	0.427764
682.546978	0.426546
682.885268	0.428346
683.223508	0.434064
683.561697	0.438337
683.899836	0.440854
684.237925	0.443789
684.575963	0.446756
684.913951	0.449969
685.251889	0.445813
685.589776	0.447718
685.927614	0.449556
686.265401	0.444504
686.603137	0.445735
686.940824	0.439751
687.278460	0.438315
687.616046	0.437261
687.953582	0.432549
688.291068	0.433705
688.628504	0.429289
688.965889	0.431137
689.303224	0.435596
689.640510	0.439435
689.977745	0.445087
690.314930	0.452615
690.652065	0.457873
690.989150	0.464811
691.326185	0.472018
691.663170	0.476155
692.000105	0.483764
692.336990	0.490887
692.673825	0.492855
693.010610	0.499677
693.347345	0.506096
693.684030	0.506774
694.020665	0.512030
694.357251	0.520512
694.693786	0.520556
695.030272	0.524030
695.366707	0.528018
695.703093	0.531372
696.039429	0.528902
696.375716	0.531059
696.711952	0.533455
697.048139	0.536014
697.384276	0.537725
697.720363	0.536604
698.056400	0.535117
698.392388	0.540720
698.728326	0.543037
699.064214	0.545883
699.400053	0.546751
699.735842	0.550579
700.071581	0.553280
700.407270	0.556781
700.742910	0.559479
701.078501	0.565229
701.414042	0.565932
701.749533	0.568606
702.084974	0.578405
702.420366	0.570785
702.755709	0.577530
703.091002	0.586074
703.426246	0.579562
703.761440	0.585091
704.096584	0.589578
704.431679	0.586281
704.766725	0.589657
705.101721	0.591452
705.436668	0.587231
705.771565	0.593950
706.106413	0.589431
706.441212	0.585076
706.775961	0.585165
707.110661	0.586777
707.445311	0.584162
707.779913	0.581525
708.114465	0.579963
708.448967	0.575963
708.783421	0.568421
709.117825	0.563349
709.452180	0.562512
709.786485	0.557179
710.120742	0.545606
710.454949	0.547950
710.789107	0.539706
711.123216	0.530994
711.457275	0.532136
711.791286	0.524369
712.125247	0.522773
712.459159	0.533412
712.793023	0.525166
713.126837	0.530028
713.460602	0.530906
713.794318	0.539574
714.127985	0.538024
714.461602	0.549054
714.795171	0.551818
715.128691	0.560316
715.462162	0.567545
715.795584	0.573822
716.128957	0.575959
716.462281	0.583280
716.795556	0.585915
717.128782	0.592247
717.461960	0.600847
717.795088	0.599053
718.128167	0.605999
718.461198	0.613991
718.794180	0.615328
719.127113	0.617090
719.459997	0.620643
719.792833	0.627415
720.125619	0.628457
720.458357	0.634642
720.791046	0.634272
721.123686	0.637592
721.456278	0.644776
721.788821	0.641504
722.121315	0.647327
722.453761	0.650547
722.786158	0.648048
723.118506	0.644702
723.450805	0.652436
723.783056	0.648294
724.115259	0.646024
724.447412	0.645806
724.779518	0.647370
725.111574	0.645870
725.443582	0.641235
725.775542	0.643466
726.107453	0.635700
726.439315	0.635530
726.771129	0.634245
727.102895	0.627872
727.434612	0.620119
727.766281	0.618233
728.097901	0.617478
728.429473	0.616679
728.760996	0.615254
729.092471	0.616118
729.423897	0.619825
729.755276	0.618616
730.086606	0.618179
730.417887	0.612572
730.749120	0.603606
731.080305	0.594822
731.411442	0.590061
731.742530	0.595145
732.073570	0.594550
732.404562	0.586535
732.735506	0.587253
733.066401	0.592820
733.397249	0.602347
733.728048	0.613379
734.058798	0.626620
734.389501	0.637655
734.720156	0.646490
735.050762	0.654716
735.381320	0.655756
735.711831	0.663759
736.042293	0.669694
736.372707	0.665720
736.703073	0.669226
737.033391	0.672648
737.363661	0.669317
737.693883	0.664510
738.024056	0.662431
738.354182	0.663596
738.684260	0.653261
739.014290	0.649921
739.344272	0.650318
739.674207	0.643477
740.004093	0.642949
740.333931	0.643118
740.663722	0.642332
740.993464	0.643099
741.323159	0.647527
741.652806	0.653120
741.982405	0.657306
742.311956	0.662659
742.641460	0.664598
742.970915	0.668957
743.300323	0.674393
743.629683	0.681700
743.958996	0.684936
744.288260	0.688376
744.617477	0.694235
744.946647	0.696637
745.275768	0.701467
745.604842	0.701367
745.933869	0.711375
746.262847	0.713403
746.591778	0.705159
746.920662	0.711717
747.249498	0.718707
747.578286	0.709681
747.907027	0.705679
748.235720	0.706576
748.564365	0.701476
748.892963	0.700928
749.221514	0.703972
749.550017	0.708593
749.878473	0.709673
750.206881	0.716076
750.535242	0.716139
750.863555	0.715223
751.191821	0.717324
751.520039	0.719584
751.848210	0.724010
752.176334	0.718070
752.504411	0.717718
752.832440	0.724113
753.160421	0.728780
753.488356	0.725852
753.816243	0.723323
754.144082	0.732826
754.471875	0.735956
754.799620	0.733174
755.127318	0.733866
755.454969	0.733982
755.782572	0.733306
756.110129	0.737509
756.437638	0.740320
756.765100	0.737385
757.092515	0.734595
757.419882	0.733595
757.747203	0.739415
758.074477	0.739768
758.401703	0.735702
758.728882	0.730982
759.056014	0.729624
759.383099	0.729372
759.710138	0.729170
760.037129	0.725608
760.364073	0.721131
760.690970	0.722625
761.017820	0.727448
761.344623	0.724199
761.671379	0.715646
761.998088	0.702736
762.324751	0.679217
762.651366	0.636508
762.977935	0.569107
763.304456	0.517065
763.630931	0.507571
763.957359	0.546326
764.283740	0.590863
764.610074	0.619504
764.936362	0.651077
765.262602	0.678559
765.588796	0.699959
765.914943	0.716739
766.241044	0.735606
766.567097	0.741694
766.893104	0.752318
767.219064	0.758978
767.544978	0.765306
767.870845	0.778933
768.196665	0.782863
768.522438	0.779863
768.848165	0.781753
769.173846	0.790267
769.499479	0.795546
769.825066	0.799780
770.150607	0.804010
770.476101	0.799244
770.801548	0.800982
771.126949	0.812911
771.452303	0.817919
771.777611	0.815392
772.102872	0.813889
772.428087	0.819574
772.753256	0.823950
773.078378	0.825288
773.403453	0.833998
773.728482	0.838481
774.053465	0.831937
774.378401	0.834740
774.703291	0.843886
775.028135	0.844555
775.352932	0.843617
775.677683	0.848627
776.002388	0.849299
776.327046	0.848071
776.651658	0.853685
776.976224	0.855369
777.300743	0.855586
777.625216	0.857685
777.949643	0.859340
778.274024	0.859324
778.598359	0.861762
778.922647	0.859492
779.246889	0.860729
779.571086	0.862868
779.895236	0.866475
780.219339	0.863617
780.543397	0.859168
780.867409	0.859553
781.191374	0.860954
781.515294	0.861704
781.839167	0.860887
782.162995	0.864080
782.486776	0.861787
782.810511	0.862892
783.134201	0.867265
783.457844	0.864183
783.781441	0.866915
784.104993	0.872801
784.428498	0.872919
784.751958	0.869870
785.075372	0.870479
785.398739	0.873346
785.722061	0.870102
786.045337	0.867785
786.368568	0.870924
786.691752	0.872955
787.014891	0.860471
787.337983	0.849351
787.661030	0.842772
787.984031	0.825148
788.306987	0.813392
788.629897	0.813037
788.952760	0.818248
789.275579	0.823283
789.598351	0.838928
789.921078	0.851217
790.243759	0.853995
790.566395	0.858541
790.888984	0.866653
791.211529	0.871101
791.534027	0.874555
791.856480	0.876960
792.178888	0.880642
792.501249	0.884451
792.823566	0.886546
793.145836	0.884912
793.468062	0.886520
793.790241	0.888208
794.112375	0.885599
794.434464	0.882141
794.756507	0.881611
795.078505	0.880460
795.400457	0.874580
795.722364	0.861938
796.044226	0.855414
796.366042	0.854289
796.687812	0.857210
797.009538	0.853008
797.331218	0.857121
797.652852	0.862350
797.974442	0.866395
798.295986	0.867541
798.617484	0.868607
798.938938	0.873044
799.260346	0.877921
799.581709	0.878823
799.903026	0.882554
800.224299	0.882918
800.545526	0.886152
800.866708	0.890416
801.187845	0.895226
801.508936	0.893298
801.829983	0.891191
802.150984	0.895272
802.471940	0.899843
802.792851	0.899461
803.113717	0.901578
803.434538	0.899149
803.755314	0.902419
804.076045	0.903024
804.396731	0.902947
804.717372	0.901347
805.037967	0.905070
805.358518	0.901585
805.679024	0.898330
805.999485	0.899561
806.319901	0.898984
806.640272	0.901603
806.960598	0.898909
807.280879	0.895908
807.601115	0.895070
807.921306	0.897868
808.241453	0.898860
808.561554	0.898035
808.881611	0.897142
809.201623	0.897775
809.521590	0.899520
809.841513	0.900306
810.161390	0.898852
810.481223	0.900187
810.801011	0.903860
811.120755	0.905709
811.440453	0.904895
811.760107	0.903530
812.079716	0.903889
812.399281	0.907023
812.718801	0.908270
813.038276	0.909308
813.357707	0.909232
813.677093	0.907575
813.996434	0.909953
814.315731	0.912378
814.634983	0.912475
814.954191	0.912378
815.273354	0.907036
815.592473	0.904066
815.911547	0.905742
816.230577	0.901175
816.549562	0.898806
816.868502	0.897331
817.187399	0.896529
817.506250	0.890247
817.825058	0.891581
818.143821	0.889204
818.462539	0.883697
818.781213	0.875652
819.099843	0.864367
819.418429	0.847568
819.736970	0.830552
820.055466	0.809732
820.373919	0.784354
820.692327	0.751043
821.010691	0.715470
821.329011	0.633823
821.647286	0.517530
821.965517	0.403286
822.283704	0.359559
822.601847	0.360823
822.919945	0.396653
823.237999	0.430773
823.556010	0.478860
823.873976	0.535572
824.191897	0.587051
824.509775	0.630727
824.827609	0.676052
825.145398	0.700083
825.463144	0.701544
825.780845	0.683969
826.098502	0.665236
826.416116	0.619116
826.733685	0.574717
827.051210	0.564883
827.368692	0.580522
827.686129	0.618712
828.003522	0.673760
828.320872	0.722245
828.638177	0.766259
828.955439	0.799357
829.272656	0.821407
829.589830	0.839241
829.906960	0.854351
830.224046	0.867671
830.541088	0.878872
830.858086	0.883036
831.175041	0.890709
831.491952	0.888923
831.808819	0.885964
832.125642	0.877444
832.442421	0.864668
832.759157	0.840816
833.075849	0.793425
833.392497	0.728252
833.709101	0.686797
834.025662	0.697039
834.342179	0.729369
834.658653	0.769415
834.975083	0.805847
835.291469	0.834610
835.607811	0.856186
835.924110	0.872879
836.240366	0.890493
836.556578	0.902514
836.872746	0.911354
837.188871	0.917572
837.504952	0.923579
837.820990	0.926182
838.136984	0.930453
838.452935	0.933894
838.768842	0.934651
839.084706	0.927402
839.400526	0.902488
839.716303	0.860449
840.032037	0.837671
840.347727	0.841474
840.663373	0.859484
840.978977	0.881591
841.294537	0.904392
841.610054	0.920309
841.925527	0.928088
842.240957	0.936500
842.556344	0.942973
842.871687	0.949139
843.186987	0.951886
843.502244	0.954017
843.817458	0.954451
844.132629	0.959778
844.447756	0.963129
844.762840	0.964052
845.077881	0.964191
845.392879	0.964087
845.707833	0.965723
846.022745	0.968748
846.337613	0.968893
846.652438	0.968823
846.967221	0.968884
847.281960	0.970329
847.596656	0.971291
847.911309	0.970766
848.225919	0.970826
848.540485	0.973404
848.855009	0.973958
849.169490	0.973453
849.483928	0.972326
849.798323	0.971443
850.112675	0.975325
850.426984	0.973591
850.741251	0.974483
851.055474	0.973580
851.369654	0.972379
851.683792	0.971602
851.997887	0.974320
852.311938	0.974162
852.625947	0.972241
852.939914	0.970716
853.253837	0.974069
853.567718	0.974062
853.881555	0.975007
854.195350	0.973182
854.509103	0.973097
854.822812	0.975004
855.136479	0.974208
855.450103	0.973862
855.763685	0.973486
856.077224	0.973935
856.390720	0.975460
856.704173	0.974294
857.017584	0.972983
857.330953	0.971335
857.644278	0.971482
857.957561	0.971876
858.270802	0.972941
858.584000	0.972254
858.897155	0.971739
859.210268	0.971279
859.523339	0.973887
859.836367	0.975154
860.149352	0.973066
860.462295	0.973329
860.775195	0.974128
861.088054	0.972068
861.400869	0.974459
861.713642	0.974470
862.026373	0.976991
862.339062	0.974794
862.651708	0.973839
862.964312	0.973306
863.276873	0.972400
863.589392	0.972585
863.901869	0.970335
864.214303	0.968181
864.526696	0.966748
864.839045	0.966666
865.151353	0.967338
865.463619	0.965235
865.775842	0.966482
866.088023	0.966301
866.400162	0.965930
866.712258	0.966923
867.024313	0.967130
867.336325	0.969644
867.648296	0.967678
867.960224	0.965004
868.272110	0.966577
868.583954	0.967963
868.895755	0.967529
869.207515	0.964992
869.519233	0.964110
869.830909	0.963440
870.142542	0.966279
870.454134	0.965880
870.765684	0.963622
871.077191	0.962685
871.388657	0.961425
871.700081	0.963168
872.011463	0.962984
872.322803	0.961272
872.634101	0.958869
872.945357	0.956442
873.256571	0.955842
873.567744	0.957674
873.878874	0.958054
874.189963	0.956470
874.501010	0.957005
874.812015	0.953914
875.122979	0.953222
875.433900	0.957625
875.744780	0.957788
876.055618	0.953458
876.366415	0.952632
876.677169	0.952802
876.987882	0.954990
877.298554	0.954967
877.609183	0.950720
877.919771	0.947926
878.230317	0.945927
878.540822	0.943825
878.851285	0.937127
879.161707	0.929429
879.472087	0.917745
879.782425	0.899968
880.092722	0.864609
880.402977	0.811229
880.713191	0.746376
881.023363	0.686720
881.333494	0.652037
881.643583	0.624131
881.953631	0.624021
882.263637	0.652070
882.573602	0.692808
882.883526	0.718559
883.193408	0.744757
883.503248	0.767463
883.813048	0.795727
884.122806	0.826638
884.432522	0.850587
884.742197	0.871072
885.051831	0.882955
885.361424	0.893620
885.670975	0.906275
885.980485	0.914984
886.289954	0.920929
886.599382	0.925106
886.908768	0.931012
887.218113	0.936979
887.527417	0.942615
887.836680	0.944891
888.145901	0.946859
888.455082	0.949659
888.764221	0.953282
889.073319	0.955767
889.382376	0.957450
889.691392	0.954830
890.000366	0.956248
890.309300	0.955945
890.618193	0.957423
890.927044	0.956190
891.235855	0.955218
891.544625	0.955919
891.853353	0.954843
892.162041	0.952322
892.470687	0.946010
892.779293	0.941243
893.087858	0.936456
893.396381	0.927356
893.704864	0.914203
894.013306	0.889221
894.321707	0.862675
894.630068	0.848024
894.938387	0.841685
895.246665	0.844015
895.554903	0.855440
895.863100	0.870473
896.171256	0.887113
896.479371	0.907794
896.787446	0.919732
897.095480	0.926455
897.403473	0.929912
897.711425	0.935197
898.019336	0.943028
898.327207	0.947169
898.635038	0.946399
898.942827	0.948918
899.250576	0.951617
899.558284	0.956555
899.865952	0.956728
900.173579	0.958364
900.481165	0.958901
900.788711	0.961459
901.096216	0.965041
901.403681	0.966754
901.711105	0.965559
902.018489	0.966227
902.325832	0.965525
902.633135	0.964300
902.940397	0.959247
903.247619	0.944983
903.554800	0.920249
903.861941	0.878604
904.169041	0.841153
904.476101	0.823869
904.783121	0.824242
905.090100	0.841028
905.397039	0.862737
905.703938	0.886451
906.010796	0.905834
906.317614	0.924018
906.624391	0.936651
906.931129	0.947022
907.237826	0.954476
907.544483	0.962052
907.851099	0.967820
908.157675	0.970463
908.464211	0.973994
908.770707	0.975056
909.077163	0.978941
909.383578	0.979188
909.689954	0.979319
909.996289	0.980462
910.302584	0.981775
910.608839	0.984062
910.915054	0.983105
911.221229	0.982332
911.527363	0.980801
911.833458	0.980777
912.139513	0.980473
912.445527	0.981372
912.751502	0.977704
913.057436	0.975875
913.363331	0.974695
913.669186	0.970394
913.975000	0.965075
914.280775	0.958703
914.586510	0.951106
914.892205	0.938076
915.197859	0.913919
915.503475	0.887021
915.809050	0.865808
916.114585	0.859389
916.420081	0.856090
916.725536	0.853939
917.030952	0.862195
917.336328	0.875959
917.641665	0.890538
917.946961	0.908257
918.252218	0.919086
918.557435	0.928996
918.862612	0.937175
919.167750	0.943187
919.472848	0.950158
919.777906	0.956502
920.082925	0.962135
920.387904	0.964507
920.692843	0.966902
920.997743	0.966343
921.302603	0.972496
921.607423	0.972146
921.912204	0.975883
922.216946	0.976392
922.521647	0.976978
922.826310	0.978312
923.130932	0.980968
923.435516	0.982778
923.740059	0.983460
924.044564	0.983426
924.349028	0.984387
924.653454	0.986812
924.957840	0.987646
925.262186	0.988594
925.566493	0.988475
925.870761	0.989219
926.174989	0.989843
926.479178	0.992174
926.783328	0.992268
927.087438	0.992550
927.391509	0.992436
927.695541	0.993926
927.999533	0.994012
928.303486	0.993914
928.607400	0.995428
928.911275	0.994964
929.215110	0.995119
929.518906	0.995230
929.822663	0.996787
930.126381	0.995543
930.430060	0.994961
930.733699	0.994328
931.037299	0.994491
931.340861	0.994435
931.644383	0.993028
931.947866	0.994427
932.251309	0.993863
932.554714	0.994873
932.858080	0.995531
933.161407	0.993416
933.464694	0.995518
933.767943	0.994087
934.071153	0.995849
934.374323	0.995709
934.677455	0.996787
934.980548	0.996367
935.283602	0.996671
935.586617	0.994440
935.889593	0.997497
936.192530	0.995156
936.495428	0.995513
936.798287	0.995638
937.101108	0.994838
937.403890	0.993626
937.706632	0.993633
938.009336	0.991458
938.312002	0.989001
938.614628	0.989309
938.917216	0.987030
939.219765	0.987004
939.522275	0.988041
939.824747	0.987084
940.127179	0.988298
940.429573	0.989235
940.731929	0.988748
941.034246	0.988153
941.336524	0.988608
941.638763	0.989448
941.940964	0.990350
942.243126	0.989935
942.545250	0.992249
942.847335	0.992270
943.149381	0.992661
943.451389	0.992747
943.753359	0.994307
944.055290	0.994636
944.357182	0.994361
944.659036	0.994104
944.960851	0.994873
945.262628	0.995310
945.564367	0.993994
945.866067	0.994561
946.167729	0.994770
946.469352	0.994428
946.770937	0.991902
947.072484	0.995438
947.373992	0.995353
947.675462	0.992626
947.976893	0.994205
948.278286	0.996818
948.579641	0.996319
948.880958	0.994976
949.182236	0.994957
949.483476	0.995480
949.784678	0.995076
950.085841	0.994603
950.386967	0.994252
950.688054	0.996744
950.989103	0.995235
951.290114	0.992712
951.591087	0.993870
951.892021	0.993766
952.192917	0.992572
952.493776	0.993736
952.794596	0.992494
953.095378	0.991709
953.396122	0.991324
953.696828	0.993764
953.997496	0.993205
954.298126	0.995454
954.598718	0.994780
954.899272	0.995298
955.199788	0.994488
955.500266	0.997361
955.800706	0.997505
956.101108	0.997658
956.401472	0.998484
956.701798	0.999138
957.002087	0.999270
957.302337	0.998800
957.602550	0.999068
957.902724	0.999382
958.202861	0.999888
958.502960	0.999574
958.803022	1.000418
959.103045	1.000647
959.403031	1.000778
959.702979	1.001597
960.002889	1.000928
960.302762	1.000082
960.602596	1.001701
960.902393	1.000524
961.202153	1.002953
961.501875	1.000719
961.801559	1.001743
962.101205	1.000489
962.400814	1.002228
962.700385	1.002545
962.999918	1.002154
963.299414	1.001547
963.598873	1.001617
963.898293	1.001692
964.197677	1.001377
964.497022	1.002330
964.796331	1.001664
965.095601	1.002493
965.394835	1.001882
965.694030	1.003217
965.993189	1.000943
966.292309	1.002285
966.591393	1.000310
966.890439	1.002135
967.189447	1.001445
967.488419	1.001409
967.787353	1.001485
968.086249	1.002148
968.385108	1.000958
968.683930	1.003000
968.982714	1.002140
969.281462	1.002575
969.580172	1.001685
969.878844	1.002602
970.177480	1.002906
970.476078	1.002422
970.774639	1.001142
971.073162	1.000450
971.371649	1.002240
971.670098	1.001567
971.968510	1.001744
972.266885	1.001804
972.565223	1.001558
972.863524	0.999673
973.161788	1.000666
973.460014	1.002862
973.758204	0.999446
974.056356	1.001267
974.354471	1.000202
974.652550	1.003025
974.950591	1.001162
975.248595	1.001602
975.546563	1.002758
975.844493	1.001882
976.142386	1.001901
976.440243	1.002206
976.738062	1.001587
977.035845	1.001549
977.333590	1.002670
977.631299	1.001782
977.928971	1.001021
978.226606	1.001882
978.524204	1.002007
978.821765	1.002717
979.119290	1.002399
979.416777	1.002187
979.714228	1.002040
980.011642	1.004459
980.309020	1.002150
980.606360	1.001364
980.903664	1.001004
981.200931	1.000485
981.498162	1.001554
981.795356	1.000722
982.092513	0.999383
982.389633	0.998771
982.686717	0.995350
982.983764	0.995780
983.280775	0.995340
983.577749	0.995882
983.874686	0.996247
984.171587	0.996464
984.468451	0.996916
984.765279	0.998486
985.062070	0.999342
985.358824	0.999095
985.655543	1.001413
985.952224	1.000275
986.248869	1.001992
986.545478	1.003521
986.842050	1.001844
987.138586	1.001982
987.435086	1.002606
987.731549	1.004294
988.027975	1.003955
988.324366	1.002223
988.620719	1.003816
988.917037	1.002478
989.213318	1.003865
989.509563	1.003168
989.805772	1.003531
990.101944	1.003413
990.398080	1.002866
990.694180	1.004674
990.990244	1.002622
991.286271	1.003477
991.582262	1.002710
991.878217	1.002750
992.174136	1.003814
992.470019	1.003627
992.765865	1.005160
993.061676	1.003759
993.357450	1.004224
993.653188	1.004620
993.948890	1.002477
994.244556	1.002238
994.540186	1.002901
994.835780	1.002321
995.131337	1.003165
995.426859	1.002017
995.722345	1.002506
996.017795	1.000991
996.313208	1.000376
996.608586	1.001459
996.903928	1.001803
997.199234	1.002800
997.494504	1.002483
997.789738	1.000394
998.084936	1.001295
998.380099	1.000591
998.675225	1.002801
998.970316	1.003259
999.265371	1.002517
999.560390	1.002390
999.855373	1.002810
1000.150320	1.002205
1000.445232	1.003636
1000.740108	1.003369
1001.034948	1.002219
1001.329752	1.003965
1001.624521	1.002449
1001.919254	1.003374
1002.213951	1.004500
1002.508613	1.002735
1002.803239	1.002978
1003.097829	1.004982
1003.392384	1.003666
1003.686903	1.003384
1003.981386	1.003147
1004.275834	1.005347
1004.570246	1.002939
1004.864623	1.005532
1005.158964	1.003880
1005.453270	1.004296
1005.747540	1.003822
1006.041775	1.004298
1006.335974	1.005084
1006.630138	1.003147
1006.924266	1.002447
1007.218359	1.002170
1007.512416	1.004853
1007.806438	1.004279
1008.100425	1.003721
1008.394376	1.005099
1008.688292	1.003916
1008.982172	1.003689
1009.276017	1.004440
1009.569827	1.005566
1009.863602	1.002244
1010.157341	1.005392
1010.451045	1.003502
1010.744714	1.005944
1011.038347	1.004769
1011.331945	1.003110
1011.625508	1.004009
1011.919036	1.004730
1012.212528	1.004992
1012.505986	1.003941
1012.799408	1.003364
1013.092795	1.003329
1013.386147	1.003983
1013.679464	1.005494
1013.972745	1.004319
1014.265992	1.004747
1014.559204	1.004117
1014.852380	1.004837
1015.145521	1.004759
1015.438628	1.003708
1015.731699	1.003707
1016.024736	1.003693
1016.317737	1.004038
1016.610703	1.004402
1016.903635	1.003223
1017.196531	1.003791
1017.489393	1.003863
1017.782219	1.003805
1018.075011	1.003173
1018.367768	1.003440
1018.660490	1.005049
1018.953177	1.005049
1019.245829	1.005049
