Dividing Wavelength (nm)	Counts (n)	Blue Motor Position (mm): 37.600000	Red Motor Position (mm): 0.000000	
326.493990	0.998975
326.888308	0.998975
327.282561	0.998975
327.676750	1.000479
328.070874	1.001540
328.464933	1.001518
328.858929	1.001040
329.252859	1.000902
329.646726	1.000015
330.040528	1.000484
330.434265	0.999912
330.827938	0.998892
331.221547	1.000693
331.615091	0.999974
332.008571	1.000045
332.401986	0.999195
332.795338	0.999242
333.188625	1.000593
333.581847	1.000104
333.975006	0.999494
334.368100	0.999691
334.761129	0.999513
335.154095	1.000038
335.546996	0.999534
335.939833	0.999254
336.332606	1.000914
336.725315	0.999243
337.117960	1.001166
337.510540	0.998554
337.903056	0.999641
338.295508	1.000266
338.687896	1.000633
339.080220	1.000467
339.472480	0.999752
339.864676	1.000835
340.256807	0.998458
340.648875	1.000114
341.040879	0.999885
341.432818	1.000446
341.824694	0.999281
342.216506	0.999916
342.608253	0.999615
342.999937	0.999467
343.391557	0.999578
343.783113	1.001648
344.174605	0.999985
344.566033	0.998214
344.957397	1.000161
345.348697	1.001098
345.739934	1.000330
346.131106	0.999739
346.522215	0.999516
346.913260	0.998934
347.304241	0.998735
347.695159	1.000475
348.086012	0.998761
348.476802	0.998947
348.867528	0.999136
349.258191	1.000192
349.648789	0.999382
350.039324	0.998644
350.429796	0.999121
350.820203	0.999075
351.210548	0.999502
351.600828	0.999182
351.991045	0.998556
352.381198	0.999707
352.771288	0.998263
353.161314	0.998780
353.551276	0.997788
353.941175	0.997135
354.331010	0.999658
354.720782	0.999495
355.110490	0.999160
355.500135	0.998807
355.889717	0.998897
356.279235	0.998166
356.668689	0.999987
357.058080	0.999517
357.447408	0.998051
357.836672	0.998736
358.225873	0.997693
358.615010	0.999708
359.004084	0.997596
359.393095	0.999634
359.782043	0.998238
360.170927	0.999924
360.559748	0.999039
360.948505	0.998049
361.337199	0.998125
361.725830	0.998750
362.114398	0.999588
362.502903	0.996935
362.891344	0.997435
363.279722	0.998811
363.668037	0.998641
364.056289	0.998214
364.444478	0.999829
364.832603	0.998525
365.220665	0.998014
365.608665	0.997592
365.996601	0.997594
366.384474	0.996962
366.772284	0.996646
367.160031	0.996095
367.547715	0.996460
367.935336	0.996549
368.322893	0.993802
368.710388	0.992960
369.097820	0.992210
369.485189	0.988614
369.872495	0.987817
370.259738	0.986273
370.646918	0.983877
371.034035	0.980205
371.421090	0.977016
371.808081	0.973150
372.195010	0.970163
372.581875	0.964519
372.968678	0.961033
373.355418	0.957455
373.742096	0.948760
374.128710	0.945407
374.515262	0.941595
374.901751	0.935336
375.288177	0.929931
375.674540	0.924343
376.060841	0.917294
376.447079	0.911651
376.833254	0.903908
377.219367	0.899795
377.605417	0.888158
377.991404	0.883724
378.377329	0.878682
378.763191	0.871974
379.148991	0.863571
379.534727	0.855966
379.920402	0.847692
380.306013	0.842922
380.691563	0.830945
381.077049	0.823473
381.462474	0.820928
381.847835	0.808472
382.233134	0.804813
382.618371	0.804664
383.003545	0.787747
383.388657	0.785846
383.773706	0.777324
384.158693	0.774024
384.543618	0.769404
384.928480	0.759144
385.313280	0.750162
385.698017	0.749360
386.082692	0.738260
386.467305	0.736218
386.851856	0.731294
387.236344	0.725370
387.620770	0.720383
388.005133	0.714341
388.389435	0.709075
388.773674	0.706386
389.157851	0.698307
389.541965	0.696770
389.926018	0.702634
390.310008	0.689523
390.693936	0.686717
391.077802	0.678897
391.461606	0.680414
391.845348	0.669617
392.229027	0.668266
392.612645	0.667293
392.996200	0.654987
393.379694	0.647511
393.763125	0.638901
394.146494	0.643332
394.529801	0.634028
394.913047	0.626394
395.296230	0.633746
395.679351	0.626461
396.062410	0.624137
396.445408	0.627968
396.828343	0.625274
397.211217	0.622851
397.594028	0.636543
397.976778	0.629686
398.359466	0.628529
398.742092	0.627887
399.124656	0.642421
399.507158	0.634150
399.889598	0.635624
400.271977	0.631378
400.654294	0.639610
401.036549	0.643010
401.418742	0.651535
401.800874	0.643318
402.182944	0.646078
402.564952	0.645010
402.946898	0.652511
403.328783	0.659079
403.710606	0.674018
404.092367	0.661088
404.474067	0.671945
404.855705	0.677812
405.237282	0.691122
405.618797	0.688361
406.000250	0.693219
406.381642	0.694094
406.762972	0.705940
407.144240	0.713091
407.525447	0.720845
407.906593	0.724401
408.287677	0.730517
408.668700	0.743200
409.049661	0.749529
409.430560	0.755159
409.811399	0.769172
410.192176	0.768364
410.572891	0.780491
410.953545	0.783677
411.334138	0.798725
411.714669	0.803797
412.095139	0.817713
412.475547	0.820372
412.855894	0.829520
413.236180	0.836590
413.616405	0.847728
413.996568	0.852918
414.376670	0.861175
414.756711	0.870620
415.136691	0.877038
415.516609	0.881457
415.896466	0.888318
416.276262	0.893882
416.655997	0.901691
417.035670	0.904009
417.415283	0.908169
417.794834	0.915957
418.174324	0.923160
418.553753	0.929252
418.933121	0.931891
419.312428	0.936677
419.691674	0.943231
420.070859	0.946162
420.449983	0.950819
420.829045	0.953335
421.208047	0.959331
421.586988	0.961566
421.965867	0.963979
422.344686	0.967347
422.723444	0.970007
423.102141	0.974983
423.480777	0.974882
423.859352	0.979142
424.237866	0.980591
424.616319	0.982406
424.994712	0.984278
425.373044	0.985900
425.751314	0.987604
426.129524	0.989641
426.507673	0.989204
426.885762	0.991019
427.263789	0.991782
427.641756	0.992812
428.019662	0.993591
428.397508	0.993576
428.775292	0.994353
429.153016	0.994130
429.530679	0.995313
429.908282	0.996696
430.285824	0.995604
430.663305	0.996270
431.040726	0.996240
431.418086	0.996266
431.795385	0.997712
432.172624	0.997758
432.549802	0.997444
432.926920	0.997405
433.303977	0.997626
433.680974	0.998569
434.057910	0.998307
434.434786	0.998276
434.811601	0.998624
435.188355	0.998252
435.565050	0.998909
435.941683	0.997353
436.318257	0.996840
436.694770	0.998492
437.071222	0.998903
437.447614	0.998126
437.823946	0.998844
438.200218	0.997702
438.576429	0.998320
438.952580	0.998341
439.328670	0.997521
439.704700	0.998444
440.080670	0.998439
440.456580	0.998529
440.832429	0.997882
441.208218	0.999222
441.583947	0.998762
441.959616	0.998302
442.335224	0.998906
442.710773	0.999064
443.086261	0.999090
443.461689	0.997402
443.837057	0.998416
444.212365	0.999168
444.587612	0.999212
444.962800	0.998614
445.337927	0.999444
445.712995	0.999149
446.088002	0.998183
446.462949	0.999347
446.837837	1.000583
447.212664	0.998788
447.587431	0.999342
447.962139	0.999071
448.336786	0.997757
448.711374	0.997914
449.085901	0.999332
449.460369	0.998897
449.834776	0.998590
450.209124	0.998766
450.583412	0.998735
450.957640	0.998867
451.331808	0.999273
451.705917	0.998179
452.079965	0.998217
452.453954	0.999102
452.827883	0.998514
453.201752	0.998388
453.575562	0.998574
453.949311	0.999090
454.323001	0.998419
454.696632	0.998698
455.070202	0.998365
455.443713	0.998556
455.817164	0.998927
456.190556	0.998367
456.563888	0.999837
456.937160	0.999249
457.310373	0.998368
457.683526	0.998803
458.056619	0.999059
458.429653	0.998527
458.802628	0.998698
459.175542	0.999076
459.548398	0.998307
459.921194	0.999075
460.293930	1.000009
460.666607	0.998512
461.039224	0.998577
461.411782	0.998566
461.784280	0.998451
462.156719	0.999392
462.529099	0.998801
462.901419	0.998676
463.273680	0.997677
463.645882	0.999196
464.018024	0.999304
464.390106	0.998555
464.762130	0.998283
465.134094	0.999346
465.505999	0.998438
465.877845	0.997826
466.249631	0.998244
466.621358	0.997548
466.993026	0.997736
467.364634	0.998305
467.736184	0.998405
468.107674	0.998345
468.479105	0.997492
468.850477	0.998028
469.221790	0.998650
469.593043	0.998372
469.964238	0.998059
470.335373	0.998383
470.706449	0.997885
471.077467	0.998521
471.448425	0.998511
471.819324	0.998132
472.190164	0.998069
472.560945	0.998289
472.931667	0.998182
473.302330	0.998361
473.672934	0.998608
474.043479	0.998035
474.413965	0.997972
474.784393	0.997665
475.154761	0.997811
475.525070	0.997819
475.895321	0.998669
476.265513	0.998918
476.635645	0.998484
477.005719	0.997581
477.375734	0.997992
477.745691	0.997818
478.115588	0.997488
478.485427	0.998133
478.855207	0.998377
479.224928	0.998144
479.594591	0.997886
479.964194	0.997810
480.333739	0.998357
480.703226	0.997132
481.072653	0.996985
481.442022	0.997507
481.811333	0.997935
482.180584	0.997910
482.549777	0.997680
482.918912	0.997951
483.287988	0.997866
483.657005	0.998254
484.025964	0.998032
484.394864	0.997630
484.763706	0.997797
485.132489	0.998016
485.501213	0.997881
485.869879	0.998014
486.238487	0.997478
486.607036	0.998535
486.975527	0.997945
487.343959	0.997665
487.712333	0.997841
488.080648	0.997567
488.448905	0.998571
488.817104	0.998310
489.185244	0.997947
489.553326	0.998410
489.921350	0.998482
490.289315	0.997867
490.657222	0.997795
491.025070	0.998165
491.392861	0.998138
491.760593	0.997795
492.128267	0.997551
492.495883	0.997024
492.863440	0.997803
493.230939	0.998377
493.598380	0.998773
493.965763	0.998393
494.333088	0.997494
494.700354	0.997577
495.067563	0.998332
495.434713	0.998234
495.801805	0.997930
496.168839	0.998216
496.535815	0.998657
496.902733	0.997917
497.269593	0.997891
497.636395	0.997351
498.003139	0.997766
498.369825	0.998856
498.736453	0.998213
499.103023	0.998196
499.469535	0.998327
499.835989	0.998477
500.202385	0.998312
500.568723	0.998126
500.935003	0.998369
501.301226	0.998588
501.667390	0.997373
502.033497	0.997801
502.399546	0.998130
502.765537	0.997828
503.131470	0.998002
503.497345	0.998135
503.863163	0.997594
504.228923	0.997968
504.594625	0.997922
504.960269	0.998165
505.325856	0.998991
505.691385	0.998384
506.056856	0.998100
506.422270	0.998302
506.787625	0.998352
507.152924	0.998536
507.518164	0.997715
507.883347	0.998280
508.248472	0.997971
508.613540	0.997798
508.978550	0.998527
509.343503	0.998283
509.708398	0.998577
510.073236	0.998020
510.438016	0.997099
510.802738	0.998241
511.167403	0.997743
511.532010	0.998738
511.896561	0.998459
512.261053	0.997976
512.625488	0.998145
512.989866	0.998191
513.354186	0.997805
513.718449	0.998404
514.082655	0.998221
514.446803	0.998302
514.810894	0.998796
515.174927	0.998700
515.538904	0.998238
515.902822	0.998717
516.266684	0.998515
516.630488	0.998458
516.994235	0.998482
517.357925	0.998580
517.721558	0.998254
518.085133	0.997595
518.448651	0.998263
518.812112	0.998536
519.175516	0.997851
519.538863	0.998414
519.902152	0.998782
520.265385	0.998218
520.628560	0.997918
520.991678	0.997975
521.354739	0.998521
521.717743	0.998304
522.080690	0.998159
522.443580	0.999168
522.806413	0.997819
523.169189	0.998466
523.531908	0.997933
523.894569	0.997997
524.257174	0.998547
524.619722	0.998452
524.982213	0.998567
525.344647	0.998503
525.707025	0.998061
526.069345	0.997867
526.431608	0.998160
526.793815	0.998897
527.155964	0.998780
527.518057	0.998447
527.880093	0.998247
528.242072	0.998240
528.603995	0.998451
528.965860	0.998748
529.327669	0.998641
529.689421	0.998261
530.051117	0.998331
530.412755	0.998247
530.774337	0.998419
531.135862	0.998928
531.497331	0.998285
531.858743	0.998316
532.220098	0.997710
532.581396	0.998686
532.942638	0.998946
533.303824	0.998672
533.664953	0.998009
534.026025	0.998807
534.387040	0.998794
534.747999	0.998709
535.108902	0.998699
535.469748	0.999318
535.830537	0.998584
536.191270	0.998189
536.551947	0.998515
536.912567	0.998751
537.273131	0.998768
537.633638	0.997840
537.994089	0.998393
538.354483	0.998443
538.714821	0.998721
539.075103	0.999026
539.435328	0.999087
539.795497	0.998075
540.155609	0.997911
540.515665	0.999147
540.875665	0.997971
541.235609	0.998726
541.595496	0.998493
541.955328	0.998221
542.315102	0.999276
542.674821	0.998421
543.034483	0.998641
543.394090	0.998348
543.753640	0.998555
544.113134	0.997939
544.472571	0.999105
544.831953	0.999101
545.191278	0.998414
545.550548	0.998138
545.909761	0.998354
546.268918	0.998839
546.628019	0.998961
546.987064	0.998378
547.346053	0.998083
547.704986	0.997861
548.063863	0.997875
548.422684	0.998698
548.781449	0.999025
549.140158	0.998476
549.498811	0.998171
549.857408	0.998057
550.215949	0.998241
550.574434	0.998219
550.932864	0.999036
551.291237	0.997954
551.649555	0.998982
552.007817	0.998726
552.366022	0.998872
552.724173	0.998818
553.082267	0.998547
553.440305	0.998146
553.798288	0.997822
554.156215	0.997691
554.514086	0.998789
554.871902	0.997852
555.229661	0.998066
555.587365	0.998450
555.945014	0.998702
556.302606	0.998242
556.660143	0.999229
557.017625	0.999027
557.375050	0.998540
557.732421	0.998328
558.089735	0.998278
558.446994	0.998401
558.804197	0.998270
559.161345	0.998281
559.518437	0.998871
559.875474	0.998696
560.232455	0.999211
560.589381	0.998570
560.946251	0.998738
561.303065	0.998185
561.659825	0.998476
562.016528	0.998696
562.373177	0.998504
562.729770	0.998551
563.086307	0.998321
563.442789	0.998987
563.799216	0.997539
564.155587	0.998944
564.511904	0.999315
564.868164	0.997421
565.224370	0.998918
565.580520	0.998876
565.936615	0.998784
566.292654	0.997854
566.648638	0.999347
567.004567	0.997886
567.360441	0.998907
567.716260	0.998799
568.072023	0.998031
568.427732	0.999078
568.783385	0.998387
569.138982	0.998492
569.494525	0.998327
569.850013	0.998459
570.205445	0.998899
570.560823	0.998975
570.916145	0.997975
571.271412	0.998747
571.626625	0.999076
571.981782	0.998687
572.336884	0.999140
572.691931	0.998713
573.046923	0.999223
573.401860	0.998834
573.756743	0.999209
574.111570	0.998953
574.466342	0.999761
574.821059	0.998436
575.175722	0.998967
575.530330	0.999029
575.884882	0.998875
576.239380	0.998512
576.593823	0.998270
576.948211	0.998788
577.302544	0.998597
577.656823	0.999168
578.011047	0.998402
578.365216	0.999641
578.719330	0.998665
579.073389	0.998309
579.427394	0.998462
579.781344	0.999401
580.135239	0.997816
580.489080	0.998591
580.842866	0.998584
581.196597	0.998482
581.550273	0.997843
581.903895	0.998894
582.257463	0.999208
582.610975	0.998051
582.964434	0.998314
583.317837	0.999008
583.671186	0.999876
584.024481	0.998641
584.377721	0.997932
584.730906	0.998562
585.084037	0.999726
585.437113	0.998844
585.790135	0.999075
586.143103	0.999499
586.496016	0.998534
586.848874	0.998982
587.201679	0.998884
587.554428	0.998474
587.907124	0.999211
588.259765	0.999487
588.612352	0.998959
588.964884	0.999083
589.317362	0.998565
589.669786	0.998635
590.022155	0.998529
590.374470	0.998442
590.726731	0.998646
591.078937	0.998798
591.431090	0.998647
591.783188	0.998664
592.135232	0.999873
592.487222	0.998613
592.839157	0.998531
593.191038	0.999035
593.542866	0.999017
593.894639	0.997863
594.246358	0.998924
594.598022	0.998839
594.949633	0.999476
595.301190	0.998624
595.652692	0.998417
596.004141	0.998896
596.355535	0.998948
596.706876	0.999057
597.058162	0.998638
597.409395	0.999287
597.760573	0.998721
598.111698	0.998762
598.462768	0.998777
598.813785	0.998461
599.164748	0.998842
599.515657	0.998470
599.866511	0.998922
600.217312	0.998912
600.568060	0.998601
600.918753	0.999727
601.269392	0.998771
601.619978	0.999179
601.970510	0.998607
602.320988	0.999401
602.671412	0.999042
603.021783	0.998939
603.372100	0.998664
603.722363	0.999894
604.072572	0.999053
604.422728	0.998573
604.772830	0.998462
605.122878	0.998682
605.472872	0.999584
605.822813	0.998511
606.172701	0.998817
606.522534	0.998973
606.872314	0.999268
607.222041	0.998832
607.571714	0.999340
607.921333	0.998915
608.270899	0.998657
608.620411	0.999154
608.969870	0.999688
609.319276	0.998679
609.668627	1.000307
610.017926	0.998788
610.367171	0.998659
610.716362	0.998386
611.065500	0.998253
611.414585	0.999468
611.763616	0.997716
612.112594	0.998929
612.461518	0.998316
612.810389	0.998918
613.159207	0.998828
613.507971	0.998262
613.856682	1.000125
614.205340	0.998002
614.553945	0.998638
614.902496	0.998978
615.250994	0.998509
615.599439	0.999405
615.947830	0.998698
616.296169	0.998926
616.644454	0.998591
616.992686	0.998860
617.340864	0.999396
617.688990	0.998760
618.037063	0.998932
618.385082	0.998715
618.733048	0.998254
619.080961	0.998588
619.428821	0.998683
619.776628	0.997744
620.124382	0.999317
620.472083	0.999662
620.819731	1.000160
621.167326	0.999319
621.514868	0.999482
621.862357	0.997962
622.209793	0.999221
622.557176	0.998845
622.904506	0.998528
623.251783	0.998846
623.599007	0.998693
623.946179	0.998228
624.293297	0.999297
624.640363	0.999874
624.987376	0.998078
625.334336	0.998718
625.681243	0.998739
626.028097	0.999167
626.374899	0.998789
626.721647	1.000085
627.068343	0.999432
627.414987	0.998947
627.761577	0.998832
628.108115	0.998777
628.454600	0.999697
628.801032	0.999092
629.147412	0.999181
629.493739	0.999684
629.840014	0.998665
630.186236	0.998535
630.532405	0.999008
630.878521	0.998299
631.224585	0.999333
631.570597	0.998967
631.916556	0.999248
632.262462	0.998019
632.608316	0.999197
632.954117	0.998725
633.299866	0.998514
633.645562	0.998862
633.991206	0.999526
634.336797	0.998131
634.682336	0.999139
635.027823	0.998810
635.373257	0.999298
635.718639	0.998844
636.063968	0.998877
636.409245	0.998210
636.754470	0.998345
637.099642	0.998700
637.444762	0.999239
637.789829	0.998685
638.134845	0.998090
638.479808	0.999000
638.824719	0.998824
639.169577	0.998430
639.514383	0.998532
639.859137	0.998838
640.203839	0.998523
640.548489	0.998594
640.893086	0.998463
641.237632	0.999050
641.582125	0.999042
641.926566	1.000000
642.270955	0.998692
642.615292	0.998770
642.959576	0.999431
643.303809	0.999566
643.647990	0.998935
643.992118	0.999465
644.336195	0.997608
644.680219	0.998930
645.024192	0.999103
645.368112	0.998607
645.711981	0.998752
646.055797	0.999107
646.399562	0.998143
646.743274	0.999389
647.086935	0.998402
647.430544	0.998683
647.774101	0.998230
648.117606	0.999012
648.461059	0.999722
648.804460	0.998570
649.147810	0.998541
649.491108	0.999035
649.834354	0.998923
650.177548	0.999150
650.520690	0.998980
650.863781	0.998524
651.206820	0.998659
651.549807	0.998970
651.892742	0.999048
652.235626	0.999433
652.578458	0.998281
652.921238	1.000117
653.263967	0.999122
653.606644	0.998969
653.949269	0.999707
654.291843	0.998300
654.634365	0.999462
654.976836	0.998282
655.319255	0.999689
655.661622	0.998650
656.003938	0.998059
656.346203	0.998491
656.688416	0.999600
657.030577	0.998640
657.372687	0.998886
657.714746	0.998579
658.056753	0.998393
658.398708	0.998435
658.740612	0.999424
659.082465	0.998700
659.424266	0.999090
659.766016	0.998294
660.107715	0.999568
660.449362	0.998870
660.790958	0.998206
661.132503	0.999217
661.473996	0.998477
661.815438	0.998646
662.156829	0.999187
662.498168	0.999706
662.839456	0.997588
663.180693	0.998681
663.521879	0.998640
663.863013	0.999180
664.204097	0.998353
664.545129	0.998425
664.886110	0.998489
665.227040	0.998176
665.567918	0.999101
665.908746	0.999377
666.249522	0.998860
666.590248	0.998545
666.930922	0.997816
667.271545	0.999134
667.612118	0.998021
667.952639	0.998778
668.293109	0.999101
668.633528	0.997875
668.973896	0.998956
669.314213	0.998305
669.654480	0.998040
669.994695	0.998518
670.334859	0.998006
670.674973	0.998973
671.015035	0.998923
671.355047	0.999100
671.695008	0.998247
672.034918	0.998580
672.374777	0.999056
672.714585	0.998858
673.054342	0.999391
673.394049	0.998099
673.733705	0.997740
674.073310	0.998853
674.412864	0.998447
674.752368	0.997982
675.091820	0.999352
675.431223	0.998987
675.770574	0.997486
676.109875	0.998205
676.449125	0.998358
676.788324	0.998225
677.127473	0.999373
677.466571	0.998817
677.805619	0.998044
678.144616	0.998693
678.483562	0.998588
678.822458	0.999074
679.161303	0.998405
679.500098	0.999040
679.838842	0.999080
680.177535	0.998734
680.516179	0.997170
680.854771	0.998295
681.193314	0.999139
681.531805	0.997766
681.870247	0.998021
682.208638	0.998560
682.546978	0.997271
682.885268	0.997650
683.223508	0.998820
683.561697	0.998001
683.899836	0.997869
684.237925	0.998143
684.575963	0.997178
684.913951	0.997788
685.251889	0.997657
685.589776	0.998621
685.927614	0.998174
686.265401	0.998423
686.603137	0.997662
686.940824	0.997885
687.278460	0.999494
687.616046	0.997872
687.953582	0.998357
688.291068	0.998375
688.628504	0.998310
688.965889	0.997701
689.303224	0.996537
689.640510	0.998128
689.977745	0.997515
690.314930	0.998096
690.652065	0.998525
690.989150	0.997756
691.326185	0.998215
691.663170	0.998193
692.000105	0.998241
692.336990	0.998798
692.673825	0.997979
693.010610	0.998280
693.347345	0.997767
693.684030	0.998168
694.020665	0.997866
694.357251	0.997670
694.693786	0.998814
695.030272	0.997658
695.366707	0.998051
695.703093	0.997992
696.039429	0.998035
696.375716	0.998250
696.711952	0.998633
697.048139	0.998654
697.384276	0.998090
697.720363	0.998127
698.056400	0.997293
698.392388	0.997143
698.728326	0.997693
699.064214	0.998792
699.400053	0.998033
699.735842	0.999277
700.071581	0.997707
700.407270	0.998293
700.742910	0.998290
701.078501	0.997550
701.414042	0.998234
701.749533	0.997912
702.084974	0.998794
702.420366	0.997608
702.755709	0.998406
703.091002	0.998115
703.426246	0.998733
703.761440	0.997846
704.096584	0.997439
704.431679	0.997071
704.766725	0.997346
705.101721	0.998186
705.436668	0.997697
705.771565	0.997205
706.106413	0.997612
706.441212	0.997533
706.775961	0.998374
707.110661	0.997762
707.445311	0.997720
707.779913	0.998909
708.114465	0.998347
708.448967	0.997704
708.783421	0.998270
709.117825	0.998277
709.452180	0.997497
709.786485	0.997582
710.120742	0.997247
710.454949	0.997191
710.789107	0.997597
711.123216	0.996946
711.457275	0.997335
711.791286	0.998156
712.125247	0.999764
712.459159	0.997620
712.793023	0.997472
713.126837	0.998048
713.460602	0.997246
713.794318	0.997203
714.127985	0.997189
714.461602	0.998273
714.795171	0.998501
715.128691	0.997140
715.462162	0.998091
715.795584	0.997661
716.128957	0.998488
716.462281	0.998144
716.795556	0.997634
717.128782	0.998007
717.461960	0.998263
717.795088	0.997836
718.128167	0.998314
718.461198	0.997835
718.794180	0.999328
719.127113	0.997359
719.459997	0.997234
719.792833	0.997418
720.125619	0.997728
720.458357	0.998078
720.791046	0.998498
721.123686	0.997812
721.456278	0.997926
721.788821	0.997214
722.121315	0.999027
722.453761	0.999227
722.786158	0.998448
723.118506	0.997749
723.450805	0.997030
723.783056	0.998744
724.115259	0.997530
724.447412	0.998775
724.779518	0.998259
725.111574	0.997009
725.443582	0.997840
725.775542	0.998535
726.107453	0.998225
726.439315	0.998084
726.771129	0.998329
727.102895	0.998087
727.434612	0.996590
727.766281	0.998088
728.097901	0.997718
728.429473	0.997615
728.760996	0.996844
729.092471	0.997499
729.423897	0.998368
729.755276	0.997651
730.086606	0.996759
730.417887	0.997943
730.749120	0.998141
731.080305	0.997966
731.411442	0.997109
731.742530	0.996157
732.073570	0.997482
732.404562	0.997940
732.735506	0.997910
733.066401	0.997982
733.397249	0.997633
733.728048	0.996696
734.058798	0.997926
734.389501	0.998513
734.720156	0.997799
735.050762	0.998243
735.381320	0.997982
735.711831	0.997880
736.042293	0.997003
736.372707	0.998171
736.703073	0.997375
737.033391	0.997692
737.363661	0.997957
737.693883	0.998029
738.024056	0.997149
738.354182	0.998431
738.684260	0.997456
739.014290	0.997496
739.344272	0.998229
739.674207	0.997451
740.004093	0.998417
740.333931	0.997811
740.663722	0.997389
740.993464	0.998085
741.323159	0.998118
741.652806	0.998358
741.982405	0.997162
742.311956	0.998718
742.641460	0.998645
742.970915	0.997690
743.300323	0.997327
743.629683	0.997960
743.958996	0.998295
744.288260	0.997099
744.617477	0.997482
744.946647	0.998120
745.275768	0.997878
745.604842	0.997655
745.933869	0.998530
746.262847	0.998602
746.591778	0.997254
746.920662	0.998437
747.249498	0.998836
747.578286	0.998323
747.907027	0.997961
748.235720	0.998281
748.564365	0.998436
748.892963	0.998178
749.221514	0.998160
749.550017	0.997329
749.878473	0.998318
750.206881	0.999094
750.535242	0.997883
750.863555	0.997333
751.191821	0.998369
751.520039	0.997555
751.848210	0.996295
752.176334	0.997813
752.504411	0.997497
752.832440	0.996584
753.160421	0.998358
753.488356	0.997709
753.816243	0.997596
754.144082	0.997864
754.471875	0.998389
754.799620	0.998547
755.127318	0.998249
755.454969	0.998278
755.782572	0.998927
756.110129	0.998482
756.437638	0.999122
756.765100	0.998486
757.092515	0.998151
757.419882	0.998562
757.747203	0.997225
758.074477	0.999309
758.401703	0.998110
758.728882	0.997716
759.056014	0.998449
759.383099	0.998769
759.710138	0.997311
760.037129	0.997928
760.364073	0.998003
760.690970	0.998367
761.017820	0.997076
761.344623	0.998044
761.671379	0.998479
761.998088	0.998313
762.324751	0.998062
762.651366	0.997615
762.977935	0.996856
763.304456	0.996920
763.630931	0.996992
763.957359	0.995757
764.283740	0.996995
764.610074	0.997182
764.936362	0.998220
765.262602	0.998234
765.588796	0.999091
765.914943	0.997353
766.241044	0.996438
766.567097	0.997350
766.893104	0.998004
767.219064	0.997566
767.544978	0.998058
767.870845	0.999500
768.196665	0.997997
768.522438	0.998247
768.848165	0.999586
769.173846	0.999778
769.499479	0.999699
769.825066	0.998936
770.150607	0.998512
770.476101	0.997977
770.801548	0.999079
771.126949	1.000080
771.452303	0.999450
771.777611	0.997888
772.102872	0.998140
772.428087	0.997775
772.753256	0.999010
773.078378	0.998260
773.403453	0.997969
773.728482	0.999550
774.053465	0.998886
774.378401	0.998563
774.703291	0.999027
775.028135	0.999695
775.352932	0.997932
775.677683	0.998666
776.002388	0.999194
776.327046	0.998696
776.651658	1.000246
776.976224	0.999411
777.300743	0.998082
777.625216	0.998508
777.949643	0.998205
778.274024	0.997359
778.598359	0.998288
778.922647	0.998567
779.246889	0.998796
779.571086	0.999477
779.895236	0.999084
780.219339	0.999447
780.543397	0.998935
780.867409	0.999226
781.191374	0.998378
781.515294	0.999089
781.839167	0.998573
782.162995	0.998206
782.486776	0.998080
782.810511	0.997454
783.134201	0.999339
783.457844	0.999630
783.781441	0.998634
784.104993	0.998094
784.428498	0.998230
784.751958	0.999324
785.075372	0.999706
785.398739	0.998806
785.722061	0.998055
786.045337	0.997964
786.368568	0.998914
786.691752	0.998108
787.014891	0.998522
787.337983	0.997428
787.661030	0.998707
787.984031	0.998666
788.306987	0.998997
788.629897	0.997084
788.952760	0.998052
789.275579	0.998306
789.598351	0.998505
789.921078	0.998567
790.243759	0.998071
790.566395	0.998599
790.888984	0.999515
791.211529	0.998839
791.534027	0.999271
791.856480	0.999308
792.178888	0.998491
792.501249	0.997484
792.823566	1.000259
793.145836	0.998202
793.468062	0.998904
793.790241	0.999706
794.112375	0.998132
794.434464	0.999504
794.756507	0.999088
795.078505	0.998694
795.400457	0.999223
795.722364	0.998553
796.044226	0.999106
796.366042	0.998205
796.687812	0.997165
797.009538	0.997592
797.331218	0.999909
797.652852	0.999964
797.974442	0.998150
798.295986	0.999392
798.617484	0.998010
798.938938	0.999174
799.260346	0.997964
799.581709	0.997587
799.903026	0.998529
800.224299	0.997678
800.545526	0.998575
800.866708	0.998762
801.187845	0.998269
801.508936	0.999086
801.829983	0.998539
802.150984	0.999336
802.471940	0.998315
802.792851	0.998308
803.113717	0.999808
803.434538	0.999071
803.755314	0.999901
804.076045	0.999484
804.396731	0.998396
804.717372	0.997938
805.037967	0.999675
805.358518	0.998906
805.679024	0.998322
805.999485	0.999500
806.319901	0.998899
806.640272	0.999035
806.960598	0.998777
807.280879	0.999433
807.601115	0.999775
807.921306	0.998704
808.241453	0.998138
808.561554	0.998838
808.881611	0.999013
809.201623	0.998348
809.521590	0.998669
809.841513	0.998602
810.161390	0.998085
810.481223	0.998135
810.801011	0.999574
811.120755	1.000352
811.440453	0.998998
811.760107	0.998830
812.079716	0.998957
812.399281	0.998572
812.718801	0.998473
813.038276	0.998750
813.357707	0.998766
813.677093	1.000387
813.996434	0.998129
814.315731	0.999653
814.634983	0.998915
814.954191	0.998844
815.273354	0.998227
815.592473	0.998964
815.911547	0.999650
816.230577	0.997897
816.549562	0.998762
816.868502	0.997918
817.187399	0.999069
817.506250	0.999460
817.825058	0.998614
818.143821	0.998597
818.462539	0.998408
818.781213	0.999906
819.099843	0.998698
819.418429	0.997728
819.736970	0.998876
820.055466	0.997454
820.373919	0.997166
820.692327	0.996793
821.010691	0.997780
821.329011	0.995231
821.647286	0.993850
821.965517	0.993131
822.283704	0.992071
822.601847	0.991306
822.919945	0.992412
823.237999	0.993191
823.556010	0.993638
823.873976	0.993798
824.191897	0.994472
824.509775	0.995458
824.827609	0.995388
825.145398	0.996350
825.463144	0.994937
825.780845	0.994160
826.098502	0.994826
826.416116	0.995760
826.733685	0.994865
827.051210	0.994291
827.368692	0.994987
827.686129	0.994361
828.003522	0.996718
828.320872	0.996567
828.638177	0.997461
828.955439	0.996882
829.272656	0.997626
829.589830	0.998385
829.906960	0.997947
830.224046	0.997836
830.541088	0.998388
830.858086	0.998364
831.175041	0.999407
831.491952	0.998417
831.808819	0.997542
832.125642	0.997756
832.442421	0.999201
832.759157	0.997856
833.075849	0.997454
833.392497	0.996707
833.709101	0.995994
834.025662	0.997283
834.342179	0.996974
834.658653	0.997857
834.975083	0.999072
835.291469	0.997466
835.607811	0.998049
835.924110	0.998187
836.240366	0.998661
836.556578	0.998856
836.872746	0.999249
837.188871	0.998780
837.504952	0.998169
837.820990	0.998507
838.136984	0.997679
838.452935	0.998102
838.768842	0.999919
839.084706	0.998899
839.400526	0.998655
839.716303	0.997147
840.032037	0.997783
840.347727	0.998776
840.663373	0.998292
840.978977	0.998214
841.294537	0.998599
841.610054	0.999152
841.925527	0.999111
842.240957	0.999965
842.556344	0.998860
842.871687	0.998965
843.186987	0.998422
843.502244	0.999640
843.817458	0.998910
844.132629	0.998916
844.447756	0.999367
844.762840	1.000294
845.077881	1.000892
845.392879	0.997615
845.707833	1.000467
846.022745	1.000000
846.337613	1.000000
846.652438	0.999388
846.967221	0.998859
847.281960	0.999939
847.596656	1.001094
847.911309	0.998847
848.225919	0.998977
848.540485	1.000145
848.855009	1.000383
849.169490	0.999294
849.483928	0.998970
849.798323	0.998000
850.112675	1.000140
850.426984	0.999504
850.741251	0.999302
851.055474	0.998580
851.369654	1.000221
851.683792	0.998555
851.997887	0.998490
852.311938	1.000041
852.625947	0.998579
852.939914	1.000290
853.253837	1.000530
853.567718	0.999848
853.881555	0.998944
854.195350	0.999429
854.509103	0.999266
854.822812	0.998996
855.136479	0.999574
855.450103	0.998774
855.763685	1.000299
856.077224	0.999349
856.390720	0.999389
856.704173	1.000052
857.017584	1.001008
857.330953	0.999574
857.644278	0.999195
857.957561	0.998889
858.270802	1.000523
858.584000	0.999367
858.897155	0.999788
859.210268	0.998945
859.523339	0.999319
859.836367	0.999420
860.149352	0.999890
860.462295	0.998510
860.775195	0.999453
861.088054	0.998517
861.400869	0.998532
861.713642	0.997865
862.026373	0.999735
862.339062	1.000037
862.651708	0.999146
862.964312	0.999347
863.276873	0.998945
863.589392	0.998388
863.901869	0.999161
864.214303	0.999420
864.526696	0.999700
864.839045	0.999723
865.151353	0.999837
865.463619	0.998581
865.775842	0.999149
866.088023	1.001385
866.400162	0.999163
866.712258	1.000691
867.024313	0.999635
867.336325	1.000460
867.648296	0.999901
867.960224	1.000741
868.272110	1.000608
868.583954	0.999038
868.895755	0.999984
869.207515	0.998894
869.519233	0.999911
869.830909	0.998302
870.142542	0.998538
870.454134	1.000306
870.765684	0.997680
871.077191	1.000398
871.388657	1.000197
871.700081	0.999992
872.011463	1.000635
872.322803	0.998963
872.634101	0.998690
872.945357	0.999006
873.256571	0.998949
873.567744	0.999712
873.878874	0.998768
874.189963	0.998213
874.501010	1.000256
874.812015	0.999454
875.122979	0.998881
875.433900	0.999068
875.744780	0.998454
876.055618	0.998737
876.366415	0.999179
876.677169	0.999255
876.987882	0.999010
877.298554	1.000069
877.609183	0.998468
877.919771	0.999129
878.230317	0.999537
878.540822	0.997923
878.851285	0.998623
879.161707	0.998490
879.472087	0.999935
879.782425	0.996660
880.092722	0.997877
880.402977	0.996286
880.713191	0.993853
881.023363	0.994584
881.333494	0.993373
881.643583	0.995268
881.953631	0.993851
882.263637	0.992376
882.573602	0.993526
882.883526	0.994416
883.193408	0.994573
883.503248	0.995715
883.813048	0.995273
884.122806	0.996518
884.432522	0.997385
884.742197	0.998528
885.051831	0.997052
885.361424	0.998162
885.670975	0.998299
885.980485	0.998455
886.289954	0.998432
886.599382	0.997399
886.908768	0.998608
887.218113	0.998588
887.527417	0.999035
887.836680	0.998885
888.145901	0.999685
888.455082	1.000802
888.764221	0.999381
889.073319	0.998478
889.382376	1.000230
889.691392	0.998366
890.000366	0.999900
890.309300	0.999404
890.618193	0.999427
890.927044	0.998641
891.235855	0.999199
891.544625	0.999444
891.853353	0.999460
892.162041	0.999174
892.470687	0.999432
892.779293	0.998124
893.087858	0.997275
893.396381	0.998702
893.704864	0.997797
894.013306	0.997369
894.321707	0.997759
894.630068	0.996958
894.938387	0.995834
895.246665	0.996350
895.554903	0.996504
895.863100	0.997380
896.171256	0.997330
896.479371	0.997704
896.787446	0.997266
897.095480	0.997764
897.403473	0.999007
897.711425	0.998643
898.019336	0.998893
898.327207	0.999020
898.635038	0.998867
898.942827	0.999574
899.250576	0.999345
899.558284	0.999214
899.865952	0.997750
900.173579	0.999024
900.481165	0.999092
900.788711	0.999266
901.096216	0.999421
901.403681	0.999812
901.711105	0.999242
902.018489	0.999264
902.325832	0.999640
902.633135	0.999087
902.940397	0.999244
903.247619	0.998953
903.554800	0.998492
903.861941	0.998193
904.169041	0.996994
904.476101	0.995695
904.783121	0.995773
905.090100	0.996488
905.397039	0.995951
905.703938	0.996999
906.010796	0.997976
906.317614	0.998409
906.624391	0.998013
906.931129	0.999447
907.237826	0.999254
907.544483	0.998211
907.851099	0.998266
908.157675	0.997810
908.464211	0.999204
908.770707	0.999378
909.077163	0.998963
909.383578	1.000071
909.689954	0.998731
909.996289	0.999209
910.302584	1.000132
910.608839	0.999607
910.915054	0.999426
911.221229	1.001698
911.527363	0.998715
911.833458	0.999587
912.139513	0.998567
912.445527	1.001232
912.751502	0.999704
913.057436	0.998017
913.363331	1.000308
913.669186	0.999683
913.975000	0.998484
914.280775	0.998783
914.586510	0.998149
914.892205	0.998388
915.197859	0.997533
915.503475	0.997542
915.809050	0.996485
916.114585	0.995618
916.420081	0.996016
916.725536	0.996747
917.030952	0.996517
917.336328	0.996477
917.641665	0.994898
917.946961	0.996511
918.252218	0.996381
918.557435	0.997999
918.862612	0.997935
919.167750	0.998725
919.472848	0.999180
919.777906	0.999267
920.082925	1.000623
920.387904	0.999521
920.692843	0.999111
920.997743	0.998175
921.302603	0.999368
921.607423	0.998718
921.912204	0.999212
922.216946	1.000715
922.521647	0.999255
922.826310	0.998701
923.130932	0.999420
923.435516	1.000013
923.740059	1.000757
924.044564	0.998807
924.349028	0.998560
924.653454	1.000276
924.957840	1.000270
925.262186	0.998681
925.566493	0.999322
925.870761	1.000636
926.174989	0.999075
926.479178	1.001072
926.783328	0.999497
927.087438	0.999819
927.391509	0.998891
927.695541	0.998830
927.999533	1.000372
928.303486	1.000011
928.607400	0.999106
928.911275	0.999739
929.215110	1.000682
929.518906	1.000603
929.822663	0.999610
930.126381	1.001285
930.430060	0.999614
930.733699	0.999348
931.037299	1.000765
931.340861	1.000326
931.644383	0.997712
931.947866	0.999458
932.251309	0.999856
932.554714	0.999314
932.858080	0.999673
933.161407	0.999444
933.464694	1.000195
933.767943	1.001120
934.071153	1.000497
934.374323	1.000334
934.677455	0.999949
934.980548	0.999411
935.283602	0.999888
935.586617	0.999162
935.889593	1.001324
936.192530	1.000567
936.495428	0.999538
936.798287	0.999052
937.101108	0.999529
937.403890	0.999135
937.706632	1.000368
938.009336	1.000147
938.312002	0.998705
938.614628	0.999712
938.917216	1.000427
939.219765	0.999097
939.522275	0.999407
939.824747	0.999642
940.127179	0.999418
940.429573	1.000610
940.731929	0.999200
941.034246	0.999515
941.336524	0.998450
941.638763	0.999481
941.940964	0.999306
942.243126	0.998748
942.545250	1.000113
942.847335	0.999928
943.149381	1.001586
943.451389	0.999059
943.753359	1.000081
944.055290	1.001229
944.357182	0.999867
944.659036	1.000272
944.960851	0.999500
945.262628	1.001012
945.564367	1.000431
945.866067	1.000310
946.167729	1.000513
946.469352	0.999808
946.770937	0.998727
947.072484	0.999206
947.373992	0.999193
947.675462	0.998825
947.976893	0.999476
948.278286	1.000349
948.579641	1.001856
948.880958	0.999791
949.182236	0.998918
949.483476	1.001179
949.784678	0.999297
950.085841	0.999994
950.386967	0.998924
950.688054	0.999788
950.989103	0.999545
951.290114	0.998664
951.591087	1.000681
951.892021	0.999946
952.192917	1.000269
952.493776	0.999890
952.794596	0.999970
953.095378	1.000096
953.396122	0.999053
953.696828	1.000680
953.997496	0.999579
954.298126	1.000945
954.598718	0.998962
954.899272	1.000338
955.199788	0.999441
955.500266	1.000366
955.800706	0.998921
956.101108	0.999512
956.401472	1.001598
956.701798	0.999007
957.002087	0.999620
957.302337	1.000668
957.602550	1.000077
957.902724	0.999064
958.202861	1.000596
958.502960	0.999775
958.803022	1.000340
959.103045	0.999916
959.403031	1.001234
959.702979	1.000114
960.002889	1.000697
960.302762	0.999269
960.602596	1.001323
960.902393	1.000017
961.202153	0.999817
961.501875	0.999642
961.801559	0.999123
962.101205	0.998643
962.400814	1.000523
962.700385	1.000153
962.999918	0.999537
963.299414	0.998330
963.598873	1.000179
963.898293	1.000428
964.197677	0.999881
964.497022	1.001162
964.796331	1.000367
965.095601	1.001769
965.394835	0.999567
965.694030	0.999900
965.993189	0.998858
966.292309	1.000543
966.591393	0.999137
966.890439	1.000091
967.189447	0.999438
967.488419	1.000151
967.787353	0.999713
968.086249	1.000651
968.385108	0.999547
968.683930	1.001856
968.982714	1.000131
969.281462	1.000138
969.580172	0.999210
969.878844	1.000486
970.177480	0.999813
970.476078	1.000226
970.774639	1.001554
971.073162	0.998373
971.371649	1.000177
971.670098	1.000240
971.968510	1.000632
972.266885	0.999236
972.565223	0.999314
972.863524	1.000091
973.161788	0.999266
973.460014	1.000563
973.758204	1.000085
974.056356	1.000212
974.354471	0.999558
974.652550	0.999753
974.950591	0.999270
975.248595	0.998904
975.546563	1.000613
975.844493	1.001216
976.142386	0.999724
976.440243	1.001043
976.738062	1.000494
977.035845	0.998957
977.333590	1.000318
977.631299	0.998870
977.928971	0.999669
978.226606	0.999543
978.524204	1.000137
978.821765	1.000746
979.119290	1.001522
979.416777	0.999825
979.714228	0.999959
980.011642	1.001503
980.309020	0.999075
980.606360	0.999699
980.903664	0.999270
981.200931	0.999832
981.498162	0.999482
981.795356	1.000342
982.092513	1.000040
982.389633	1.000108
982.686717	0.998892
982.983764	0.999787
983.280775	0.999816
983.577749	1.000945
983.874686	0.998595
984.171587	0.998439
984.468451	1.000102
984.765279	0.999492
985.062070	1.001557
985.358824	0.999870
985.655543	1.001039
985.952224	0.999706
986.248869	0.999717
986.545478	1.001382
986.842050	0.999950
987.138586	0.998543
987.435086	0.999674
987.731549	1.001303
988.027975	0.999894
988.324366	0.999885
988.620719	1.000953
988.917037	1.000522
989.213318	1.000527
989.509563	1.001316
989.805772	1.000519
990.101944	0.999622
990.398080	1.001659
990.694180	1.001423
990.990244	0.999563
991.286271	0.999392
991.582262	1.000371
991.878217	1.000028
992.174136	1.000717
992.470019	1.000494
992.765865	1.001172
993.061676	1.001456
993.357450	1.000663
993.653188	1.000698
993.948890	1.000317
994.244556	0.999490
994.540186	1.000727
994.835780	0.999982
995.131337	1.001244
995.426859	0.999348
995.722345	1.000003
996.017795	0.999367
996.313208	1.000028
996.608586	0.999737
996.903928	1.001466
997.199234	0.999960
997.494504	1.000476
997.789738	0.998439
998.084936	1.001084
998.380099	1.000657
998.675225	1.000512
998.970316	1.001187
999.265371	1.000233
999.560390	1.000409
999.855373	1.000183
1000.150320	1.000538
1000.445232	0.999451
1000.740108	0.999681
1001.034948	0.999419
1001.329752	1.001394
1001.624521	0.999523
1001.919254	0.999180
1002.213951	0.999899
1002.508613	0.999455
1002.803239	1.000100
1003.097829	1.000249
1003.392384	1.000082
1003.686903	1.000235
1003.981386	0.999357
1004.275834	1.001746
1004.570246	0.997884
1004.864623	1.000757
1005.158964	1.000371
1005.453270	1.000590
1005.747540	0.999692
1006.041775	1.000516
1006.335974	0.999720
1006.630138	1.000555
1006.924266	1.000118
1007.218359	0.998159
1007.512416	1.001480
1007.806438	0.999609
1008.100425	1.000488
1008.394376	1.000922
1008.688292	1.000074
1008.982172	1.000323
1009.276017	1.000794
1009.569827	1.001648
1009.863602	0.998987
1010.157341	1.000598
1010.451045	0.999265
1010.744714	1.001988
1011.038347	0.999868
1011.331945	0.999618
1011.625508	0.999699
1011.919036	1.000421
1012.212528	1.001581
1012.505986	0.999328
1012.799408	1.000315
1013.092795	1.000582
1013.386147	1.000312
1013.679464	1.000989
1013.972745	0.999458
1014.265992	1.001199
1014.559204	0.999119
1014.852380	1.001523
1015.145521	0.999901
1015.438628	1.000612
1015.731699	0.999458
1016.024736	1.000344
1016.317737	1.000646
1016.610703	1.000192
1016.903635	0.999734
1017.196531	0.999573
1017.489393	0.999504
1017.782219	1.000872
1018.075011	0.999644
1018.367768	1.000473
1018.660490	0.999780
1018.953177	0.999780
1019.245829	0.999780
