Dividing Wavelength (nm)	Counts (n)	Blue Motor Position (mm): 3.800000	Red Motor Position (mm): 0.000000	
326.493990	1.005554
326.888308	1.005554
327.282561	1.005554
327.676750	1.006163
328.070874	1.006724
328.464933	1.007563
328.858929	1.006459
329.252859	1.007764
329.646726	1.006689
330.040528	1.006842
330.434265	1.006045
330.827938	1.006909
331.221547	1.006329
331.615091	1.007270
332.008571	1.006666
332.401986	1.005465
332.795338	1.005837
333.188625	1.006012
333.581847	1.005237
333.975006	1.006517
334.368100	1.007150
334.761129	1.005339
335.154095	1.005664
335.546996	1.004320
335.939833	0.998425
336.332606	0.999651
336.725315	0.998006
337.117960	0.998774
337.510540	0.998480
337.903056	0.999710
338.295508	0.999846
338.687896	0.998599
339.080220	0.998786
339.472480	0.998218
339.864676	0.999904
340.256807	0.998155
340.648875	1.000192
341.040879	0.998906
341.432818	0.999209
341.824694	0.998637
342.216506	0.998631
342.608253	0.999186
342.999937	0.999412
343.391557	0.998005
343.783113	0.999315
344.174605	0.998794
344.566033	0.998385
344.957397	0.999592
345.348697	0.999612
345.739934	0.999273
346.131106	0.998833
346.522215	0.998965
346.913260	0.998472
347.304241	0.998960
347.695159	0.998411
348.086012	0.999393
348.476802	0.999418
348.867528	0.997706
349.258191	0.999486
349.648789	1.000118
350.039324	0.999072
350.429796	0.997644
350.820203	0.997379
351.210548	0.998776
351.600828	0.998998
351.991045	0.998747
352.381198	0.997412
352.771288	0.996893
353.161314	0.998631
353.551276	0.997679
353.941175	0.997446
354.331010	0.999660
354.720782	0.998298
355.110490	0.997957
355.500135	0.999128
355.889717	0.997217
356.279235	0.996753
356.668689	0.998519
357.058080	0.997656
357.447408	0.996748
357.836672	0.997840
358.225873	0.998507
358.615010	0.997374
359.004084	0.997691
359.393095	0.998945
359.782043	0.998285
360.170927	0.999134
360.559748	0.998322
360.948505	0.996718
361.337199	0.997991
361.725830	0.997937
362.114398	0.997056
362.502903	0.995940
362.891344	0.995882
363.279722	0.996599
363.668037	0.997090
364.056289	0.997168
364.444478	0.997625
364.832603	0.997018
365.220665	0.996817
365.608665	0.997497
365.996601	0.996087
366.384474	0.995028
366.772284	0.996339
367.160031	0.994271
367.547715	0.994496
367.935336	0.994992
368.322893	0.993962
368.710388	0.992969
369.097820	0.991140
369.485189	0.988344
369.872495	0.986544
370.259738	0.985253
370.646918	0.980892
371.034035	0.979170
371.421090	0.976203
371.808081	0.970628
372.195010	0.968937
372.581875	0.963744
372.968678	0.958768
373.355418	0.955473
373.742096	0.948213
374.128710	0.944093
374.515262	0.939278
374.901751	0.933597
375.288177	0.928449
375.674540	0.922058
376.060841	0.916411
376.447079	0.909259
376.833254	0.903167
377.219367	0.897224
377.605417	0.884974
377.991404	0.882816
378.377329	0.877003
378.763191	0.870692
379.148991	0.861987
379.534727	0.854806
379.920402	0.845326
380.306013	0.842123
380.691563	0.829463
381.077049	0.822466
381.462474	0.818693
381.847835	0.806095
382.233134	0.801614
382.618371	0.802962
383.003545	0.785110
383.388657	0.783469
383.773706	0.775907
384.158693	0.771281
384.543618	0.766425
384.928480	0.757543
385.313280	0.747193
385.698017	0.746399
386.082692	0.736082
386.467305	0.733657
386.851856	0.728903
387.236344	0.723414
387.620770	0.717477
388.005133	0.712089
388.389435	0.705854
388.773674	0.703603
389.157851	0.695957
389.541965	0.693590
389.926018	0.699028
390.310008	0.686119
390.693936	0.683537
391.077802	0.675414
391.461606	0.677067
391.845348	0.666477
392.229027	0.665895
392.612645	0.663165
392.996200	0.650705
393.379694	0.644250
393.763125	0.634362
394.146494	0.637845
394.529801	0.629741
394.913047	0.621365
395.296230	0.627608
395.679351	0.618683
396.062410	0.615414
396.445408	0.617464
396.828343	0.613462
397.211217	0.609217
397.594028	0.620975
397.976778	0.611760
398.359466	0.607292
398.742092	0.602542
399.124656	0.615027
399.507158	0.602403
399.889598	0.600152
400.271977	0.591257
400.654294	0.595308
401.036549	0.594238
401.418742	0.598905
401.800874	0.584427
402.182944	0.580876
402.564952	0.573696
402.946898	0.575417
403.328783	0.575746
403.710606	0.586827
404.092367	0.562045
404.474067	0.567146
404.855705	0.565700
405.237282	0.574803
405.618797	0.561341
406.000250	0.556276
406.381642	0.546492
406.762972	0.552348
407.144240	0.549816
407.525447	0.550361
407.906593	0.543118
408.287677	0.538086
408.668700	0.547175
409.049661	0.540940
409.430560	0.536384
409.811399	0.544694
410.192176	0.526485
410.572891	0.533503
410.953545	0.521400
411.334138	0.535111
411.714669	0.528089
412.095139	0.539833
412.475547	0.523867
412.855894	0.525673
413.236180	0.524451
413.616405	0.529845
413.996568	0.519948
414.376670	0.526750
414.756711	0.531372
415.136691	0.528397
415.516609	0.519496
415.896466	0.516299
416.276262	0.512120
416.655997	0.513976
417.035670	0.495188
417.415283	0.487318
417.794834	0.491850
418.174324	0.497288
418.553753	0.506239
418.933121	0.488060
419.312428	0.482603
419.691674	0.488245
420.070859	0.477260
420.449983	0.484571
420.829045	0.473615
421.208047	0.482851
421.586988	0.475639
421.965867	0.474842
422.344686	0.463357
422.723444	0.475808
423.102141	0.492718
423.480777	0.465746
423.859352	0.486463
424.237866	0.463807
424.616319	0.464514
424.994712	0.455090
425.373044	0.465849
425.751314	0.454306
426.129524	0.470844
426.507673	0.453833
426.885762	0.447842
427.263789	0.453254
427.641756	0.462397
428.019662	0.452989
428.397508	0.452290
428.775292	0.456268
429.153016	0.448271
429.530679	0.454463
429.908282	0.447388
430.285824	0.457910
430.663305	0.436178
431.040726	0.457664
431.418086	0.457642
431.795385	0.448800
432.172624	0.448612
432.549802	0.448335
432.926920	0.447930
433.303977	0.446812
433.680974	0.443847
434.057910	0.442743
434.434786	0.441981
434.811601	0.444571
435.188355	0.427018
435.565050	0.436323
435.941683	0.437490
436.318257	0.421322
436.694770	0.422566
437.071222	0.420600
437.447614	0.424851
437.823946	0.431818
438.200218	0.420380
438.576429	0.430592
438.952580	0.423190
439.328670	0.420727
439.704700	0.426296
440.080670	0.427632
440.456580	0.409214
440.832429	0.417025
441.208218	0.427987
441.583947	0.417014
441.959616	0.416478
442.335224	0.422474
442.710773	0.412579
443.086261	0.410915
443.461689	0.424839
443.837057	0.414323
444.212365	0.404815
444.587612	0.411962
444.962800	0.401637
445.337927	0.403196
445.712995	0.429074
446.088002	0.391156
446.462949	0.401763
446.837837	0.406637
447.212664	0.394970
447.587431	0.387064
447.962139	0.357323
448.336786	0.316000
448.711374	0.326480
449.085901	0.370943
449.460369	0.374852
449.834776	0.378470
450.209124	0.357701
450.583412	0.350521
450.957640	0.343141
451.331808	0.354932
451.705917	0.378468
452.079965	0.383208
452.453954	0.371253
452.827883	0.378010
453.201752	0.372536
453.575562	0.383914
453.949311	0.372913
454.323001	0.378643
454.696632	0.374614
455.070202	0.367411
455.443713	0.358791
455.817164	0.353828
456.190556	0.349619
456.563888	0.346236
456.937160	0.343630
457.310373	0.360882
457.683526	0.360276
458.056619	0.365801
458.429653	0.366189
458.802628	0.369883
459.175542	0.364319
459.548398	0.346203
459.921194	0.339066
460.293930	0.339348
460.666607	0.316771
461.039224	0.304742
461.411782	0.300042
461.784280	0.299670
462.156719	0.303776
462.529099	0.308173
462.901419	0.324369
463.273680	0.328957
463.645882	0.328145
464.018024	0.334041
464.390106	0.326604
464.762130	0.311280
465.134094	0.294187
465.505999	0.263532
465.877845	0.233763
466.249631	0.220654
466.621358	0.228175
466.993026	0.242099
467.364634	0.248164
467.736184	0.257239
468.107674	0.265773
468.479105	0.265028
468.850477	0.271897
469.221790	0.278468
469.593043	0.289084
469.964238	0.293175
470.335373	0.292854
470.706449	0.291329
471.077467	0.291558
471.448425	0.253849
471.819324	0.229230
472.190164	0.228987
472.560945	0.257973
472.931667	0.280230
473.302330	0.284151
473.672934	0.296469
474.043479	0.284425
474.413965	0.286158
474.784393	0.289467
475.154761	0.284361
475.525070	0.282023
475.895321	0.287642
476.265513	0.281604
476.635645	0.277162
477.005719	0.276983
477.375734	0.273504
477.745691	0.266760
478.115588	0.262940
478.485427	0.256426
478.855207	0.243381
479.224928	0.225583
479.594591	0.213810
479.964194	0.217132
480.333739	0.218391
480.703226	0.220025
481.072653	0.218447
481.442022	0.213887
481.811333	0.210750
482.180584	0.213907
482.549777	0.219418
482.918912	0.222999
483.287988	0.222453
483.657005	0.222373
484.025964	0.228590
484.394864	0.225835
484.763706	0.226588
485.132489	0.231841
485.501213	0.232145
485.869879	0.230625
486.238487	0.233664
486.607036	0.231713
486.975527	0.236316
487.343959	0.232097
487.712333	0.231460
488.080648	0.232755
488.448905	0.232061
488.817104	0.233205
489.185244	0.227535
489.553326	0.224641
489.921350	0.214158
490.289315	0.196768
490.657222	0.191774
491.025070	0.193259
491.392861	0.194956
491.760593	0.200611
492.128267	0.206475
492.495883	0.212047
492.863440	0.218447
493.230939	0.224646
493.598380	0.226080
493.965763	0.228386
494.333088	0.230432
494.700354	0.232105
495.067563	0.230999
495.434713	0.234410
495.801805	0.231814
496.168839	0.233720
496.535815	0.235367
496.902733	0.235109
497.269593	0.236282
497.636395	0.234208
498.003139	0.234429
498.369825	0.237441
498.736453	0.234014
499.103023	0.235892
499.469535	0.235053
499.835989	0.235397
500.202385	0.236201
500.568723	0.239427
500.935003	0.234528
501.301226	0.238859
501.667390	0.232985
502.033497	0.230909
502.399546	0.234057
502.765537	0.236063
503.131470	0.234226
503.497345	0.230981
503.863163	0.239417
504.228923	0.232224
504.594625	0.230987
504.960269	0.236484
505.325856	0.231847
505.691385	0.236423
506.056856	0.233012
506.422270	0.232592
506.787625	0.234944
507.152924	0.232291
507.518164	0.232796
507.883347	0.234238
508.248472	0.236089
508.613540	0.231013
508.978550	0.233718
509.343503	0.234282
509.708398	0.231755
510.073236	0.229270
510.438016	0.229244
510.802738	0.229726
511.167403	0.229039
511.532010	0.231334
511.896561	0.226417
512.261053	0.225220
512.625488	0.227496
512.989866	0.227656
513.354186	0.227979
513.718449	0.229840
514.082655	0.225934
514.446803	0.228697
514.810894	0.226095
515.174927	0.228772
515.538904	0.228261
515.902822	0.225267
516.266684	0.227412
516.630488	0.228436
516.994235	0.227485
517.357925	0.226255
517.721558	0.224531
518.085133	0.223979
518.448651	0.224111
518.812112	0.226440
519.175516	0.225948
519.538863	0.223543
519.902152	0.225402
520.265385	0.222065
520.628560	0.224046
520.991678	0.224414
521.354739	0.223326
521.717743	0.224619
522.080690	0.224743
522.443580	0.222003
522.806413	0.222957
523.169189	0.222703
523.531908	0.221403
523.894569	0.224916
524.257174	0.224904
524.619722	0.222401
524.982213	0.223672
525.344647	0.222393
525.707025	0.223293
526.069345	0.221573
526.431608	0.223388
526.793815	0.221058
527.155964	0.225579
527.518057	0.224263
527.880093	0.225181
528.242072	0.223872
528.603995	0.225683
528.965860	0.227305
529.327669	0.226534
529.689421	0.227241
530.051117	0.228147
530.412755	0.225976
530.774337	0.227858
531.135862	0.228786
531.497331	0.227914
531.858743	0.230652
532.220098	0.227404
532.581396	0.230044
532.942638	0.230166
533.303824	0.231285
533.664953	0.231135
534.026025	0.233041
534.387040	0.231068
534.747999	0.230848
535.108902	0.229696
535.469748	0.234843
535.830537	0.232611
536.191270	0.232829
536.551947	0.232208
536.912567	0.232403
537.273131	0.234060
537.633638	0.234712
537.994089	0.234898
538.354483	0.235722
538.714821	0.232783
539.075103	0.232273
539.435328	0.233417
539.795497	0.237125
540.155609	0.233727
540.515665	0.232100
540.875665	0.237489
541.235609	0.236267
541.595496	0.236115
541.955328	0.232502
542.315102	0.235410
542.674821	0.236227
543.034483	0.236373
543.394090	0.236296
543.753640	0.237967
544.113134	0.232932
544.472571	0.236349
544.831953	0.233331
545.191278	0.237275
545.550548	0.236621
545.909761	0.233610
546.268918	0.234473
546.628019	0.232593
546.987064	0.235251
547.346053	0.237036
547.704986	0.234847
548.063863	0.235171
548.422684	0.235479
548.781449	0.237384
549.140158	0.235142
549.498811	0.237795
549.857408	0.240762
550.215949	0.235473
550.574434	0.238477
550.932864	0.236712
551.291237	0.234808
551.649555	0.237039
552.007817	0.236401
552.366022	0.237500
552.724173	0.237412
553.082267	0.237718
553.440305	0.234873
553.798288	0.238979
554.156215	0.235623
554.514086	0.236368
554.871902	0.239544
555.229661	0.238742
555.587365	0.239261
555.945014	0.241721
556.302606	0.238735
556.660143	0.241401
557.017625	0.237760
557.375050	0.240087
557.732421	0.236872
558.089735	0.239061
558.446994	0.238729
558.804197	0.238167
559.161345	0.238251
559.518437	0.241662
559.875474	0.239567
560.232455	0.238893
560.589381	0.240095
560.946251	0.240434
561.303065	0.237894
561.659825	0.239326
562.016528	0.240761
562.373177	0.243502
562.729770	0.241010
563.086307	0.242488
563.442789	0.240672
563.799216	0.243380
564.155587	0.242229
564.511904	0.243236
564.868164	0.243654
565.224370	0.243250
565.580520	0.245111
565.936615	0.244899
566.292654	0.247836
566.648638	0.245247
567.004567	0.245853
567.360441	0.246304
567.716260	0.248409
568.072023	0.246066
568.427732	0.247170
568.783385	0.249221
569.138982	0.247284
569.494525	0.247021
569.850013	0.250129
570.205445	0.248787
570.560823	0.251029
570.916145	0.253015
571.271412	0.251150
571.626625	0.252519
571.981782	0.252995
572.336884	0.253988
572.691931	0.253760
573.046923	0.255206
573.401860	0.256476
573.756743	0.258023
574.111570	0.256862
574.466342	0.257432
574.821059	0.256522
575.175722	0.259594
575.530330	0.259144
575.884882	0.259197
576.239380	0.261281
576.593823	0.261827
576.948211	0.261382
577.302544	0.264721
577.656823	0.264120
578.011047	0.264323
578.365216	0.265129
578.719330	0.267061
579.073389	0.266534
579.427394	0.267913
579.781344	0.268756
580.135239	0.270049
580.489080	0.269988
580.842866	0.273042
581.196597	0.273030
581.550273	0.271715
581.903895	0.272372
582.257463	0.270623
582.610975	0.274047
582.964434	0.273204
583.317837	0.275985
583.671186	0.276380
584.024481	0.276208
584.377721	0.278535
584.730906	0.279599
585.084037	0.278668
585.437113	0.280261
585.790135	0.279881
586.143103	0.283365
586.496016	0.283949
586.848874	0.281773
587.201679	0.282094
587.554428	0.285554
587.907124	0.284315
588.259765	0.284782
588.612352	0.285679
588.964884	0.289605
589.317362	0.289076
589.669786	0.289015
590.022155	0.287436
590.374470	0.286915
590.726731	0.288550
591.078937	0.293589
591.431090	0.290169
591.783188	0.294305
592.135232	0.294577
592.487222	0.294579
592.839157	0.292740
593.191038	0.294935
593.542866	0.297306
593.894639	0.300251
594.246358	0.298925
594.598022	0.298025
594.949633	0.301591
595.301190	0.302436
595.652692	0.301540
596.004141	0.297426
596.355535	0.305828
596.706876	0.306191
597.058162	0.308871
597.409395	0.305805
597.760573	0.303501
598.111698	0.306465
598.462768	0.307571
598.813785	0.308411
599.164748	0.309965
599.515657	0.310595
599.866511	0.313614
600.217312	0.308760
600.568060	0.314250
600.918753	0.310666
601.269392	0.311446
601.619978	0.314322
601.970510	0.312332
602.320988	0.312879
602.671412	0.310406
603.021783	0.313176
603.372100	0.314321
603.722363	0.313965
604.072572	0.314821
604.422728	0.314328
604.772830	0.316865
605.122878	0.316297
605.472872	0.316987
605.822813	0.315212
606.172701	0.318060
606.522534	0.314913
606.872314	0.315522
607.222041	0.316211
607.571714	0.314298
607.921333	0.315639
608.270899	0.315168
608.620411	0.312152
608.969870	0.316157
609.319276	0.316119
609.668627	0.315996
610.017926	0.314806
610.367171	0.313034
610.716362	0.313807
611.065500	0.314329
611.414585	0.312820
611.763616	0.312655
612.112594	0.313777
612.461518	0.313110
612.810389	0.310724
613.159207	0.313200
613.507971	0.314745
613.856682	0.310624
614.205340	0.311645
614.553945	0.309468
614.902496	0.312845
615.250994	0.311049
615.599439	0.311518
615.947830	0.310962
616.296169	0.312112
616.644454	0.311707
616.992686	0.311638
617.340864	0.309358
617.688990	0.313088
618.037063	0.309453
618.385082	0.311526
618.733048	0.308242
619.080961	0.310752
619.428821	0.310044
619.776628	0.309625
620.124382	0.312212
620.472083	0.312526
620.819731	0.311742
621.167326	0.315419
621.514868	0.315506
621.862357	0.319363
622.209793	0.318891
622.557176	0.321442
622.904506	0.322252
623.251783	0.325155
623.599007	0.327566
623.946179	0.327023
624.293297	0.328701
624.640363	0.332749
624.987376	0.333131
625.334336	0.335590
625.681243	0.338169
626.028097	0.338317
626.374899	0.339428
626.721647	0.339958
627.068343	0.342529
627.414987	0.344193
627.761577	0.346177
628.108115	0.344285
628.454600	0.349534
628.801032	0.347432
629.147412	0.348941
629.493739	0.349972
629.840014	0.352937
630.186236	0.349661
630.532405	0.355375
630.878521	0.352888
631.224585	0.355063
631.570597	0.359070
631.916556	0.357501
632.262462	0.356832
632.608316	0.359460
632.954117	0.359998
633.299866	0.361364
633.645562	0.361290
633.991206	0.366204
634.336797	0.368310
634.682336	0.371478
635.027823	0.372380
635.373257	0.373048
635.718639	0.376933
636.063968	0.376075
636.409245	0.381892
636.754470	0.382534
637.099642	0.384911
637.444762	0.388193
637.789829	0.387541
638.134845	0.390774
638.479808	0.392027
638.824719	0.391613
639.169577	0.396088
639.514383	0.394940
639.859137	0.399049
640.203839	0.398692
640.548489	0.399258
640.893086	0.400300
641.237632	0.402276
641.582125	0.400915
641.926566	0.403049
642.270955	0.402517
642.615292	0.402836
642.959576	0.401690
643.303809	0.402862
643.647990	0.402376
643.992118	0.402678
644.336195	0.405917
644.680219	0.404551
645.024192	0.405096
645.368112	0.398873
645.711981	0.397470
646.055797	0.392895
646.399562	0.394861
646.743274	0.387827
647.086935	0.384814
647.430544	0.384947
647.774101	0.384123
648.117606	0.383419
648.461059	0.384443
648.804460	0.386591
649.147810	0.391461
649.491108	0.393599
649.834354	0.395026
650.177548	0.400077
650.520690	0.405447
650.863781	0.406714
651.206820	0.406214
651.549807	0.410677
651.892742	0.414666
652.235626	0.414445
652.578458	0.415336
652.921238	0.421785
653.263967	0.419091
653.606644	0.423183
653.949269	0.422915
654.291843	0.426475
654.634365	0.424344
654.976836	0.426314
655.319255	0.426727
655.661622	0.428437
656.003938	0.428986
656.346203	0.431104
656.688416	0.429468
657.030577	0.432516
657.372687	0.435204
657.714746	0.435922
658.056753	0.432249
658.398708	0.436377
658.740612	0.437978
659.082465	0.433818
659.424266	0.434195
659.766016	0.433627
660.107715	0.437138
660.449362	0.435365
660.790958	0.435931
661.132503	0.436920
661.473996	0.433726
661.815438	0.435456
662.156829	0.435615
662.498168	0.436283
662.839456	0.437736
663.180693	0.435164
663.521879	0.434910
663.863013	0.435957
664.204097	0.434586
664.545129	0.431686
664.886110	0.431924
665.227040	0.428997
665.567918	0.432199
665.908746	0.429213
666.249522	0.429505
666.590248	0.430569
666.930922	0.428614
667.271545	0.427514
667.612118	0.427358
667.952639	0.429373
668.293109	0.428059
668.633528	0.430545
668.973896	0.430078
669.314213	0.430719
669.654480	0.432336
669.994695	0.432831
670.334859	0.433330
670.674973	0.433642
671.015035	0.434167
671.355047	0.434149
671.695008	0.434367
672.034918	0.437086
672.374777	0.436269
672.714585	0.437191
673.054342	0.437458
673.394049	0.437438
673.733705	0.435288
674.073310	0.436364
674.412864	0.439331
674.752368	0.439602
675.091820	0.439900
675.431223	0.444636
675.770574	0.444068
676.109875	0.447776
676.449125	0.447181
676.788324	0.449306
677.127473	0.454413
677.466571	0.454900
677.805619	0.456579
678.144616	0.457342
678.483562	0.459407
678.822458	0.462044
679.161303	0.462580
679.500098	0.462850
679.838842	0.464659
680.177535	0.464069
680.516179	0.462066
680.854771	0.461553
681.193314	0.455082
681.531805	0.446576
681.870247	0.435340
682.208638	0.428004
682.546978	0.426700
682.885268	0.428197
683.223508	0.434612
683.561697	0.438658
683.899836	0.440923
684.237925	0.443978
684.575963	0.447144
684.913951	0.450622
685.251889	0.445537
685.589776	0.448130
685.927614	0.450067
686.265401	0.444704
686.603137	0.445896
686.940824	0.440220
687.278460	0.438440
687.616046	0.437396
687.953582	0.432723
688.291068	0.433804
688.628504	0.429324
688.965889	0.431645
689.303224	0.435048
689.640510	0.439224
689.977745	0.445246
690.314930	0.452783
690.652065	0.457425
690.989150	0.464846
691.326185	0.472118
691.663170	0.476539
692.000105	0.484110
692.336990	0.490741
692.673825	0.493428
693.010610	0.500252
693.347345	0.506143
693.684030	0.507446
694.020665	0.512167
694.357251	0.521111
694.693786	0.519863
695.030272	0.523492
695.366707	0.527728
695.703093	0.531685
696.039429	0.529229
696.375716	0.531112
696.711952	0.533641
697.048139	0.536124
697.384276	0.537791
697.720363	0.536282
698.056400	0.534990
698.392388	0.540911
698.728326	0.543802
699.064214	0.546048
699.400053	0.546817
699.735842	0.550737
700.071581	0.553785
700.407270	0.556922
700.742910	0.559604
701.078501	0.565869
701.414042	0.566924
701.749533	0.569498
702.084974	0.578646
702.420366	0.570781
702.755709	0.578394
703.091002	0.585622
703.426246	0.579466
703.761440	0.584757
704.096584	0.589669
704.431679	0.587001
704.766725	0.589222
705.101721	0.591878
705.436668	0.587148
705.771565	0.594415
706.106413	0.590243
706.441212	0.586173
706.775961	0.585119
707.110661	0.586857
707.445311	0.584019
707.779913	0.580843
708.114465	0.579422
708.448967	0.576506
708.783421	0.568369
709.117825	0.562664
709.452180	0.562602
709.786485	0.557215
710.120742	0.546043
710.454949	0.548251
710.789107	0.540516
711.123216	0.530682
711.457275	0.532511
711.791286	0.523967
712.125247	0.523176
712.459159	0.534010
712.793023	0.525350
713.126837	0.530344
713.460602	0.530858
713.794318	0.539684
714.127985	0.538098
714.461602	0.548827
714.795171	0.552318
715.128691	0.560563
715.462162	0.567597
715.795584	0.573392
716.128957	0.576413
716.462281	0.583070
716.795556	0.585726
717.128782	0.591883
717.461960	0.600851
717.795088	0.599919
718.128167	0.606142
718.461198	0.614509
718.794180	0.615177
719.127113	0.618110
719.459997	0.620903
719.792833	0.627392
720.125619	0.628808
720.458357	0.634719
720.791046	0.634481
721.123686	0.638109
721.456278	0.644944
721.788821	0.642060
722.121315	0.647342
722.453761	0.651045
722.786158	0.647895
723.118506	0.644606
723.450805	0.651736
723.783056	0.649187
724.115259	0.646599
724.447412	0.646556
724.779518	0.646778
725.111574	0.645703
725.443582	0.642002
725.775542	0.643298
726.107453	0.636146
726.439315	0.636070
726.771129	0.634759
727.102895	0.627312
727.434612	0.619708
727.766281	0.618487
728.097901	0.616987
728.429473	0.616459
728.760996	0.615376
729.092471	0.616098
729.423897	0.619433
729.755276	0.618253
730.086606	0.618214
730.417887	0.613206
730.749120	0.603302
731.080305	0.594493
731.411442	0.590120
731.742530	0.594331
732.073570	0.593955
732.404562	0.586477
732.735506	0.588019
733.066401	0.593105
733.397249	0.601709
733.728048	0.613268
734.058798	0.626533
734.389501	0.637497
734.720156	0.647858
735.050762	0.654937
735.381320	0.655710
735.711831	0.664802
736.042293	0.668782
736.372707	0.666271
736.703073	0.669815
737.033391	0.672194
737.363661	0.669326
737.693883	0.665245
738.024056	0.663047
738.354182	0.665045
738.684260	0.653113
739.014290	0.649997
739.344272	0.650132
739.674207	0.643240
740.004093	0.643273
740.333931	0.643817
740.663722	0.642833
740.993464	0.644427
741.323159	0.647575
741.652806	0.652166
741.982405	0.657268
742.311956	0.663117
742.641460	0.664223
742.970915	0.668165
743.300323	0.675448
743.629683	0.681788
743.958996	0.684799
744.288260	0.688440
744.617477	0.694366
744.946647	0.696597
745.275768	0.701816
745.604842	0.700879
745.933869	0.711626
746.262847	0.712627
746.591778	0.704795
746.920662	0.712612
747.249498	0.719100
747.578286	0.710646
747.907027	0.705965
748.235720	0.706506
748.564365	0.701880
748.892963	0.700876
749.221514	0.704166
749.550017	0.708116
749.878473	0.709225
750.206881	0.716501
750.535242	0.715860
750.863555	0.715592
751.191821	0.716905
751.520039	0.720274
751.848210	0.724889
752.176334	0.718381
752.504411	0.717176
752.832440	0.724713
753.160421	0.728955
753.488356	0.726473
753.816243	0.724065
754.144082	0.733058
754.471875	0.736904
754.799620	0.732296
755.127318	0.734082
755.454969	0.734970
755.782572	0.733837
756.110129	0.737708
756.437638	0.740531
756.765100	0.736851
757.092515	0.734227
757.419882	0.734441
757.747203	0.739337
758.074477	0.740008
758.401703	0.735052
758.728882	0.731856
759.056014	0.729374
759.383099	0.728827
759.710138	0.729518
760.037129	0.725218
760.364073	0.720083
760.690970	0.723241
761.017820	0.727386
761.344623	0.723425
761.671379	0.715238
761.998088	0.702785
762.324751	0.680455
762.651366	0.636877
762.977935	0.569207
763.304456	0.517310
763.630931	0.508016
763.957359	0.546728
764.283740	0.591434
764.610074	0.619184
764.936362	0.650947
765.262602	0.678375
765.588796	0.700196
765.914943	0.716435
766.241044	0.734728
766.567097	0.741353
766.893104	0.752462
767.219064	0.757807
767.544978	0.765898
767.870845	0.779346
768.196665	0.781644
768.522438	0.781951
768.848165	0.782019
769.173846	0.791021
769.499479	0.795763
769.825066	0.799900
770.150607	0.804467
770.476101	0.798911
770.801548	0.800447
771.126949	0.812875
771.452303	0.816641
771.777611	0.814985
772.102872	0.813629
772.428087	0.819625
772.753256	0.823321
773.078378	0.825541
773.403453	0.833426
773.728482	0.838116
774.053465	0.831823
774.378401	0.834619
774.703291	0.844181
775.028135	0.844622
775.352932	0.843937
775.677683	0.849441
776.002388	0.849516
776.327046	0.849216
776.651658	0.854519
776.976224	0.855972
777.300743	0.855028
777.625216	0.857527
777.949643	0.860425
778.274024	0.858223
778.598359	0.860893
778.922647	0.859368
779.246889	0.861812
779.571086	0.864233
779.895236	0.867580
780.219339	0.863980
780.543397	0.859921
780.867409	0.860476
781.191374	0.861071
781.515294	0.862488
781.839167	0.862144
782.162995	0.865118
782.486776	0.861727
782.810511	0.862715
783.134201	0.867295
783.457844	0.865683
783.781441	0.867540
784.104993	0.872961
784.428498	0.873363
784.751958	0.869908
785.075372	0.871087
785.398739	0.875296
785.722061	0.869806
786.045337	0.866967
786.368568	0.871704
786.691752	0.874357
787.014891	0.859444
787.337983	0.851080
787.661030	0.842901
787.984031	0.825391
788.306987	0.813289
788.629897	0.813601
788.952760	0.819235
789.275579	0.823446
789.598351	0.839635
789.921078	0.852117
790.243759	0.853803
790.566395	0.857887
790.888984	0.866221
791.211529	0.870697
791.534027	0.873942
791.856480	0.876775
792.178888	0.882205
792.501249	0.883592
792.823566	0.886530
793.145836	0.885394
793.468062	0.887703
793.790241	0.888672
794.112375	0.885736
794.434464	0.881629
794.756507	0.881394
795.078505	0.880137
795.400457	0.874177
795.722364	0.862318
796.044226	0.856085
796.366042	0.853067
796.687812	0.857341
797.009538	0.852852
797.331218	0.857278
797.652852	0.860917
797.974442	0.864665
798.295986	0.867539
798.617484	0.868573
798.938938	0.873264
799.260346	0.877611
799.581709	0.878891
799.903026	0.883280
800.224299	0.882949
800.545526	0.887293
800.866708	0.890041
801.187845	0.894459
801.508936	0.893336
801.829983	0.892334
802.150984	0.895841
802.471940	0.901108
802.792851	0.898829
803.113717	0.901471
803.434538	0.898664
803.755314	0.901800
804.076045	0.903132
804.396731	0.902826
804.717372	0.900940
805.037967	0.905730
805.358518	0.902561
805.679024	0.898935
805.999485	0.900161
806.319901	0.899839
806.640272	0.901274
806.960598	0.899055
807.280879	0.895690
807.601115	0.894828
807.921306	0.898419
808.241453	0.900004
808.561554	0.897121
808.881611	0.897290
809.201623	0.898666
809.521590	0.899058
809.841513	0.899827
810.161390	0.898629
810.481223	0.900070
810.801011	0.904173
811.120755	0.906000
811.440453	0.904473
811.760107	0.904005
812.079716	0.904483
812.399281	0.905549
812.718801	0.908963
813.038276	0.910141
813.357707	0.910091
813.677093	0.907894
813.996434	0.909875
814.315731	0.911130
814.634983	0.912389
814.954191	0.913556
815.273354	0.907537
815.592473	0.904343
815.911547	0.904355
816.230577	0.901449
816.549562	0.898666
816.868502	0.898527
817.187399	0.896577
817.506250	0.890606
817.825058	0.891224
818.143821	0.888459
818.462539	0.883929
818.781213	0.875991
819.099843	0.865219
819.418429	0.848490
819.736970	0.830930
820.055466	0.810464
820.373919	0.783540
820.692327	0.751020
821.010691	0.714692
821.329011	0.634228
821.647286	0.517538
821.965517	0.402511
822.283704	0.359544
822.601847	0.359811
822.919945	0.395713
823.237999	0.430320
823.556010	0.478806
823.873976	0.534837
824.191897	0.586842
824.509775	0.630524
824.827609	0.676088
825.145398	0.700678
825.463144	0.701230
825.780845	0.684414
826.098502	0.665920
826.416116	0.619707
826.733685	0.574602
827.051210	0.564821
827.368692	0.580323
827.686129	0.619450
828.003522	0.674051
828.320872	0.722191
828.638177	0.766673
828.955439	0.800472
829.272656	0.822540
829.589830	0.839279
829.906960	0.855675
830.224046	0.868339
830.541088	0.879302
830.858086	0.883747
831.175041	0.890088
831.491952	0.889389
831.808819	0.884788
832.125642	0.877307
832.442421	0.863990
832.759157	0.841998
833.075849	0.793514
833.392497	0.728268
833.709101	0.686996
834.025662	0.697356
834.342179	0.728057
834.658653	0.768936
834.975083	0.806491
835.291469	0.833160
835.607811	0.854947
835.924110	0.871982
836.240366	0.890819
836.556578	0.903611
836.872746	0.910442
837.188871	0.917923
837.504952	0.923817
837.820990	0.926434
838.136984	0.930193
838.452935	0.932889
838.768842	0.934711
839.084706	0.927960
839.400526	0.902757
839.716303	0.860416
840.032037	0.837445
840.347727	0.840950
840.663373	0.859857
840.978977	0.880892
841.294537	0.905149
841.610054	0.921002
841.925527	0.928062
842.240957	0.936950
842.556344	0.943562
842.871687	0.949536
843.186987	0.953209
843.502244	0.954193
843.817458	0.956173
844.132629	0.959305
844.447756	0.963816
844.762840	0.964423
845.077881	0.964730
845.392879	0.962880
845.707833	0.965485
846.022745	0.968673
846.337613	0.967505
846.652438	0.968973
846.967221	0.969811
847.281960	0.969887
847.596656	0.971030
847.911309	0.971773
848.225919	0.970859
848.540485	0.973172
848.855009	0.974632
849.169490	0.972767
849.483928	0.973220
849.798323	0.972563
850.112675	0.974497
850.426984	0.972657
850.741251	0.974248
851.055474	0.974943
851.369654	0.973065
851.683792	0.972374
851.997887	0.974114
852.311938	0.975821
852.625947	0.973754
852.939914	0.972085
853.253837	0.973229
853.567718	0.974367
853.881555	0.973795
854.195350	0.972848
854.509103	0.972694
854.822812	0.975831
855.136479	0.974381
855.450103	0.973488
855.763685	0.973677
856.077224	0.974174
856.390720	0.974728
856.704173	0.975061
857.017584	0.973318
857.330953	0.972679
857.644278	0.971059
857.957561	0.972127
858.270802	0.972936
858.584000	0.973275
858.897155	0.971683
859.210268	0.971109
859.523339	0.973661
859.836367	0.975590
860.149352	0.974240
860.462295	0.973787
860.775195	0.974974
861.088054	0.972294
861.400869	0.974308
861.713642	0.973899
862.026373	0.976215
862.339062	0.975812
862.651708	0.973744
862.964312	0.972873
863.276873	0.973317
863.589392	0.972962
863.901869	0.969244
864.214303	0.969285
864.526696	0.967717
864.839045	0.967104
865.151353	0.965445
865.463619	0.965798
865.775842	0.966694
866.088023	0.968002
866.400162	0.966306
866.712258	0.967747
867.024313	0.966794
867.336325	0.969095
867.648296	0.967258
867.960224	0.965997
868.272110	0.966517
868.583954	0.968587
868.895755	0.968581
869.207515	0.965479
869.519233	0.964060
869.830909	0.964354
870.142542	0.966284
870.454134	0.966215
870.765684	0.962004
871.077191	0.963239
871.388657	0.962090
871.700081	0.962809
872.011463	0.963880
872.322803	0.960661
872.634101	0.961441
872.945357	0.958071
873.256571	0.955555
873.567744	0.957267
873.878874	0.957406
874.189963	0.957208
874.501010	0.956577
874.812015	0.953336
875.122979	0.954049
875.433900	0.956101
875.744780	0.958067
876.055618	0.953829
876.366415	0.952745
876.677169	0.952141
876.987882	0.954584
877.298554	0.955704
877.609183	0.950574
877.919771	0.947793
878.230317	0.947047
878.540822	0.942889
878.851285	0.938022
879.161707	0.929401
879.472087	0.918498
879.782425	0.898859
880.092722	0.864470
880.402977	0.809721
880.713191	0.746439
881.023363	0.685130
881.333494	0.650876
881.643583	0.624004
881.953631	0.623894
882.263637	0.651673
882.573602	0.692880
882.883526	0.718519
883.193408	0.744141
883.503248	0.767263
883.813048	0.795676
884.122806	0.825944
884.432522	0.850643
884.742197	0.869754
885.051831	0.881520
885.361424	0.893112
885.670975	0.905728
885.980485	0.915583
886.289954	0.920882
886.599382	0.925673
886.908768	0.931251
887.218113	0.936584
887.527417	0.941682
887.836680	0.944656
888.145901	0.946317
888.455082	0.950721
888.764221	0.954144
889.073319	0.956312
889.382376	0.957303
889.691392	0.955685
890.000366	0.956303
890.309300	0.956639
890.618193	0.956732
890.927044	0.954725
891.235855	0.955133
891.544625	0.955616
891.853353	0.954748
892.162041	0.952170
892.470687	0.945795
892.779293	0.940631
893.087858	0.937028
893.396381	0.927464
893.704864	0.914126
894.013306	0.888830
894.321707	0.863321
894.630068	0.846360
894.938387	0.840515
895.246665	0.843883
895.554903	0.855625
895.863100	0.870671
896.171256	0.886946
896.479371	0.907528
896.787446	0.920954
897.095480	0.926796
897.403473	0.929754
897.711425	0.935515
898.019336	0.943369
898.327207	0.946925
898.635038	0.947155
898.942827	0.949222
899.250576	0.950760
899.558284	0.956539
899.865952	0.957248
900.173579	0.958417
900.481165	0.959394
900.788711	0.960998
901.096216	0.963810
901.403681	0.965526
901.711105	0.966670
902.018489	0.966300
902.325832	0.965958
902.633135	0.964323
902.940397	0.960698
903.247619	0.944903
903.554800	0.919545
903.861941	0.878870
904.169041	0.840637
904.476101	0.823218
904.783121	0.824098
905.090100	0.840700
905.397039	0.863201
905.703938	0.885713
906.010796	0.906543
906.317614	0.923963
906.624391	0.936786
906.931129	0.946987
907.237826	0.954462
907.544483	0.961684
907.851099	0.967090
908.157675	0.969324
908.464211	0.973393
908.770707	0.975273
909.077163	0.977825
909.383578	0.978707
909.689954	0.978949
909.996289	0.980688
910.302584	0.983134
910.608839	0.983124
910.915054	0.981878
911.221229	0.983511
911.527363	0.980231
911.833458	0.982857
912.139513	0.981521
912.445527	0.981989
912.751502	0.978394
913.057436	0.976019
913.363331	0.974381
913.669186	0.970359
913.975000	0.964911
914.280775	0.957624
914.586510	0.950203
914.892205	0.937169
915.197859	0.914698
915.503475	0.886787
915.809050	0.865842
916.114585	0.858868
916.420081	0.856904
916.725536	0.854021
917.030952	0.862071
917.336328	0.875479
917.641665	0.890848
917.946961	0.907436
918.252218	0.918813
918.557435	0.928731
918.862612	0.937432
919.167750	0.943611
919.472848	0.949738
919.777906	0.957126
920.082925	0.961565
920.387904	0.964430
920.692843	0.965032
920.997743	0.966791
921.302603	0.972025
921.607423	0.971417
921.912204	0.975983
922.216946	0.977552
922.521647	0.977370
922.826310	0.978697
923.130932	0.980819
923.435516	0.983040
923.740059	0.983490
924.044564	0.983899
924.349028	0.984444
924.653454	0.986642
924.957840	0.988037
925.262186	0.987568
925.566493	0.987924
925.870761	0.989557
926.174989	0.989961
926.479178	0.992640
926.783328	0.991950
927.087438	0.992786
927.391509	0.991833
927.695541	0.993169
927.999533	0.994321
928.303486	0.994395
928.607400	0.995274
928.911275	0.995578
929.215110	0.995368
929.518906	0.996124
929.822663	0.994769
930.126381	0.996027
930.430060	0.994669
930.733699	0.996301
931.037299	0.995683
931.340861	0.996002
931.644383	0.993327
931.947866	0.994908
932.251309	0.994968
932.554714	0.994243
932.858080	0.995268
933.161407	0.994238
933.464694	0.995424
933.767943	0.994691
934.071153	0.996233
934.374323	0.996457
934.677455	0.996041
934.980548	0.996048
935.283602	0.997183
935.586617	0.996022
935.889593	0.996810
936.192530	0.996476
936.495428	0.996848
936.798287	0.996880
937.101108	0.995566
937.403890	0.993215
937.706632	0.993425
938.009336	0.991524
938.312002	0.988834
938.614628	0.989231
938.917216	0.986986
939.219765	0.986614
939.522275	0.988113
939.824747	0.987940
940.127179	0.987833
940.429573	0.989888
940.731929	0.987431
941.034246	0.989059
941.336524	0.988672
941.638763	0.989634
941.940964	0.990262
942.243126	0.991897
942.545250	0.992127
942.847335	0.991387
943.149381	0.993495
943.451389	0.991863
943.753359	0.992909
944.055290	0.994870
944.357182	0.994950
944.659036	0.994767
944.960851	0.994880
945.262628	0.995023
945.564367	0.994268
945.866067	0.994694
946.167729	0.995677
946.469352	0.994935
946.770937	0.993918
947.072484	0.995975
947.373992	0.994629
947.675462	0.994711
947.976893	0.994693
948.278286	0.997191
948.579641	0.996414
948.880958	0.995698
949.182236	0.996396
949.483476	0.996294
949.784678	0.996913
950.085841	0.994802
950.386967	0.994598
950.688054	0.995653
950.989103	0.994088
951.290114	0.993959
951.591087	0.994460
951.892021	0.993501
952.192917	0.992908
952.493776	0.993085
952.794596	0.992824
953.095378	0.992625
953.396122	0.992048
953.696828	0.993954
953.997496	0.994663
954.298126	0.994420
954.598718	0.994670
954.899272	0.994968
955.199788	0.995718
955.500266	0.997299
955.800706	0.996519
956.101108	0.997577
956.401472	0.998592
956.701798	0.997693
957.002087	0.998290
957.302337	0.998244
957.602550	0.999339
957.902724	0.999441
958.202861	1.000366
958.502960	0.999787
958.803022	1.001507
959.103045	1.000489
959.403031	1.000699
959.702979	1.001664
960.002889	1.000504
960.302762	0.999880
960.602596	1.001571
960.902393	1.002031
961.202153	1.001141
961.501875	1.002040
961.801559	1.002232
962.101205	1.000540
962.400814	1.002052
962.700385	1.001574
962.999918	1.002823
963.299414	1.001691
963.598873	1.003870
963.898293	1.002887
964.197677	1.001955
964.497022	1.002380
964.796331	1.001533
965.095601	1.002579
965.394835	1.002036
965.694030	1.002623
965.993189	1.002046
966.292309	1.002256
966.591393	1.001561
966.890439	1.002371
967.189447	1.001788
967.488419	1.001206
967.787353	1.002444
968.086249	1.002888
968.385108	1.001470
968.683930	1.002473
968.982714	1.001960
969.281462	1.001979
969.580172	1.000941
969.878844	1.003179
970.177480	1.001386
970.476078	1.003010
970.774639	1.001846
971.073162	1.002078
971.371649	1.001965
971.670098	1.001148
971.968510	1.001946
972.266885	1.001972
972.565223	1.001798
972.863524	1.000450
973.161788	1.000239
973.460014	1.002694
973.758204	1.001410
974.056356	1.001014
974.354471	1.000009
974.652550	1.003373
974.950591	1.001933
975.248595	1.000876
975.546563	1.001349
975.844493	1.001638
976.142386	1.000488
976.440243	1.002203
976.738062	1.002026
977.035845	1.001474
977.333590	1.002478
977.631299	1.001971
977.928971	1.002631
978.226606	1.002520
978.524204	1.002228
978.821765	1.002426
979.119290	1.003128
979.416777	1.002355
979.714228	1.000888
980.011642	1.002809
980.309020	1.002383
980.606360	1.001969
980.903664	1.002403
981.200931	1.001202
981.498162	1.001369
981.795356	1.000540
982.092513	0.999464
982.389633	0.998981
982.686717	0.996725
982.983764	0.996237
983.280775	0.995991
983.577749	0.996079
983.874686	0.995718
984.171587	0.996607
984.468451	0.997900
984.765279	1.000228
985.062070	1.000266
985.358824	1.000393
985.655543	1.001406
985.952224	1.001906
986.248869	1.002245
986.545478	1.003018
986.842050	1.002261
987.138586	1.002245
987.435086	1.002141
987.731549	1.003947
988.027975	1.003420
988.324366	1.002286
988.620719	1.004048
988.917037	1.002932
989.213318	1.004217
989.509563	1.002812
989.805772	1.003552
990.101944	1.004221
990.398080	1.004259
990.694180	1.003709
990.990244	1.002080
991.286271	1.003128
991.582262	1.004654
991.878217	1.002801
992.174136	1.004453
992.470019	1.004418
992.765865	1.005095
993.061676	1.004550
993.357450	1.003313
993.653188	1.004193
993.948890	1.002828
994.244556	1.002842
994.540186	1.003642
994.835780	1.002538
995.131337	1.003930
995.426859	1.003122
995.722345	1.001937
996.017795	1.001649
996.313208	1.002449
996.608586	1.002426
996.903928	1.002894
997.199234	1.001193
997.494504	1.002445
997.789738	1.000696
998.084936	1.002860
998.380099	1.001810
998.675225	1.003112
998.970316	1.003606
999.265371	1.002468
999.560390	1.003091
999.855373	1.003280
1000.150320	1.003501
1000.445232	1.003399
1000.740108	1.003345
1001.034948	1.003644
1001.329752	1.004495
1001.624521	1.003915
1001.919254	1.003776
1002.213951	1.003335
1002.508613	1.002563
1002.803239	1.003490
1003.097829	1.004899
1003.392384	1.003563
1003.686903	1.003913
1003.981386	1.004627
1004.275834	1.004962
1004.570246	1.003057
1004.864623	1.005009
1005.158964	1.003264
1005.453270	1.004405
1005.747540	1.003530
1006.041775	1.004267
1006.335974	1.005099
1006.630138	1.003904
1006.924266	1.002806
1007.218359	1.003267
1007.512416	1.003645
1007.806438	1.003419
1008.100425	1.004194
1008.394376	1.004224
1008.688292	1.005062
1008.982172	1.003845
1009.276017	1.004381
1009.569827	1.005617
1009.863602	1.003050
1010.157341	1.004410
1010.451045	1.003476
1010.744714	1.005323
1011.038347	1.005437
1011.331945	1.002700
1011.625508	1.004780
1011.919036	1.003700
1012.212528	1.005300
1012.505986	1.004544
1012.799408	1.004734
1013.092795	1.003685
1013.386147	1.003444
1013.679464	1.005550
1013.972745	1.004049
1014.265992	1.003419
1014.559204	1.003727
1014.852380	1.004919
1015.145521	1.003497
1015.438628	1.003424
1015.731699	1.004366
1016.024736	1.005329
1016.317737	1.004105
1016.610703	1.005043
1016.903635	1.003871
1017.196531	1.003375
1017.489393	1.004681
1017.782219	1.003400
1018.075011	1.004493
1018.367768	1.004192
1018.660490	1.003817
1018.953177	1.003817
1019.245829	1.003817
