Dividing Wavelength (nm)	Counts (n)	Blue Motor Position (mm): 24.200000	Red Motor Position (mm): 0.000000	
326.493990	1.001250
326.888308	1.001250
327.282561	1.001250
327.676750	1.001945
328.070874	1.002673
328.464933	1.002429
328.858929	1.002763
329.252859	1.002113
329.646726	0.999899
330.040528	1.001443
330.434265	1.001453
330.827938	1.001222
331.221547	1.001637
331.615091	1.002128
332.008571	1.003728
332.401986	1.002278
332.795338	1.001036
333.188625	1.002312
333.581847	1.000589
333.975006	1.000478
334.368100	1.002217
334.761129	0.999851
335.154095	1.001080
335.546996	1.001125
335.939833	0.999631
336.332606	0.999954
336.725315	0.998429
337.117960	1.000262
337.510540	0.999070
337.903056	1.000028
338.295508	0.999546
338.687896	0.999310
339.080220	0.999123
339.472480	0.998775
339.864676	0.999737
340.256807	0.999604
340.648875	1.000183
341.040879	0.998808
341.432818	1.000180
341.824694	0.999290
342.216506	1.000511
342.608253	0.999677
342.999937	0.999094
343.391557	0.999650
343.783113	1.001002
344.174605	1.000113
344.566033	0.998709
344.957397	1.000422
345.348697	0.999683
345.739934	0.999551
346.131106	1.000317
346.522215	0.998128
346.913260	1.000423
347.304241	0.998505
347.695159	0.999994
348.086012	0.998853
348.476802	0.999666
348.867528	0.998755
349.258191	0.999294
349.648789	1.000295
350.039324	0.999789
350.429796	0.999346
350.820203	0.998084
351.210548	0.999246
351.600828	0.998311
351.991045	0.998228
352.381198	1.000065
352.771288	0.998668
353.161314	0.998379
353.551276	0.997562
353.941175	0.998324
354.331010	0.999687
354.720782	0.998405
355.110490	0.999947
355.500135	1.000033
355.889717	0.997896
356.279235	0.998796
356.668689	0.998095
357.058080	0.998348
357.447408	0.998548
357.836672	0.997899
358.225873	0.998312
358.615010	0.997669
359.004084	0.997722
359.393095	0.998484
359.782043	0.997683
360.170927	0.997358
360.559748	0.998651
360.948505	0.997723
361.337199	0.998126
361.725830	0.997874
362.114398	0.998858
362.502903	0.995893
362.891344	0.996728
363.279722	0.997358
363.668037	0.998452
364.056289	0.997222
364.444478	0.998771
364.832603	0.997442
365.220665	0.998316
365.608665	0.996843
365.996601	0.997004
366.384474	0.996993
366.772284	0.996777
367.160031	0.996197
367.547715	0.996738
367.935336	0.995328
368.322893	0.993946
368.710388	0.993881
369.097820	0.990498
369.485189	0.988859
369.872495	0.987016
370.259738	0.985647
370.646918	0.982585
371.034035	0.980282
371.421090	0.976850
371.808081	0.972359
372.195010	0.969003
372.581875	0.964291
372.968678	0.960532
373.355418	0.956049
373.742096	0.949595
374.128710	0.943935
374.515262	0.941166
374.901751	0.934244
375.288177	0.929754
375.674540	0.922411
376.060841	0.916302
376.447079	0.909550
376.833254	0.902638
377.219367	0.898561
377.605417	0.886828
377.991404	0.883730
378.377329	0.876990
378.763191	0.871209
379.148991	0.862125
379.534727	0.853778
379.920402	0.846570
380.306013	0.842350
380.691563	0.830086
381.077049	0.823553
381.462474	0.819139
381.847835	0.807747
382.233134	0.803125
382.618371	0.802917
383.003545	0.785609
383.388657	0.784409
383.773706	0.775369
384.158693	0.772249
384.543618	0.767467
384.928480	0.757378
385.313280	0.748290
385.698017	0.747856
386.082692	0.736166
386.467305	0.733887
386.851856	0.729014
387.236344	0.723149
387.620770	0.718203
388.005133	0.712404
388.389435	0.706219
388.773674	0.704454
389.157851	0.695649
389.541965	0.693689
389.926018	0.700164
390.310008	0.687091
390.693936	0.683423
391.077802	0.675687
391.461606	0.677870
391.845348	0.667410
392.229027	0.666219
392.612645	0.664681
392.996200	0.650633
393.379694	0.644337
393.763125	0.635017
394.146494	0.638572
394.529801	0.630032
394.913047	0.621680
395.296230	0.627837
395.679351	0.619093
396.062410	0.615136
396.445408	0.618849
396.828343	0.614281
397.211217	0.608521
397.594028	0.620908
397.976778	0.611510
398.359466	0.607972
398.742092	0.603226
399.124656	0.615754
399.507158	0.603388
399.889598	0.600508
400.271977	0.592459
400.654294	0.596066
401.036549	0.595125
401.418742	0.599701
401.800874	0.585004
402.182944	0.581496
402.564952	0.574230
402.946898	0.575569
403.328783	0.575833
403.710606	0.587736
404.092367	0.562455
404.474067	0.567787
404.855705	0.566513
405.237282	0.575492
405.618797	0.561569
406.000250	0.556929
406.381642	0.547101
406.762972	0.552697
407.144240	0.550827
407.525447	0.551016
407.906593	0.543875
408.287677	0.539848
408.668700	0.547423
409.049661	0.541408
409.430560	0.536422
409.811399	0.545594
410.192176	0.527005
410.572891	0.533922
410.953545	0.521822
411.334138	0.535058
411.714669	0.527970
412.095139	0.540051
412.475547	0.524683
412.855894	0.526458
413.236180	0.525979
413.616405	0.529988
413.996568	0.521428
414.376670	0.527772
414.756711	0.532503
415.136691	0.528526
415.516609	0.520093
415.896466	0.516836
416.276262	0.513736
416.655997	0.514830
417.035670	0.496587
417.415283	0.488166
417.794834	0.492501
418.174324	0.498200
418.553753	0.507081
418.933121	0.489467
419.312428	0.483717
419.691674	0.489170
420.070859	0.477100
420.449983	0.485353
420.829045	0.474332
421.208047	0.483549
421.586988	0.476204
421.965867	0.475087
422.344686	0.463965
422.723444	0.476744
423.102141	0.494192
423.480777	0.466967
423.859352	0.487536
424.237866	0.464406
424.616319	0.465405
424.994712	0.456092
425.373044	0.466771
425.751314	0.454550
426.129524	0.471157
426.507673	0.454528
426.885762	0.448087
427.263789	0.453443
427.641756	0.463276
428.019662	0.453545
428.397508	0.452738
428.775292	0.457017
429.153016	0.449277
429.530679	0.455434
429.908282	0.448780
430.285824	0.458926
430.663305	0.437249
431.040726	0.457509
431.418086	0.457818
431.795385	0.449873
432.172624	0.449377
432.549802	0.449490
432.926920	0.448516
433.303977	0.447622
433.680974	0.444815
434.057910	0.443319
434.434786	0.443071
434.811601	0.445823
435.188355	0.428022
435.565050	0.437296
435.941683	0.438529
436.318257	0.422470
436.694770	0.423248
437.071222	0.421542
437.447614	0.425949
437.823946	0.432744
438.200218	0.421995
438.576429	0.431653
438.952580	0.425029
439.328670	0.421158
439.704700	0.428180
440.080670	0.429108
440.456580	0.410190
440.832429	0.418657
441.208218	0.429490
441.583947	0.418822
441.959616	0.418016
442.335224	0.423413
442.710773	0.414031
443.086261	0.412154
443.461689	0.425692
443.837057	0.415768
444.212365	0.405689
444.587612	0.413043
444.962800	0.402671
445.337927	0.404206
445.712995	0.430450
446.088002	0.392387
446.462949	0.402970
446.837837	0.408028
447.212664	0.396569
447.587431	0.388227
447.962139	0.358823
448.336786	0.317569
448.711374	0.327753
449.085901	0.372721
449.460369	0.376559
449.834776	0.380231
450.209124	0.359433
450.583412	0.352249
450.957640	0.345623
451.331808	0.357035
451.705917	0.380405
452.079965	0.384994
452.453954	0.373505
452.827883	0.380696
453.201752	0.375182
453.575562	0.386680
453.949311	0.375488
454.323001	0.381782
454.696632	0.377746
455.070202	0.370645
455.443713	0.362864
455.817164	0.357980
456.190556	0.353798
456.563888	0.351153
456.937160	0.349280
457.310373	0.366792
457.683526	0.365903
458.056619	0.372015
458.429653	0.373200
458.802628	0.377599
459.175542	0.372023
459.548398	0.355551
459.921194	0.349105
460.293930	0.349845
460.666607	0.329200
461.039224	0.318491
461.411782	0.315049
461.784280	0.315149
462.156719	0.319821
462.529099	0.325307
462.901419	0.342271
463.273680	0.347483
463.645882	0.347610
464.018024	0.355406
464.390106	0.349620
464.762130	0.336068
465.134094	0.321813
465.505999	0.295495
465.877845	0.269706
466.249631	0.258309
466.621358	0.266199
466.993026	0.281008
467.364634	0.288464
467.736184	0.298928
468.107674	0.309921
468.479105	0.312037
468.850477	0.320389
469.221790	0.329150
469.593043	0.341051
469.964238	0.349134
470.335373	0.351120
470.706449	0.352354
471.077467	0.356323
471.448425	0.326156
471.819324	0.307524
472.190164	0.309357
472.560945	0.338822
472.931667	0.363430
473.302330	0.370474
473.672934	0.385799
474.043479	0.378745
474.413965	0.384789
474.784393	0.392694
475.154761	0.392483
475.525070	0.394533
475.895321	0.404620
476.265513	0.403987
476.635645	0.404733
477.005719	0.410877
477.375734	0.412725
477.745691	0.412437
478.115588	0.415617
478.485427	0.416043
478.855207	0.412056
479.224928	0.406127
479.594591	0.402480
479.964194	0.411350
480.333739	0.416336
480.703226	0.425561
481.072653	0.430663
481.442022	0.435871
481.811333	0.439728
482.180584	0.448698
482.549777	0.460468
482.918912	0.470003
483.287988	0.477039
483.657005	0.483217
484.025964	0.495899
484.394864	0.500743
484.763706	0.509373
485.132489	0.519651
485.501213	0.528008
485.869879	0.533534
486.238487	0.544707
486.607036	0.549384
486.975527	0.561094
487.343959	0.564972
487.712333	0.572840
488.080648	0.580817
488.448905	0.589187
488.817104	0.596844
489.185244	0.601607
489.553326	0.608310
489.921350	0.610276
490.289315	0.608179
490.657222	0.611523
491.025070	0.621641
491.392861	0.630016
491.760593	0.641629
492.128267	0.653547
492.495883	0.663080
492.863440	0.674571
493.230939	0.685146
493.598380	0.693481
493.965763	0.702723
494.333088	0.709028
494.700354	0.718256
495.067563	0.723595
495.434713	0.733656
495.801805	0.738777
496.168839	0.746207
496.535815	0.755082
496.902733	0.759945
497.269593	0.768328
497.636395	0.772296
498.003139	0.780365
498.369825	0.787315
498.736453	0.792945
499.103023	0.798967
499.469535	0.804953
499.835989	0.810985
500.202385	0.817094
500.568723	0.824116
500.935003	0.827152
501.301226	0.835789
501.667390	0.837793
502.033497	0.843383
502.399546	0.848996
502.765537	0.854414
503.131470	0.859848
503.497345	0.864834
503.863163	0.870295
504.228923	0.874643
504.594625	0.877943
504.960269	0.884045
505.325856	0.887752
505.691385	0.892514
506.056856	0.895583
506.422270	0.900125
506.787625	0.903841
507.152924	0.907702
507.518164	0.909941
507.883347	0.915048
508.248472	0.918338
508.613540	0.920789
508.978550	0.925041
509.343503	0.927627
509.708398	0.930960
510.073236	0.933720
510.438016	0.936158
510.802738	0.938070
511.167403	0.940632
511.532010	0.945219
511.896561	0.946536
512.261053	0.948114
512.625488	0.951286
512.989866	0.953516
513.354186	0.954987
513.718449	0.958193
514.082655	0.959050
514.446803	0.961795
514.810894	0.963723
515.174927	0.965315
515.538904	0.967223
515.902822	0.967683
516.266684	0.969860
516.630488	0.970914
516.994235	0.972535
517.357925	0.974220
517.721558	0.975086
518.085133	0.975842
518.448651	0.977765
518.812112	0.979387
519.175516	0.979138
519.538863	0.979508
519.902152	0.981672
520.265385	0.981258
520.628560	0.982035
520.991678	0.983297
521.354739	0.984740
521.717743	0.984849
522.080690	0.985273
522.443580	0.985779
522.806413	0.986113
523.169189	0.987247
523.531908	0.987507
523.894569	0.987586
524.257174	0.988251
524.619722	0.988242
524.982213	0.988843
525.344647	0.989275
525.707025	0.989028
526.069345	0.989358
526.431608	0.989671
526.793815	0.990648
527.155964	0.991019
527.518057	0.991268
527.880093	0.990241
528.242072	0.991003
528.603995	0.991412
528.965860	0.992154
529.327669	0.991904
529.689421	0.991401
530.051117	0.992417
530.412755	0.992576
530.774337	0.992071
531.135862	0.993713
531.497331	0.992429
531.858743	0.992951
532.220098	0.992322
532.581396	0.993865
532.942638	0.993603
533.303824	0.994148
533.664953	0.993426
534.026025	0.994261
534.387040	0.993713
534.747999	0.993076
535.108902	0.993475
535.469748	0.994239
535.830537	0.993996
536.191270	0.993841
536.551947	0.993632
536.912567	0.994050
537.273131	0.994682
537.633638	0.993852
537.994089	0.994583
538.354483	0.994840
538.714821	0.994368
539.075103	0.994799
539.435328	0.994644
539.795497	0.995114
540.155609	0.994208
540.515665	0.994751
540.875665	0.994533
541.235609	0.995100
541.595496	0.994198
541.955328	0.994823
542.315102	0.995032
542.674821	0.995112
543.034483	0.995061
543.394090	0.994077
543.753640	0.994530
544.113134	0.994697
544.472571	0.995482
544.831953	0.995230
545.191278	0.995641
545.550548	0.995026
545.909761	0.994495
546.268918	0.995939
546.628019	0.995046
546.987064	0.995057
547.346053	0.995264
547.704986	0.994955
548.063863	0.994621
548.422684	0.995422
548.781449	0.995022
549.140158	0.996130
549.498811	0.994721
549.857408	0.994698
550.215949	0.994435
550.574434	0.994394
550.932864	0.995364
551.291237	0.994636
551.649555	0.995607
552.007817	0.994782
552.366022	0.995119
552.724173	0.995302
553.082267	0.994408
553.440305	0.994864
553.798288	0.994267
554.156215	0.995748
554.514086	0.995763
554.871902	0.994453
555.229661	0.994687
555.587365	0.996260
555.945014	0.996472
556.302606	0.995048
556.660143	0.996100
557.017625	0.995561
557.375050	0.994999
557.732421	0.995398
558.089735	0.994570
558.446994	0.994717
558.804197	0.995391
559.161345	0.994113
559.518437	0.994900
559.875474	0.995283
560.232455	0.995512
560.589381	0.995470
560.946251	0.994499
561.303065	0.995684
561.659825	0.995265
562.016528	0.995953
562.373177	0.995534
562.729770	0.995424
563.086307	0.994402
563.442789	0.995072
563.799216	0.995140
564.155587	0.995626
564.511904	0.995750
564.868164	0.994719
565.224370	0.994805
565.580520	0.995061
565.936615	0.995149
566.292654	0.995244
566.648638	0.995861
567.004567	0.994901
567.360441	0.995564
567.716260	0.994841
568.072023	0.994869
568.427732	0.995307
568.783385	0.994845
569.138982	0.995082
569.494525	0.995098
569.850013	0.995331
570.205445	0.995391
570.560823	0.995264
570.916145	0.994962
571.271412	0.995481
571.626625	0.995399
571.981782	0.995177
572.336884	0.995795
572.691931	0.995443
573.046923	0.996000
573.401860	0.995543
573.756743	0.995327
574.111570	0.995571
574.466342	0.995525
574.821059	0.995268
575.175722	0.995372
575.530330	0.995019
575.884882	0.995434
576.239380	0.995421
576.593823	0.994909
576.948211	0.995387
577.302544	0.995448
577.656823	0.995606
578.011047	0.994755
578.365216	0.996277
578.719330	0.995598
579.073389	0.995137
579.427394	0.994746
579.781344	0.996128
580.135239	0.995018
580.489080	0.994771
580.842866	0.994714
581.196597	0.994740
581.550273	0.994392
581.903895	0.995054
582.257463	0.995680
582.610975	0.995461
582.964434	0.995636
583.317837	0.995710
583.671186	0.995416
584.024481	0.995026
584.377721	0.994880
584.730906	0.995487
585.084037	0.995558
585.437113	0.995718
585.790135	0.995532
586.143103	0.995112
586.496016	0.995136
586.848874	0.995410
587.201679	0.995064
587.554428	0.995208
587.907124	0.995594
588.259765	0.995767
588.612352	0.996018
588.964884	0.995705
589.317362	0.996013
589.669786	0.995391
590.022155	0.995292
590.374470	0.995093
590.726731	0.994551
591.078937	0.995809
591.431090	0.995654
591.783188	0.995154
592.135232	0.996403
592.487222	0.995144
592.839157	0.995339
593.191038	0.995019
593.542866	0.994962
593.894639	0.993859
594.246358	0.996001
594.598022	0.995194
594.949633	0.995611
595.301190	0.995659
595.652692	0.995046
596.004141	0.994566
596.355535	0.994559
596.706876	0.995542
597.058162	0.995088
597.409395	0.995651
597.760573	0.994961
598.111698	0.995184
598.462768	0.994408
598.813785	0.994488
599.164748	0.994866
599.515657	0.994702
599.866511	0.995574
600.217312	0.995998
600.568060	0.994558
600.918753	0.995926
601.269392	0.994750
601.619978	0.995427
601.970510	0.995070
602.320988	0.994814
602.671412	0.994456
603.021783	0.995406
603.372100	0.995885
603.722363	0.996235
604.072572	0.995246
604.422728	0.994523
604.772830	0.995665
605.122878	0.996178
605.472872	0.996175
605.822813	0.995047
606.172701	0.995513
606.522534	0.995222
606.872314	0.995668
607.222041	0.994861
607.571714	0.995292
607.921333	0.995111
608.270899	0.995166
608.620411	0.995091
608.969870	0.996087
609.319276	0.995300
609.668627	0.995708
610.017926	0.995853
610.367171	0.995159
610.716362	0.994646
611.065500	0.995344
611.414585	0.995539
611.763616	0.995510
612.112594	0.995063
612.461518	0.994075
612.810389	0.994647
613.159207	0.994596
613.507971	0.995017
613.856682	0.995925
614.205340	0.994060
614.553945	0.995265
614.902496	0.994603
615.250994	0.995247
615.599439	0.995653
615.947830	0.994388
616.296169	0.995108
616.644454	0.995175
616.992686	0.995171
617.340864	0.995860
617.688990	0.994607
618.037063	0.995518
618.385082	0.993920
618.733048	0.994024
619.080961	0.995104
619.428821	0.995626
619.776628	0.994424
620.124382	0.995540
620.472083	0.995282
620.819731	0.995772
621.167326	0.995378
621.514868	0.995804
621.862357	0.993958
622.209793	0.995461
622.557176	0.995602
622.904506	0.994617
623.251783	0.995178
623.599007	0.995836
623.946179	0.994777
624.293297	0.996523
624.640363	0.995915
624.987376	0.995104
625.334336	0.995107
625.681243	0.995148
626.028097	0.995175
626.374899	0.994975
626.721647	0.995894
627.068343	0.995322
627.414987	0.995520
627.761577	0.994596
628.108115	0.994839
628.454600	0.995346
628.801032	0.996369
629.147412	0.995589
629.493739	0.995991
629.840014	0.994323
630.186236	0.995743
630.532405	0.994897
630.878521	0.994645
631.224585	0.995520
631.570597	0.994714
631.916556	0.995246
632.262462	0.994234
632.608316	0.995577
632.954117	0.994694
633.299866	0.995469
633.645562	0.995393
633.991206	0.995660
634.336797	0.995164
634.682336	0.995989
635.027823	0.995638
635.373257	0.995246
635.718639	0.996057
636.063968	0.995534
636.409245	0.995065
636.754470	0.995674
637.099642	0.995889
637.444762	0.996208
637.789829	0.995496
638.134845	0.995530
638.479808	0.995078
638.824719	0.996119
639.169577	0.995574
639.514383	0.996535
639.859137	0.995751
640.203839	0.995888
640.548489	0.995106
640.893086	0.994840
641.237632	0.996195
641.582125	0.995734
641.926566	0.996313
642.270955	0.995312
642.615292	0.994931
642.959576	0.995739
643.303809	0.995846
643.647990	0.995512
643.992118	0.996453
644.336195	0.995665
644.680219	0.995694
645.024192	0.995402
645.368112	0.994982
645.711981	0.995631
646.055797	0.995234
646.399562	0.994801
646.743274	0.995465
647.086935	0.995018
647.430544	0.995233
647.774101	0.995317
648.117606	0.995408
648.461059	0.996338
648.804460	0.995672
649.147810	0.995068
649.491108	0.995303
649.834354	0.995807
650.177548	0.995873
650.520690	0.995441
650.863781	0.995060
651.206820	0.994867
651.549807	0.995425
651.892742	0.996105
652.235626	0.995236
652.578458	0.995921
652.921238	0.996214
653.263967	0.995780
653.606644	0.995369
653.949269	0.997178
654.291843	0.995308
654.634365	0.995873
654.976836	0.994605
655.319255	0.996866
655.661622	0.995292
656.003938	0.995886
656.346203	0.994720
656.688416	0.996403
657.030577	0.995446
657.372687	0.995834
657.714746	0.995427
658.056753	0.995563
658.398708	0.994785
658.740612	0.996653
659.082465	0.995735
659.424266	0.996045
659.766016	0.995267
660.107715	0.995516
660.449362	0.994502
660.790958	0.994454
661.132503	0.995581
661.473996	0.994978
661.815438	0.995659
662.156829	0.995960
662.498168	0.996689
662.839456	0.995030
663.180693	0.995340
663.521879	0.996022
663.863013	0.996526
664.204097	0.995026
664.545129	0.994857
664.886110	0.995521
665.227040	0.995274
665.567918	0.995242
665.908746	0.995244
666.249522	0.994222
666.590248	0.995107
666.930922	0.994979
667.271545	0.995898
667.612118	0.995678
667.952639	0.995572
668.293109	0.995077
668.633528	0.994726
668.973896	0.995460
669.314213	0.995182
669.654480	0.994843
669.994695	0.994044
670.334859	0.995456
670.674973	0.995167
671.015035	0.994989
671.355047	0.995682
671.695008	0.994765
672.034918	0.994444
672.374777	0.995189
672.714585	0.994273
673.054342	0.994915
673.394049	0.994969
673.733705	0.995295
674.073310	0.994567
674.412864	0.995036
674.752368	0.994672
675.091820	0.997073
675.431223	0.995676
675.770574	0.994420
676.109875	0.995823
676.449125	0.995117
676.788324	0.995111
677.127473	0.996010
677.466571	0.995584
677.805619	0.995525
678.144616	0.995727
678.483562	0.995554
678.822458	0.995673
679.161303	0.995166
679.500098	0.995212
679.838842	0.995750
680.177535	0.995590
680.516179	0.994519
680.854771	0.994789
681.193314	0.995194
681.531805	0.994812
681.870247	0.994870
682.208638	0.995025
682.546978	0.993995
682.885268	0.995361
683.223508	0.995333
683.561697	0.994940
683.899836	0.995069
684.237925	0.994299
684.575963	0.995059
684.913951	0.995134
685.251889	0.995272
685.589776	0.994889
685.927614	0.994395
686.265401	0.995115
686.603137	0.994968
686.940824	0.994253
687.278460	0.995540
687.616046	0.994580
687.953582	0.995002
688.291068	0.994894
688.628504	0.994945
688.965889	0.993592
689.303224	0.993895
689.640510	0.994674
689.977745	0.993831
690.314930	0.994322
690.652065	0.995170
690.989150	0.994117
691.326185	0.994637
691.663170	0.995404
692.000105	0.995220
692.336990	0.995522
692.673825	0.995206
693.010610	0.994684
693.347345	0.996117
693.684030	0.995373
694.020665	0.995028
694.357251	0.995438
694.693786	0.995295
695.030272	0.993573
695.366707	0.995502
695.703093	0.995333
696.039429	0.994859
696.375716	0.995559
696.711952	0.994962
697.048139	0.995871
697.384276	0.995645
697.720363	0.995192
698.056400	0.994210
698.392388	0.994584
698.728326	0.994603
699.064214	0.995904
699.400053	0.995183
699.735842	0.996201
700.071581	0.995247
700.407270	0.996193
700.742910	0.996078
701.078501	0.994713
701.414042	0.996297
701.749533	0.994778
702.084974	0.996802
702.420366	0.995701
702.755709	0.994493
703.091002	0.996212
703.426246	0.996495
703.761440	0.994907
704.096584	0.995289
704.431679	0.994756
704.766725	0.995100
705.101721	0.996251
705.436668	0.996030
705.771565	0.995121
706.106413	0.995190
706.441212	0.995030
706.775961	0.995379
707.110661	0.994495
707.445311	0.995949
707.779913	0.996190
708.114465	0.996277
708.448967	0.997009
708.783421	0.995831
709.117825	0.996218
709.452180	0.995642
709.786485	0.995482
710.120742	0.995027
710.454949	0.993888
710.789107	0.995183
711.123216	0.994249
711.457275	0.993775
711.791286	0.994670
712.125247	0.996050
712.459159	0.994360
712.793023	0.994117
713.126837	0.995464
713.460602	0.994262
713.794318	0.993524
714.127985	0.994148
714.461602	0.995782
714.795171	0.994128
715.128691	0.994314
715.462162	0.995421
715.795584	0.995010
716.128957	0.996023
716.462281	0.994959
716.795556	0.994765
717.128782	0.996579
717.461960	0.995431
717.795088	0.995128
718.128167	0.995922
718.461198	0.995553
718.794180	0.995083
719.127113	0.996402
719.459997	0.995312
719.792833	0.995616
720.125619	0.995296
720.458357	0.996180
720.791046	0.996307
721.123686	0.995154
721.456278	0.995337
721.788821	0.996127
722.121315	0.995786
722.453761	0.995808
722.786158	0.995757
723.118506	0.995830
723.450805	0.995495
723.783056	0.996846
724.115259	0.995577
724.447412	0.995826
724.779518	0.996067
725.111574	0.994856
725.443582	0.995683
725.775542	0.995260
726.107453	0.996035
726.439315	0.996326
726.771129	0.996285
727.102895	0.995238
727.434612	0.995659
727.766281	0.995564
728.097901	0.994927
728.429473	0.994828
728.760996	0.994415
729.092471	0.994881
729.423897	0.996101
729.755276	0.995334
730.086606	0.994696
730.417887	0.995763
730.749120	0.995654
731.080305	0.994807
731.411442	0.994119
731.742530	0.994242
732.073570	0.994442
732.404562	0.994638
732.735506	0.994953
733.066401	0.995117
733.397249	0.993988
733.728048	0.994515
734.058798	0.995203
734.389501	0.995426
734.720156	0.995574
735.050762	0.995848
735.381320	0.994338
735.711831	0.994712
736.042293	0.995399
736.372707	0.995967
736.703073	0.994138
737.033391	0.995457
737.363661	0.996132
737.693883	0.995337
738.024056	0.994351
738.354182	0.996049
738.684260	0.994572
739.014290	0.995474
739.344272	0.994197
739.674207	0.994563
740.004093	0.994830
740.333931	0.994869
740.663722	0.994736
740.993464	0.995241
741.323159	0.994876
741.652806	0.995486
741.982405	0.995884
742.311956	0.996595
742.641460	0.995330
742.970915	0.994824
743.300323	0.994458
743.629683	0.995879
743.958996	0.996428
744.288260	0.994733
744.617477	0.995835
744.946647	0.995012
745.275768	0.996101
745.604842	0.995665
745.933869	0.996119
746.262847	0.996191
746.591778	0.994301
746.920662	0.996319
747.249498	0.996638
747.578286	0.996635
747.907027	0.995940
748.235720	0.996105
748.564365	0.995985
748.892963	0.995369
749.221514	0.995655
749.550017	0.996040
749.878473	0.996609
750.206881	0.996508
750.535242	0.995990
750.863555	0.996237
751.191821	0.996175
751.520039	0.995293
751.848210	0.994242
752.176334	0.996322
752.504411	0.995782
752.832440	0.995138
753.160421	0.995611
753.488356	0.995693
753.816243	0.995486
754.144082	0.995020
754.471875	0.996456
754.799620	0.996724
755.127318	0.995616
755.454969	0.996698
755.782572	0.997113
756.110129	0.995597
756.437638	0.997075
756.765100	0.995873
757.092515	0.994884
757.419882	0.995937
757.747203	0.995924
758.074477	0.996520
758.401703	0.996655
758.728882	0.996009
759.056014	0.995480
759.383099	0.995536
759.710138	0.995488
760.037129	0.994930
760.364073	0.996556
760.690970	0.995744
761.017820	0.994331
761.344623	0.996372
761.671379	0.995656
761.998088	0.995939
762.324751	0.994765
762.651366	0.994989
762.977935	0.993295
763.304456	0.993295
763.630931	0.990700
763.957359	0.990607
764.283740	0.991860
764.610074	0.992963
764.936362	0.994499
765.262602	0.994174
765.588796	0.994655
765.914943	0.994543
766.241044	0.995262
766.567097	0.995478
766.893104	0.996479
767.219064	0.995418
767.544978	0.996389
767.870845	0.996690
768.196665	0.996217
768.522438	0.996817
768.848165	0.996089
769.173846	0.996328
769.499479	0.997817
769.825066	0.997361
770.150607	0.998643
770.476101	0.996697
770.801548	0.997549
771.126949	0.997728
771.452303	0.996405
771.777611	0.997614
772.102872	0.997235
772.428087	0.997120
772.753256	0.997069
773.078378	0.997133
773.403453	0.995612
773.728482	0.997479
774.053465	0.997500
774.378401	0.997189
774.703291	0.997999
775.028135	0.997686
775.352932	0.995878
775.677683	0.997823
776.002388	0.996663
776.327046	0.996864
776.651658	0.997617
776.976224	0.997550
777.300743	0.996186
777.625216	0.996174
777.949643	0.997697
778.274024	0.996753
778.598359	0.997559
778.922647	0.997596
779.246889	0.997081
779.571086	0.997854
779.895236	0.998092
780.219339	0.997941
780.543397	0.997204
780.867409	0.998164
781.191374	0.997990
781.515294	0.998193
781.839167	0.998851
782.162995	0.996968
782.486776	0.997608
782.810511	0.997143
783.134201	0.998193
783.457844	0.999254
783.781441	0.997227
784.104993	0.997882
784.428498	0.997654
784.751958	0.998526
785.075372	0.998660
785.398739	0.997710
785.722061	0.997569
786.045337	0.998169
786.368568	0.997835
786.691752	0.997658
787.014891	0.996903
787.337983	0.996111
787.661030	0.997071
787.984031	0.997279
788.306987	0.997291
788.629897	0.994755
788.952760	0.996950
789.275579	0.997218
789.598351	0.996460
789.921078	0.997857
790.243759	0.997672
790.566395	0.996457
790.888984	0.998888
791.211529	0.997793
791.534027	0.998010
791.856480	0.998075
792.178888	0.997156
792.501249	0.997675
792.823566	0.998207
793.145836	0.997809
793.468062	0.998015
793.790241	0.999097
794.112375	0.996917
794.434464	0.998159
794.756507	0.997419
795.078505	0.998294
795.400457	0.998323
795.722364	0.997729
796.044226	0.997249
796.366042	0.996385
796.687812	0.996030
797.009538	0.996493
797.331218	0.997497
797.652852	0.997890
797.974442	0.997147
798.295986	0.997203
798.617484	0.996293
798.938938	0.998064
799.260346	0.997666
799.581709	0.996536
799.903026	0.998954
800.224299	0.996811
800.545526	0.997043
800.866708	0.997489
801.187845	0.997561
801.508936	0.997896
801.829983	0.996833
802.150984	0.997466
802.471940	0.998027
802.792851	0.998097
803.113717	0.998842
803.434538	0.997164
803.755314	0.998892
804.076045	0.997325
804.396731	0.997265
804.717372	0.997674
805.037967	0.998134
805.358518	0.998045
805.679024	0.998473
805.999485	0.997575
806.319901	0.997948
806.640272	0.997574
806.960598	0.997642
807.280879	0.997173
807.601115	0.998653
807.921306	0.998836
808.241453	0.998433
808.561554	0.998325
808.881611	0.998586
809.201623	0.997789
809.521590	0.997584
809.841513	0.997841
810.161390	0.996670
810.481223	0.997155
810.801011	0.997954
811.120755	0.999339
811.440453	0.997316
811.760107	0.997973
812.079716	0.999085
812.399281	0.998518
812.718801	0.998476
813.038276	0.998287
813.357707	0.998913
813.677093	0.999313
813.996434	0.997912
814.315731	1.000097
814.634983	0.998688
814.954191	0.998123
815.273354	0.997133
815.592473	0.998064
815.911547	0.998107
816.230577	0.996987
816.549562	0.997909
816.868502	0.997534
817.187399	0.997655
817.506250	0.997374
817.825058	0.996764
818.143821	0.998188
818.462539	0.997190
818.781213	0.998820
819.099843	0.997502
819.418429	0.995741
819.736970	0.996707
820.055466	0.994699
820.373919	0.994410
820.692327	0.993011
821.010691	0.992398
821.329011	0.988683
821.647286	0.985687
821.965517	0.983707
822.283704	0.980345
822.601847	0.978764
822.919945	0.979297
823.237999	0.980845
823.556010	0.983294
823.873976	0.984419
824.191897	0.986292
824.509775	0.988576
824.827609	0.988547
825.145398	0.990681
825.463144	0.989678
825.780845	0.990014
826.098502	0.989989
826.416116	0.989272
826.733685	0.987525
827.051210	0.986261
827.368692	0.985758
827.686129	0.987570
828.003522	0.990061
828.320872	0.991442
828.638177	0.991783
828.955439	0.994595
829.272656	0.994784
829.589830	0.994809
829.906960	0.996441
830.224046	0.995165
830.541088	0.996753
830.858086	0.996188
831.175041	0.998259
831.491952	0.997607
831.808819	0.996449
832.125642	0.996435
832.442421	0.996876
832.759157	0.996532
833.075849	0.993940
833.392497	0.993528
833.709101	0.990708
834.025662	0.990292
834.342179	0.990829
834.658653	0.993895
834.975083	0.993918
835.291469	0.994630
835.607811	0.995889
835.924110	0.995939
836.240366	0.998006
836.556578	0.997168
836.872746	0.997414
837.188871	0.996720
837.504952	0.997825
837.820990	0.999195
838.136984	0.996799
838.452935	0.998463
838.768842	0.999329
839.084706	0.997582
839.400526	0.998782
839.716303	0.995717
840.032037	0.994705
840.347727	0.995128
840.663373	0.995050
840.978977	0.995402
841.294537	0.998224
841.610054	0.998083
841.925527	0.998489
842.240957	0.999073
842.556344	0.997903
842.871687	0.998856
843.186987	0.999075
843.502244	1.000065
843.817458	0.998285
844.132629	0.999366
844.447756	0.999086
844.762840	0.999785
845.077881	1.000636
845.392879	0.998760
845.707833	0.999306
846.022745	1.000299
846.337613	0.999629
846.652438	0.999043
846.967221	0.999976
847.281960	0.999392
847.596656	1.000426
847.911309	0.999259
848.225919	0.999483
848.540485	1.000410
848.855009	1.000439
849.169490	1.000134
849.483928	0.999933
849.798323	0.998266
850.112675	1.000715
850.426984	0.999394
850.741251	1.000204
851.055474	0.999853
851.369654	1.000429
851.683792	0.999594
851.997887	0.999356
852.311938	0.999080
852.625947	0.999420
852.939914	0.999440
853.253837	1.000684
853.567718	0.999925
853.881555	0.999379
854.195350	1.000310
854.509103	1.000522
854.822812	1.000141
855.136479	1.000511
855.450103	1.000830
855.763685	1.000750
856.077224	1.000340
856.390720	0.999764
856.704173	1.000587
857.017584	1.000000
857.330953	0.999852
857.644278	0.999773
857.957561	0.999314
858.270802	1.001306
858.584000	1.000016
858.897155	0.999081
859.210268	0.998998
859.523339	1.000339
859.836367	1.000153
860.149352	1.000086
860.462295	0.999790
860.775195	1.000315
861.088054	0.998410
861.400869	0.999896
861.713642	0.999237
862.026373	0.999587
862.339062	1.000096
862.651708	0.999886
862.964312	0.999877
863.276873	0.998172
863.589392	0.999496
863.901869	0.999448
864.214303	1.000484
864.526696	0.998842
864.839045	0.999691
865.151353	0.999706
865.463619	0.998437
865.775842	0.999409
866.088023	1.000476
866.400162	1.000058
866.712258	1.000067
867.024313	1.000784
867.336325	1.000021
867.648296	0.999287
867.960224	0.999951
868.272110	1.000117
868.583954	0.998832
868.895755	0.999399
869.207515	0.999404
869.519233	1.000139
869.830909	0.997812
870.142542	0.998732
870.454134	0.998470
870.765684	0.998871
871.077191	0.999051
871.388657	0.999246
871.700081	0.999695
872.011463	1.000043
872.322803	0.999229
872.634101	0.998066
872.945357	0.999042
873.256571	0.997835
873.567744	0.999967
873.878874	0.998153
874.189963	0.999249
874.501010	1.000161
874.812015	0.998563
875.122979	0.999815
875.433900	0.998257
875.744780	0.999575
876.055618	0.998635
876.366415	0.998519
876.677169	0.997763
876.987882	0.997986
877.298554	0.999091
877.609183	0.997913
877.919771	0.997725
878.230317	0.998606
878.540822	0.997443
878.851285	0.997763
879.161707	0.996293
879.472087	0.997859
879.782425	0.994774
880.092722	0.993620
880.402977	0.990745
880.713191	0.987597
881.023363	0.983795
881.333494	0.980706
881.643583	0.981582
881.953631	0.981482
882.263637	0.981168
882.573602	0.982806
882.883526	0.985491
883.193408	0.987335
883.503248	0.987863
883.813048	0.989297
884.122806	0.990819
884.432522	0.991569
884.742197	0.993781
885.051831	0.993917
885.361424	0.994827
885.670975	0.995757
885.980485	0.995716
886.289954	0.995994
886.599382	0.995896
886.908768	0.996831
887.218113	0.996725
887.527417	0.997093
887.836680	0.997971
888.145901	0.998301
888.455082	0.999486
888.764221	0.998664
889.073319	0.998249
889.382376	0.999264
889.691392	0.997755
890.000366	0.998397
890.309300	0.998468
890.618193	0.999080
890.927044	0.998436
891.235855	0.997672
891.544625	0.998204
891.853353	0.998244
892.162041	0.998028
892.470687	0.998933
892.779293	0.997054
893.087858	0.995519
893.396381	0.996651
893.704864	0.995712
894.013306	0.994322
894.321707	0.993207
894.630068	0.990552
894.938387	0.990003
895.246665	0.990804
895.554903	0.991389
895.863100	0.993750
896.171256	0.993339
896.479371	0.995212
896.787446	0.994982
897.095480	0.995294
897.403473	0.996199
897.711425	0.996783
898.019336	0.997157
898.327207	0.997482
898.635038	0.997266
898.942827	0.998527
899.250576	0.998180
899.558284	0.998476
899.865952	0.996943
900.173579	0.998337
900.481165	0.998797
900.788711	0.997334
901.096216	0.998785
901.403681	0.998766
901.711105	0.999232
902.018489	0.998515
902.325832	0.997472
902.633135	0.998032
902.940397	0.998570
903.247619	0.997110
903.554800	0.994621
903.861941	0.994367
904.169041	0.990776
904.476101	0.989238
904.783121	0.988214
905.090100	0.989877
905.397039	0.991124
905.703938	0.992293
906.010796	0.994126
906.317614	0.994813
906.624391	0.995975
906.931129	0.997600
907.237826	0.997150
907.544483	0.998436
907.851099	0.997683
908.157675	0.998376
908.464211	0.999308
908.770707	0.997792
909.077163	0.998693
909.383578	0.999342
909.689954	0.998337
909.996289	1.000154
910.302584	0.999354
910.608839	1.000884
910.915054	0.999497
911.221229	1.000741
911.527363	0.998696
911.833458	1.000164
912.139513	0.999375
912.445527	1.000347
912.751502	0.999506
913.057436	0.998295
913.363331	0.999043
913.669186	0.999592
913.975000	0.998363
914.280775	0.998083
914.586510	0.996905
914.892205	0.996597
915.197859	0.994362
915.503475	0.992217
915.809050	0.990933
916.114585	0.988798
916.420081	0.988882
916.725536	0.990262
917.030952	0.990770
917.336328	0.991324
917.641665	0.992032
917.946961	0.992444
918.252218	0.992656
918.557435	0.994095
918.862612	0.996487
919.167750	0.997229
919.472848	0.997875
919.777906	0.998504
920.082925	0.998516
920.387904	0.997290
920.692843	0.997202
920.997743	0.998194
921.302603	0.998996
921.607423	0.998121
921.912204	0.998775
922.216946	0.999495
922.521647	0.998499
922.826310	0.999839
923.130932	1.000044
923.435516	0.999083
923.740059	0.999843
924.044564	0.999058
924.349028	0.999686
924.653454	0.999941
924.957840	1.000135
925.262186	0.999318
925.566493	0.998829
925.870761	0.999855
926.174989	0.999864
926.479178	1.000384
926.783328	0.999621
927.087438	1.000068
927.391509	0.999358
927.695541	0.999289
927.999533	1.000890
928.303486	0.999902
928.607400	1.000614
928.911275	1.000886
929.215110	1.002372
929.518906	1.000451
929.822663	1.000620
930.126381	1.001178
930.430060	0.999825
930.733699	1.001513
931.037299	1.001192
931.340861	0.999650
931.644383	0.999736
931.947866	1.000975
932.251309	0.999835
932.554714	1.000501
932.858080	1.001487
933.161407	0.999747
933.464694	1.000729
933.767943	0.999668
934.071153	1.000658
934.374323	1.001447
934.677455	1.000521
934.980548	1.000028
935.283602	1.000396
935.586617	0.999877
935.889593	1.001590
936.192530	1.000401
936.495428	1.000965
936.798287	0.999912
937.101108	1.000219
937.403890	1.000596
937.706632	1.001416
938.009336	1.000226
938.312002	0.999717
938.614628	0.999788
938.917216	0.999759
939.219765	0.999173
939.522275	0.999940
939.824747	0.999327
940.127179	1.000560
940.429573	0.999458
940.731929	0.998698
941.034246	0.997980
941.336524	0.998100
941.638763	0.999100
941.940964	0.999741
942.243126	0.999286
942.545250	1.000316
942.847335	0.999702
943.149381	0.999658
943.451389	1.000108
943.753359	0.999531
944.055290	1.002104
944.357182	1.000267
944.659036	1.000434
944.960851	1.001002
945.262628	0.999684
945.564367	1.000518
945.866067	1.000549
946.167729	1.000046
946.469352	1.000302
946.770937	0.998655
947.072484	1.000599
947.373992	1.001108
947.675462	1.000017
947.976893	1.000030
948.278286	1.000627
948.579641	1.001788
948.880958	0.999105
949.182236	1.000255
949.483476	1.000679
949.784678	1.000458
950.085841	1.000591
950.386967	0.999677
950.688054	1.000036
950.989103	0.998548
951.290114	0.999084
951.591087	0.999973
951.892021	0.999818
952.192917	1.001058
952.493776	0.999847
952.794596	0.998555
953.095378	0.999687
953.396122	0.999601
953.696828	0.999919
953.997496	1.000522
954.298126	1.001076
954.598718	0.999729
954.899272	1.001497
955.199788	0.998981
955.500266	1.001333
955.800706	1.000664
956.101108	0.998389
956.401472	1.001920
956.701798	1.000231
957.002087	0.999998
957.302337	1.000198
957.602550	1.001163
957.902724	1.000162
958.202861	1.000788
958.502960	0.999937
958.803022	1.000913
959.103045	1.000474
959.403031	1.002122
959.702979	1.000510
960.002889	1.000362
960.302762	1.000479
960.602596	1.002010
960.902393	1.001989
961.202153	1.000636
961.501875	1.000281
961.801559	1.001397
962.101205	1.000903
962.400814	1.002103
962.700385	1.001477
962.999918	1.001792
963.299414	1.000975
963.598873	1.000444
963.898293	1.001578
964.197677	1.000819
964.497022	1.001227
964.796331	1.001024
965.095601	1.001525
965.394835	1.000829
965.694030	1.001133
965.993189	1.002629
966.292309	1.001664
966.591393	0.999947
966.890439	1.001001
967.189447	1.000832
967.488419	1.000112
967.787353	1.001061
968.086249	1.000563
968.385108	1.001260
968.683930	1.002135
968.982714	1.002340
969.281462	1.001605
969.580172	1.000693
969.878844	1.001668
970.177480	1.000983
970.476078	1.002479
970.774639	1.000956
971.073162	1.000270
971.371649	1.000284
971.670098	1.000353
971.968510	1.000978
972.266885	1.000159
972.565223	1.000985
972.863524	0.999060
973.161788	1.000824
973.460014	1.001987
973.758204	1.000046
974.056356	0.999782
974.354471	1.000332
974.652550	1.001128
974.950591	1.000085
975.248595	0.999808
975.546563	1.001373
975.844493	1.001634
976.142386	1.001073
976.440243	1.001756
976.738062	1.000731
977.035845	0.999695
977.333590	1.002799
977.631299	1.000013
977.928971	1.000941
978.226606	1.001137
978.524204	1.000602
978.821765	1.002198
979.119290	1.002775
979.416777	1.001524
979.714228	1.001280
980.011642	1.001023
980.309020	1.000845
980.606360	1.001280
980.903664	1.000860
981.200931	1.000009
981.498162	1.000892
981.795356	1.000308
982.092513	1.001319
982.389633	1.001556
982.686717	1.000676
982.983764	1.000823
983.280775	1.000061
983.577749	1.001957
983.874686	1.000241
984.171587	1.000238
984.468451	1.000443
984.765279	1.001436
985.062070	1.001808
985.358824	1.000665
985.655543	1.001065
985.952224	1.000579
986.248869	1.000131
986.545478	1.001816
986.842050	1.001032
987.138586	1.000416
987.435086	1.001016
987.731549	1.001634
988.027975	1.002080
988.324366	1.002250
988.620719	1.002298
988.917037	1.001150
989.213318	1.001105
989.509563	1.001950
989.805772	1.002158
990.101944	1.001816
990.398080	1.001984
990.694180	1.001696
990.990244	1.000066
991.286271	1.001139
991.582262	1.000532
991.878217	1.000224
992.174136	1.001444
992.470019	1.001937
992.765865	1.001653
993.061676	1.001950
993.357450	1.002085
993.653188	1.001920
993.948890	1.000946
994.244556	1.000857
994.540186	1.001476
994.835780	1.001747
995.131337	1.002595
995.426859	1.000416
995.722345	1.001883
996.017795	1.000854
996.313208	1.001722
996.608586	1.000961
996.903928	1.001619
997.199234	1.000440
997.494504	1.000811
997.789738	1.001577
998.084936	1.000733
998.380099	0.999836
998.675225	1.001722
998.970316	1.001471
999.265371	1.001008
999.560390	1.001929
999.855373	1.002782
1000.150320	1.000911
1000.445232	1.000494
1000.740108	1.000574
1001.034948	1.000426
1001.329752	1.002541
1001.624521	1.000981
1001.919254	1.001035
1002.213951	1.002026
1002.508613	1.001257
1002.803239	1.000725
1003.097829	1.002485
1003.392384	1.000845
1003.686903	1.001790
1003.981386	1.000938
1004.275834	1.002214
1004.570246	1.001388
1004.864623	1.001659
1005.158964	1.001644
1005.453270	1.001060
1005.747540	1.001649
1006.041775	1.001915
1006.335974	1.001043
1006.630138	1.001408
1006.924266	0.999683
1007.218359	1.000131
1007.512416	1.001821
1007.806438	1.000474
1008.100425	1.000955
1008.394376	1.001559
1008.688292	1.001458
1008.982172	1.001306
1009.276017	1.001568
1009.569827	1.001628
1009.863602	1.001254
1010.157341	1.002784
1010.451045	1.000398
1010.744714	1.003276
1011.038347	1.002145
1011.331945	1.000845
1011.625508	1.002035
1011.919036	1.000686
1012.212528	1.001889
1012.505986	1.000288
1012.799408	1.002096
1013.092795	1.000992
1013.386147	1.001543
1013.679464	1.002840
1013.972745	1.001865
1014.265992	1.001338
1014.559204	1.001221
1014.852380	1.000986
1015.145521	1.000614
1015.438628	1.001244
1015.731699	1.001374
1016.024736	1.001288
1016.317737	1.001935
1016.610703	1.001643
1016.903635	1.001397
1017.196531	1.001226
1017.489393	1.001216
1017.782219	1.000380
1018.075011	1.000753
1018.367768	1.000486
1018.660490	1.002167
1018.953177	1.002167
1019.245829	1.002167
