Dividing Wavelength (nm)	Counts (n)	Blue Motor Position (mm): 33.600000	Red Motor Position (mm): 0.000000	
326.493990	0.999755
326.888308	0.999755
327.282561	0.999755
327.676750	1.000907
328.070874	1.000910
328.464933	1.001844
328.858929	1.001857
329.252859	1.000298
329.646726	0.999711
330.040528	0.999670
330.434265	1.000918
330.827938	0.999781
331.221547	1.001135
331.615091	1.000899
332.008571	1.001531
332.401986	0.999912
332.795338	0.999978
333.188625	1.001120
333.581847	1.001410
333.975006	1.000111
334.368100	0.999804
334.761129	0.999731
335.154095	1.000017
335.546996	1.000308
335.939833	0.998027
336.332606	1.001386
336.725315	0.997858
337.117960	1.001125
337.510540	0.998838
337.903056	1.000530
338.295508	1.000602
338.687896	0.999915
339.080220	0.999422
339.472480	1.000089
339.864676	1.000340
340.256807	0.998668
340.648875	1.000729
341.040879	0.999655
341.432818	1.000607
341.824694	0.999636
342.216506	1.000345
342.608253	0.999175
342.999937	0.999735
343.391557	0.999854
343.783113	1.001473
344.174605	1.000238
344.566033	0.998305
344.957397	0.999426
345.348697	0.999731
345.739934	0.998488
346.131106	0.999349
346.522215	0.998422
346.913260	0.999649
347.304241	0.997723
347.695159	1.000519
348.086012	0.999066
348.476802	0.999595
348.867528	0.999114
349.258191	1.000786
349.648789	0.999577
350.039324	0.999532
350.429796	0.999381
350.820203	0.998023
351.210548	1.000272
351.600828	0.999511
351.991045	0.999094
352.381198	0.998698
352.771288	0.999208
353.161314	0.999579
353.551276	1.000221
353.941175	0.997234
354.331010	0.999857
354.720782	0.999023
355.110490	0.999305
355.500135	0.999530
355.889717	0.999060
356.279235	0.998836
356.668689	0.999511
357.058080	0.998694
357.447408	0.997279
357.836672	0.998993
358.225873	0.998229
358.615010	0.998295
359.004084	0.997209
359.393095	0.998421
359.782043	0.997847
360.170927	0.999291
360.559748	0.999190
360.948505	0.997906
361.337199	0.998367
361.725830	0.998364
362.114398	0.998138
362.502903	0.996663
362.891344	0.996609
363.279722	0.997262
363.668037	0.999456
364.056289	0.997006
364.444478	0.999712
364.832603	0.997558
365.220665	0.996974
365.608665	0.998367
365.996601	0.996471
366.384474	0.997359
366.772284	0.997895
367.160031	0.996453
367.547715	0.996096
367.935336	0.996947
368.322893	0.994167
368.710388	0.993519
369.097820	0.992081
369.485189	0.989641
369.872495	0.986545
370.259738	0.986355
370.646918	0.982741
371.034035	0.981571
371.421090	0.977920
371.808081	0.972196
372.195010	0.969776
372.581875	0.964875
372.968678	0.959892
373.355418	0.957271
373.742096	0.949224
374.128710	0.945267
374.515262	0.941659
374.901751	0.934341
375.288177	0.929977
375.674540	0.922439
376.060841	0.917082
376.447079	0.909879
376.833254	0.903694
377.219367	0.899605
377.605417	0.887014
377.991404	0.884563
378.377329	0.876672
378.763191	0.871882
379.148991	0.861981
379.534727	0.854830
379.920402	0.847228
380.306013	0.842794
380.691563	0.829410
381.077049	0.823457
381.462474	0.819273
381.847835	0.808727
382.233134	0.802956
382.618371	0.803594
383.003545	0.786350
383.388657	0.783888
383.773706	0.776989
384.158693	0.772508
384.543618	0.767245
384.928480	0.758684
385.313280	0.748032
385.698017	0.748776
386.082692	0.736616
386.467305	0.734610
386.851856	0.729612
387.236344	0.724182
387.620770	0.718861
388.005133	0.713316
388.389435	0.707521
388.773674	0.704912
389.157851	0.696670
389.541965	0.694473
389.926018	0.701484
390.310008	0.687163
390.693936	0.685032
391.077802	0.677060
391.461606	0.678735
391.845348	0.667873
392.229027	0.666571
392.612645	0.665665
392.996200	0.652865
393.379694	0.645841
393.763125	0.635793
394.146494	0.641197
394.529801	0.630896
394.913047	0.623234
395.296230	0.629296
395.679351	0.619709
396.062410	0.617382
396.445408	0.619486
396.828343	0.615314
397.211217	0.610495
397.594028	0.622763
397.976778	0.613139
398.359466	0.609171
398.742092	0.605046
399.124656	0.617478
399.507158	0.604511
399.889598	0.602621
400.271977	0.593842
400.654294	0.598105
401.036549	0.597064
401.418742	0.600538
401.800874	0.586909
402.182944	0.583769
402.564952	0.575630
402.946898	0.577017
403.328783	0.578374
403.710606	0.589503
404.092367	0.564492
404.474067	0.569209
404.855705	0.568838
405.237282	0.577568
405.618797	0.563772
406.000250	0.559769
406.381642	0.549485
406.762972	0.554625
407.144240	0.554584
407.525447	0.553949
407.906593	0.547436
408.287677	0.543212
408.668700	0.552039
409.049661	0.546996
409.430560	0.542990
409.811399	0.552155
410.192176	0.535303
410.572891	0.543867
410.953545	0.533899
411.334138	0.548220
411.714669	0.542447
412.095139	0.556111
412.475547	0.542662
412.855894	0.546666
413.236180	0.548562
413.616405	0.555983
413.996568	0.549200
414.376670	0.558382
414.756711	0.565778
415.136691	0.565766
415.516609	0.561190
415.896466	0.561465
416.276262	0.561534
416.655997	0.567633
417.035670	0.554917
417.415283	0.552008
417.794834	0.561426
418.174324	0.570578
418.553753	0.583316
418.933121	0.573147
419.312428	0.573551
419.691674	0.584327
420.070859	0.580358
420.449983	0.592945
420.829045	0.591080
421.208047	0.604519
421.586988	0.605774
421.965867	0.612285
422.344686	0.612679
422.723444	0.628274
423.102141	0.647321
423.480777	0.635267
423.859352	0.658776
424.237866	0.651190
424.616319	0.659563
424.994712	0.661325
425.373044	0.677347
425.751314	0.678677
426.129524	0.697315
426.507673	0.695710
426.885762	0.699717
427.263789	0.713322
427.641756	0.726531
428.019662	0.730840
428.397508	0.739218
428.775292	0.751700
429.153016	0.755521
429.530679	0.767196
429.908282	0.773641
430.285824	0.785125
430.663305	0.785994
431.040726	0.802942
431.418086	0.811144
431.795385	0.816472
432.172624	0.824176
432.549802	0.831342
432.926920	0.839887
433.303977	0.846509
433.680974	0.853710
434.057910	0.860428
434.434786	0.866715
434.811601	0.874515
435.188355	0.878023
435.565050	0.886478
435.941683	0.892221
436.318257	0.895197
436.694770	0.902773
437.071222	0.908580
437.447614	0.915062
437.823946	0.921242
438.200218	0.924091
438.576429	0.930256
438.952580	0.935736
439.328670	0.938240
439.704700	0.943096
440.080670	0.947966
440.456580	0.951067
440.832429	0.954938
441.208218	0.959303
441.583947	0.961754
441.959616	0.964806
442.335224	0.968231
442.710773	0.970620
443.086261	0.972670
443.461689	0.974378
443.837057	0.976951
444.212365	0.979221
444.587612	0.981331
444.962800	0.982113
445.337927	0.984690
445.712995	0.986522
446.088002	0.986157
446.462949	0.988090
446.837837	0.989968
447.212664	0.989925
447.587431	0.990999
447.962139	0.991379
448.336786	0.990336
448.711374	0.990829
449.085901	0.993092
449.460369	0.994336
449.834776	0.993779
450.209124	0.994830
450.583412	0.995323
450.957640	0.993809
451.331808	0.995980
451.705917	0.995274
452.079965	0.995440
452.453954	0.997412
452.827883	0.996683
453.201752	0.997115
453.575562	0.996394
453.949311	0.997527
454.323001	0.997106
454.696632	0.996930
455.070202	0.997299
455.443713	0.997493
455.817164	0.997249
456.190556	0.997488
456.563888	0.997715
456.937160	0.997705
457.310373	0.997149
457.683526	0.997632
458.056619	0.998236
458.429653	0.997601
458.802628	0.997991
459.175542	0.997045
459.548398	0.997710
459.921194	0.998373
460.293930	0.998347
460.666607	0.998431
461.039224	0.997894
461.411782	0.997958
461.784280	0.998178
462.156719	0.998707
462.529099	0.998132
462.901419	0.997673
463.273680	0.997212
463.645882	0.997279
464.018024	0.997858
464.390106	0.997935
464.762130	0.997292
465.134094	0.998586
465.505999	0.998278
465.877845	0.997431
466.249631	0.997832
466.621358	0.997469
466.993026	0.997583
467.364634	0.997488
467.736184	0.997816
468.107674	0.998326
468.479105	0.997676
468.850477	0.998143
469.221790	0.997137
469.593043	0.997365
469.964238	0.998048
470.335373	0.997295
470.706449	0.997830
471.077467	0.997739
471.448425	0.997948
471.819324	0.997216
472.190164	0.996977
472.560945	0.997372
472.931667	0.997442
473.302330	0.998123
473.672934	0.997775
474.043479	0.997924
474.413965	0.997838
474.784393	0.996949
475.154761	0.996753
475.525070	0.997386
475.895321	0.997397
476.265513	0.997989
476.635645	0.997291
477.005719	0.997333
477.375734	0.996948
477.745691	0.996851
478.115588	0.997231
478.485427	0.996955
478.855207	0.997365
479.224928	0.997220
479.594591	0.997581
479.964194	0.997170
480.333739	0.996974
480.703226	0.996591
481.072653	0.997071
481.442022	0.997407
481.811333	0.997647
482.180584	0.996611
482.549777	0.996853
482.918912	0.997377
483.287988	0.997424
483.657005	0.996889
484.025964	0.997005
484.394864	0.997200
484.763706	0.996563
485.132489	0.997415
485.501213	0.996876
485.869879	0.997221
486.238487	0.996166
486.607036	0.997515
486.975527	0.997172
487.343959	0.996473
487.712333	0.997370
488.080648	0.996666
488.448905	0.997525
488.817104	0.996777
489.185244	0.997408
489.553326	0.997445
489.921350	0.997354
490.289315	0.997657
490.657222	0.996815
491.025070	0.997686
491.392861	0.997052
491.760593	0.997709
492.128267	0.997766
492.495883	0.996547
492.863440	0.997606
493.230939	0.997341
493.598380	0.998087
493.965763	0.998106
494.333088	0.996378
494.700354	0.996923
495.067563	0.997142
495.434713	0.997815
495.801805	0.997104
496.168839	0.997887
496.535815	0.997576
496.902733	0.997418
497.269593	0.996891
497.636395	0.996705
498.003139	0.997474
498.369825	0.998456
498.736453	0.997198
499.103023	0.997707
499.469535	0.997911
499.835989	0.997515
500.202385	0.997302
500.568723	0.997631
500.935003	0.997368
501.301226	0.997414
501.667390	0.996740
502.033497	0.997746
502.399546	0.997305
502.765537	0.997584
503.131470	0.997851
503.497345	0.997824
503.863163	0.997470
504.228923	0.997700
504.594625	0.997330
504.960269	0.997691
505.325856	0.998375
505.691385	0.997699
506.056856	0.997802
506.422270	0.997606
506.787625	0.998491
507.152924	0.997794
507.518164	0.997537
507.883347	0.997596
508.248472	0.997554
508.613540	0.996981
508.978550	0.997251
509.343503	0.997428
509.708398	0.998167
510.073236	0.997523
510.438016	0.996872
510.802738	0.997541
511.167403	0.997277
511.532010	0.997648
511.896561	0.997171
512.261053	0.997032
512.625488	0.996974
512.989866	0.997118
513.354186	0.997268
513.718449	0.997336
514.082655	0.997462
514.446803	0.997368
514.810894	0.997937
515.174927	0.997820
515.538904	0.997920
515.902822	0.997456
516.266684	0.997954
516.630488	0.997573
516.994235	0.997102
517.357925	0.997872
517.721558	0.997616
518.085133	0.996978
518.448651	0.997180
518.812112	0.998155
519.175516	0.997387
519.538863	0.997033
519.902152	0.997999
520.265385	0.997970
520.628560	0.996653
520.991678	0.997741
521.354739	0.998014
521.717743	0.997213
522.080690	0.997240
522.443580	0.997289
522.806413	0.996912
523.169189	0.998561
523.531908	0.996627
523.894569	0.997392
524.257174	0.997310
524.619722	0.997338
524.982213	0.997563
525.344647	0.997043
525.707025	0.996784
526.069345	0.996789
526.431608	0.997898
526.793815	0.997856
527.155964	0.997445
527.518057	0.997716
527.880093	0.997673
528.242072	0.997384
528.603995	0.997334
528.965860	0.997470
529.327669	0.997902
529.689421	0.997238
530.051117	0.997629
530.412755	0.997775
530.774337	0.997322
531.135862	0.997973
531.497331	0.997315
531.858743	0.998196
532.220098	0.997310
532.581396	0.997360
532.942638	0.997883
533.303824	0.997844
533.664953	0.996882
534.026025	0.998212
534.387040	0.997216
534.747999	0.997071
535.108902	0.997171
535.469748	0.998202
535.830537	0.998023
536.191270	0.997267
536.551947	0.997155
536.912567	0.997943
537.273131	0.997720
537.633638	0.997332
537.994089	0.997421
538.354483	0.997704
538.714821	0.997745
539.075103	0.997959
539.435328	0.997527
539.795497	0.997987
540.155609	0.997689
540.515665	0.997956
540.875665	0.997565
541.235609	0.997948
541.595496	0.997187
541.955328	0.997200
542.315102	0.997791
542.674821	0.997587
543.034483	0.997682
543.394090	0.996250
543.753640	0.997387
544.113134	0.997004
544.472571	0.997468
544.831953	0.997640
545.191278	0.998277
545.550548	0.997308
545.909761	0.996795
546.268918	0.998362
546.628019	0.997796
546.987064	0.997711
547.346053	0.997488
547.704986	0.997178
548.063863	0.997036
548.422684	0.997639
548.781449	0.997714
549.140158	0.997542
549.498811	0.997206
549.857408	0.997266
550.215949	0.997155
550.574434	0.997290
550.932864	0.997247
551.291237	0.997095
551.649555	0.997997
552.007817	0.997420
552.366022	0.998335
552.724173	0.997710
553.082267	0.997384
553.440305	0.997487
553.798288	0.996156
554.156215	0.997398
554.514086	0.997015
554.871902	0.997000
555.229661	0.996699
555.587365	0.997656
555.945014	0.997888
556.302606	0.997052
556.660143	0.997326
557.017625	0.997805
557.375050	0.996987
557.732421	0.997403
558.089735	0.997361
558.446994	0.996968
558.804197	0.997685
559.161345	0.997128
559.518437	0.997139
559.875474	0.997417
560.232455	0.996993
560.589381	0.997606
560.946251	0.997187
561.303065	0.997744
561.659825	0.997397
562.016528	0.998051
562.373177	0.997759
562.729770	0.996651
563.086307	0.996549
563.442789	0.997239
563.799216	0.997489
564.155587	0.997467
564.511904	0.998285
564.868164	0.995766
565.224370	0.996911
565.580520	0.997393
565.936615	0.996948
566.292654	0.997430
566.648638	0.997591
567.004567	0.996963
567.360441	0.997850
567.716260	0.997652
568.072023	0.996784
568.427732	0.997813
568.783385	0.997233
569.138982	0.997455
569.494525	0.997203
569.850013	0.997907
570.205445	0.997868
570.560823	0.997946
570.916145	0.996649
571.271412	0.997644
571.626625	0.997805
571.981782	0.997688
572.336884	0.997454
572.691931	0.997230
573.046923	0.997916
573.401860	0.996857
573.756743	0.996990
574.111570	0.997455
574.466342	0.998528
574.821059	0.997872
575.175722	0.997534
575.530330	0.997339
575.884882	0.997520
576.239380	0.997958
576.593823	0.997415
576.948211	0.997986
577.302544	0.997174
577.656823	0.997342
578.011047	0.997201
578.365216	0.998551
578.719330	0.997648
579.073389	0.997384
579.427394	0.997147
579.781344	0.997596
580.135239	0.996568
580.489080	0.997637
580.842866	0.997398
581.196597	0.996593
581.550273	0.997181
581.903895	0.997816
582.257463	0.997734
582.610975	0.996993
582.964434	0.997155
583.317837	0.997748
583.671186	0.997808
584.024481	0.996868
584.377721	0.996996
584.730906	0.997263
585.084037	0.998395
585.437113	0.997950
585.790135	0.997704
586.143103	0.997539
586.496016	0.998316
586.848874	0.997549
587.201679	0.997085
587.554428	0.997333
587.907124	0.997812
588.259765	0.997863
588.612352	0.998260
588.964884	0.997387
589.317362	0.997109
589.669786	0.996703
590.022155	0.997175
590.374470	0.997532
590.726731	0.996234
591.078937	0.997212
591.431090	0.998147
591.783188	0.997161
592.135232	0.997801
592.487222	0.997548
592.839157	0.997580
593.191038	0.997761
593.542866	0.997275
593.894639	0.996612
594.246358	0.997067
594.598022	0.997199
594.949633	0.997795
595.301190	0.997047
595.652692	0.997278
596.004141	0.996814
596.355535	0.997268
596.706876	0.998124
597.058162	0.997848
597.409395	0.997295
597.760573	0.997618
598.111698	0.996798
598.462768	0.996839
598.813785	0.996306
599.164748	0.997455
599.515657	0.997112
599.866511	0.997533
600.217312	0.997434
600.568060	0.997143
600.918753	0.997545
601.269392	0.997700
601.619978	0.997032
601.970510	0.997527
602.320988	0.996608
602.671412	0.997340
603.021783	0.997299
603.372100	0.997383
603.722363	0.997336
604.072572	0.997252
604.422728	0.997250
604.772830	0.997037
605.122878	0.997673
605.472872	0.998156
605.822813	0.996642
606.172701	0.997682
606.522534	0.996862
606.872314	0.997605
607.222041	0.997608
607.571714	0.996970
607.921333	0.997253
608.270899	0.997216
608.620411	0.997700
608.969870	0.998126
609.319276	0.997523
609.668627	0.998385
610.017926	0.997450
610.367171	0.997659
610.716362	0.997350
611.065500	0.997192
611.414585	0.997311
611.763616	0.996829
612.112594	0.997633
612.461518	0.996166
612.810389	0.997408
613.159207	0.997407
613.507971	0.996561
613.856682	0.998334
614.205340	0.996414
614.553945	0.997281
614.902496	0.997135
615.250994	0.997844
615.599439	0.997212
615.947830	0.996721
616.296169	0.997114
616.644454	0.997306
616.992686	0.997383
617.340864	0.997826
617.688990	0.997008
618.037063	0.997371
618.385082	0.997301
618.733048	0.997183
619.080961	0.996795
619.428821	0.997966
619.776628	0.996691
620.124382	0.998460
620.472083	0.997888
620.819731	0.998919
621.167326	0.997865
621.514868	0.997420
621.862357	0.996964
622.209793	0.997187
622.557176	0.996882
622.904506	0.996964
623.251783	0.997636
623.599007	0.997179
623.946179	0.996728
624.293297	0.997677
624.640363	0.997953
624.987376	0.996675
625.334336	0.997082
625.681243	0.997543
626.028097	0.998331
626.374899	0.997221
626.721647	0.997289
627.068343	0.997536
627.414987	0.997308
627.761577	0.996823
628.108115	0.997548
628.454600	0.998535
628.801032	0.998110
629.147412	0.997886
629.493739	0.997685
629.840014	0.997105
630.186236	0.997256
630.532405	0.997729
630.878521	0.997046
631.224585	0.997451
631.570597	0.996686
631.916556	0.997447
632.262462	0.996463
632.608316	0.997547
632.954117	0.996707
633.299866	0.997452
633.645562	0.996940
633.991206	0.997642
634.336797	0.997167
634.682336	0.998219
635.027823	0.997178
635.373257	0.997349
635.718639	0.997283
636.063968	0.996855
636.409245	0.996887
636.754470	0.997588
637.099642	0.997579
637.444762	0.997297
637.789829	0.996921
638.134845	0.996549
638.479808	0.997294
638.824719	0.998076
639.169577	0.997577
639.514383	0.998062
639.859137	0.997512
640.203839	0.997611
640.548489	0.997831
640.893086	0.997161
641.237632	0.997516
641.582125	0.997851
641.926566	0.998345
642.270955	0.997809
642.615292	0.997045
642.959576	0.997793
643.303809	0.997449
643.647990	0.997812
643.992118	0.997991
644.336195	0.997808
644.680219	0.997819
645.024192	0.997806
645.368112	0.997759
645.711981	0.997290
646.055797	0.997203
646.399562	0.996811
646.743274	0.997980
647.086935	0.996679
647.430544	0.996585
647.774101	0.996665
648.117606	0.997986
648.461059	0.998024
648.804460	0.997506
649.147810	0.997221
649.491108	0.996863
649.834354	0.997782
650.177548	0.997853
650.520690	0.997361
650.863781	0.996683
651.206820	0.997520
651.549807	0.996682
651.892742	0.997896
652.235626	0.997985
652.578458	0.997707
652.921238	0.997301
653.263967	0.996946
653.606644	0.996818
653.949269	0.997503
654.291843	0.997424
654.634365	0.998030
654.976836	0.997221
655.319255	0.998377
655.661622	0.997402
656.003938	0.996998
656.346203	0.996912
656.688416	0.998474
657.030577	0.997426
657.372687	0.997261
657.714746	0.996937
658.056753	0.997257
658.398708	0.997151
658.740612	0.998131
659.082465	0.996797
659.424266	0.996931
659.766016	0.996705
660.107715	0.997369
660.449362	0.997268
660.790958	0.996979
661.132503	0.998531
661.473996	0.997108
661.815438	0.998030
662.156829	0.997553
662.498168	0.997976
662.839456	0.997132
663.180693	0.997525
663.521879	0.997175
663.863013	0.998119
664.204097	0.996647
664.545129	0.997125
664.886110	0.996574
665.227040	0.997140
665.567918	0.996604
665.908746	0.996783
666.249522	0.996380
666.590248	0.996876
666.930922	0.997199
667.271545	0.997376
667.612118	0.996863
667.952639	0.997218
668.293109	0.997396
668.633528	0.996974
668.973896	0.997718
669.314213	0.996561
669.654480	0.997245
669.994695	0.996404
670.334859	0.997521
670.674973	0.997866
671.015035	0.997005
671.355047	0.997635
671.695008	0.996335
672.034918	0.997078
672.374777	0.997775
672.714585	0.996773
673.054342	0.997946
673.394049	0.996432
673.733705	0.996213
674.073310	0.997830
674.412864	0.997334
674.752368	0.997089
675.091820	0.997720
675.431223	0.997605
675.770574	0.996686
676.109875	0.997112
676.449125	0.995832
676.788324	0.996500
677.127473	0.997759
677.466571	0.997463
677.805619	0.996972
678.144616	0.997600
678.483562	0.997362
678.822458	0.997791
679.161303	0.996703
679.500098	0.997571
679.838842	0.998100
680.177535	0.997196
680.516179	0.996498
680.854771	0.997002
681.193314	0.996965
681.531805	0.996871
681.870247	0.997529
682.208638	0.997079
682.546978	0.996438
682.885268	0.996754
683.223508	0.996391
683.561697	0.997550
683.899836	0.996925
684.237925	0.997065
684.575963	0.997487
684.913951	0.996816
685.251889	0.996876
685.589776	0.996596
685.927614	0.997093
686.265401	0.997166
686.603137	0.996417
686.940824	0.996667
687.278460	0.998342
687.616046	0.997419
687.953582	0.997084
688.291068	0.997360
688.628504	0.996708
688.965889	0.997053
689.303224	0.996401
689.640510	0.996867
689.977745	0.996093
690.314930	0.996774
690.652065	0.996427
690.989150	0.996646
691.326185	0.997150
691.663170	0.996608
692.000105	0.996837
692.336990	0.997231
692.673825	0.996596
693.010610	0.997275
693.347345	0.997063
693.684030	0.996607
694.020665	0.997320
694.357251	0.996848
694.693786	0.997597
695.030272	0.995802
695.366707	0.997067
695.703093	0.997212
696.039429	0.995964
696.375716	0.996812
696.711952	0.996730
697.048139	0.997033
697.384276	0.997640
697.720363	0.996843
698.056400	0.995896
698.392388	0.997240
698.728326	0.996545
699.064214	0.998138
699.400053	0.997683
699.735842	0.997581
700.071581	0.996664
700.407270	0.996900
700.742910	0.997251
701.078501	0.996482
701.414042	0.997456
701.749533	0.995812
702.084974	0.997805
702.420366	0.997133
702.755709	0.996960
703.091002	0.996830
703.426246	0.997442
703.761440	0.996828
704.096584	0.997407
704.431679	0.997365
704.766725	0.996871
705.101721	0.998072
705.436668	0.997301
705.771565	0.996350
706.106413	0.996125
706.441212	0.997687
706.775961	0.997623
707.110661	0.996833
707.445311	0.997214
707.779913	0.998707
708.114465	0.997617
708.448967	0.997765
708.783421	0.997304
709.117825	0.998139
709.452180	0.997470
709.786485	0.997416
710.120742	0.997539
710.454949	0.996657
710.789107	0.997280
711.123216	0.995455
711.457275	0.996192
711.791286	0.996812
712.125247	0.998917
712.459159	0.996694
712.793023	0.997060
713.126837	0.997252
713.460602	0.995991
713.794318	0.996755
714.127985	0.995991
714.461602	0.997758
714.795171	0.996635
715.128691	0.996495
715.462162	0.997675
715.795584	0.997380
716.128957	0.997309
716.462281	0.997734
716.795556	0.997136
717.128782	0.997872
717.461960	0.996810
717.795088	0.997588
718.128167	0.998421
718.461198	0.997095
718.794180	0.997119
719.127113	0.997179
719.459997	0.996962
719.792833	0.996732
720.125619	0.996212
720.458357	0.996568
720.791046	0.997861
721.123686	0.997609
721.456278	0.997200
721.788821	0.996898
722.121315	0.997463
722.453761	0.996946
722.786158	0.997084
723.118506	0.996812
723.450805	0.995773
723.783056	0.997526
724.115259	0.996586
724.447412	0.997726
724.779518	0.997315
725.111574	0.997006
725.443582	0.997500
725.775542	0.997036
726.107453	0.997741
726.439315	0.997978
726.771129	0.998294
727.102895	0.997241
727.434612	0.997554
727.766281	0.997829
728.097901	0.996519
728.429473	0.997222
728.760996	0.996674
729.092471	0.997943
729.423897	0.997118
729.755276	0.997197
730.086606	0.996888
730.417887	0.997914
730.749120	0.996898
731.080305	0.997519
731.411442	0.995961
731.742530	0.996008
732.073570	0.997621
732.404562	0.997715
732.735506	0.996979
733.066401	0.997436
733.397249	0.996436
733.728048	0.995692
734.058798	0.996663
734.389501	0.997276
734.720156	0.997524
735.050762	0.997504
735.381320	0.997155
735.711831	0.997318
736.042293	0.996532
736.372707	0.998181
736.703073	0.996817
737.033391	0.996935
737.363661	0.997557
737.693883	0.997240
738.024056	0.997178
738.354182	0.997906
738.684260	0.997337
739.014290	0.997317
739.344272	0.997094
739.674207	0.997468
740.004093	0.997835
740.333931	0.997921
740.663722	0.997504
740.993464	0.997606
741.323159	0.996686
741.652806	0.996853
741.982405	0.997549
742.311956	0.998759
742.641460	0.998541
742.970915	0.997038
743.300323	0.996869
743.629683	0.997674
743.958996	0.998431
744.288260	0.997610
744.617477	0.996484
744.946647	0.997112
745.275768	0.998134
745.604842	0.997611
745.933869	0.998029
746.262847	0.997888
746.591778	0.997027
746.920662	0.998060
747.249498	0.998948
747.578286	0.997807
747.907027	0.998026
748.235720	0.998354
748.564365	0.998377
748.892963	0.997167
749.221514	0.998049
749.550017	0.997235
749.878473	0.997242
750.206881	0.997683
750.535242	0.998004
750.863555	0.996945
751.191821	0.997925
751.520039	0.997694
751.848210	0.996405
752.176334	0.997777
752.504411	0.997541
752.832440	0.996048
753.160421	0.997270
753.488356	0.998116
753.816243	0.997187
754.144082	0.996676
754.471875	0.997543
754.799620	0.998745
755.127318	0.997837
755.454969	0.998051
755.782572	0.998856
756.110129	0.997520
756.437638	0.998676
756.765100	0.998907
757.092515	0.997847
757.419882	0.998137
757.747203	0.996935
758.074477	0.998414
758.401703	0.997996
758.728882	0.997591
759.056014	0.997682
759.383099	0.997949
759.710138	0.997098
760.037129	0.997694
760.364073	0.998195
760.690970	0.998169
761.017820	0.997153
761.344623	0.997987
761.671379	0.998467
761.998088	0.997835
762.324751	0.998483
762.651366	0.997619
762.977935	0.996539
763.304456	0.996587
763.630931	0.996200
763.957359	0.995213
764.283740	0.995264
764.610074	0.996220
764.936362	0.996098
765.262602	0.997507
765.588796	0.998392
765.914943	0.997847
766.241044	0.997428
766.567097	0.997570
766.893104	0.998034
767.219064	0.997952
767.544978	0.997947
767.870845	0.998409
768.196665	0.997419
768.522438	0.998496
768.848165	0.998175
769.173846	0.998503
769.499479	0.999255
769.825066	0.999311
770.150607	0.999208
770.476101	0.998324
770.801548	0.999277
771.126949	0.999816
771.452303	0.997699
771.777611	0.998667
772.102872	0.998340
772.428087	0.998072
772.753256	0.998168
773.078378	0.997833
773.403453	0.997673
773.728482	0.999195
774.053465	0.998335
774.378401	0.998802
774.703291	0.999130
775.028135	0.999068
775.352932	0.997183
775.677683	0.999700
776.002388	0.998001
776.327046	0.997840
776.651658	1.000677
776.976224	0.998447
777.300743	0.997331
777.625216	0.997477
777.949643	0.999217
778.274024	0.998579
778.598359	0.998481
778.922647	0.998227
779.246889	0.998471
779.571086	0.999279
779.895236	0.999066
780.219339	1.000141
780.543397	0.997704
780.867409	0.999424
781.191374	0.998558
781.515294	0.999019
781.839167	0.999289
782.162995	0.998507
782.486776	0.998665
782.810511	0.998398
783.134201	0.998518
783.457844	0.997614
783.781441	0.998478
784.104993	0.998376
784.428498	0.998705
784.751958	0.999600
785.075372	0.999009
785.398739	0.998137
785.722061	0.997959
786.045337	0.998706
786.368568	0.999030
786.691752	0.998936
787.014891	0.999036
787.337983	0.997563
787.661030	0.998263
787.984031	0.997549
788.306987	0.999349
788.629897	0.997131
788.952760	0.998680
789.275579	0.997504
789.598351	0.998777
789.921078	0.999461
790.243759	0.999121
790.566395	0.997999
790.888984	0.999298
791.211529	0.998756
791.534027	0.998768
791.856480	0.998026
792.178888	0.998667
792.501249	0.998786
792.823566	0.999876
793.145836	0.998619
793.468062	0.999318
793.790241	0.998817
794.112375	0.998051
794.434464	0.999161
794.756507	0.998653
795.078505	0.998385
795.400457	0.999538
795.722364	0.998703
796.044226	0.998787
796.366042	0.999065
796.687812	0.997435
797.009538	0.998392
797.331218	0.999748
797.652852	0.998858
797.974442	0.998700
798.295986	0.998705
798.617484	0.997483
798.938938	0.998807
799.260346	0.998301
799.581709	0.998401
799.903026	0.998918
800.224299	0.998320
800.545526	0.997268
800.866708	0.998057
801.187845	0.998748
801.508936	0.998636
801.829983	0.998631
802.150984	0.999306
802.471940	0.999320
802.792851	0.998502
803.113717	0.999445
803.434538	0.999385
803.755314	1.000410
804.076045	0.999562
804.396731	0.998483
804.717372	0.997843
805.037967	1.000157
805.358518	0.999946
805.679024	0.998373
805.999485	0.998865
806.319901	0.999508
806.640272	0.998849
806.960598	0.998906
807.280879	0.999243
807.601115	0.999931
807.921306	0.999859
808.241453	0.998269
808.561554	0.999535
808.881611	0.998538
809.201623	0.998616
809.521590	0.999023
809.841513	0.999281
810.161390	0.997907
810.481223	0.998223
810.801011	0.999914
811.120755	1.000554
811.440453	0.998532
811.760107	0.999030
812.079716	0.998406
812.399281	0.999175
812.718801	0.997420
813.038276	0.999115
813.357707	0.999662
813.677093	0.999807
813.996434	1.000422
814.315731	1.000204
814.634983	0.998521
814.954191	0.999399
815.273354	0.998760
815.592473	0.998497
815.911547	0.999696
816.230577	0.998646
816.549562	0.999288
816.868502	0.998324
817.187399	0.999562
817.506250	0.998943
817.825058	0.997451
818.143821	0.999173
818.462539	0.998509
818.781213	0.997626
819.099843	0.998769
819.418429	0.996639
819.736970	0.998880
820.055466	0.996980
820.373919	0.996851
820.692327	0.997306
821.010691	0.996771
821.329011	0.994173
821.647286	0.993066
821.965517	0.991037
822.283704	0.990900
822.601847	0.989069
822.919945	0.989698
823.237999	0.990770
823.556010	0.991294
823.873976	0.991688
824.191897	0.993268
824.509775	0.994754
824.827609	0.994267
825.145398	0.995919
825.463144	0.994356
825.780845	0.994690
826.098502	0.994334
826.416116	0.994576
826.733685	0.994539
827.051210	0.992664
827.368692	0.993124
827.686129	0.993666
828.003522	0.995886
828.320872	0.994840
828.638177	0.996020
828.955439	0.997925
829.272656	0.997234
829.589830	0.997304
829.906960	0.998031
830.224046	0.997280
830.541088	0.997574
830.858086	0.997520
831.175041	0.997887
831.491952	0.998308
831.808819	0.997783
832.125642	0.998507
832.442421	0.998797
832.759157	0.998338
833.075849	0.997254
833.392497	0.997311
833.709101	0.994715
834.025662	0.996098
834.342179	0.995587
834.658653	0.997007
834.975083	0.997560
835.291469	0.997321
835.607811	0.996548
835.924110	0.997643
836.240366	0.999151
836.556578	0.998140
836.872746	0.997483
837.188871	0.997670
837.504952	0.998792
837.820990	0.999783
838.136984	0.998206
838.452935	0.998058
838.768842	0.998497
839.084706	0.999755
839.400526	0.999585
839.716303	0.997904
840.032037	0.997855
840.347727	0.997883
840.663373	0.997558
840.978977	0.999082
841.294537	0.998466
841.610054	0.998972
841.925527	0.999711
842.240957	0.998899
842.556344	0.998763
842.871687	0.999510
843.186987	0.999118
843.502244	0.999796
843.817458	0.998111
844.132629	0.997459
844.447756	0.999208
844.762840	0.999272
845.077881	1.000229
845.392879	0.999383
845.707833	0.999269
846.022745	0.999140
846.337613	0.999272
846.652438	0.998682
846.967221	1.000277
847.281960	0.999649
847.596656	0.999292
847.911309	0.999448
848.225919	0.998148
848.540485	0.999892
848.855009	1.000548
849.169490	1.000318
849.483928	0.999777
849.798323	0.998594
850.112675	1.000418
850.426984	0.999657
850.741251	0.999337
851.055474	0.999472
851.369654	1.000341
851.683792	0.998966
851.997887	0.999949
852.311938	0.999516
852.625947	0.998581
852.939914	0.998966
853.253837	1.000473
853.567718	0.999956
853.881555	1.000785
854.195350	1.000210
854.509103	1.000032
854.822812	0.999513
855.136479	0.999922
855.450103	0.999224
855.763685	0.999553
856.077224	1.000455
856.390720	0.999625
856.704173	0.999921
857.017584	1.000774
857.330953	1.000225
857.644278	0.999820
857.957561	0.998915
858.270802	0.999942
858.584000	0.999502
858.897155	0.999091
859.210268	0.998819
859.523339	1.001601
859.836367	0.999360
860.149352	0.999407
860.462295	0.998753
860.775195	1.000114
861.088054	0.998737
861.400869	1.000003
861.713642	0.998606
862.026373	1.000202
862.339062	1.000595
862.651708	1.000741
862.964312	1.000296
863.276873	0.999841
863.589392	0.999675
863.901869	0.999649
864.214303	0.999946
864.526696	0.999374
864.839045	1.000656
865.151353	0.999504
865.463619	0.998399
865.775842	0.999014
866.088023	1.000259
866.400162	0.999252
866.712258	1.000288
867.024313	0.999593
867.336325	0.999499
867.648296	1.001120
867.960224	0.999740
868.272110	0.999728
868.583954	0.998808
868.895755	0.999425
869.207515	0.999138
869.519233	1.000510
869.830909	0.998182
870.142542	0.998788
870.454134	0.999768
870.765684	0.999164
871.077191	0.999993
871.388657	0.999607
871.700081	0.999737
872.011463	1.000328
872.322803	0.999229
872.634101	0.997963
872.945357	0.999016
873.256571	0.998509
873.567744	1.000327
873.878874	0.999751
874.189963	0.999115
874.501010	1.000891
874.812015	0.998932
875.122979	0.998893
875.433900	0.998513
875.744780	0.999659
876.055618	0.998045
876.366415	0.999171
876.677169	0.999328
876.987882	0.999485
877.298554	0.999937
877.609183	0.998788
877.919771	0.998198
878.230317	1.000512
878.540822	0.998314
878.851285	0.999213
879.161707	0.997851
879.472087	0.998794
879.782425	0.996666
880.092722	0.996934
880.402977	0.994607
880.713191	0.992914
881.023363	0.991709
881.333494	0.989701
881.643583	0.991405
881.953631	0.990636
882.263637	0.990077
882.573602	0.990525
882.883526	0.990502
883.193408	0.993947
883.503248	0.993029
883.813048	0.994186
884.122806	0.996162
884.432522	0.995135
884.742197	0.996504
885.051831	0.997371
885.361424	0.996590
885.670975	0.997881
885.980485	0.997892
886.289954	0.997667
886.599382	0.996831
886.908768	0.998974
887.218113	0.997875
887.527417	0.998095
887.836680	0.999009
888.145901	0.999470
888.455082	0.999683
888.764221	0.999871
889.073319	0.998255
889.382376	0.998696
889.691392	0.998358
890.000366	0.999239
890.309300	0.999159
890.618193	0.999424
890.927044	0.998964
891.235855	0.998946
891.544625	0.998617
891.853353	0.998362
892.162041	0.997300
892.470687	1.000576
892.779293	0.997261
893.087858	0.998062
893.396381	0.997890
893.704864	0.996281
894.013306	0.996854
894.321707	0.996274
894.630068	0.994933
894.938387	0.994689
895.246665	0.994548
895.554903	0.996166
895.863100	0.996721
896.171256	0.997034
896.479371	0.996975
896.787446	0.997421
897.095480	0.998126
897.403473	0.998527
897.711425	0.997936
898.019336	0.999004
898.327207	0.998999
898.635038	0.997541
898.942827	0.998596
899.250576	0.998094
899.558284	0.999045
899.865952	0.997735
900.173579	0.999511
900.481165	0.999654
900.788711	0.998036
901.096216	0.997407
901.403681	0.999936
901.711105	0.998917
902.018489	0.998909
902.325832	0.998613
902.633135	0.997852
902.940397	0.998594
903.247619	0.997764
903.554800	0.997531
903.861941	0.996054
904.169041	0.995268
904.476101	0.993504
904.783121	0.994321
905.090100	0.995131
905.397039	0.995574
905.703938	0.995054
906.010796	0.996750
906.317614	0.998345
906.624391	0.997970
906.931129	0.998733
907.237826	0.999090
907.544483	0.998491
907.851099	0.998725
908.157675	0.998895
908.464211	0.999133
908.770707	0.999803
909.077163	0.999307
909.383578	0.999639
909.689954	0.998170
909.996289	0.999701
910.302584	0.998770
910.608839	1.000035
910.915054	1.000058
911.221229	1.000286
911.527363	0.999004
911.833458	0.998494
912.139513	0.998744
912.445527	1.000537
912.751502	0.999861
913.057436	0.998525
913.363331	1.000417
913.669186	0.999381
913.975000	0.998271
914.280775	0.998582
914.586510	0.997892
914.892205	0.997156
915.197859	0.996739
915.503475	0.995318
915.809050	0.995748
916.114585	0.993313
916.420081	0.993734
916.725536	0.993877
917.030952	0.995058
917.336328	0.995041
917.641665	0.994944
917.946961	0.995881
918.252218	0.996450
918.557435	0.995888
918.862612	0.997778
919.167750	0.998583
919.472848	0.998034
919.777906	0.998715
920.082925	0.999339
920.387904	0.998320
920.692843	0.998177
920.997743	0.997124
921.302603	0.997951
921.607423	0.997776
921.912204	0.999279
922.216946	1.000350
922.521647	0.999130
922.826310	0.998322
923.130932	1.000351
923.435516	1.000109
923.740059	0.998694
924.044564	0.997577
924.349028	0.998176
924.653454	0.999898
924.957840	0.999235
925.262186	0.999662
925.566493	0.999379
925.870761	0.999338
926.174989	0.999520
926.479178	0.999638
926.783328	0.999818
927.087438	0.999255
927.391509	0.999418
927.695541	1.000023
927.999533	1.000163
928.303486	0.999349
928.607400	0.999938
928.911275	1.000068
929.215110	1.001126
929.518906	0.999986
929.822663	1.000742
930.126381	1.000606
930.430060	0.999076
930.733699	1.000015
931.037299	1.000706
931.340861	0.999896
931.644383	0.998546
931.947866	0.999725
932.251309	1.000152
932.554714	0.999650
932.858080	0.999623
933.161407	0.999127
933.464694	0.999774
933.767943	0.999162
934.071153	1.000983
934.374323	1.001262
934.677455	0.999983
934.980548	0.999746
935.283602	1.000342
935.586617	1.000010
935.889593	1.002286
936.192530	0.999799
936.495428	0.999367
936.798287	1.000123
937.101108	1.001226
937.403890	0.998971
937.706632	1.001048
938.009336	0.998534
938.312002	0.999206
938.614628	0.999362
938.917216	0.999735
939.219765	0.997716
939.522275	1.000226
939.824747	0.999648
940.127179	0.999361
940.429573	0.999801
940.731929	0.998618
941.034246	0.998764
941.336524	0.999325
941.638763	0.998878
941.940964	0.999254
942.243126	0.999459
942.545250	1.000052
942.847335	0.999346
943.149381	0.999914
943.451389	0.998277
943.753359	0.999425
944.055290	0.999736
944.357182	0.998335
944.659036	1.000139
944.960851	1.000251
945.262628	1.000551
945.564367	1.000547
945.866067	0.999592
946.167729	1.000079
946.469352	1.000332
946.770937	0.997086
947.072484	1.000353
947.373992	0.999688
947.675462	0.999139
947.976893	0.998838
948.278286	1.001440
948.579641	1.000617
948.880958	0.999784
949.182236	1.000888
949.483476	1.000335
949.784678	0.999027
950.085841	0.999653
950.386967	0.998356
950.688054	0.999938
950.989103	0.998039
951.290114	0.999520
951.591087	1.000699
951.892021	0.999693
952.192917	0.999919
952.493776	1.000129
952.794596	0.999602
953.095378	0.999550
953.396122	0.998849
953.696828	1.000047
953.997496	0.998980
954.298126	1.000086
954.598718	0.998956
954.899272	0.999991
955.199788	1.000669
955.500266	1.000812
955.800706	1.000869
956.101108	0.999818
956.401472	1.000984
956.701798	0.999962
957.002087	0.999897
957.302337	0.999698
957.602550	1.000547
957.902724	0.999330
958.202861	0.999505
958.502960	0.999602
958.803022	1.000449
959.103045	1.000379
959.403031	1.000519
959.702979	1.001013
960.002889	0.999051
960.302762	0.999456
960.602596	1.000468
960.902393	1.001031
961.202153	0.998972
961.501875	1.000226
961.801559	1.000035
962.101205	0.999013
962.400814	0.999424
962.700385	1.000952
962.999918	1.000891
963.299414	0.998923
963.598873	1.000030
963.898293	1.000336
964.197677	0.999331
964.497022	0.999607
964.796331	1.001413
965.095601	1.001193
965.394835	1.000450
965.694030	1.001106
965.993189	0.999713
966.292309	1.000697
966.591393	0.999425
966.890439	1.000994
967.189447	0.999399
967.488419	0.999950
967.787353	1.000236
968.086249	0.999858
968.385108	0.999795
968.683930	1.000020
968.982714	1.001262
969.281462	0.999955
969.580172	0.999209
969.878844	1.000796
970.177480	1.000387
970.476078	1.000926
970.774639	1.001543
971.073162	1.000765
971.371649	1.000106
971.670098	0.999891
971.968510	1.000440
972.266885	0.999514
972.565223	1.000499
972.863524	0.999742
973.161788	0.999139
973.460014	1.001146
973.758204	0.999295
974.056356	0.999816
974.354471	0.999940
974.652550	1.000767
974.950591	1.000048
975.248595	0.998996
975.546563	1.000625
975.844493	1.001029
976.142386	0.999605
976.440243	1.001365
976.738062	1.000891
977.035845	0.998839
977.333590	1.000338
977.631299	0.999019
977.928971	1.000236
978.226606	0.998848
978.524204	0.999397
978.821765	1.000792
979.119290	1.001063
979.416777	1.000375
979.714228	0.999694
980.011642	1.000915
980.309020	1.000328
980.606360	0.999009
980.903664	1.000726
981.200931	0.998630
981.498162	1.000009
981.795356	0.999750
982.092513	1.000177
982.389633	1.000350
982.686717	0.998789
982.983764	0.999781
983.280775	1.000981
983.577749	1.000307
983.874686	0.998996
984.171587	0.998825
984.468451	1.000260
984.765279	1.000893
985.062070	0.999876
985.358824	0.998889
985.655543	1.001237
985.952224	1.001224
986.248869	0.999634
986.545478	1.000304
986.842050	1.000391
987.138586	0.998953
987.435086	1.000626
987.731549	1.000766
988.027975	1.001012
988.324366	1.001302
988.620719	1.001170
988.917037	0.999652
989.213318	1.000858
989.509563	1.000632
989.805772	1.001446
990.101944	1.000626
990.398080	1.000962
990.694180	1.001264
990.990244	1.000247
991.286271	1.000603
991.582262	1.000046
991.878217	1.000948
992.174136	1.000831
992.470019	0.999386
992.765865	1.000930
993.061676	1.001090
993.357450	1.000071
993.653188	1.000185
993.948890	1.000263
994.244556	1.000047
994.540186	1.000146
994.835780	1.000555
995.131337	1.002226
995.426859	0.999758
995.722345	0.999470
996.017795	0.998917
996.313208	0.999105
996.608586	0.999330
996.903928	0.999257
997.199234	1.000296
997.494504	1.000842
997.789738	0.999687
998.084936	0.999784
998.380099	0.999331
998.675225	1.000666
998.970316	1.000652
999.265371	1.000379
999.560390	1.000529
999.855373	0.999011
1000.150320	1.000699
1000.445232	1.000401
1000.740108	0.999982
1001.034948	1.000164
1001.329752	1.001965
1001.624521	1.000356
1001.919254	1.000349
1002.213951	0.999943
1002.508613	0.999475
1002.803239	1.000279
1003.097829	1.000976
1003.392384	1.000876
1003.686903	1.000336
1003.981386	1.000482
1004.275834	1.001351
1004.570246	0.999878
1004.864623	1.002463
1005.158964	1.000382
1005.453270	1.000078
1005.747540	0.999337
1006.041775	1.001752
1006.335974	1.000692
1006.630138	1.000820
1006.924266	0.999301
1007.218359	0.999089
1007.512416	1.001639
1007.806438	0.999388
1008.100425	1.001052
1008.394376	1.001362
1008.688292	1.000628
1008.982172	0.998940
1009.276017	0.999667
1009.569827	1.001255
1009.863602	1.000138
1010.157341	1.000404
1010.451045	1.000072
1010.744714	1.000913
1011.038347	1.000975
1011.331945	1.000557
1011.625508	0.999376
1011.919036	1.000318
1012.212528	1.000484
1012.505986	1.000467
1012.799408	1.001009
1013.092795	0.999433
1013.386147	0.999225
1013.679464	1.001449
1013.972745	1.000618
1014.265992	1.000500
1014.559204	1.000324
1014.852380	1.000449
1015.145521	0.999502
1015.438628	1.000390
1015.731699	0.999746
1016.024736	0.999611
1016.317737	1.000114
1016.610703	1.001501
1016.903635	1.000015
1017.196531	0.999844
1017.489393	1.000533
1017.782219	1.000569
1018.075011	1.000500
1018.367768	0.999535
1018.660490	1.000438
1018.953177	1.000438
1019.245829	1.000438
