Dividing Wavelength (nm)	Counts (n)	Blue Motor Position (mm): 17.700000	Red Motor Position (mm): 0.000000	
326.493990	1.000943
326.888308	1.000943
327.282561	1.000943
327.676750	1.002492
328.070874	1.003195
328.464933	1.003722
328.858929	1.004275
329.252859	1.003131
329.646726	1.001571
330.040528	1.001926
330.434265	1.002435
330.827938	1.001641
331.221547	1.001726
331.615091	1.003022
332.008571	1.004500
332.401986	1.003330
332.795338	1.002237
333.188625	1.003147
333.581847	1.003758
333.975006	1.003084
334.368100	1.002958
334.761129	1.002343
335.154095	1.003010
335.546996	1.001364
335.939833	0.998325
336.332606	0.999634
336.725315	0.998482
337.117960	0.998388
337.510540	0.999440
337.903056	0.998623
338.295508	1.000539
338.687896	0.999211
339.080220	0.999203
339.472480	0.998538
339.864676	1.000582
340.256807	0.997271
340.648875	0.999359
341.040879	0.999350
341.432818	0.999029
341.824694	0.998719
342.216506	0.999599
342.608253	0.998938
342.999937	0.998142
343.391557	0.998391
343.783113	1.000366
344.174605	0.998992
344.566033	0.998636
344.957397	0.999206
345.348697	0.999206
345.739934	0.999710
346.131106	0.998141
346.522215	0.998550
346.913260	0.999033
347.304241	0.997751
347.695159	0.998878
348.086012	0.998230
348.476802	0.999640
348.867528	0.997855
349.258191	0.998140
349.648789	0.998844
350.039324	0.998893
350.429796	0.998804
350.820203	0.998188
351.210548	0.999261
351.600828	0.998328
351.991045	0.998358
352.381198	0.998364
352.771288	0.998595
353.161314	0.998632
353.551276	0.997451
353.941175	0.996141
354.331010	0.998030
354.720782	0.997806
355.110490	0.997387
355.500135	0.999052
355.889717	0.996866
356.279235	0.997794
356.668689	0.997744
357.058080	0.997610
357.447408	0.997199
357.836672	0.997483
358.225873	0.998038
358.615010	0.998092
359.004084	0.997408
359.393095	0.998347
359.782043	0.997554
360.170927	0.997791
360.559748	0.997549
360.948505	0.997220
361.337199	0.997245
361.725830	0.997853
362.114398	0.996486
362.502903	0.997238
362.891344	0.996685
363.279722	0.996945
363.668037	0.996461
364.056289	0.996923
364.444478	0.997340
364.832603	0.997257
365.220665	0.996652
365.608665	0.997151
365.996601	0.997381
366.384474	0.995012
366.772284	0.997418
367.160031	0.994420
367.547715	0.994388
367.935336	0.995247
368.322893	0.993461
368.710388	0.992682
369.097820	0.990256
369.485189	0.988458
369.872495	0.986774
370.259738	0.984955
370.646918	0.980893
371.034035	0.979532
371.421090	0.976673
371.808081	0.970930
372.195010	0.969265
372.581875	0.963525
372.968678	0.959581
373.355418	0.955933
373.742096	0.948367
374.128710	0.943888
374.515262	0.939948
374.901751	0.932966
375.288177	0.928125
375.674540	0.921947
376.060841	0.916723
376.447079	0.908705
376.833254	0.902334
377.219367	0.897933
377.605417	0.885503
377.991404	0.881959
378.377329	0.875711
378.763191	0.871664
379.148991	0.861217
379.534727	0.853558
379.920402	0.845699
380.306013	0.841196
380.691563	0.828804
381.077049	0.822362
381.462474	0.817742
381.847835	0.806558
382.233134	0.802037
382.618371	0.802874
383.003545	0.784320
383.388657	0.783114
383.773706	0.775964
384.158693	0.771373
384.543618	0.766367
384.928480	0.757528
385.313280	0.747113
385.698017	0.746971
386.082692	0.735539
386.467305	0.734545
386.851856	0.728637
387.236344	0.723381
387.620770	0.717640
388.005133	0.711573
388.389435	0.705013
388.773674	0.703816
389.157851	0.695652
389.541965	0.693677
389.926018	0.700576
390.310008	0.686245
390.693936	0.683439
391.077802	0.675703
391.461606	0.676889
391.845348	0.665810
392.229027	0.665897
392.612645	0.663219
392.996200	0.650733
393.379694	0.644135
393.763125	0.634068
394.146494	0.638258
394.529801	0.629670
394.913047	0.621249
395.296230	0.628284
395.679351	0.618826
396.062410	0.615419
396.445408	0.618329
396.828343	0.613276
397.211217	0.609052
397.594028	0.620902
397.976778	0.611559
398.359466	0.607493
398.742092	0.602453
399.124656	0.615063
399.507158	0.603027
399.889598	0.600060
400.271977	0.591927
400.654294	0.595280
401.036549	0.594529
401.418742	0.598808
401.800874	0.584654
402.182944	0.580951
402.564952	0.572702
402.946898	0.574587
403.328783	0.575531
403.710606	0.587167
404.092367	0.562119
404.474067	0.566865
404.855705	0.565533
405.237282	0.575006
405.618797	0.560298
406.000250	0.556653
406.381642	0.546460
406.762972	0.551877
407.144240	0.550690
407.525447	0.550245
407.906593	0.543306
408.287677	0.538758
408.668700	0.546566
409.049661	0.541332
409.430560	0.535645
409.811399	0.544725
410.192176	0.526465
410.572891	0.533188
410.953545	0.521207
411.334138	0.534681
411.714669	0.527822
412.095139	0.540049
412.475547	0.523704
412.855894	0.525724
413.236180	0.524493
413.616405	0.530321
413.996568	0.520794
414.376670	0.526999
414.756711	0.531809
415.136691	0.528463
415.516609	0.519293
415.896466	0.516487
416.276262	0.512146
416.655997	0.513853
417.035670	0.495424
417.415283	0.486981
417.794834	0.492271
418.174324	0.497484
418.553753	0.505809
418.933121	0.488976
419.312428	0.483294
419.691674	0.488297
420.070859	0.476756
420.449983	0.484709
420.829045	0.473796
421.208047	0.482760
421.586988	0.475942
421.965867	0.474439
422.344686	0.463655
422.723444	0.476066
423.102141	0.492874
423.480777	0.465576
423.859352	0.486810
424.237866	0.463664
424.616319	0.464568
424.994712	0.455663
425.373044	0.465563
425.751314	0.454011
426.129524	0.470995
426.507673	0.454029
426.885762	0.447356
427.263789	0.452967
427.641756	0.462711
428.019662	0.452527
428.397508	0.452028
428.775292	0.456432
429.153016	0.448078
429.530679	0.454274
429.908282	0.447830
430.285824	0.457760
430.663305	0.436110
431.040726	0.457752
431.418086	0.457335
431.795385	0.449203
432.172624	0.447945
432.549802	0.448530
432.926920	0.447414
433.303977	0.446833
433.680974	0.444198
434.057910	0.442957
434.434786	0.441849
434.811601	0.444411
435.188355	0.426994
435.565050	0.436040
435.941683	0.437537
436.318257	0.421672
436.694770	0.422711
437.071222	0.420980
437.447614	0.424898
437.823946	0.431727
438.200218	0.421176
438.576429	0.430780
438.952580	0.423421
439.328670	0.420178
439.704700	0.426732
440.080670	0.427995
440.456580	0.409085
440.832429	0.417470
441.208218	0.428622
441.583947	0.417331
441.959616	0.416417
442.335224	0.422318
442.710773	0.412678
443.086261	0.411260
443.461689	0.424850
443.837057	0.414859
444.212365	0.404554
444.587612	0.411892
444.962800	0.401375
445.337927	0.403019
445.712995	0.429393
446.088002	0.391433
446.462949	0.401463
446.837837	0.406702
447.212664	0.395480
447.587431	0.386810
447.962139	0.357344
448.336786	0.316128
448.711374	0.326412
449.085901	0.370966
449.460369	0.375505
449.834776	0.378740
450.209124	0.357908
450.583412	0.350647
450.957640	0.343833
451.331808	0.355244
451.705917	0.378545
452.079965	0.383040
452.453954	0.371510
452.827883	0.377974
453.201752	0.373027
453.575562	0.383427
453.949311	0.372729
454.323001	0.379101
454.696632	0.374703
455.070202	0.367477
455.443713	0.359077
455.817164	0.353917
456.190556	0.350148
456.563888	0.346553
456.937160	0.344167
457.310373	0.361243
457.683526	0.360295
458.056619	0.365932
458.429653	0.366638
458.802628	0.370279
459.175542	0.364595
459.548398	0.346662
459.921194	0.339449
460.293930	0.339424
460.666607	0.316603
461.039224	0.305168
461.411782	0.300753
461.784280	0.299727
462.156719	0.304104
462.529099	0.308562
462.901419	0.324704
463.273680	0.328987
463.645882	0.328261
464.018024	0.334430
464.390106	0.327095
464.762130	0.311863
465.134094	0.294484
465.505999	0.263680
465.877845	0.233980
466.249631	0.221027
466.621358	0.228472
466.993026	0.242359
467.364634	0.248656
467.736184	0.257366
468.107674	0.266576
468.479105	0.265071
468.850477	0.272400
469.221790	0.278791
469.593043	0.289282
469.964238	0.293904
470.335373	0.293143
470.706449	0.291748
471.077467	0.291987
471.448425	0.254111
471.819324	0.229680
472.190164	0.229288
472.560945	0.257982
472.931667	0.280600
473.302330	0.284825
473.672934	0.296588
474.043479	0.284547
474.413965	0.286391
474.784393	0.290213
475.154761	0.284880
475.525070	0.281947
475.895321	0.287986
476.265513	0.281980
476.635645	0.277396
477.005719	0.277045
477.375734	0.273615
477.745691	0.267195
478.115588	0.263477
478.485427	0.256778
478.855207	0.244096
479.224928	0.226211
479.594591	0.214220
479.964194	0.217748
480.333739	0.218856
480.703226	0.220429
481.072653	0.218736
481.442022	0.214322
481.811333	0.211069
482.180584	0.214524
482.549777	0.220150
482.918912	0.223364
483.287988	0.223203
483.657005	0.222849
484.025964	0.229021
484.394864	0.226380
484.763706	0.227065
485.132489	0.232189
485.501213	0.232743
485.869879	0.231120
486.238487	0.234307
486.607036	0.232521
486.975527	0.237178
487.343959	0.232704
487.712333	0.231885
488.080648	0.233444
488.448905	0.232410
488.817104	0.233673
489.185244	0.228166
489.553326	0.225072
489.921350	0.215114
490.289315	0.197421
490.657222	0.192279
491.025070	0.193940
491.392861	0.195707
491.760593	0.201294
492.128267	0.207235
492.495883	0.212702
492.863440	0.218928
493.230939	0.225720
493.598380	0.227017
493.965763	0.229142
494.333088	0.231411
494.700354	0.233052
495.067563	0.231757
495.434713	0.235058
495.801805	0.232881
496.168839	0.234688
496.535815	0.235983
496.902733	0.236035
497.269593	0.237536
497.636395	0.234988
498.003139	0.235637
498.369825	0.238668
498.736453	0.235500
499.103023	0.236846
499.469535	0.236247
499.835989	0.236433
500.202385	0.237423
500.568723	0.240455
500.935003	0.236101
501.301226	0.240112
501.667390	0.234246
502.033497	0.232614
502.399546	0.235313
502.765537	0.237439
503.131470	0.236120
503.497345	0.232261
503.863163	0.240920
504.228923	0.234076
504.594625	0.232912
504.960269	0.238241
505.325856	0.233799
505.691385	0.237977
506.056856	0.234821
506.422270	0.234522
506.787625	0.236970
507.152924	0.234714
507.518164	0.235056
507.883347	0.236813
508.248472	0.238663
508.613540	0.233780
508.978550	0.236590
509.343503	0.237174
509.708398	0.235291
510.073236	0.233171
510.438016	0.232718
510.802738	0.233937
511.167403	0.233402
511.532010	0.235652
511.896561	0.231202
512.261053	0.229783
512.625488	0.232514
512.989866	0.232920
513.354186	0.233702
513.718449	0.236244
514.082655	0.232547
514.446803	0.235319
514.810894	0.233282
515.174927	0.236227
515.538904	0.236017
515.902822	0.233704
516.266684	0.236198
516.630488	0.237941
516.994235	0.237354
517.357925	0.236946
517.721558	0.235358
518.085133	0.235739
518.448651	0.236268
518.812112	0.238970
519.175516	0.239402
519.538863	0.237671
519.902152	0.239963
520.265385	0.237673
520.628560	0.239831
520.991678	0.241424
521.354739	0.240832
521.717743	0.242918
522.080690	0.243836
522.443580	0.242519
522.806413	0.244458
523.169189	0.244724
523.531908	0.244643
523.894569	0.249073
524.257174	0.250031
524.619722	0.248825
524.982213	0.250709
525.344647	0.251394
525.707025	0.253285
526.069345	0.252962
526.431608	0.256134
526.793815	0.254931
527.155964	0.260856
527.518057	0.260878
527.880093	0.263211
528.242072	0.263384
528.603995	0.266943
528.965860	0.269833
529.327669	0.270627
529.689421	0.273144
530.051117	0.275322
530.412755	0.275647
530.774337	0.278862
531.135862	0.282386
531.497331	0.282711
531.858743	0.287946
532.220098	0.286651
532.581396	0.291353
532.942638	0.293413
533.303824	0.296598
533.664953	0.299239
534.026025	0.302581
534.387040	0.303067
534.747999	0.305074
535.108902	0.306665
535.469748	0.313959
535.830537	0.314122
536.191270	0.317428
536.551947	0.319425
536.912567	0.321969
537.273131	0.326403
537.633638	0.329247
537.994089	0.332484
538.354483	0.336464
538.714821	0.336407
539.075103	0.338963
539.435328	0.342818
539.795497	0.348760
540.155609	0.349778
540.515665	0.350782
540.875665	0.359097
541.235609	0.361084
541.595496	0.364531
541.955328	0.365191
542.315102	0.370424
542.674821	0.375169
543.034483	0.378326
543.394090	0.381394
543.753640	0.387118
544.113134	0.386619
544.472571	0.392647
544.831953	0.393954
545.191278	0.401276
545.550548	0.403989
545.909761	0.404931
546.268918	0.410196
546.628019	0.412417
546.987064	0.418324
547.346053	0.422649
547.704986	0.425984
548.063863	0.429350
548.422684	0.432971
548.781449	0.439135
549.140158	0.441143
549.498811	0.447284
549.857408	0.452725
550.215949	0.453754
550.574434	0.460051
550.932864	0.463889
551.291237	0.465214
551.649555	0.472318
552.007817	0.475676
552.366022	0.480272
552.724173	0.484865
553.082267	0.488311
553.440305	0.491933
553.798288	0.496782
554.156215	0.500849
554.514086	0.505279
554.871902	0.511900
555.229661	0.515403
555.587365	0.520390
555.945014	0.525635
556.302606	0.529187
556.660143	0.534162
557.017625	0.538061
557.375050	0.542634
557.732421	0.545338
558.089735	0.551657
558.446994	0.555638
558.804197	0.560001
559.161345	0.563779
559.518437	0.569182
559.875474	0.574517
560.232455	0.578432
560.589381	0.582524
560.946251	0.588807
561.303065	0.590169
561.659825	0.596246
562.016528	0.601333
562.373177	0.606141
562.729770	0.610882
563.086307	0.615347
563.442789	0.617882
563.799216	0.625607
564.155587	0.628576
564.511904	0.634497
564.868164	0.637533
565.224370	0.641868
565.580520	0.649195
565.936615	0.651084
566.292654	0.658376
566.648638	0.660770
567.004567	0.665895
567.360441	0.670295
567.716260	0.675545
568.072023	0.678070
568.427732	0.683446
568.783385	0.687378
569.138982	0.692045
569.494525	0.695706
569.850013	0.701241
570.205445	0.704924
570.560823	0.708258
570.916145	0.714073
571.271412	0.717553
571.626625	0.722767
571.981782	0.725905
572.336884	0.730729
572.691931	0.733089
573.046923	0.739201
573.401860	0.742948
573.756743	0.748114
574.111570	0.751184
574.466342	0.754502
574.821059	0.758479
575.175722	0.763148
575.530330	0.767587
575.884882	0.770851
576.239380	0.775274
576.593823	0.778808
576.948211	0.782376
577.302544	0.785931
577.656823	0.791197
578.011047	0.793374
578.365216	0.798286
578.719330	0.801265
579.073389	0.804776
579.427394	0.807639
579.781344	0.812096
580.135239	0.815021
580.489080	0.818344
580.842866	0.823176
581.196597	0.825629
581.550273	0.827826
581.903895	0.831727
582.257463	0.833910
582.610975	0.838635
582.964434	0.840306
583.317837	0.844385
583.671186	0.847094
584.024481	0.849780
584.377721	0.852174
584.730906	0.856294
585.084037	0.858987
585.437113	0.861812
585.790135	0.864378
586.143103	0.867231
586.496016	0.869999
586.848874	0.872172
587.201679	0.873885
587.554428	0.877517
587.907124	0.880106
588.259765	0.882024
588.612352	0.885339
588.964884	0.887100
589.317362	0.889753
589.669786	0.891919
590.022155	0.892938
590.374470	0.896428
590.726731	0.897390
591.078937	0.901275
591.431090	0.903456
591.783188	0.904808
592.135232	0.908706
592.487222	0.908951
592.839157	0.910879
593.191038	0.913405
593.542866	0.915130
593.894639	0.917020
594.246358	0.919823
594.598022	0.921172
594.949633	0.922760
595.301190	0.925027
595.652692	0.926180
596.004141	0.927547
596.355535	0.930382
596.706876	0.931106
597.058162	0.933335
597.409395	0.935611
597.760573	0.936184
598.111698	0.936721
598.462768	0.938252
598.813785	0.940411
599.164748	0.942454
599.515657	0.943703
599.866511	0.945054
600.217312	0.946961
600.568060	0.947902
600.918753	0.949371
601.269392	0.950296
601.619978	0.951752
601.970510	0.952931
602.320988	0.953440
602.671412	0.954544
603.021783	0.956484
603.372100	0.957016
603.722363	0.959029
604.072572	0.958658
604.422728	0.960002
604.772830	0.960704
605.122878	0.961945
605.472872	0.963247
605.822813	0.963343
606.172701	0.964134
606.522534	0.965125
606.872314	0.966501
607.222041	0.966768
607.571714	0.967985
607.921333	0.968399
608.270899	0.968310
608.620411	0.969377
608.969870	0.971274
609.319276	0.970762
609.668627	0.971932
610.017926	0.972392
610.367171	0.972851
610.716362	0.973500
611.065500	0.973648
611.414585	0.974633
611.763616	0.974223
612.112594	0.975917
612.461518	0.975268
612.810389	0.976232
613.159207	0.976818
613.507971	0.976794
613.856682	0.978477
614.205340	0.977013
614.553945	0.978563
614.902496	0.978715
615.250994	0.979594
615.599439	0.979932
615.947830	0.979907
616.296169	0.979618
616.644454	0.980369
616.992686	0.980773
617.340864	0.981352
617.688990	0.981756
618.037063	0.981120
618.385082	0.981573
618.733048	0.981849
619.080961	0.983032
619.428821	0.982138
619.776628	0.982225
620.124382	0.984106
620.472083	0.983843
620.819731	0.984232
621.167326	0.985171
621.514868	0.984319
621.862357	0.984638
622.209793	0.985143
622.557176	0.985741
622.904506	0.985455
623.251783	0.986074
623.599007	0.986602
623.946179	0.985481
624.293297	0.986973
624.640363	0.986841
624.987376	0.986780
625.334336	0.987304
625.681243	0.988117
626.028097	0.987527
626.374899	0.988439
626.721647	0.988562
627.068343	0.988317
627.414987	0.988686
627.761577	0.988269
628.108115	0.987783
628.454600	0.989883
628.801032	0.988660
629.147412	0.989123
629.493739	0.988688
629.840014	0.988957
630.186236	0.988960
630.532405	0.989103
630.878521	0.988989
631.224585	0.989197
631.570597	0.989356
631.916556	0.990209
632.262462	0.989250
632.608316	0.989524
632.954117	0.989421
633.299866	0.989877
633.645562	0.989787
633.991206	0.990468
634.336797	0.990171
634.682336	0.990751
635.027823	0.990841
635.373257	0.990774
635.718639	0.991727
636.063968	0.990292
636.409245	0.990881
636.754470	0.990428
637.099642	0.990682
637.444762	0.991321
637.789829	0.990683
638.134845	0.990431
638.479808	0.990571
638.824719	0.991665
639.169577	0.991317
639.514383	0.991702
639.859137	0.991281
640.203839	0.991484
640.548489	0.990943
640.893086	0.991090
641.237632	0.991679
641.582125	0.990905
641.926566	0.991345
642.270955	0.992138
642.615292	0.991371
642.959576	0.991717
643.303809	0.992240
643.647990	0.991711
643.992118	0.992385
644.336195	0.991431
644.680219	0.991592
645.024192	0.991490
645.368112	0.991240
645.711981	0.992090
646.055797	0.991665
646.399562	0.990928
646.743274	0.993185
647.086935	0.991737
647.430544	0.990421
647.774101	0.990891
648.117606	0.992151
648.461059	0.993308
648.804460	0.991853
649.147810	0.991402
649.491108	0.991128
649.834354	0.991411
650.177548	0.991331
650.520690	0.991517
650.863781	0.991234
651.206820	0.991799
651.549807	0.991430
651.892742	0.992208
652.235626	0.991459
652.578458	0.991945
652.921238	0.992535
653.263967	0.992486
653.606644	0.992180
653.949269	0.992871
654.291843	0.991183
654.634365	0.992598
654.976836	0.991885
655.319255	0.992632
655.661622	0.992703
656.003938	0.991693
656.346203	0.992337
656.688416	0.992375
657.030577	0.992201
657.372687	0.992312
657.714746	0.992041
658.056753	0.992232
658.398708	0.992186
658.740612	0.993743
659.082465	0.992306
659.424266	0.992095
659.766016	0.992266
660.107715	0.993181
660.449362	0.991916
660.790958	0.992368
661.132503	0.993146
661.473996	0.992032
661.815438	0.993029
662.156829	0.992688
662.498168	0.993355
662.839456	0.991562
663.180693	0.992966
663.521879	0.991925
663.863013	0.992761
664.204097	0.992841
664.545129	0.991699
664.886110	0.992268
665.227040	0.992890
665.567918	0.992123
665.908746	0.991503
666.249522	0.991145
666.590248	0.992161
666.930922	0.991886
667.271545	0.992569
667.612118	0.992400
667.952639	0.991674
668.293109	0.992211
668.633528	0.992049
668.973896	0.992629
669.314213	0.991321
669.654480	0.992243
669.994695	0.991652
670.334859	0.992382
670.674973	0.992196
671.015035	0.992184
671.355047	0.992360
671.695008	0.992229
672.034918	0.992572
672.374777	0.991877
672.714585	0.992055
673.054342	0.992476
673.394049	0.992529
673.733705	0.991600
674.073310	0.992260
674.412864	0.992231
674.752368	0.991577
675.091820	0.992859
675.431223	0.992846
675.770574	0.991516
676.109875	0.992216
676.449125	0.991437
676.788324	0.991812
677.127473	0.992578
677.466571	0.992161
677.805619	0.993181
678.144616	0.992075
678.483562	0.992443
678.822458	0.992615
679.161303	0.991420
679.500098	0.992274
679.838842	0.993270
680.177535	0.991701
680.516179	0.991387
680.854771	0.992213
681.193314	0.991938
681.531805	0.992448
681.870247	0.992457
682.208638	0.992077
682.546978	0.991090
682.885268	0.991719
683.223508	0.991096
683.561697	0.991271
683.899836	0.992362
684.237925	0.991526
684.575963	0.991376
684.913951	0.992128
685.251889	0.991925
685.589776	0.992092
685.927614	0.991945
686.265401	0.992028
686.603137	0.991221
686.940824	0.991710
687.278460	0.992164
687.616046	0.991379
687.953582	0.992460
688.291068	0.992263
688.628504	0.992036
688.965889	0.991035
689.303224	0.990935
689.640510	0.991363
689.977745	0.991494
690.314930	0.991402
690.652065	0.991511
690.989150	0.991298
691.326185	0.992697
691.663170	0.991974
692.000105	0.992167
692.336990	0.992276
692.673825	0.992051
693.010610	0.992090
693.347345	0.992608
693.684030	0.992013
694.020665	0.992135
694.357251	0.991933
694.693786	0.992479
695.030272	0.991646
695.366707	0.992600
695.703093	0.992073
696.039429	0.991895
696.375716	0.993086
696.711952	0.992073
697.048139	0.992819
697.384276	0.992888
697.720363	0.992416
698.056400	0.991700
698.392388	0.991858
698.728326	0.992744
699.064214	0.992756
699.400053	0.992320
699.735842	0.993178
700.071581	0.992729
700.407270	0.991894
700.742910	0.993421
701.078501	0.992912
701.414042	0.993563
701.749533	0.991367
702.084974	0.992461
702.420366	0.992323
702.755709	0.992697
703.091002	0.993338
703.426246	0.993960
703.761440	0.992038
704.096584	0.992267
704.431679	0.993144
704.766725	0.992548
705.101721	0.994050
705.436668	0.992657
705.771565	0.992517
706.106413	0.992668
706.441212	0.992887
706.775961	0.993515
707.110661	0.992016
707.445311	0.992941
707.779913	0.993326
708.114465	0.994033
708.448967	0.992996
708.783421	0.993931
709.117825	0.993060
709.452180	0.992914
709.786485	0.992084
710.120742	0.991820
710.454949	0.991609
710.789107	0.992410
711.123216	0.991272
711.457275	0.992123
711.791286	0.992742
712.125247	0.993035
712.459159	0.991010
712.793023	0.991975
713.126837	0.992705
713.460602	0.991056
713.794318	0.990680
714.127985	0.991319
714.461602	0.991932
714.795171	0.991170
715.128691	0.991783
715.462162	0.992318
715.795584	0.991567
716.128957	0.992152
716.462281	0.992025
716.795556	0.992040
717.128782	0.992988
717.461960	0.991798
717.795088	0.992893
718.128167	0.993743
718.461198	0.992846
718.794180	0.994029
719.127113	0.992685
719.459997	0.992600
719.792833	0.992659
720.125619	0.991864
720.458357	0.992776
720.791046	0.993811
721.123686	0.992715
721.456278	0.993366
721.788821	0.992592
722.121315	0.993669
722.453761	0.993854
722.786158	0.993398
723.118506	0.993295
723.450805	0.992559
723.783056	0.994448
724.115259	0.992386
724.447412	0.994056
724.779518	0.993518
725.111574	0.992326
725.443582	0.994168
725.775542	0.992779
726.107453	0.993297
726.439315	0.993974
726.771129	0.993218
727.102895	0.993135
727.434612	0.993639
727.766281	0.993218
728.097901	0.992333
728.429473	0.992576
728.760996	0.992941
729.092471	0.992728
729.423897	0.992910
729.755276	0.992914
730.086606	0.992857
730.417887	0.992934
730.749120	0.992809
731.080305	0.992657
731.411442	0.991430
731.742530	0.990825
732.073570	0.991938
732.404562	0.991802
732.735506	0.992330
733.066401	0.991787
733.397249	0.992515
733.728048	0.992146
734.058798	0.993200
734.389501	0.993504
734.720156	0.992370
735.050762	0.993459
735.381320	0.993029
735.711831	0.992730
736.042293	0.993316
736.372707	0.993819
736.703073	0.991773
737.033391	0.992898
737.363661	0.994105
737.693883	0.992771
738.024056	0.991727
738.354182	0.993972
738.684260	0.993240
739.014290	0.993229
739.344272	0.993073
739.674207	0.993369
740.004093	0.993054
740.333931	0.992885
740.663722	0.992929
740.993464	0.993623
741.323159	0.992703
741.652806	0.992348
741.982405	0.992859
742.311956	0.993250
742.641460	0.993472
742.970915	0.992427
743.300323	0.992422
743.629683	0.992626
743.958996	0.994434
744.288260	0.992888
744.617477	0.993276
744.946647	0.993799
745.275768	0.993205
745.604842	0.993244
745.933869	0.993462
746.262847	0.993471
746.591778	0.993211
746.920662	0.993343
747.249498	0.993288
747.578286	0.994902
747.907027	0.993725
748.235720	0.993589
748.564365	0.994691
748.892963	0.992894
749.221514	0.992934
749.550017	0.992896
749.878473	0.993584
750.206881	0.994922
750.535242	0.994075
750.863555	0.993816
751.191821	0.994134
751.520039	0.993316
751.848210	0.993352
752.176334	0.993881
752.504411	0.993225
752.832440	0.992650
753.160421	0.993895
753.488356	0.994000
753.816243	0.992976
754.144082	0.993649
754.471875	0.993899
754.799620	0.994911
755.127318	0.993836
755.454969	0.993503
755.782572	0.995127
756.110129	0.993091
756.437638	0.996181
756.765100	0.993945
757.092515	0.992931
757.419882	0.993543
757.747203	0.993453
758.074477	0.995673
758.401703	0.994132
758.728882	0.993579
759.056014	0.994412
759.383099	0.994130
759.710138	0.993027
760.037129	0.993558
760.364073	0.994693
760.690970	0.993729
761.017820	0.993361
761.344623	0.994919
761.671379	0.995064
761.998088	0.994208
762.324751	0.993144
762.651366	0.992111
762.977935	0.991556
763.304456	0.990646
763.630931	0.987135
763.957359	0.986876
764.283740	0.988373
764.610074	0.990885
764.936362	0.991382
765.262602	0.992142
765.588796	0.993041
765.914943	0.993935
766.241044	0.992825
766.567097	0.993722
766.893104	0.994624
767.219064	0.993690
767.544978	0.994492
767.870845	0.994542
768.196665	0.995233
768.522438	0.994991
768.848165	0.994860
769.173846	0.994811
769.499479	0.995683
769.825066	0.995824
770.150607	0.995944
770.476101	0.996023
770.801548	0.995422
771.126949	0.995898
771.452303	0.995544
771.777611	0.996308
772.102872	0.995186
772.428087	0.995915
772.753256	0.996263
773.078378	0.995857
773.403453	0.994822
773.728482	0.996821
774.053465	0.995202
774.378401	0.996148
774.703291	0.995707
775.028135	0.997473
775.352932	0.995272
775.677683	0.996974
776.002388	0.996017
776.327046	0.995487
776.651658	0.998091
776.976224	0.996334
777.300743	0.996557
777.625216	0.996612
777.949643	0.996430
778.274024	0.995575
778.598359	0.997503
778.922647	0.996375
779.246889	0.997661
779.571086	0.997067
779.895236	0.996645
780.219339	0.997116
780.543397	0.996046
780.867409	0.996526
781.191374	0.996460
781.515294	0.996852
781.839167	0.996709
782.162995	0.997041
782.486776	0.996248
782.810511	0.996496
783.134201	0.998247
783.457844	0.996205
783.781441	0.996289
784.104993	0.995885
784.428498	0.996977
784.751958	0.997192
785.075372	0.997460
785.398739	0.996193
785.722061	0.996666
786.045337	0.995779
786.368568	0.996874
786.691752	0.997488
787.014891	0.996846
787.337983	0.995789
787.661030	0.995381
787.984031	0.996264
788.306987	0.994961
788.629897	0.993204
788.952760	0.994706
789.275579	0.994995
789.598351	0.995335
789.921078	0.996167
790.243759	0.995513
790.566395	0.995518
790.888984	0.996860
791.211529	0.997300
791.534027	0.996506
791.856480	0.996704
792.178888	0.996030
792.501249	0.996281
792.823566	0.997506
793.145836	0.997664
793.468062	0.996893
793.790241	0.998828
794.112375	0.996362
794.434464	0.996814
794.756507	0.997680
795.078505	0.997328
795.400457	0.996387
795.722364	0.996120
796.044226	0.996272
796.366042	0.995488
796.687812	0.995232
797.009538	0.995899
797.331218	0.996478
797.652852	0.997120
797.974442	0.996158
798.295986	0.996229
798.617484	0.995716
798.938938	0.996208
799.260346	0.996023
799.581709	0.996520
799.903026	0.996757
800.224299	0.996880
800.545526	0.995709
800.866708	0.996010
801.187845	0.996713
801.508936	0.996272
801.829983	0.996600
802.150984	0.998155
802.471940	0.997921
802.792851	0.996104
803.113717	0.997653
803.434538	0.998195
803.755314	0.997906
804.076045	0.997569
804.396731	0.997228
804.717372	0.996886
805.037967	0.997392
805.358518	0.998251
805.679024	0.996812
805.999485	0.997441
806.319901	0.997756
806.640272	0.998184
806.960598	0.997483
807.280879	0.996711
807.601115	0.997645
807.921306	0.998357
808.241453	0.996765
808.561554	0.997900
808.881611	0.997319
809.201623	0.997655
809.521590	0.997166
809.841513	0.997285
810.161390	0.996731
810.481223	0.996556
810.801011	0.998206
811.120755	0.998023
811.440453	0.997065
811.760107	0.997567
812.079716	0.996555
812.399281	0.996194
812.718801	0.996481
813.038276	0.997406
813.357707	0.996948
813.677093	0.998625
813.996434	0.997977
814.315731	0.998040
814.634983	0.996872
814.954191	0.997125
815.273354	0.996578
815.592473	0.996738
815.911547	0.997329
816.230577	0.996072
816.549562	0.997986
816.868502	0.994578
817.187399	0.997502
817.506250	0.997132
817.825058	0.994709
818.143821	0.996805
818.462539	0.996059
818.781213	0.996691
819.099843	0.995596
819.418429	0.994522
819.736970	0.994590
820.055466	0.992187
820.373919	0.992156
820.692327	0.991045
821.010691	0.989110
821.329011	0.985857
821.647286	0.982503
821.965517	0.977912
822.283704	0.973485
822.601847	0.971134
822.919945	0.972518
823.237999	0.974287
823.556010	0.977115
823.873976	0.978901
824.191897	0.982341
824.509775	0.984613
824.827609	0.986154
825.145398	0.987281
825.463144	0.986110
825.780845	0.986527
826.098502	0.986696
826.416116	0.986709
826.733685	0.983570
827.051210	0.979883
827.368692	0.981761
827.686129	0.983207
828.003522	0.986432
828.320872	0.987794
828.638177	0.988828
828.955439	0.992135
829.272656	0.991411
829.589830	0.992474
829.906960	0.994441
830.224046	0.994754
830.541088	0.995272
830.858086	0.994300
831.175041	0.996495
831.491952	0.995036
831.808819	0.994942
832.125642	0.995326
832.442421	0.995926
832.759157	0.995582
833.075849	0.991296
833.392497	0.989987
833.709101	0.987010
834.025662	0.986798
834.342179	0.988322
834.658653	0.991008
834.975083	0.991249
835.291469	0.991076
835.607811	0.993748
835.924110	0.994765
836.240366	0.997632
836.556578	0.996776
836.872746	0.997037
837.188871	0.995875
837.504952	0.996824
837.820990	0.998247
838.136984	0.997100
838.452935	0.997233
838.768842	0.997392
839.084706	0.997316
839.400526	0.997141
839.716303	0.993466
840.032037	0.993992
840.347727	0.992501
840.663373	0.994612
840.978977	0.994985
841.294537	0.997114
841.610054	0.997408
841.925527	0.997584
842.240957	0.998741
842.556344	0.996966
842.871687	0.997463
843.186987	0.998779
843.502244	0.998342
843.817458	0.998484
844.132629	0.998091
844.447756	0.998767
844.762840	0.999009
845.077881	1.000553
845.392879	0.997858
845.707833	0.998903
846.022745	0.999953
846.337613	0.998218
846.652438	1.000012
846.967221	0.999481
847.281960	1.000322
847.596656	0.999579
847.911309	0.999808
848.225919	0.998745
848.540485	0.998886
848.855009	0.999568
849.169490	1.000176
849.483928	0.999047
849.798323	0.998023
850.112675	1.001179
850.426984	0.999702
850.741251	1.000522
851.055474	0.999823
851.369654	0.999347
851.683792	0.999325
851.997887	0.998738
852.311938	0.999599
852.625947	1.000241
852.939914	0.998504
853.253837	1.000633
853.567718	0.999990
853.881555	0.999080
854.195350	0.999710
854.509103	0.999528
854.822812	1.000138
855.136479	1.000811
855.450103	0.999130
855.763685	0.999609
856.077224	0.998856
856.390720	0.999132
856.704173	1.000288
857.017584	1.000500
857.330953	0.999376
857.644278	0.999201
857.957561	0.999248
858.270802	1.000727
858.584000	0.998027
858.897155	0.998788
859.210268	0.998635
859.523339	0.999617
859.836367	0.999593
860.149352	0.998460
860.462295	0.999817
860.775195	1.000003
861.088054	0.998989
861.400869	0.999388
861.713642	0.999394
862.026373	0.999922
862.339062	0.999502
862.651708	0.999259
862.964312	0.999480
863.276873	0.998827
863.589392	0.999532
863.901869	0.998330
864.214303	0.999022
864.526696	0.997948
864.839045	0.999945
865.151353	0.999597
865.463619	0.997303
865.775842	0.998981
866.088023	1.000300
866.400162	0.999327
866.712258	0.999957
867.024313	0.999773
867.336325	0.999489
867.648296	0.999618
867.960224	0.999014
868.272110	0.999372
868.583954	0.999446
868.895755	0.999364
869.207515	0.998263
869.519233	0.999750
869.830909	0.998191
870.142542	0.999018
870.454134	0.999037
870.765684	0.998560
871.077191	0.998172
871.388657	0.999605
871.700081	0.998659
872.011463	1.000023
872.322803	0.998485
872.634101	0.999047
872.945357	0.997589
873.256571	0.997735
873.567744	0.999367
873.878874	0.998944
874.189963	0.997938
874.501010	0.999212
874.812015	0.997609
875.122979	0.998843
875.433900	0.997572
875.744780	0.998796
876.055618	0.996626
876.366415	0.998247
876.677169	0.997793
876.987882	0.996367
877.298554	0.997943
877.609183	0.997793
877.919771	0.997298
878.230317	0.998833
878.540822	0.996014
878.851285	0.996010
879.161707	0.996256
879.472087	0.997281
879.782425	0.993540
880.092722	0.991218
880.402977	0.988149
880.713191	0.983533
881.023363	0.978651
881.333494	0.974772
881.643583	0.976251
881.953631	0.975533
882.263637	0.974443
882.573602	0.977532
882.883526	0.977959
883.193408	0.981842
883.503248	0.983647
883.813048	0.984103
884.122806	0.987315
884.432522	0.988211
884.742197	0.991186
885.051831	0.991173
885.361424	0.992667
885.670975	0.993871
885.980485	0.993487
886.289954	0.994683
886.599382	0.994637
886.908768	0.995845
887.218113	0.995851
887.527417	0.996626
887.836680	0.997284
888.145901	0.997389
888.455082	0.998292
888.764221	0.997854
889.073319	0.996331
889.382376	0.998627
889.691392	0.997182
890.000366	0.998493
890.309300	0.997128
890.618193	0.997285
890.927044	0.997342
891.235855	0.997044
891.544625	0.997892
891.853353	0.997803
892.162041	0.996990
892.470687	0.996686
892.779293	0.995660
893.087858	0.994990
893.396381	0.994530
893.704864	0.993277
894.013306	0.992826
894.321707	0.991052
894.630068	0.988038
894.938387	0.986843
895.246665	0.987615
895.554903	0.988488
895.863100	0.990608
896.171256	0.991574
896.479371	0.992147
896.787446	0.993934
897.095480	0.994771
897.403473	0.995183
897.711425	0.995862
898.019336	0.995714
898.327207	0.996161
898.635038	0.995420
898.942827	0.996956
899.250576	0.997521
899.558284	0.997808
899.865952	0.996298
900.173579	0.997163
900.481165	0.997959
900.788711	0.998406
901.096216	0.998510
901.403681	0.999340
901.711105	0.997696
902.018489	0.997666
902.325832	0.997687
902.633135	0.997685
902.940397	0.997927
903.247619	0.996520
903.554800	0.993799
903.861941	0.991883
904.169041	0.986736
904.476101	0.985045
904.783121	0.983909
905.090100	0.986047
905.397039	0.988135
905.703938	0.989931
906.010796	0.992299
906.317614	0.993022
906.624391	0.994151
906.931129	0.996270
907.237826	0.996048
907.544483	0.997019
907.851099	0.997721
908.157675	0.997336
908.464211	0.998539
908.770707	0.998067
909.077163	0.998621
909.383578	0.999607
909.689954	0.997551
909.996289	0.999428
910.302584	1.000065
910.608839	1.000472
910.915054	0.999298
911.221229	1.001033
911.527363	0.998016
911.833458	0.998552
912.139513	0.999466
912.445527	0.998949
912.751502	0.998363
913.057436	0.998352
913.363331	0.998383
913.669186	0.999880
913.975000	0.998245
914.280775	0.996551
914.586510	0.995396
914.892205	0.993740
915.197859	0.992188
915.503475	0.990075
915.809050	0.987109
916.114585	0.984168
916.420081	0.984338
916.725536	0.984892
917.030952	0.986439
917.336328	0.986800
917.641665	0.988384
917.946961	0.989998
918.252218	0.990740
918.557435	0.992819
918.862612	0.993789
919.167750	0.994443
919.472848	0.995947
919.777906	0.996841
920.082925	0.996372
920.387904	0.997693
920.692843	0.996351
920.997743	0.997131
921.302603	0.998047
921.607423	0.997453
921.912204	0.997721
922.216946	0.999319
922.521647	0.998699
922.826310	0.998970
923.130932	0.998809
923.435516	1.000182
923.740059	0.998783
924.044564	0.998880
924.349028	0.997137
924.653454	0.999770
924.957840	0.998979
925.262186	0.999098
925.566493	1.000710
925.870761	0.999311
926.174989	0.999954
926.479178	1.001096
926.783328	1.000264
927.087438	1.000351
927.391509	0.999883
927.695541	0.999584
927.999533	1.001140
928.303486	1.000149
928.607400	1.000326
928.911275	1.000557
929.215110	1.000819
929.518906	1.000963
929.822663	1.001204
930.126381	1.000703
930.430060	1.001289
930.733699	1.000533
931.037299	1.000810
931.340861	1.000807
931.644383	1.000088
931.947866	1.001420
932.251309	1.001003
932.554714	1.000518
932.858080	1.000981
933.161407	0.999694
933.464694	1.000065
933.767943	0.999236
934.071153	1.000722
934.374323	1.001294
934.677455	1.000478
934.980548	1.000924
935.283602	1.001715
935.586617	0.999430
935.889593	1.001509
936.192530	1.000390
936.495428	1.001055
936.798287	0.999673
937.101108	1.000119
937.403890	1.000057
937.706632	1.001791
938.009336	1.000530
938.312002	0.999354
938.614628	1.000599
938.917216	0.998401
939.219765	0.999349
939.522275	0.999643
939.824747	1.000528
940.127179	0.999678
940.429573	1.000309
940.731929	0.998875
941.034246	0.999058
941.336524	0.999078
941.638763	0.998903
941.940964	0.998970
942.243126	0.998943
942.545250	1.000359
942.847335	1.000489
943.149381	1.000684
943.451389	0.999598
943.753359	0.999624
944.055290	1.001246
944.357182	0.999772
944.659036	1.001305
944.960851	0.999599
945.262628	1.000537
945.564367	1.000351
945.866067	1.000007
946.167729	1.000469
946.469352	1.001389
946.770937	0.999428
947.072484	1.000600
947.373992	1.000624
947.675462	0.999989
947.976893	0.999341
948.278286	1.002187
948.579641	0.999917
948.880958	1.000760
949.182236	1.001282
949.483476	1.000906
949.784678	1.001436
950.085841	1.000201
950.386967	0.999565
950.688054	1.002133
950.989103	0.998754
951.290114	0.999031
951.591087	1.000806
951.892021	1.000003
952.192917	1.000341
952.493776	1.000173
952.794596	1.000289
953.095378	0.999291
953.396122	0.999939
953.696828	1.000613
953.997496	1.000142
954.298126	1.001603
954.598718	1.000588
954.899272	1.000491
955.199788	0.999462
955.500266	1.000675
955.800706	1.000603
956.101108	1.000423
956.401472	1.001478
956.701798	1.000514
957.002087	1.000480
957.302337	1.000898
957.602550	1.001399
957.902724	1.000621
958.202861	1.000258
958.502960	0.999934
958.803022	1.001942
959.103045	1.001637
959.403031	1.002014
959.702979	1.002491
960.002889	1.000998
960.302762	1.000720
960.602596	1.003087
960.902393	1.001833
961.202153	1.001542
961.501875	1.002246
961.801559	1.002539
962.101205	1.000921
962.400814	1.002077
962.700385	1.001516
962.999918	1.001780
963.299414	1.001003
963.598873	1.002155
963.898293	1.001168
964.197677	1.000950
964.497022	1.002572
964.796331	1.001497
965.095601	1.002149
965.394835	1.001502
965.694030	1.001836
965.993189	1.000238
966.292309	1.001582
966.591393	1.000996
966.890439	1.001701
967.189447	1.000977
967.488419	1.001663
967.787353	1.001497
968.086249	1.001490
968.385108	1.001447
968.683930	1.002057
968.982714	1.001409
969.281462	1.002348
969.580172	1.002072
969.878844	1.002781
970.177480	1.001960
970.476078	1.003059
970.774639	1.001216
971.073162	1.001368
971.371649	1.000943
971.670098	1.001702
971.968510	1.000809
972.266885	1.000874
972.565223	1.000781
972.863524	1.001042
973.161788	1.000953
973.460014	1.003321
973.758204	0.999763
974.056356	1.001726
974.354471	1.001443
974.652550	1.001913
974.950591	1.000876
975.248595	1.001330
975.546563	1.002794
975.844493	1.002258
976.142386	0.999604
976.440243	1.002655
976.738062	1.001731
977.035845	1.000332
977.333590	1.001381
977.631299	1.001568
977.928971	1.001018
978.226606	1.000566
978.524204	1.001031
978.821765	1.000634
979.119290	1.003375
979.416777	1.002181
979.714228	1.002080
980.011642	1.002007
980.309020	1.000571
980.606360	1.001234
980.903664	1.001090
981.200931	1.000614
981.498162	1.001578
981.795356	1.001768
982.092513	1.000721
982.389633	1.002288
982.686717	1.000118
982.983764	1.000348
983.280775	1.001453
983.577749	1.001647
983.874686	1.000651
984.171587	0.999762
984.468451	1.001088
984.765279	1.001591
985.062070	1.001969
985.358824	1.001560
985.655543	1.001046
985.952224	1.001331
986.248869	1.001360
986.545478	1.002632
986.842050	1.001266
987.138586	1.001698
987.435086	1.000120
987.731549	1.003448
988.027975	1.002286
988.324366	1.001163
988.620719	1.003275
988.917037	1.001001
989.213318	1.003636
989.509563	1.002018
989.805772	1.001842
990.101944	1.002878
990.398080	1.001622
990.694180	1.003572
990.990244	1.002424
991.286271	1.001659
991.582262	1.002899
991.878217	1.001417
992.174136	1.001523
992.470019	1.002081
992.765865	1.002752
993.061676	1.003486
993.357450	1.001689
993.653188	1.003052
993.948890	1.001126
994.244556	1.000889
994.540186	1.001768
994.835780	1.001545
995.131337	1.002244
995.426859	1.001761
995.722345	1.002406
996.017795	1.000165
996.313208	1.000754
996.608586	1.001342
996.903928	1.002790
997.199234	1.001210
997.494504	1.001708
997.789738	1.001391
998.084936	1.002069
998.380099	1.001739
998.675225	1.001995
998.970316	1.002401
999.265371	1.001241
999.560390	1.001960
999.855373	1.001219
1000.150320	1.002110
1000.445232	1.002012
1000.740108	1.001991
1001.034948	1.001904
1001.329752	1.001967
1001.624521	1.002706
1001.919254	1.002592
1002.213951	1.002194
1002.508613	1.001284
1002.803239	1.000952
1003.097829	1.001635
1003.392384	1.001121
1003.686903	1.002839
1003.981386	1.001844
1004.275834	1.002429
1004.570246	1.001280
1004.864623	1.002744
1005.158964	1.002430
1005.453270	1.002280
1005.747540	1.001216
1006.041775	1.002721
1006.335974	1.002710
1006.630138	1.002302
1006.924266	1.001514
1007.218359	1.000633
1007.512416	1.002298
1007.806438	0.999986
1008.100425	1.003038
1008.394376	1.002688
1008.688292	1.002142
1008.982172	1.001625
1009.276017	1.002386
1009.569827	1.002718
1009.863602	1.001334
1010.157341	1.003208
1010.451045	1.001531
1010.744714	1.002983
1011.038347	1.002248
1011.331945	1.001337
1011.625508	1.002412
1011.919036	1.002005
1012.212528	1.001774
1012.505986	1.001439
1012.799408	1.002340
1013.092795	1.001985
1013.386147	1.000903
1013.679464	1.003531
1013.972745	1.002173
1014.265992	1.001749
1014.559204	1.002014
1014.852380	1.002216
1015.145521	1.001560
1015.438628	1.001431
1015.731699	1.002025
1016.024736	1.001702
1016.317737	1.002250
1016.610703	1.002469
1016.903635	1.002352
1017.196531	1.001983
1017.489393	1.002062
1017.782219	1.001296
1018.075011	1.002098
1018.367768	1.001170
1018.660490	1.001627
1018.953177	1.001627
1019.245829	1.001627
