Dividing Wavelength (nm)	Counts (n)	Blue Motor Position (mm): 40.000000	Red Motor Position (mm): 0.000000	
326.493990	0.998915
326.888308	0.998915
327.282561	0.998915
327.676750	0.999521
328.070874	1.000983
328.464933	0.998933
328.858929	0.999783
329.252859	0.998996
329.646726	1.000474
330.040528	0.999726
330.434265	1.000036
330.827938	0.998827
331.221547	1.000673
331.615091	1.000212
332.008571	1.000466
332.401986	0.999571
332.795338	1.000343
333.188625	1.001086
333.581847	1.000356
333.975006	0.999972
334.368100	1.001081
334.761129	0.999110
335.154095	1.001121
335.546996	0.999759
335.939833	0.998792
336.332606	0.999803
336.725315	0.999083
337.117960	1.000143
337.510540	1.000244
337.903056	0.999706
338.295508	1.000935
338.687896	0.999077
339.080220	1.001303
339.472480	0.999450
339.864676	0.999910
340.256807	0.998027
340.648875	1.001327
341.040879	0.999725
341.432818	0.999770
341.824694	0.999529
342.216506	1.000196
342.608253	0.999425
342.999937	0.999502
343.391557	1.000488
343.783113	1.000857
344.174605	0.999820
344.566033	0.998834
344.957397	1.000238
345.348697	1.001053
345.739934	0.999341
346.131106	1.000200
346.522215	0.999458
346.913260	0.999717
347.304241	0.999612
347.695159	1.000586
348.086012	0.999538
348.476802	0.999347
348.867528	0.998458
349.258191	1.000413
349.648789	0.999664
350.039324	0.999563
350.429796	0.999882
350.820203	0.998592
351.210548	0.999117
351.600828	0.999021
351.991045	0.999527
352.381198	1.000464
352.771288	0.999691
353.161314	0.999567
353.551276	0.997904
353.941175	0.997639
354.331010	1.000472
354.720782	1.000163
355.110490	0.998275
355.500135	1.000465
355.889717	0.998580
356.279235	0.998948
356.668689	0.998834
357.058080	0.999850
357.447408	0.998490
357.836672	0.998441
358.225873	0.999915
358.615010	0.998870
359.004084	0.998081
359.393095	0.999868
359.782043	0.997285
360.170927	0.999102
360.559748	0.998203
360.948505	0.997699
361.337199	0.998240
361.725830	0.998970
362.114398	0.998459
362.502903	0.997983
362.891344	0.996274
363.279722	0.999143
363.668037	0.999138
364.056289	0.998017
364.444478	0.999778
364.832603	0.998340
365.220665	0.997952
365.608665	0.997617
365.996601	0.997718
366.384474	0.996559
366.772284	0.996772
367.160031	0.996837
367.547715	0.997272
367.935336	0.996063
368.322893	0.994870
368.710388	0.993277
369.097820	0.990940
369.485189	0.989505
369.872495	0.988918
370.259738	0.985560
370.646918	0.983730
371.034035	0.981459
371.421090	0.978111
371.808081	0.973066
372.195010	0.970907
372.581875	0.964630
372.968678	0.961031
373.355418	0.958096
373.742096	0.949737
374.128710	0.945432
374.515262	0.941393
374.901751	0.935373
375.288177	0.930197
375.674540	0.924974
376.060841	0.918218
376.447079	0.911362
376.833254	0.904882
377.219367	0.899425
377.605417	0.888623
377.991404	0.886476
378.377329	0.879085
378.763191	0.873117
379.148991	0.864200
379.534727	0.856645
379.920402	0.848005
380.306013	0.845218
380.691563	0.832465
381.077049	0.824615
381.462474	0.821507
381.847835	0.810475
382.233134	0.804813
382.618371	0.805528
383.003545	0.787982
383.388657	0.786663
383.773706	0.778650
384.158693	0.774771
384.543618	0.769678
384.928480	0.760344
385.313280	0.750923
385.698017	0.750200
386.082692	0.739227
386.467305	0.737710
386.851856	0.732307
387.236344	0.727797
387.620770	0.722668
388.005133	0.718156
388.389435	0.713432
388.773674	0.711455
389.157851	0.705693
389.541965	0.705328
389.926018	0.712863
390.310008	0.703195
390.693936	0.703153
391.077802	0.698742
391.461606	0.703497
391.845348	0.697540
392.229027	0.700348
392.612645	0.702895
392.996200	0.695995
393.379694	0.694684
393.763125	0.691641
394.146494	0.700591
394.529801	0.698392
394.913047	0.697781
395.296230	0.709144
395.679351	0.708241
396.062410	0.712759
396.445408	0.721091
396.828343	0.726306
397.211217	0.729383
397.594028	0.744935
397.976778	0.747552
398.359466	0.752809
398.742092	0.758211
399.124656	0.772910
399.507158	0.774127
399.889598	0.780963
400.271977	0.784250
400.654294	0.795370
401.036549	0.803498
401.418742	0.814188
401.800874	0.815598
402.182944	0.822836
402.564952	0.828016
402.946898	0.837130
403.328783	0.846628
403.710606	0.857852
404.092367	0.857459
404.474067	0.868060
404.855705	0.875297
405.237282	0.884254
405.618797	0.888405
406.000250	0.893513
406.381642	0.898584
406.762972	0.906828
407.144240	0.913277
407.525447	0.918453
407.906593	0.923275
408.287677	0.928945
408.668700	0.935400
409.049661	0.940533
409.430560	0.943933
409.811399	0.949613
410.192176	0.952588
410.572891	0.957939
410.953545	0.960450
411.334138	0.965794
411.714669	0.967811
412.095139	0.972292
412.475547	0.974193
412.855894	0.977506
413.236180	0.979386
413.616405	0.981977
413.996568	0.983985
414.376670	0.985824
414.756711	0.986535
415.136691	0.989072
415.516609	0.988984
415.896466	0.991501
416.276262	0.991482
416.655997	0.993365
417.035670	0.992767
417.415283	0.993251
417.794834	0.995419
418.174324	0.995350
418.553753	0.996107
418.933121	0.996052
419.312428	0.997233
419.691674	0.997836
420.070859	0.997929
420.449983	0.998345
420.829045	0.997524
421.208047	0.999248
421.586988	0.998133
421.965867	0.997618
422.344686	0.998767
422.723444	0.998329
423.102141	0.999194
423.480777	0.998670
423.859352	0.998724
424.237866	0.999365
424.616319	0.998745
424.994712	0.999254
425.373044	0.999420
425.751314	0.998719
426.129524	1.000218
426.507673	0.998101
426.885762	0.998351
427.263789	0.999767
427.641756	0.998627
428.019662	0.999095
428.397508	0.999379
428.775292	0.998986
429.153016	0.998662
429.530679	0.998942
429.908282	0.999617
430.285824	0.999126
430.663305	0.999509
431.040726	0.999503
431.418086	0.999105
431.795385	0.999626
432.172624	0.999611
432.549802	0.998824
432.926920	0.999877
433.303977	0.999291
433.680974	0.999889
434.057910	0.998903
434.434786	0.999385
434.811601	0.999431
435.188355	0.999939
435.565050	0.999730
435.941683	0.999548
436.318257	0.997821
436.694770	0.998742
437.071222	0.999570
437.447614	0.998865
437.823946	0.998961
438.200218	1.000152
438.576429	0.999968
438.952580	1.000059
439.328670	0.998501
439.704700	0.998830
440.080670	0.999653
440.456580	0.999214
440.832429	0.999414
441.208218	1.000179
441.583947	0.999818
441.959616	0.998715
442.335224	1.000104
442.710773	1.000197
443.086261	1.000186
443.461689	0.999824
443.837057	1.000124
444.212365	0.999760
444.587612	0.999971
444.962800	0.999327
445.337927	1.000401
445.712995	0.999400
446.088002	0.999146
446.462949	0.999908
446.837837	1.000453
447.212664	0.998968
447.587431	0.999608
447.962139	0.999856
448.336786	0.998888
448.711374	0.999497
449.085901	1.000249
449.460369	0.999606
449.834776	0.999369
450.209124	0.999507
450.583412	0.999998
450.957640	0.999251
451.331808	0.999956
451.705917	0.999467
452.079965	0.999240
452.453954	0.999882
452.827883	1.000181
453.201752	0.999951
453.575562	0.999596
453.949311	0.999778
454.323001	0.999473
454.696632	0.999762
455.070202	0.999297
455.443713	0.998847
455.817164	0.999349
456.190556	0.999659
456.563888	0.999973
456.937160	0.999441
457.310373	0.999143
457.683526	0.999653
458.056619	0.999578
458.429653	0.999513
458.802628	0.999570
459.175542	0.999650
459.548398	0.999043
459.921194	0.999303
460.293930	0.999591
460.666607	0.999548
461.039224	0.999272
461.411782	0.999279
461.784280	0.999267
462.156719	0.999915
462.529099	0.999811
462.901419	0.999308
463.273680	0.998283
463.645882	0.999331
464.018024	1.000477
464.390106	0.998560
464.762130	0.999312
465.134094	0.998151
465.505999	0.999101
465.877845	0.998726
466.249631	0.998618
466.621358	0.998197
466.993026	0.999003
467.364634	0.999318
467.736184	0.999356
468.107674	0.999411
468.479105	0.999460
468.850477	0.999418
469.221790	0.999707
469.593043	0.999423
469.964238	0.998921
470.335373	0.999174
470.706449	0.998402
471.077467	0.999772
471.448425	0.999462
471.819324	0.998577
472.190164	0.999010
472.560945	0.999104
472.931667	0.999085
473.302330	0.999175
473.672934	0.999472
474.043479	0.998913
474.413965	0.999052
474.784393	0.999332
475.154761	0.999100
475.525070	0.999612
475.895321	0.999095
476.265513	0.999339
476.635645	0.999799
477.005719	0.999981
477.375734	0.999262
477.745691	0.998991
478.115588	0.998730
478.485427	0.998312
478.855207	0.998681
479.224928	0.998915
479.594591	0.998984
479.964194	0.998687
480.333739	0.999443
480.703226	0.998783
481.072653	0.998336
481.442022	0.998858
481.811333	0.999335
482.180584	0.998875
482.549777	0.999202
482.918912	0.998824
483.287988	0.999528
483.657005	0.999577
484.025964	0.999186
484.394864	0.998582
484.763706	0.999217
485.132489	0.999623
485.501213	0.999684
485.869879	0.998948
486.238487	0.998454
486.607036	1.000245
486.975527	0.999437
487.343959	0.998897
487.712333	0.999053
488.080648	0.998750
488.448905	0.999262
488.817104	0.998607
489.185244	0.998957
489.553326	0.998920
489.921350	0.999311
490.289315	0.999259
490.657222	0.998808
491.025070	0.999132
491.392861	0.998782
491.760593	0.998933
492.128267	0.998500
492.495883	0.998150
492.863440	0.999238
493.230939	0.999141
493.598380	0.999499
493.965763	0.999294
494.333088	0.998574
494.700354	0.998275
495.067563	0.998421
495.434713	0.999462
495.801805	0.998356
496.168839	0.999103
496.535815	0.999348
496.902733	0.998674
497.269593	0.999007
497.636395	0.998077
498.003139	0.999152
498.369825	0.999456
498.736453	0.999384
499.103023	0.998928
499.469535	0.998923
499.835989	0.998985
500.202385	0.999091
500.568723	0.999357
500.935003	0.998967
501.301226	0.999438
501.667390	0.998667
502.033497	0.998600
502.399546	0.998570
502.765537	0.998668
503.131470	0.999095
503.497345	0.999751
503.863163	0.998493
504.228923	0.999713
504.594625	0.999011
504.960269	0.999448
505.325856	0.999585
505.691385	0.998934
506.056856	0.999060
506.422270	0.999060
506.787625	0.999241
507.152924	0.999257
507.518164	0.999184
507.883347	0.998926
508.248472	0.999150
508.613540	0.998661
508.978550	0.998819
509.343503	0.999450
509.708398	0.999599
510.073236	0.999871
510.438016	0.998416
510.802738	0.998829
511.167403	0.998922
511.532010	0.998908
511.896561	0.999550
512.261053	0.998777
512.625488	0.999008
512.989866	0.999378
513.354186	0.998981
513.718449	0.999278
514.082655	0.998672
514.446803	0.999450
514.810894	0.999318
515.174927	0.998527
515.538904	0.999559
515.902822	0.999360
516.266684	0.999838
516.630488	0.999334
516.994235	0.999619
517.357925	0.999992
517.721558	0.999582
518.085133	0.998848
518.448651	0.999045
518.812112	0.999507
519.175516	0.999420
519.538863	0.998933
519.902152	0.999383
520.265385	0.999308
520.628560	0.998798
520.991678	0.999168
521.354739	0.999802
521.717743	0.999360
522.080690	0.998558
522.443580	0.999439
522.806413	0.999275
523.169189	0.999999
523.531908	0.998628
523.894569	0.998994
524.257174	0.999015
524.619722	0.999702
524.982213	0.999196
525.344647	0.998819
525.707025	0.998453
526.069345	0.999342
526.431608	0.999477
526.793815	0.999744
527.155964	0.999645
527.518057	0.999619
527.880093	0.999146
528.242072	0.999336
528.603995	0.998915
528.965860	0.999827
529.327669	0.999744
529.689421	0.999000
530.051117	0.999911
530.412755	0.999397
530.774337	0.999423
531.135862	0.999434
531.497331	0.998866
531.858743	0.999352
532.220098	0.998620
532.581396	0.999384
532.942638	0.999866
533.303824	1.000153
533.664953	0.999449
534.026025	0.999981
534.387040	0.999481
534.747999	0.999337
535.108902	0.999086
535.469748	0.999729
535.830537	0.998877
536.191270	0.999768
536.551947	0.999501
536.912567	0.999795
537.273131	0.999829
537.633638	0.999246
537.994089	0.999866
538.354483	0.999585
538.714821	0.999740
539.075103	0.999705
539.435328	0.999852
539.795497	0.999530
540.155609	0.999383
540.515665	0.999679
540.875665	0.999654
541.235609	0.999490
541.595496	0.999534
541.955328	0.998940
542.315102	0.999860
542.674821	1.000169
543.034483	0.999489
543.394090	0.999180
543.753640	0.999845
544.113134	0.999444
544.472571	0.999608
544.831953	0.999768
545.191278	0.999540
545.550548	0.999385
545.909761	0.999768
546.268918	1.000134
546.628019	0.999359
546.987064	0.999681
547.346053	0.998827
547.704986	0.998858
548.063863	0.999067
548.422684	0.999478
548.781449	0.999397
549.140158	0.999892
549.498811	0.999783
549.857408	0.998532
550.215949	0.998594
550.574434	0.998589
550.932864	0.999884
551.291237	0.998944
551.649555	1.000104
552.007817	0.999042
552.366022	1.000394
552.724173	0.999737
553.082267	0.998883
553.440305	0.998917
553.798288	0.999100
554.156215	1.000002
554.514086	0.999771
554.871902	0.999212
555.229661	0.998922
555.587365	0.999478
555.945014	0.999826
556.302606	0.999123
556.660143	0.999528
557.017625	1.000246
557.375050	0.998883
557.732421	0.998840
558.089735	0.999213
558.446994	0.999340
558.804197	0.999171
559.161345	0.999754
559.518437	0.998910
559.875474	0.999494
560.232455	0.999845
560.589381	0.999735
560.946251	0.999319
561.303065	0.999923
561.659825	0.998895
562.016528	1.000103
562.373177	0.999726
562.729770	0.998699
563.086307	0.998609
563.442789	0.999419
563.799216	0.999212
564.155587	0.999555
564.511904	1.000153
564.868164	0.998608
565.224370	0.999280
565.580520	0.999287
565.936615	0.999073
566.292654	0.998796
566.648638	1.000272
567.004567	0.999147
567.360441	0.999400
567.716260	0.999181
568.072023	0.998809
568.427732	0.999289
568.783385	0.999535
569.138982	0.999433
569.494525	0.999311
569.850013	0.999920
570.205445	0.999031
570.560823	0.999155
570.916145	0.998941
571.271412	0.999369
571.626625	0.999712
571.981782	0.999512
572.336884	0.999537
572.691931	0.999863
573.046923	0.999706
573.401860	0.999503
573.756743	0.999491
574.111570	0.999225
574.466342	1.000496
574.821059	0.999219
575.175722	1.000027
575.530330	0.999704
575.884882	0.999665
576.239380	0.999267
576.593823	0.999561
576.948211	0.998834
577.302544	0.999526
577.656823	0.999794
578.011047	0.998685
578.365216	1.000009
578.719330	0.999651
579.073389	0.999465
579.427394	0.998902
579.781344	0.999727
580.135239	0.998875
580.489080	0.999058
580.842866	0.999579
581.196597	0.999066
581.550273	0.998872
581.903895	0.999031
582.257463	0.999457
582.610975	0.999226
582.964434	0.999826
583.317837	0.999468
583.671186	1.000037
584.024481	0.999288
584.377721	0.999061
584.730906	0.999607
585.084037	0.999711
585.437113	0.999951
585.790135	0.999032
586.143103	0.999359
586.496016	0.999554
586.848874	1.000135
587.201679	0.999005
587.554428	0.998948
587.907124	0.999449
588.259765	1.000279
588.612352	1.000123
588.964884	1.000158
589.317362	0.998997
589.669786	0.999807
590.022155	0.998980
590.374470	0.999258
590.726731	0.997943
591.078937	0.999350
591.431090	0.999591
591.783188	0.998944
592.135232	0.999860
592.487222	0.999553
592.839157	0.998929
593.191038	0.999270
593.542866	0.999400
593.894639	0.998299
594.246358	0.999123
594.598022	0.999401
594.949633	0.999456
595.301190	0.998612
595.652692	0.999051
596.004141	0.999190
596.355535	0.998721
596.706876	0.999310
597.058162	0.998688
597.409395	0.998844
597.760573	0.999077
598.111698	0.999946
598.462768	0.998653
598.813785	0.998521
599.164748	0.998935
599.515657	0.998899
599.866511	0.999504
600.217312	1.000084
600.568060	0.999025
600.918753	0.999012
601.269392	0.999228
601.619978	0.999025
601.970510	0.999847
602.320988	0.998739
602.671412	0.998796
603.021783	0.999750
603.372100	1.000113
603.722363	0.999924
604.072572	0.999017
604.422728	0.999185
604.772830	0.999340
605.122878	0.999586
605.472872	0.999704
605.822813	0.998933
606.172701	0.999355
606.522534	0.998925
606.872314	0.999797
607.222041	0.999040
607.571714	0.999508
607.921333	0.999696
608.270899	0.998795
608.620411	0.999187
608.969870	1.000142
609.319276	0.999256
609.668627	0.999660
610.017926	0.999250
610.367171	0.999167
610.716362	0.999601
611.065500	0.998973
611.414585	0.999957
611.763616	0.998447
612.112594	0.999528
612.461518	0.998520
612.810389	0.999211
613.159207	0.999632
613.507971	0.999162
613.856682	0.999674
614.205340	0.998462
614.553945	0.999633
614.902496	0.999481
615.250994	0.999801
615.599439	0.999130
615.947830	0.998762
616.296169	0.999702
616.644454	0.999758
616.992686	0.998780
617.340864	0.999415
617.688990	0.999254
618.037063	0.998900
618.385082	0.997803
618.733048	0.999081
619.080961	0.999291
619.428821	0.999637
619.776628	0.998878
620.124382	0.999666
620.472083	0.999574
620.819731	1.000583
621.167326	0.999952
621.514868	0.999247
621.862357	0.999328
622.209793	0.999408
622.557176	0.999307
622.904506	0.998991
623.251783	0.998985
623.599007	0.999777
623.946179	0.999120
624.293297	0.999884
624.640363	0.999944
624.987376	0.998523
625.334336	0.998295
625.681243	0.999028
626.028097	0.999328
626.374899	0.999031
626.721647	1.000422
627.068343	0.999165
627.414987	0.999636
627.761577	0.998068
628.108115	0.999427
628.454600	0.999973
628.801032	1.000076
629.147412	0.998829
629.493739	0.999670
629.840014	0.998630
630.186236	0.998956
630.532405	1.000278
630.878521	0.998585
631.224585	1.000087
631.570597	0.998315
631.916556	0.999936
632.262462	0.998120
632.608316	0.999440
632.954117	0.998495
633.299866	0.999405
633.645562	0.999370
633.991206	0.999908
634.336797	0.998411
634.682336	0.999364
635.027823	0.999328
635.373257	0.999279
635.718639	0.999349
636.063968	0.999173
636.409245	0.999434
636.754470	0.999522
637.099642	0.999080
637.444762	0.999760
637.789829	0.998915
638.134845	0.999002
638.479808	0.999445
638.824719	0.999659
639.169577	0.999637
639.514383	0.999449
639.859137	0.999873
640.203839	0.999686
640.548489	0.998756
640.893086	0.998993
641.237632	0.999626
641.582125	0.999168
641.926566	1.000409
642.270955	0.999262
642.615292	0.998915
642.959576	0.999174
643.303809	0.998823
643.647990	0.999537
643.992118	0.999957
644.336195	0.998567
644.680219	0.998370
645.024192	0.999493
645.368112	0.998427
645.711981	0.998433
646.055797	0.999356
646.399562	0.998760
646.743274	0.999328
647.086935	0.998340
647.430544	0.998174
647.774101	0.998910
648.117606	1.000025
648.461059	0.999006
648.804460	0.999356
649.147810	0.998653
649.491108	0.999168
649.834354	0.999114
650.177548	0.998879
650.520690	0.998810
650.863781	0.998993
651.206820	0.998843
651.549807	0.999331
651.892742	0.999262
652.235626	0.999462
652.578458	0.998581
652.921238	1.000002
653.263967	0.999610
653.606644	0.998860
653.949269	0.999826
654.291843	0.998992
654.634365	0.999941
654.976836	0.997506
655.319255	1.000209
655.661622	0.999439
656.003938	0.998313
656.346203	0.998698
656.688416	0.999470
657.030577	0.999610
657.372687	0.998811
657.714746	0.998942
658.056753	0.999217
658.398708	0.998446
658.740612	0.999482
659.082465	0.999743
659.424266	0.999402
659.766016	0.998221
660.107715	0.999466
660.449362	0.998304
660.790958	0.998846
661.132503	1.000003
661.473996	0.998235
661.815438	0.998798
662.156829	0.999869
662.498168	1.000062
662.839456	0.998569
663.180693	0.999722
663.521879	0.999026
663.863013	0.999541
664.204097	0.998900
664.545129	0.999142
664.886110	0.999685
665.227040	0.998538
665.567918	0.998343
665.908746	0.998785
666.249522	0.998742
666.590248	0.997973
666.930922	0.997849
667.271545	0.999502
667.612118	0.998544
667.952639	0.999504
668.293109	0.999170
668.633528	0.998646
668.973896	0.998953
669.314213	0.998712
669.654480	0.999214
669.994695	0.998588
670.334859	0.999003
670.674973	0.998369
671.015035	0.999070
671.355047	0.999507
671.695008	0.998312
672.034918	0.999007
672.374777	0.998906
672.714585	0.998460
673.054342	1.000067
673.394049	0.998934
673.733705	0.998290
674.073310	0.999473
674.412864	0.999024
674.752368	0.998959
675.091820	1.000759
675.431223	0.999603
675.770574	0.998394
676.109875	0.999129
676.449125	0.998144
676.788324	0.998489
677.127473	0.999562
677.466571	0.999003
677.805619	0.999132
678.144616	0.999150
678.483562	0.998883
678.822458	0.998716
679.161303	0.998809
679.500098	0.999373
679.838842	0.998808
680.177535	0.999113
680.516179	0.997724
680.854771	0.998799
681.193314	0.998664
681.531805	0.998598
681.870247	0.998530
682.208638	0.998957
682.546978	0.998749
682.885268	0.999180
683.223508	0.998928
683.561697	0.998619
683.899836	0.999536
684.237925	0.998875
684.575963	0.998743
684.913951	0.999291
685.251889	0.998292
685.589776	0.998863
685.927614	0.998852
686.265401	0.998786
686.603137	0.998185
686.940824	0.998119
687.278460	0.999128
687.616046	0.997813
687.953582	0.998818
688.291068	0.999250
688.628504	0.998998
688.965889	0.998373
689.303224	0.997596
689.640510	0.998748
689.977745	0.998947
690.314930	0.998354
690.652065	0.998329
690.989150	0.998243
691.326185	0.999314
691.663170	0.998850
692.000105	0.999053
692.336990	0.998825
692.673825	0.999234
693.010610	0.998394
693.347345	0.998961
693.684030	0.998547
694.020665	0.998586
694.357251	0.998690
694.693786	0.999220
695.030272	0.997071
695.366707	0.999781
695.703093	0.998269
696.039429	0.998211
696.375716	0.999391
696.711952	0.998624
697.048139	0.999459
697.384276	0.998313
697.720363	0.998460
698.056400	0.997378
698.392388	0.998735
698.728326	0.998313
699.064214	0.999905
699.400053	0.998531
699.735842	0.999334
700.071581	0.998167
700.407270	0.998501
700.742910	0.998656
701.078501	0.998648
701.414042	0.998919
701.749533	0.998170
702.084974	0.997920
702.420366	0.999580
702.755709	0.998585
703.091002	0.998759
703.426246	0.998698
703.761440	0.998615
704.096584	0.997280
704.431679	0.998131
704.766725	0.997967
705.101721	0.999166
705.436668	0.998703
705.771565	0.998469
706.106413	0.997821
706.441212	0.998486
706.775961	0.998500
707.110661	0.998404
707.445311	0.998611
707.779913	0.999666
708.114465	0.999581
708.448967	0.998866
708.783421	0.999044
709.117825	0.998775
709.452180	0.999257
709.786485	0.998388
710.120742	0.997846
710.454949	0.998832
710.789107	0.998799
711.123216	0.997246
711.457275	0.997329
711.791286	0.997841
712.125247	0.999454
712.459159	0.998151
712.793023	0.998189
713.126837	0.998271
713.460602	0.998006
713.794318	0.997832
714.127985	0.997129
714.461602	0.997963
714.795171	0.998212
715.128691	0.998555
715.462162	0.999164
715.795584	0.998742
716.128957	0.999159
716.462281	0.998085
716.795556	0.997873
717.128782	0.998743
717.461960	0.998322
717.795088	0.998473
718.128167	0.999700
718.461198	0.998417
718.794180	0.999194
719.127113	0.997887
719.459997	0.997750
719.792833	0.998357
720.125619	0.997278
720.458357	0.998676
720.791046	0.998635
721.123686	0.998413
721.456278	0.998245
721.788821	0.997934
722.121315	0.999288
722.453761	0.999420
722.786158	0.998013
723.118506	0.999211
723.450805	0.997038
723.783056	0.998977
724.115259	0.998323
724.447412	0.999646
724.779518	0.998293
725.111574	0.997090
725.443582	0.998601
725.775542	0.997938
726.107453	0.998322
726.439315	0.999020
726.771129	0.998466
727.102895	0.998280
727.434612	0.998650
727.766281	0.998473
728.097901	0.998397
728.429473	0.998914
728.760996	0.997669
729.092471	0.997417
729.423897	0.998744
729.755276	0.997927
730.086606	0.997823
730.417887	0.998903
730.749120	0.998277
731.080305	0.997404
731.411442	0.997595
731.742530	0.997764
732.073570	0.997261
732.404562	0.997778
732.735506	0.998475
733.066401	0.998148
733.397249	0.998421
733.728048	0.998316
734.058798	0.999058
734.389501	0.998805
734.720156	0.998157
735.050762	0.998331
735.381320	0.998699
735.711831	0.999079
736.042293	0.997675
736.372707	0.998927
736.703073	0.996884
737.033391	0.997940
737.363661	0.998389
737.693883	0.998219
738.024056	0.998019
738.354182	0.998204
738.684260	0.998617
739.014290	0.998488
739.344272	0.998529
739.674207	0.997484
740.004093	0.998454
740.333931	0.997867
740.663722	0.997514
740.993464	0.998779
741.323159	0.997901
741.652806	0.998703
741.982405	0.998383
742.311956	0.999074
742.641460	0.999361
742.970915	0.997529
743.300323	0.997478
743.629683	0.998427
743.958996	0.999239
744.288260	0.997859
744.617477	0.999105
744.946647	0.997632
745.275768	0.999118
745.604842	0.997568
745.933869	0.998104
746.262847	0.998251
746.591778	0.996913
746.920662	0.998895
747.249498	0.999115
747.578286	0.999676
747.907027	0.998916
748.235720	0.998855
748.564365	0.998961
748.892963	0.997888
749.221514	0.999093
749.550017	0.997226
749.878473	0.998990
750.206881	0.999367
750.535242	0.997876
750.863555	0.997976
751.191821	0.998627
751.520039	0.998539
751.848210	0.996463
752.176334	0.997492
752.504411	0.997830
752.832440	0.997951
753.160421	0.998232
753.488356	0.998463
753.816243	0.997661
754.144082	0.998019
754.471875	0.999020
754.799620	0.998641
755.127318	0.998118
755.454969	0.998347
755.782572	0.999206
756.110129	0.998350
756.437638	0.998900
756.765100	0.998822
757.092515	0.997669
757.419882	0.998365
757.747203	0.997747
758.074477	0.999126
758.401703	0.999246
758.728882	0.998349
759.056014	0.997708
759.383099	0.998105
759.710138	0.997444
760.037129	0.998131
760.364073	0.998552
760.690970	0.997997
761.017820	0.997827
761.344623	0.998911
761.671379	0.999480
761.998088	0.998639
762.324751	0.998521
762.651366	0.996589
762.977935	0.997012
763.304456	0.997013
763.630931	0.996358
763.957359	0.996224
764.283740	0.996744
764.610074	0.998222
764.936362	0.997794
765.262602	0.997465
765.588796	0.998278
765.914943	0.997797
766.241044	0.998406
766.567097	0.997986
766.893104	0.998189
767.219064	0.998028
767.544978	0.998038
767.870845	0.998274
768.196665	0.998709
768.522438	0.999460
768.848165	0.998277
769.173846	0.998976
769.499479	0.999538
769.825066	0.999729
770.150607	0.999608
770.476101	0.997887
770.801548	0.999876
771.126949	0.999695
771.452303	0.999443
771.777611	0.998890
772.102872	0.998385
772.428087	0.998296
772.753256	0.998335
773.078378	0.998647
773.403453	0.997407
773.728482	0.999964
774.053465	0.998366
774.378401	0.999154
774.703291	0.999899
775.028135	0.998988
775.352932	0.997673
775.677683	0.999243
776.002388	0.999170
776.327046	0.998108
776.651658	0.999798
776.976224	0.999623
777.300743	0.998408
777.625216	0.997679
777.949643	0.998333
778.274024	0.997861
778.598359	0.998769
778.922647	0.998798
779.246889	0.999106
779.571086	0.997615
779.895236	0.998786
780.219339	0.998779
780.543397	0.997970
780.867409	0.998778
781.191374	0.998868
781.515294	1.000140
781.839167	0.999579
782.162995	0.999456
782.486776	0.998300
782.810511	0.999558
783.134201	0.999182
783.457844	0.998781
783.781441	0.998997
784.104993	0.998795
784.428498	0.999048
784.751958	0.999964
785.075372	0.999628
785.398739	0.997732
785.722061	0.998516
786.045337	0.998971
786.368568	0.999656
786.691752	0.998436
787.014891	0.997983
787.337983	0.997803
787.661030	0.998903
787.984031	0.999459
788.306987	0.997754
788.629897	0.998294
788.952760	0.997383
789.275579	0.998874
789.598351	0.998655
789.921078	0.999757
790.243759	0.998725
790.566395	0.998053
790.888984	0.998760
791.211529	0.998882
791.534027	0.999380
791.856480	0.998368
792.178888	0.998034
792.501249	0.999094
792.823566	1.000126
793.145836	0.998542
793.468062	0.999060
793.790241	0.999184
794.112375	0.998104
794.434464	0.998940
794.756507	0.999418
795.078505	0.998520
795.400457	0.999274
795.722364	0.999462
796.044226	0.999990
796.366042	0.998680
796.687812	0.997704
797.009538	0.998661
797.331218	0.999791
797.652852	0.999702
797.974442	0.998089
798.295986	0.998034
798.617484	0.998068
798.938938	0.998299
799.260346	0.998244
799.581709	0.996815
799.903026	0.999765
800.224299	0.998711
800.545526	0.998444
800.866708	0.997702
801.187845	0.999032
801.508936	0.999436
801.829983	0.999297
802.150984	0.997801
802.471940	0.998387
802.792851	0.999239
803.113717	0.999703
803.434538	0.999007
803.755314	0.998674
804.076045	0.999647
804.396731	0.998671
804.717372	0.997029
805.037967	0.999518
805.358518	0.998769
805.679024	0.998552
805.999485	0.999322
806.319901	0.999210
806.640272	0.998758
806.960598	0.999531
807.280879	0.998764
807.601115	0.999101
807.921306	0.999482
808.241453	0.998905
808.561554	0.998769
808.881611	0.999508
809.201623	0.998643
809.521590	0.999124
809.841513	0.999396
810.161390	0.998497
810.481223	0.997735
810.801011	0.999775
811.120755	1.000334
811.440453	0.998152
811.760107	0.998446
812.079716	0.998835
812.399281	0.998729
812.718801	0.998752
813.038276	0.999046
813.357707	0.999786
813.677093	0.999096
813.996434	0.998722
814.315731	1.000024
814.634983	0.999312
814.954191	0.999828
815.273354	0.999120
815.592473	0.997528
815.911547	0.999345
816.230577	0.998631
816.549562	0.998966
816.868502	0.997995
817.187399	0.998467
817.506250	0.998746
817.825058	0.997502
818.143821	0.999005
818.462539	0.999147
818.781213	0.999453
819.099843	0.998488
819.418429	0.997767
819.736970	0.998460
820.055466	0.997391
820.373919	0.997274
820.692327	0.997257
821.010691	0.998205
821.329011	0.995607
821.647286	0.994085
821.965517	0.992892
822.283704	0.992396
822.601847	0.991567
822.919945	0.992262
823.237999	0.993996
823.556010	0.994509
823.873976	0.995093
824.191897	0.995526
824.509775	0.995382
824.827609	0.996070
825.145398	0.997163
825.463144	0.994627
825.780845	0.995725
826.098502	0.996462
826.416116	0.996378
826.733685	0.995124
827.051210	0.994621
827.368692	0.994248
827.686129	0.994923
828.003522	0.996641
828.320872	0.996390
828.638177	0.996729
828.955439	0.998297
829.272656	0.997993
829.589830	0.997165
829.906960	0.998477
830.224046	0.997896
830.541088	0.996955
830.858086	0.997919
831.175041	0.999849
831.491952	0.998352
831.808819	0.998305
832.125642	0.997481
832.442421	0.999362
832.759157	0.998905
833.075849	0.997108
833.392497	0.996313
833.709101	0.996594
834.025662	0.996624
834.342179	0.996537
834.658653	0.997948
834.975083	0.997624
835.291469	0.998418
835.607811	0.998003
835.924110	0.998158
836.240366	0.998682
836.556578	0.999346
836.872746	0.999546
837.188871	0.998489
837.504952	0.998434
837.820990	0.999691
838.136984	0.998372
838.452935	0.998847
838.768842	0.999208
839.084706	0.998560
839.400526	0.998582
839.716303	0.996895
840.032037	0.998447
840.347727	0.998714
840.663373	0.997801
840.978977	0.998600
841.294537	0.999761
841.610054	0.998324
841.925527	0.998096
842.240957	0.998335
842.556344	0.998832
842.871687	0.998069
843.186987	0.998298
843.502244	0.999758
843.817458	0.999161
844.132629	0.998754
844.447756	0.999930
844.762840	0.998672
845.077881	1.000042
845.392879	0.998500
845.707833	0.999323
846.022745	1.000252
846.337613	0.999845
846.652438	0.998904
846.967221	1.000464
847.281960	0.999812
847.596656	1.000348
847.911309	0.999634
848.225919	0.998801
848.540485	0.999430
848.855009	1.001733
849.169490	0.999724
849.483928	0.998830
849.798323	0.997878
850.112675	0.999863
850.426984	0.998582
850.741251	0.998981
851.055474	0.999693
851.369654	0.999781
851.683792	0.999087
851.997887	0.999571
852.311938	0.999805
852.625947	0.998526
852.939914	0.998626
853.253837	1.000373
853.567718	0.999605
853.881555	0.999834
854.195350	0.998217
854.509103	0.998732
854.822812	0.999223
855.136479	1.000225
855.450103	0.999493
855.763685	0.999528
856.077224	0.999692
856.390720	0.998951
856.704173	0.999023
857.017584	1.000422
857.330953	0.998741
857.644278	0.999673
857.957561	0.999619
858.270802	0.999237
858.584000	1.000164
858.897155	0.999872
859.210268	0.999399
859.523339	0.999780
859.836367	0.999352
860.149352	0.998580
860.462295	0.999999
860.775195	0.998849
861.088054	0.997657
861.400869	0.999313
861.713642	0.999833
862.026373	1.000943
862.339062	0.998781
862.651708	0.998816
862.964312	0.999701
863.276873	0.999326
863.589392	0.999676
863.901869	0.998278
864.214303	0.999579
864.526696	0.999388
864.839045	0.999218
865.151353	0.999548
865.463619	1.000243
865.775842	1.000064
866.088023	1.000055
866.400162	0.999774
866.712258	0.999837
867.024313	1.000059
867.336325	1.000210
867.648296	1.000484
867.960224	0.998885
868.272110	0.999692
868.583954	1.000496
868.895755	0.999967
869.207515	0.999448
869.519233	0.999971
869.830909	0.999401
870.142542	0.999651
870.454134	0.999183
870.765684	0.999801
871.077191	0.999281
871.388657	0.999699
871.700081	1.000859
872.011463	1.000155
872.322803	0.999860
872.634101	0.998335
872.945357	0.998032
873.256571	0.998929
873.567744	0.998626
873.878874	0.998518
874.189963	0.999609
874.501010	1.000105
874.812015	0.999668
875.122979	0.999241
875.433900	0.999170
875.744780	0.999763
876.055618	0.998387
876.366415	0.998518
876.677169	0.997522
876.987882	0.998825
877.298554	1.000877
877.609183	0.998916
877.919771	0.999239
878.230317	1.000400
878.540822	0.997289
878.851285	0.998262
879.161707	0.997374
879.472087	0.999982
879.782425	0.998296
880.092722	0.997558
880.402977	0.996328
880.713191	0.994901
881.023363	0.993965
881.333494	0.993259
881.643583	0.993465
881.953631	0.993803
882.263637	0.992357
882.573602	0.992279
882.883526	0.995215
883.193408	0.996375
883.503248	0.995970
883.813048	0.995554
884.122806	0.996286
884.432522	0.997605
884.742197	0.998564
885.051831	0.997910
885.361424	0.998024
885.670975	0.999731
885.980485	0.997598
886.289954	0.999398
886.599382	0.997632
886.908768	0.999303
887.218113	0.997969
887.527417	0.998898
887.836680	1.000466
888.145901	0.999664
888.455082	1.000451
888.764221	0.999228
889.073319	0.998255
889.382376	1.000359
889.691392	0.997840
890.000366	1.000502
890.309300	0.999639
890.618193	0.999764
890.927044	0.998458
891.235855	0.998574
891.544625	0.998921
891.853353	0.999371
892.162041	0.999018
892.470687	0.999506
892.779293	0.999626
893.087858	0.997709
893.396381	0.998020
893.704864	0.998682
894.013306	0.998555
894.321707	0.998076
894.630068	0.996980
894.938387	0.996497
895.246665	0.997352
895.554903	0.996659
895.863100	0.997489
896.171256	0.998048
896.479371	0.998449
896.787446	0.997927
897.095480	0.998146
897.403473	0.998171
897.711425	0.997915
898.019336	0.999084
898.327207	0.998710
898.635038	0.997792
898.942827	0.999606
899.250576	0.997997
899.558284	0.998998
899.865952	0.998315
900.173579	0.998276
900.481165	0.998464
900.788711	0.998270
901.096216	0.998880
901.403681	0.999260
901.711105	0.999529
902.018489	0.998721
902.325832	0.998898
902.633135	0.998501
902.940397	0.999934
903.247619	0.999180
903.554800	0.998601
903.861941	0.996482
904.169041	0.997198
904.476101	0.996618
904.783121	0.994690
905.090100	0.997212
905.397039	0.997030
905.703938	0.997042
906.010796	0.997406
906.317614	0.996944
906.624391	0.999148
906.931129	0.998474
907.237826	0.998906
907.544483	0.998976
907.851099	0.998738
908.157675	0.998357
908.464211	0.998896
908.770707	0.998217
909.077163	0.999431
909.383578	0.999404
909.689954	0.999438
909.996289	0.999065
910.302584	1.000324
910.608839	1.000336
910.915054	0.999344
911.221229	1.000815
911.527363	0.999082
911.833458	0.998560
912.139513	0.999419
912.445527	0.998090
912.751502	0.998959
913.057436	0.998683
913.363331	0.998830
913.669186	1.000163
913.975000	0.998594
914.280775	0.999211
914.586510	0.997859
914.892205	0.997555
915.197859	0.997331
915.503475	0.997403
915.809050	0.996862
916.114585	0.996233
916.420081	0.996195
916.725536	0.997114
917.030952	0.996769
917.336328	0.996640
917.641665	0.996596
917.946961	0.997170
918.252218	0.997846
918.557435	0.996838
918.862612	0.999588
919.167750	0.998474
919.472848	0.999096
919.777906	0.999170
920.082925	0.999574
920.387904	0.999531
920.692843	0.998663
920.997743	0.998281
921.302603	1.000802
921.607423	0.999032
921.912204	0.999072
922.216946	1.000311
922.521647	1.000219
922.826310	0.998974
923.130932	0.999437
923.435516	0.999727
923.740059	0.999855
924.044564	0.999432
924.349028	0.998358
924.653454	1.000862
924.957840	0.999757
925.262186	0.998471
925.566493	0.998988
925.870761	0.999532
926.174989	0.997379
926.479178	1.000133
926.783328	0.999393
927.087438	0.999576
927.391509	0.997901
927.695541	0.999919
927.999533	1.000482
928.303486	0.999733
928.607400	1.000415
928.911275	1.001119
929.215110	0.999826
929.518906	1.000168
929.822663	0.999587
930.126381	1.001605
930.430060	0.999265
930.733699	1.000093
931.037299	1.000059
931.340861	0.999267
931.644383	0.999204
931.947866	1.000044
932.251309	1.001092
932.554714	0.999365
932.858080	1.001353
933.161407	0.998295
933.464694	0.998792
933.767943	0.997990
934.071153	0.999197
934.374323	1.000349
934.677455	0.999564
934.980548	0.999185
935.283602	0.999406
935.586617	0.998792
935.889593	1.001145
936.192530	0.999673
936.495428	0.999553
936.798287	0.999288
937.101108	0.999808
937.403890	0.999510
937.706632	1.000748
938.009336	0.999809
938.312002	0.999103
938.614628	1.000344
938.917216	0.998756
939.219765	0.998611
939.522275	1.000479
939.824747	0.998258
940.127179	0.998964
940.429573	0.999660
940.731929	0.999724
941.034246	0.998875
941.336524	0.998334
941.638763	0.998987
941.940964	0.998977
942.243126	0.998419
942.545250	0.999541
942.847335	0.999646
943.149381	1.000590
943.451389	0.998486
943.753359	0.999035
944.055290	0.999608
944.357182	0.999616
944.659036	1.000228
944.960851	0.999810
945.262628	0.999916
945.564367	0.999882
945.866067	0.998760
946.167729	1.000064
946.469352	1.000971
946.770937	0.996759
947.072484	1.001766
947.373992	0.999693
947.675462	0.999889
947.976893	0.999041
948.278286	1.001251
948.579641	1.001023
948.880958	0.998975
949.182236	0.999954
949.483476	1.000237
949.784678	0.999478
950.085841	0.997965
950.386967	0.999698
950.688054	1.000020
950.989103	0.998458
951.290114	0.997958
951.591087	0.999681
951.892021	0.999477
952.192917	0.999430
952.493776	1.000600
952.794596	0.999490
953.095378	0.998699
953.396122	1.000256
953.696828	1.000074
953.997496	1.000116
954.298126	1.000816
954.598718	0.999674
954.899272	0.999517
955.199788	0.999409
955.500266	0.999895
955.800706	0.999449
956.101108	1.000392
956.401472	1.001094
956.701798	0.999621
957.002087	1.000091
957.302337	0.999625
957.602550	0.999185
957.902724	0.999426
958.202861	0.999354
958.502960	0.998226
958.803022	1.000542
959.103045	1.000172
959.403031	1.001154
959.702979	1.001525
960.002889	0.999279
960.302762	0.999392
960.602596	1.001047
960.902393	1.000841
961.202153	0.999404
961.501875	1.000384
961.801559	1.000755
962.101205	0.999239
962.400814	1.000250
962.700385	1.000498
962.999918	1.000546
963.299414	0.999138
963.598873	1.000578
963.898293	1.000170
964.197677	0.998743
964.497022	1.000075
964.796331	0.999353
965.095601	1.000323
965.394835	0.998220
965.694030	1.000645
965.993189	0.999094
966.292309	1.000499
966.591393	0.998303
966.890439	1.000278
967.189447	0.999824
967.488419	0.999499
967.787353	0.999862
968.086249	1.000191
968.385108	0.999266
968.683930	1.000890
968.982714	0.999620
969.281462	1.000299
969.580172	0.999415
969.878844	1.000803
970.177480	0.999445
970.476078	1.001172
970.774639	0.999660
971.073162	0.999584
971.371649	1.000076
971.670098	0.998544
971.968510	1.000137
972.266885	0.998749
972.565223	0.999293
972.863524	0.999060
973.161788	0.998967
973.460014	1.000428
973.758204	0.999485
974.056356	1.000099
974.354471	0.999544
974.652550	1.000061
974.950591	0.999332
975.248595	0.999430
975.546563	1.000975
975.844493	1.000008
976.142386	0.998803
976.440243	0.999309
976.738062	1.000362
977.035845	0.998993
977.333590	1.001386
977.631299	0.999309
977.928971	0.998950
978.226606	0.998968
978.524204	0.999397
978.821765	1.000835
979.119290	1.000741
979.416777	0.999830
979.714228	0.998993
980.011642	1.000806
980.309020	0.999268
980.606360	0.998978
980.903664	0.998613
981.200931	0.998890
981.498162	0.999580
981.795356	1.000567
982.092513	0.998728
982.389633	1.000330
982.686717	0.998259
982.983764	0.998971
983.280775	1.000379
983.577749	0.999980
983.874686	0.997685
984.171587	0.999601
984.468451	0.999427
984.765279	1.000172
985.062070	1.000158
985.358824	0.999100
985.655543	1.000880
985.952224	0.999527
986.248869	0.999228
986.545478	1.001102
986.842050	0.999536
987.138586	0.998830
987.435086	0.999989
987.731549	0.999844
988.027975	1.001548
988.324366	0.999890
988.620719	1.000388
988.917037	0.999763
989.213318	1.001420
989.509563	1.000050
989.805772	1.001454
990.101944	1.000599
990.398080	1.000622
990.694180	1.000508
990.990244	0.999617
991.286271	0.999761
991.582262	1.000917
991.878217	1.000086
992.174136	1.000192
992.470019	0.999416
992.765865	1.001550
993.061676	1.000372
993.357450	1.000636
993.653188	1.000172
993.948890	0.998551
994.244556	0.999380
994.540186	0.998524
994.835780	0.999443
995.131337	1.000420
995.426859	0.998799
995.722345	1.000298
996.017795	0.999199
996.313208	0.999518
996.608586	1.000007
996.903928	0.999858
997.199234	0.999759
997.494504	1.000699
997.789738	1.000144
998.084936	1.000315
998.380099	0.999856
998.675225	0.999247
998.970316	1.001116
999.265371	0.999652
999.560390	0.999784
999.855373	0.999588
1000.150320	0.999490
1000.445232	0.999629
1000.740108	0.999049
1001.034948	0.999303
1001.329752	1.000519
1001.624521	0.999553
1001.919254	0.999308
1002.213951	0.999825
1002.508613	0.999326
1002.803239	1.000107
1003.097829	0.999253
1003.392384	0.999690
1003.686903	1.000422
1003.981386	0.999120
1004.275834	1.001435
1004.570246	0.999495
1004.864623	1.000899
1005.158964	0.999974
1005.453270	0.999670
1005.747540	0.999364
1006.041775	1.000321
1006.335974	0.999880
1006.630138	1.001025
1006.924266	0.999413
1007.218359	0.998829
1007.512416	1.001359
1007.806438	1.000350
1008.100425	1.000218
1008.394376	1.000770
1008.688292	0.998763
1008.982172	0.999314
1009.276017	0.999559
1009.569827	0.999391
1009.863602	0.998523
1010.157341	0.999873
1010.451045	1.000144
1010.744714	1.001613
1011.038347	1.000241
1011.331945	1.000002
1011.625508	0.999369
1011.919036	0.999413
1012.212528	1.000800
1012.505986	0.999382
1012.799408	0.999706
1013.092795	1.000588
1013.386147	0.999731
1013.679464	0.999563
1013.972745	1.000421
1014.265992	1.000291
1014.559204	0.998787
1014.852380	0.999531
1015.145521	1.000158
1015.438628	0.999930
1015.731699	0.998580
1016.024736	1.001746
1016.317737	1.000084
1016.610703	1.001030
1016.903635	1.000022
1017.196531	0.999509
1017.489393	0.999285
1017.782219	0.999640
1018.075011	0.998656
1018.367768	0.999151
1018.660490	1.000170
1018.953177	1.000170
1019.245829	1.000170
