Dividing Wavelength (nm)	Counts (n)	Blue Motor Position (mm): 6.100000	Red Motor Position (mm): 0.000000	
326.493990	1.005386
326.888308	1.005386
327.282561	1.005386
327.676750	1.006981
328.070874	1.007661
328.464933	1.007014
328.858929	1.007068
329.252859	1.006941
329.646726	1.006378
330.040528	1.004454
330.434265	1.007301
330.827938	1.005997
331.221547	1.006653
331.615091	1.007798
332.008571	1.007627
332.401986	1.004742
332.795338	1.005317
333.188625	1.005741
333.581847	1.005778
333.975006	1.006613
334.368100	1.006282
334.761129	1.005725
335.154095	1.006172
335.546996	1.004916
335.939833	0.997934
336.332606	0.999297
336.725315	0.999008
337.117960	1.000155
337.510540	0.999277
337.903056	0.999557
338.295508	1.001056
338.687896	0.999937
339.080220	0.998712
339.472480	0.998757
339.864676	0.999272
340.256807	0.998315
340.648875	0.999173
341.040879	0.999503
341.432818	1.000561
341.824694	0.998666
342.216506	0.999001
342.608253	0.999380
342.999937	0.998710
343.391557	0.998576
343.783113	1.000304
344.174605	0.998642
344.566033	0.998511
344.957397	0.999476
345.348697	0.999678
345.739934	0.999700
346.131106	0.998417
346.522215	0.998464
346.913260	0.998198
347.304241	0.998679
347.695159	0.998507
348.086012	0.999058
348.476802	0.998648
348.867528	0.998615
349.258191	0.999653
349.648789	0.998660
350.039324	0.998358
350.429796	0.999621
350.820203	0.998051
351.210548	0.998959
351.600828	0.997887
351.991045	0.997303
352.381198	0.998898
352.771288	0.998432
353.161314	0.998571
353.551276	0.997935
353.941175	0.997318
354.331010	0.998541
354.720782	0.997782
355.110490	0.998874
355.500135	0.998598
355.889717	0.997156
356.279235	0.997089
356.668689	0.997277
357.058080	0.998533
357.447408	0.997485
357.836672	0.998157
358.225873	0.998350
358.615010	0.997965
359.004084	0.996679
359.393095	0.998094
359.782043	0.997198
360.170927	0.997441
360.559748	0.998596
360.948505	0.996129
361.337199	0.997737
361.725830	0.997285
362.114398	0.997293
362.502903	0.997291
362.891344	0.995882
363.279722	0.996632
363.668037	0.997535
364.056289	0.995964
364.444478	0.998230
364.832603	0.996522
365.220665	0.996755
365.608665	0.996718
365.996601	0.996999
366.384474	0.995777
366.772284	0.996215
367.160031	0.994870
367.547715	0.995089
367.935336	0.994347
368.322893	0.993700
368.710388	0.992526
369.097820	0.991785
369.485189	0.988044
369.872495	0.987077
370.259738	0.984412
370.646918	0.981595
371.034035	0.979143
371.421090	0.976182
371.808081	0.971122
372.195010	0.969976
372.581875	0.963042
372.968678	0.959746
373.355418	0.956049
373.742096	0.949081
374.128710	0.944001
374.515262	0.940387
374.901751	0.932706
375.288177	0.928627
375.674540	0.921482
376.060841	0.916241
376.447079	0.908702
376.833254	0.902681
377.219367	0.897557
377.605417	0.885901
377.991404	0.883357
378.377329	0.876701
378.763191	0.870041
379.148991	0.861508
379.534727	0.853859
379.920402	0.845019
380.306013	0.842105
380.691563	0.828905
381.077049	0.822165
381.462474	0.818306
381.847835	0.806866
382.233134	0.802927
382.618371	0.802167
383.003545	0.786076
383.388657	0.783463
383.773706	0.775401
384.158693	0.771453
384.543618	0.765506
384.928480	0.756730
385.313280	0.746424
385.698017	0.746868
386.082692	0.735760
386.467305	0.734103
386.851856	0.728748
387.236344	0.722377
387.620770	0.717187
388.005133	0.711990
388.389435	0.706140
388.773674	0.704595
389.157851	0.695593
389.541965	0.693130
389.926018	0.699458
390.310008	0.686272
390.693936	0.683706
391.077802	0.675684
391.461606	0.677359
391.845348	0.666477
392.229027	0.666051
392.612645	0.663320
392.996200	0.650877
393.379694	0.643460
393.763125	0.633872
394.146494	0.638752
394.529801	0.629014
394.913047	0.621027
395.296230	0.627845
395.679351	0.618360
396.062410	0.616130
396.445408	0.617573
396.828343	0.613363
397.211217	0.608200
397.594028	0.620672
397.976778	0.611102
398.359466	0.607467
398.742092	0.602901
399.124656	0.615184
399.507158	0.602926
399.889598	0.600594
400.271977	0.591977
400.654294	0.595569
401.036549	0.594281
401.418742	0.598847
401.800874	0.584165
402.182944	0.581309
402.564952	0.573232
402.946898	0.574955
403.328783	0.575535
403.710606	0.586890
404.092367	0.561709
404.474067	0.566607
404.855705	0.565442
405.237282	0.574065
405.618797	0.560950
406.000250	0.556345
406.381642	0.546510
406.762972	0.551810
407.144240	0.550311
407.525447	0.549820
407.906593	0.542323
408.287677	0.538411
408.668700	0.547018
409.049661	0.541022
409.430560	0.535590
409.811399	0.544321
410.192176	0.526041
410.572891	0.533765
410.953545	0.521755
411.334138	0.534870
411.714669	0.527594
412.095139	0.539855
412.475547	0.523762
412.855894	0.525983
413.236180	0.525087
413.616405	0.529837
413.996568	0.520174
414.376670	0.526149
414.756711	0.531464
415.136691	0.528337
415.516609	0.519557
415.896466	0.516358
416.276262	0.512363
416.655997	0.514185
417.035670	0.495475
417.415283	0.487606
417.794834	0.492033
418.174324	0.497210
418.553753	0.506255
418.933121	0.488267
419.312428	0.482365
419.691674	0.488249
420.070859	0.476786
420.449983	0.484363
420.829045	0.473736
421.208047	0.482600
421.586988	0.475372
421.965867	0.475045
422.344686	0.462949
422.723444	0.476411
423.102141	0.493338
423.480777	0.465557
423.859352	0.486592
424.237866	0.463509
424.616319	0.464638
424.994712	0.455618
425.373044	0.465878
425.751314	0.453868
426.129524	0.470420
426.507673	0.453609
426.885762	0.447471
427.263789	0.452886
427.641756	0.462359
428.019662	0.452796
428.397508	0.452486
428.775292	0.456349
429.153016	0.448365
429.530679	0.454432
429.908282	0.447919
430.285824	0.457619
430.663305	0.436062
431.040726	0.457254
431.418086	0.457445
431.795385	0.449128
432.172624	0.448284
432.549802	0.448535
432.926920	0.447490
433.303977	0.447137
433.680974	0.443953
434.057910	0.442836
434.434786	0.441503
434.811601	0.444608
435.188355	0.426986
435.565050	0.436490
435.941683	0.437620
436.318257	0.421504
436.694770	0.422443
437.071222	0.420534
437.447614	0.425143
437.823946	0.431518
438.200218	0.420901
438.576429	0.430218
438.952580	0.423312
439.328670	0.419796
439.704700	0.426760
440.080670	0.427699
440.456580	0.409000
440.832429	0.417285
441.208218	0.427945
441.583947	0.417184
441.959616	0.416695
442.335224	0.422310
442.710773	0.412686
443.086261	0.411210
443.461689	0.424687
443.837057	0.414207
444.212365	0.404767
444.587612	0.411838
444.962800	0.401290
445.337927	0.403027
445.712995	0.428801
446.088002	0.390945
446.462949	0.401644
446.837837	0.406430
447.212664	0.394694
447.587431	0.386606
447.962139	0.356633
448.336786	0.316128
448.711374	0.326508
449.085901	0.371016
449.460369	0.374776
449.834776	0.378910
450.209124	0.358129
450.583412	0.350459
450.957640	0.343685
451.331808	0.354673
451.705917	0.378320
452.079965	0.382949
452.453954	0.371077
452.827883	0.378171
453.201752	0.372847
453.575562	0.384067
453.949311	0.372705
454.323001	0.378294
454.696632	0.374507
455.070202	0.367023
455.443713	0.358885
455.817164	0.353711
456.190556	0.349620
456.563888	0.346305
456.937160	0.343563
457.310373	0.361166
457.683526	0.359941
458.056619	0.366069
458.429653	0.366200
458.802628	0.369731
459.175542	0.364222
459.548398	0.346184
459.921194	0.338815
460.293930	0.339260
460.666607	0.316792
461.039224	0.304872
461.411782	0.300403
461.784280	0.299589
462.156719	0.304036
462.529099	0.308205
462.901419	0.324373
463.273680	0.328491
463.645882	0.327839
464.018024	0.334066
464.390106	0.326780
464.762130	0.311259
465.134094	0.294475
465.505999	0.263572
465.877845	0.233676
466.249631	0.220618
466.621358	0.228035
466.993026	0.242094
467.364634	0.248155
467.736184	0.257087
468.107674	0.265930
468.479105	0.265019
468.850477	0.271828
469.221790	0.278564
469.593043	0.288599
469.964238	0.293474
470.335373	0.293197
470.706449	0.291354
471.077467	0.291684
471.448425	0.253558
471.819324	0.229404
472.190164	0.228723
472.560945	0.257893
472.931667	0.280414
473.302330	0.284125
473.672934	0.296117
474.043479	0.284116
474.413965	0.286138
474.784393	0.289389
475.154761	0.284391
475.525070	0.281474
475.895321	0.287513
476.265513	0.281774
476.635645	0.276946
477.005719	0.276772
477.375734	0.273143
477.745691	0.266626
478.115588	0.263131
478.485427	0.256280
478.855207	0.243592
479.224928	0.225567
479.594591	0.213760
479.964194	0.217240
480.333739	0.218572
480.703226	0.219939
481.072653	0.218025
481.442022	0.213717
481.811333	0.210677
482.180584	0.214144
482.549777	0.219521
482.918912	0.222590
483.287988	0.222220
483.657005	0.221963
484.025964	0.228624
484.394864	0.225634
484.763706	0.226586
485.132489	0.231483
485.501213	0.232356
485.869879	0.230423
486.238487	0.233764
486.607036	0.231760
486.975527	0.236298
487.343959	0.232347
487.712333	0.231312
488.080648	0.232760
488.448905	0.231792
488.817104	0.233028
489.185244	0.227591
489.553326	0.224592
489.921350	0.214085
490.289315	0.196652
490.657222	0.191597
491.025070	0.193068
491.392861	0.195177
491.760593	0.200792
492.128267	0.206537
492.495883	0.211877
492.863440	0.218059
493.230939	0.224810
493.598380	0.226292
493.965763	0.228265
494.333088	0.230577
494.700354	0.232131
495.067563	0.231026
495.434713	0.234375
495.801805	0.232042
496.168839	0.233776
496.535815	0.235347
496.902733	0.234941
497.269593	0.236560
497.636395	0.234149
498.003139	0.234620
498.369825	0.237737
498.736453	0.233926
499.103023	0.235666
499.469535	0.235200
499.835989	0.235286
500.202385	0.236003
500.568723	0.239276
500.935003	0.234318
501.301226	0.238763
501.667390	0.232992
502.033497	0.231060
502.399546	0.233835
502.765537	0.236052
503.131470	0.234509
503.497345	0.230988
503.863163	0.239404
504.228923	0.232343
504.594625	0.231008
504.960269	0.236443
505.325856	0.231871
505.691385	0.236193
506.056856	0.233144
506.422270	0.232284
506.787625	0.234754
507.152924	0.232035
507.518164	0.232781
507.883347	0.234391
508.248472	0.236313
508.613540	0.231084
508.978550	0.233685
509.343503	0.233774
509.708398	0.231793
510.073236	0.229330
510.438016	0.228979
510.802738	0.230118
511.167403	0.228969
511.532010	0.231244
511.896561	0.226386
512.261053	0.224935
512.625488	0.227587
512.989866	0.227560
513.354186	0.227724
513.718449	0.229773
514.082655	0.226272
514.446803	0.228583
514.810894	0.225930
515.174927	0.228733
515.538904	0.228298
515.902822	0.225288
516.266684	0.227384
516.630488	0.228791
516.994235	0.227617
517.357925	0.226542
517.721558	0.224544
518.085133	0.224250
518.448651	0.224098
518.812112	0.226637
519.175516	0.226196
519.538863	0.223561
519.902152	0.225287
520.265385	0.222041
520.628560	0.223966
520.991678	0.224326
521.354739	0.222992
521.717743	0.224337
522.080690	0.224925
522.443580	0.222268
522.806413	0.223188
523.169189	0.222391
523.531908	0.221157
523.894569	0.224947
524.257174	0.224919
524.619722	0.222486
524.982213	0.223470
525.344647	0.222478
525.707025	0.223495
526.069345	0.221537
526.431608	0.223262
526.793815	0.221296
527.155964	0.225578
527.518057	0.224301
527.880093	0.225373
528.242072	0.223751
528.603995	0.225880
528.965860	0.227503
529.327669	0.226482
529.689421	0.227303
530.051117	0.228136
530.412755	0.226016
530.774337	0.227982
531.135862	0.228589
531.497331	0.227982
531.858743	0.230809
532.220098	0.227496
532.581396	0.229939
532.942638	0.230353
533.303824	0.231283
533.664953	0.231114
534.026025	0.232882
534.387040	0.230932
534.747999	0.230600
535.108902	0.229775
535.469748	0.234833
535.830537	0.232717
536.191270	0.233076
536.551947	0.232331
536.912567	0.232547
537.273131	0.234078
537.633638	0.234443
537.994089	0.235025
538.354483	0.235732
538.714821	0.232741
539.075103	0.232793
539.435328	0.233511
539.795497	0.237140
540.155609	0.233900
540.515665	0.231969
540.875665	0.237699
541.235609	0.235983
541.595496	0.236063
541.955328	0.232622
542.315102	0.235414
542.674821	0.236373
543.034483	0.236771
543.394090	0.236071
543.753640	0.238095
544.113134	0.232801
544.472571	0.236602
544.831953	0.233099
545.191278	0.237672
545.550548	0.236730
545.909761	0.233842
546.268918	0.234336
546.628019	0.232459
546.987064	0.235211
547.346053	0.237003
547.704986	0.235154
548.063863	0.235010
548.422684	0.235418
548.781449	0.237064
549.140158	0.234891
549.498811	0.237682
549.857408	0.240815
550.215949	0.235298
550.574434	0.238759
550.932864	0.236942
551.291237	0.235246
551.649555	0.236734
552.007817	0.236215
552.366022	0.237710
552.724173	0.237364
553.082267	0.237949
553.440305	0.234618
553.798288	0.239048
554.156215	0.235546
554.514086	0.236181
554.871902	0.239452
555.229661	0.238732
555.587365	0.239365
555.945014	0.242079
556.302606	0.238630
556.660143	0.241541
557.017625	0.237664
557.375050	0.239956
557.732421	0.236945
558.089735	0.238971
558.446994	0.239111
558.804197	0.238259
559.161345	0.237957
559.518437	0.241642
559.875474	0.239836
560.232455	0.239158
560.589381	0.240232
560.946251	0.240376
561.303065	0.237733
561.659825	0.238944
562.016528	0.240821
562.373177	0.243615
562.729770	0.240900
563.086307	0.242580
563.442789	0.240448
563.799216	0.243532
564.155587	0.242244
564.511904	0.243485
564.868164	0.243455
565.224370	0.243027
565.580520	0.245086
565.936615	0.244931
566.292654	0.247939
566.648638	0.245012
567.004567	0.246018
567.360441	0.246332
567.716260	0.248284
568.072023	0.246099
568.427732	0.246903
568.783385	0.249345
569.138982	0.247468
569.494525	0.247136
569.850013	0.250248
570.205445	0.248508
570.560823	0.251006
570.916145	0.252843
571.271412	0.251508
571.626625	0.252982
571.981782	0.253095
572.336884	0.254122
572.691931	0.253958
573.046923	0.255063
573.401860	0.256212
573.756743	0.258240
574.111570	0.256446
574.466342	0.257517
574.821059	0.256486
575.175722	0.259433
575.530330	0.259283
575.884882	0.259489
576.239380	0.261527
576.593823	0.261940
576.948211	0.261572
577.302544	0.264569
577.656823	0.264249
578.011047	0.263998
578.365216	0.265089
578.719330	0.267168
579.073389	0.266714
579.427394	0.267998
579.781344	0.268794
580.135239	0.270116
580.489080	0.269685
580.842866	0.272770
581.196597	0.273307
581.550273	0.271585
581.903895	0.272750
582.257463	0.270627
582.610975	0.273824
582.964434	0.273667
583.317837	0.275579
583.671186	0.276207
584.024481	0.276079
584.377721	0.278967
584.730906	0.279523
585.084037	0.278761
585.437113	0.280548
585.790135	0.280093
586.143103	0.283230
586.496016	0.284318
586.848874	0.281655
587.201679	0.282108
587.554428	0.285511
587.907124	0.284621
588.259765	0.285128
588.612352	0.285519
588.964884	0.289397
589.317362	0.288997
589.669786	0.288834
590.022155	0.287186
590.374470	0.286929
590.726731	0.288952
591.078937	0.293973
591.431090	0.290337
591.783188	0.293984
592.135232	0.294823
592.487222	0.294627
592.839157	0.292966
593.191038	0.294796
593.542866	0.296796
593.894639	0.300427
594.246358	0.298804
594.598022	0.298271
594.949633	0.301628
595.301190	0.302288
595.652692	0.301324
596.004141	0.297546
596.355535	0.305673
596.706876	0.306243
597.058162	0.308650
597.409395	0.305779
597.760573	0.303864
598.111698	0.306996
598.462768	0.307651
598.813785	0.308652
599.164748	0.309848
599.515657	0.310207
599.866511	0.313879
600.217312	0.308978
600.568060	0.314455
600.918753	0.310861
601.269392	0.311264
601.619978	0.314972
601.970510	0.312312
602.320988	0.312150
602.671412	0.310286
603.021783	0.312897
603.372100	0.313994
603.722363	0.313651
604.072572	0.314763
604.422728	0.314510
604.772830	0.317020
605.122878	0.316287
605.472872	0.316895
605.822813	0.314960
606.172701	0.318027
606.522534	0.315293
606.872314	0.315410
607.222041	0.316196
607.571714	0.314644
607.921333	0.315388
608.270899	0.315252
608.620411	0.312369
608.969870	0.316054
609.319276	0.316115
609.668627	0.315965
610.017926	0.314878
610.367171	0.313272
610.716362	0.313937
611.065500	0.313933
611.414585	0.312811
611.763616	0.313495
612.112594	0.313529
612.461518	0.313050
612.810389	0.310991
613.159207	0.313096
613.507971	0.314895
613.856682	0.310891
614.205340	0.311972
614.553945	0.309444
614.902496	0.312760
615.250994	0.311227
615.599439	0.311492
615.947830	0.311010
616.296169	0.312155
616.644454	0.311615
616.992686	0.311782
617.340864	0.309560
617.688990	0.313265
618.037063	0.309848
618.385082	0.311646
618.733048	0.308598
619.080961	0.310257
619.428821	0.310089
619.776628	0.309501
620.124382	0.312533
620.472083	0.312687
620.819731	0.311764
621.167326	0.315993
621.514868	0.315296
621.862357	0.319557
622.209793	0.319007
622.557176	0.321582
622.904506	0.322721
623.251783	0.324636
623.599007	0.327151
623.946179	0.326546
624.293297	0.328495
624.640363	0.332615
624.987376	0.333357
625.334336	0.335287
625.681243	0.337926
626.028097	0.338351
626.374899	0.339744
626.721647	0.339933
627.068343	0.342966
627.414987	0.344409
627.761577	0.346178
628.108115	0.344416
628.454600	0.349771
628.801032	0.346876
629.147412	0.349265
629.493739	0.350035
629.840014	0.352776
630.186236	0.349759
630.532405	0.355794
630.878521	0.353027
631.224585	0.355284
631.570597	0.358735
631.916556	0.357535
632.262462	0.357046
632.608316	0.359858
632.954117	0.360470
633.299866	0.361021
633.645562	0.361500
633.991206	0.365999
634.336797	0.368654
634.682336	0.371862
635.027823	0.372735
635.373257	0.373349
635.718639	0.377080
636.063968	0.376235
636.409245	0.382017
636.754470	0.382434
637.099642	0.385239
637.444762	0.388586
637.789829	0.387785
638.134845	0.390509
638.479808	0.391860
638.824719	0.391712
639.169577	0.396199
639.514383	0.394531
639.859137	0.399136
640.203839	0.398904
640.548489	0.399224
640.893086	0.400122
641.237632	0.402389
641.582125	0.401210
641.926566	0.403192
642.270955	0.402513
642.615292	0.402857
642.959576	0.401977
643.303809	0.402628
643.647990	0.402271
643.992118	0.402749
644.336195	0.406430
644.680219	0.404626
645.024192	0.405478
645.368112	0.398900
645.711981	0.397545
646.055797	0.392949
646.399562	0.395305
646.743274	0.388102
647.086935	0.384707
647.430544	0.384807
647.774101	0.383363
648.117606	0.383595
648.461059	0.383879
648.804460	0.386391
649.147810	0.391708
649.491108	0.393156
649.834354	0.395381
650.177548	0.400390
650.520690	0.405873
650.863781	0.406993
651.206820	0.406024
651.549807	0.410611
651.892742	0.415504
652.235626	0.414445
652.578458	0.415081
652.921238	0.421548
653.263967	0.419098
653.606644	0.422666
653.949269	0.423392
654.291843	0.426970
654.634365	0.424215
654.976836	0.426668
655.319255	0.427417
655.661622	0.428546
656.003938	0.428414
656.346203	0.431562
656.688416	0.429706
657.030577	0.432713
657.372687	0.435201
657.714746	0.435953
658.056753	0.433024
658.398708	0.435851
658.740612	0.438023
659.082465	0.433673
659.424266	0.434290
659.766016	0.434061
660.107715	0.437012
660.449362	0.435395
660.790958	0.436262
661.132503	0.437108
661.473996	0.433952
661.815438	0.435447
662.156829	0.435536
662.498168	0.436102
662.839456	0.437110
663.180693	0.435423
663.521879	0.434988
663.863013	0.436357
664.204097	0.434124
664.545129	0.431622
664.886110	0.432312
665.227040	0.429294
665.567918	0.431976
665.908746	0.429631
666.249522	0.429559
666.590248	0.430388
666.930922	0.428419
667.271545	0.427699
667.612118	0.427485
667.952639	0.429290
668.293109	0.427894
668.633528	0.430191
668.973896	0.430217
669.314213	0.430951
669.654480	0.432669
669.994695	0.432687
670.334859	0.433832
670.674973	0.434007
671.015035	0.433611
671.355047	0.434075
671.695008	0.435178
672.034918	0.436951
672.374777	0.436290
672.714585	0.437117
673.054342	0.437873
673.394049	0.437256
673.733705	0.435437
674.073310	0.436742
674.412864	0.438961
674.752368	0.439958
675.091820	0.440259
675.431223	0.444930
675.770574	0.443774
676.109875	0.447262
676.449125	0.447170
676.788324	0.449277
677.127473	0.454969
677.466571	0.454860
677.805619	0.456763
678.144616	0.457894
678.483562	0.459794
678.822458	0.462437
679.161303	0.462318
679.500098	0.463212
679.838842	0.464876
680.177535	0.464273
680.516179	0.462309
680.854771	0.461759
681.193314	0.455026
681.531805	0.446092
681.870247	0.435211
682.208638	0.427086
682.546978	0.427210
682.885268	0.428503
683.223508	0.434241
683.561697	0.438809
683.899836	0.441105
684.237925	0.444346
684.575963	0.447739
684.913951	0.450387
685.251889	0.445498
685.589776	0.447792
685.927614	0.449897
686.265401	0.444615
686.603137	0.445743
686.940824	0.439654
687.278460	0.438223
687.616046	0.437689
687.953582	0.432906
688.291068	0.433903
688.628504	0.429208
688.965889	0.431740
689.303224	0.436285
689.640510	0.439911
689.977745	0.444879
690.314930	0.452892
690.652065	0.457900
690.989150	0.465714
691.326185	0.471903
691.663170	0.476621
692.000105	0.483879
692.336990	0.490813
692.673825	0.493457
693.010610	0.500157
693.347345	0.506329
693.684030	0.507482
694.020665	0.511986
694.357251	0.520737
694.693786	0.521074
695.030272	0.524099
695.366707	0.528064
695.703093	0.532153
696.039429	0.529451
696.375716	0.531850
696.711952	0.534070
697.048139	0.536153
697.384276	0.538081
697.720363	0.536653
698.056400	0.534940
698.392388	0.541553
698.728326	0.544186
699.064214	0.546732
699.400053	0.547050
699.735842	0.551048
700.071581	0.553937
700.407270	0.556919
700.742910	0.559553
701.078501	0.566220
701.414042	0.566400
701.749533	0.569639
702.084974	0.579532
702.420366	0.570959
702.755709	0.578703
703.091002	0.586455
703.426246	0.580022
703.761440	0.585582
704.096584	0.590034
704.431679	0.587444
704.766725	0.589145
705.101721	0.591728
705.436668	0.586936
705.771565	0.594660
706.106413	0.590325
706.441212	0.586693
706.775961	0.585963
707.110661	0.588225
707.445311	0.583989
707.779913	0.581846
708.114465	0.580396
708.448967	0.577215
708.783421	0.568942
709.117825	0.563810
709.452180	0.562903
709.786485	0.557387
710.120742	0.546757
710.454949	0.548741
710.789107	0.541364
711.123216	0.531792
711.457275	0.532346
711.791286	0.524846
712.125247	0.524524
712.459159	0.534752
712.793023	0.526423
713.126837	0.530810
713.460602	0.531261
713.794318	0.539788
714.127985	0.539666
714.461602	0.549698
714.795171	0.552226
715.128691	0.560748
715.462162	0.568583
715.795584	0.574707
716.128957	0.576721
716.462281	0.583373
716.795556	0.586502
717.128782	0.592714
717.461960	0.601911
717.795088	0.600375
718.128167	0.606539
718.461198	0.614749
718.794180	0.616090
719.127113	0.618487
719.459997	0.621934
719.792833	0.627783
720.125619	0.629358
720.458357	0.635108
720.791046	0.635178
721.123686	0.638888
721.456278	0.645481
721.788821	0.642952
722.121315	0.647903
722.453761	0.651959
722.786158	0.648209
723.118506	0.645462
723.450805	0.653385
723.783056	0.649897
724.115259	0.646763
724.447412	0.646818
724.779518	0.648322
725.111574	0.646661
725.443582	0.642447
725.775542	0.644791
726.107453	0.636663
726.439315	0.636420
726.771129	0.635388
727.102895	0.629042
727.434612	0.621358
727.766281	0.619764
728.097901	0.618644
728.429473	0.617878
728.760996	0.616629
729.092471	0.616654
729.423897	0.620717
729.755276	0.619218
730.086606	0.619238
730.417887	0.614469
730.749120	0.604911
731.080305	0.596197
731.411442	0.592454
731.742530	0.596098
732.073570	0.595967
732.404562	0.587834
732.735506	0.589890
733.066401	0.593881
733.397249	0.603260
733.728048	0.615552
734.058798	0.627784
734.389501	0.638998
734.720156	0.648958
735.050762	0.656146
735.381320	0.657099
735.711831	0.665657
736.042293	0.670179
736.372707	0.667325
736.703073	0.671466
737.033391	0.673557
737.363661	0.670119
737.693883	0.665955
738.024056	0.665199
738.354182	0.665703
738.684260	0.654603
739.014290	0.651033
739.344272	0.652249
739.674207	0.645281
740.004093	0.644549
740.333931	0.645825
740.663722	0.644990
740.993464	0.645669
741.323159	0.649183
741.652806	0.654501
741.982405	0.659095
742.311956	0.665355
742.641460	0.666363
742.970915	0.669768
743.300323	0.676676
743.629683	0.682614
743.958996	0.685666
744.288260	0.689470
744.617477	0.696997
744.946647	0.697666
745.275768	0.703680
745.604842	0.703543
745.933869	0.713311
746.262847	0.714076
746.591778	0.706669
746.920662	0.713728
747.249498	0.720234
747.578286	0.711230
747.907027	0.707312
748.235720	0.707343
748.564365	0.703394
748.892963	0.702775
749.221514	0.706245
749.550017	0.710551
749.878473	0.711003
750.206881	0.717814
750.535242	0.718515
750.863555	0.716765
751.191821	0.718509
751.520039	0.721474
751.848210	0.726148
752.176334	0.720092
752.504411	0.718190
752.832440	0.726659
753.160421	0.730878
753.488356	0.729234
753.816243	0.725936
754.144082	0.734798
754.471875	0.738465
754.799620	0.734396
755.127318	0.736182
755.454969	0.735047
755.782572	0.735091
756.110129	0.739654
756.437638	0.742492
756.765100	0.739160
757.092515	0.737997
757.419882	0.736254
757.747203	0.741199
758.074477	0.741633
758.401703	0.737186
758.728882	0.732524
759.056014	0.731881
759.383099	0.731013
759.710138	0.732280
760.037129	0.728267
760.364073	0.722182
760.690970	0.724503
761.017820	0.728778
761.344623	0.726053
761.671379	0.717469
761.998088	0.705835
762.324751	0.682421
762.651366	0.639294
762.977935	0.572641
763.304456	0.521121
763.630931	0.512010
763.957359	0.550618
764.283740	0.594148
764.610074	0.622485
764.936362	0.653632
765.262602	0.681487
765.588796	0.701719
765.914943	0.719520
766.241044	0.737315
766.567097	0.743553
766.893104	0.754906
767.219064	0.760455
767.544978	0.767687
767.870845	0.781156
768.196665	0.785333
768.522438	0.782913
768.848165	0.785508
769.173846	0.792815
769.499479	0.797620
769.825066	0.801355
770.150607	0.806423
770.476101	0.801120
770.801548	0.804052
771.126949	0.815057
771.452303	0.818819
771.777611	0.816599
772.102872	0.815996
772.428087	0.821689
772.753256	0.824941
773.078378	0.827026
773.403453	0.834771
773.728482	0.840418
774.053465	0.832891
774.378401	0.836675
774.703291	0.846442
775.028135	0.845843
775.352932	0.846133
775.677683	0.850799
776.002388	0.851574
776.327046	0.850022
776.651658	0.855440
776.976224	0.856791
777.300743	0.856128
777.625216	0.859350
777.949643	0.861328
778.274024	0.859742
778.598359	0.862573
778.922647	0.861220
779.246889	0.861477
779.571086	0.865388
779.895236	0.868043
780.219339	0.865672
780.543397	0.861223
780.867409	0.859965
781.191374	0.862578
781.515294	0.863762
781.839167	0.863314
782.162995	0.865982
782.486776	0.863037
782.810511	0.863960
783.134201	0.868379
783.457844	0.866616
783.781441	0.868427
784.104993	0.874417
784.428498	0.874009
784.751958	0.871966
785.075372	0.873506
785.398739	0.876063
785.722061	0.871447
786.045337	0.868118
786.368568	0.872498
786.691752	0.875054
787.014891	0.860780
787.337983	0.852262
787.661030	0.845703
787.984031	0.827124
788.306987	0.815667
788.629897	0.814864
788.952760	0.821794
789.275579	0.825354
789.598351	0.841555
789.921078	0.854972
790.243759	0.856716
790.566395	0.861005
790.888984	0.867818
791.211529	0.872718
791.534027	0.877024
791.856480	0.878054
792.178888	0.882299
792.501249	0.884623
792.823566	0.887499
793.145836	0.887603
793.468062	0.887974
793.790241	0.889209
794.112375	0.887457
794.434464	0.884163
794.756507	0.883030
795.078505	0.881243
795.400457	0.876307
795.722364	0.864536
796.044226	0.857230
796.366042	0.854928
796.687812	0.858570
797.009538	0.855547
797.331218	0.859433
797.652852	0.863589
797.974442	0.867966
798.295986	0.869386
798.617484	0.871021
798.938938	0.875403
799.260346	0.880125
799.581709	0.881316
799.903026	0.884507
800.224299	0.884540
800.545526	0.888043
800.866708	0.892599
801.187845	0.896508
801.508936	0.895455
801.829983	0.893394
802.150984	0.897741
802.471940	0.902789
802.792851	0.901382
803.113717	0.902138
803.434538	0.900558
803.755314	0.903015
804.076045	0.903551
804.396731	0.904225
804.717372	0.902938
805.037967	0.905862
805.358518	0.903274
805.679024	0.899057
805.999485	0.900980
806.319901	0.900884
806.640272	0.903565
806.960598	0.901410
807.280879	0.897287
807.601115	0.895945
807.921306	0.900637
808.241453	0.901676
808.561554	0.898785
808.881611	0.898811
809.201623	0.900649
809.521590	0.899965
809.841513	0.902069
810.161390	0.900539
810.481223	0.901820
810.801011	0.905768
811.120755	0.907851
811.440453	0.906160
811.760107	0.907155
812.079716	0.906122
812.399281	0.908107
812.718801	0.910597
813.038276	0.911818
813.357707	0.910712
813.677093	0.909854
813.996434	0.910996
814.315731	0.913562
814.634983	0.914103
814.954191	0.914764
815.273354	0.908782
815.592473	0.906196
815.911547	0.906886
816.230577	0.903852
816.549562	0.900780
816.868502	0.900269
817.187399	0.897959
817.506250	0.893506
817.825058	0.893528
818.143821	0.890802
818.462539	0.885866
818.781213	0.877823
819.099843	0.867163
819.418429	0.849848
819.736970	0.834379
820.055466	0.813048
820.373919	0.787836
820.692327	0.754899
821.010691	0.720353
821.329011	0.640108
821.647286	0.525087
821.965517	0.410855
822.283704	0.367566
822.601847	0.369138
822.919945	0.405885
823.237999	0.440867
823.556010	0.488901
823.873976	0.544838
824.191897	0.596036
824.509775	0.638240
824.827609	0.684311
825.145398	0.706895
825.463144	0.707501
825.780845	0.690820
826.098502	0.672752
826.416116	0.627390
826.733685	0.582712
827.051210	0.573812
827.368692	0.589201
827.686129	0.626968
828.003522	0.681082
828.320872	0.728461
828.638177	0.771994
828.955439	0.804716
829.272656	0.825996
829.589830	0.843088
829.906960	0.858518
830.224046	0.871712
830.541088	0.881553
830.858086	0.886847
831.175041	0.892900
831.491952	0.892189
831.808819	0.888304
832.125642	0.880048
832.442421	0.867987
832.759157	0.844398
833.075849	0.797375
833.392497	0.733630
833.709101	0.693654
834.025662	0.703829
834.342179	0.735212
834.658653	0.774944
834.975083	0.810584
835.291469	0.837736
835.607811	0.859423
835.924110	0.875300
836.240366	0.892996
836.556578	0.905258
836.872746	0.913648
837.188871	0.919621
837.504952	0.925616
837.820990	0.927373
838.136984	0.932733
838.452935	0.935873
838.768842	0.936842
839.084706	0.929749
839.400526	0.905245
839.716303	0.862590
840.032037	0.841504
840.347727	0.844617
840.663373	0.863304
840.978977	0.885326
841.294537	0.907681
841.610054	0.923983
841.925527	0.931450
842.240957	0.938239
842.556344	0.945253
842.871687	0.951239
843.186987	0.953793
843.502244	0.955680
843.817458	0.956331
844.132629	0.961108
844.447756	0.965515
844.762840	0.965565
845.077881	0.966076
845.392879	0.963027
845.707833	0.967061
846.022745	0.969533
846.337613	0.969655
846.652438	0.970341
846.967221	0.970187
847.281960	0.970786
847.596656	0.972081
847.911309	0.971364
848.225919	0.972726
848.540485	0.974537
848.855009	0.974647
849.169490	0.973669
849.483928	0.974471
849.798323	0.972797
850.112675	0.975394
850.426984	0.974616
850.741251	0.975990
851.055474	0.974433
851.369654	0.974245
851.683792	0.973394
851.997887	0.975182
852.311938	0.975927
852.625947	0.974027
852.939914	0.972697
853.253837	0.974624
853.567718	0.974869
853.881555	0.976218
854.195350	0.973005
854.509103	0.975065
854.822812	0.974356
855.136479	0.975852
855.450103	0.973738
855.763685	0.975222
856.077224	0.974410
856.390720	0.976571
856.704173	0.975411
857.017584	0.974746
857.330953	0.972902
857.644278	0.971050
857.957561	0.972339
858.270802	0.973943
858.584000	0.972814
858.897155	0.972075
859.210268	0.972150
859.523339	0.975023
859.836367	0.976331
860.149352	0.974697
860.462295	0.974987
860.775195	0.975023
861.088054	0.973228
861.400869	0.976124
861.713642	0.975723
862.026373	0.977558
862.339062	0.976561
862.651708	0.973812
862.964312	0.973333
863.276873	0.973876
863.589392	0.973368
863.901869	0.971111
864.214303	0.970484
864.526696	0.968513
864.839045	0.967842
865.151353	0.967154
865.463619	0.968067
865.775842	0.968176
866.088023	0.967970
866.400162	0.967455
866.712258	0.967650
867.024313	0.968767
867.336325	0.971419
867.648296	0.969729
867.960224	0.966973
868.272110	0.968185
868.583954	0.969533
868.895755	0.969188
869.207515	0.967419
869.519233	0.964280
869.830909	0.965651
870.142542	0.966144
870.454134	0.967011
870.765684	0.964431
871.077191	0.965426
871.388657	0.963185
871.700081	0.964083
872.011463	0.963609
872.322803	0.964227
872.634101	0.961663
872.945357	0.958752
873.256571	0.957130
873.567744	0.959324
873.878874	0.959864
874.189963	0.958145
874.501010	0.958733
874.812015	0.955247
875.122979	0.956762
875.433900	0.958127
875.744780	0.959486
876.055618	0.955915
876.366415	0.955366
876.677169	0.955284
876.987882	0.955852
877.298554	0.956347
877.609183	0.952884
877.919771	0.950475
878.230317	0.948594
878.540822	0.944429
878.851285	0.941182
879.161707	0.932485
879.472087	0.922268
879.782425	0.903758
880.092722	0.869820
880.402977	0.816847
880.713191	0.754856
881.023363	0.694593
881.333494	0.659765
881.643583	0.632877
881.953631	0.633185
882.263637	0.662072
882.573602	0.702421
882.883526	0.728114
883.193408	0.753162
883.503248	0.775662
883.813048	0.803049
884.122806	0.832458
884.432522	0.856462
884.742197	0.875689
885.051831	0.886673
885.361424	0.898434
885.670975	0.910304
885.980485	0.920330
886.289954	0.924208
886.599382	0.928828
886.908768	0.933880
887.218113	0.939096
887.527417	0.943854
887.836680	0.947001
888.145901	0.948961
888.455082	0.953459
888.764221	0.957453
889.073319	0.957463
889.382376	0.959142
889.691392	0.957166
890.000366	0.959091
890.309300	0.958990
890.618193	0.959128
890.927044	0.957232
891.235855	0.957454
891.544625	0.956299
891.853353	0.956700
892.162041	0.954824
892.470687	0.948871
892.779293	0.942828
893.087858	0.937699
893.396381	0.930754
893.704864	0.916989
894.013306	0.893673
894.321707	0.866734
894.630068	0.852604
894.938387	0.846933
895.246665	0.849800
895.554903	0.862009
895.863100	0.874998
896.171256	0.892385
896.479371	0.911665
896.787446	0.924506
897.095480	0.931297
897.403473	0.933180
897.711425	0.938751
898.019336	0.944577
898.327207	0.949872
898.635038	0.949918
898.942827	0.951049
899.250576	0.953435
899.558284	0.958043
899.865952	0.959230
900.173579	0.960054
900.481165	0.961199
900.788711	0.963102
901.096216	0.966279
901.403681	0.966786
901.711105	0.966879
902.018489	0.968742
902.325832	0.968210
902.633135	0.965062
902.940397	0.960991
903.247619	0.947837
903.554800	0.924304
903.861941	0.883922
904.169041	0.846080
904.476101	0.828731
904.783121	0.830700
905.090100	0.846145
905.397039	0.869224
905.703938	0.889635
906.010796	0.911296
906.317614	0.927256
906.624391	0.940684
906.931129	0.950478
907.237826	0.956914
907.544483	0.964539
907.851099	0.967891
908.157675	0.971776
908.464211	0.975168
908.770707	0.975844
909.077163	0.978808
909.383578	0.980643
909.689954	0.980032
909.996289	0.980896
910.302584	0.983563
910.608839	0.985774
910.915054	0.984394
911.221229	0.984128
911.527363	0.982154
911.833458	0.983185
912.139513	0.983008
912.445527	0.982128
912.751502	0.979705
913.057436	0.977487
913.363331	0.974869
913.669186	0.971375
913.975000	0.966929
914.280775	0.959893
914.586510	0.953560
914.892205	0.940527
915.197859	0.916605
915.503475	0.891082
915.809050	0.870753
916.114585	0.865657
916.420081	0.863265
916.725536	0.859362
917.030952	0.868692
917.336328	0.881348
917.641665	0.897202
917.946961	0.912619
918.252218	0.923702
918.557435	0.932572
918.862612	0.940503
919.167750	0.946999
919.472848	0.952989
919.777906	0.959804
920.082925	0.964000
920.387904	0.966170
920.692843	0.968078
920.997743	0.969331
921.302603	0.973419
921.607423	0.973717
921.912204	0.977322
922.216946	0.978644
922.521647	0.979359
922.826310	0.980401
923.130932	0.982327
923.435516	0.983819
923.740059	0.984079
924.044564	0.983912
924.349028	0.985284
924.653454	0.987232
924.957840	0.988427
925.262186	0.987381
925.566493	0.988631
925.870761	0.990086
926.174989	0.990339
926.479178	0.992914
926.783328	0.993331
927.087438	0.993277
927.391509	0.992856
927.695541	0.993098
927.999533	0.995223
928.303486	0.995703
928.607400	0.995567
928.911275	0.995783
929.215110	0.995485
929.518906	0.994915
929.822663	0.997027
930.126381	0.996583
930.430060	0.994766
930.733699	0.995012
931.037299	0.995656
931.340861	0.995628
931.644383	0.992787
931.947866	0.995547
932.251309	0.995363
932.554714	0.994683
932.858080	0.996211
933.161407	0.995879
933.464694	0.994665
933.767943	0.996936
934.071153	0.996913
934.374323	0.996892
934.677455	0.996152
934.980548	0.995672
935.283602	0.997791
935.586617	0.995867
935.889593	0.998005
936.192530	0.996656
936.495428	0.996049
936.798287	0.995212
937.101108	0.995826
937.403890	0.994127
937.706632	0.993922
938.009336	0.991731
938.312002	0.990396
938.614628	0.990031
938.917216	0.987840
939.219765	0.986676
939.522275	0.987682
939.824747	0.988848
940.127179	0.988039
940.429573	0.990529
940.731929	0.988247
941.034246	0.988694
941.336524	0.990133
941.638763	0.991379
941.940964	0.991052
942.243126	0.992230
942.545250	0.992249
942.847335	0.993249
943.149381	0.994171
943.451389	0.992798
943.753359	0.994421
944.055290	0.995517
944.357182	0.995928
944.659036	0.995427
944.960851	0.995112
945.262628	0.996045
945.564367	0.995364
945.866067	0.995525
946.167729	0.994603
946.469352	0.995246
946.770937	0.993150
947.072484	0.997163
947.373992	0.995074
947.675462	0.995115
947.976893	0.995472
948.278286	0.998138
948.579641	0.997290
948.880958	0.995544
949.182236	0.997322
949.483476	0.996361
949.784678	0.996305
950.085841	0.996170
950.386967	0.995696
950.688054	0.997005
950.989103	0.994300
951.290114	0.994257
951.591087	0.995250
951.892021	0.994614
952.192917	0.995034
952.493776	0.993637
952.794596	0.993857
953.095378	0.992649
953.396122	0.992694
953.696828	0.994003
953.997496	0.994550
954.298126	0.996102
954.598718	0.995111
954.899272	0.996105
955.199788	0.995632
955.500266	0.996655
955.800706	0.997371
956.101108	0.997412
956.401472	0.999473
956.701798	0.998161
957.002087	0.998374
957.302337	0.999310
957.602550	1.000368
957.902724	1.000545
958.202861	0.999684
958.502960	1.000407
958.803022	1.000910
959.103045	1.000664
959.403031	1.001126
959.702979	1.001754
960.002889	1.000361
960.302762	1.000505
960.602596	1.001781
960.902393	1.001416
961.202153	1.002392
961.501875	1.001089
961.801559	1.001198
962.101205	1.000754
962.400814	1.001782
962.700385	1.003257
962.999918	1.002875
963.299414	1.001342
963.598873	1.000933
963.898293	1.002341
964.197677	1.001955
964.497022	1.000826
964.796331	1.001480
965.095601	1.001979
965.394835	1.000748
965.694030	1.003278
965.993189	1.001963
966.292309	1.002500
966.591393	1.001430
966.890439	1.002236
967.189447	1.001456
967.488419	1.002582
967.787353	1.002408
968.086249	1.001780
968.385108	1.002322
968.683930	1.003481
968.982714	1.002245
969.281462	1.002464
969.580172	1.001918
969.878844	1.003210
970.177480	1.001891
970.476078	1.003470
970.774639	1.002425
971.073162	1.001505
971.371649	1.001470
971.670098	1.002089
971.968510	1.002774
972.266885	1.001040
972.565223	1.001010
972.863524	1.001284
973.161788	1.000591
973.460014	1.003133
973.758204	1.000656
974.056356	1.001707
974.354471	1.001769
974.652550	1.002016
974.950591	1.000975
975.248595	1.001448
975.546563	1.003294
975.844493	1.003137
976.142386	1.001445
976.440243	1.002251
976.738062	1.001380
977.035845	1.002273
977.333590	1.002545
977.631299	1.001568
977.928971	1.002988
978.226606	1.001604
978.524204	1.002195
978.821765	1.003064
979.119290	1.003774
979.416777	1.002566
979.714228	1.002274
980.011642	1.002869
980.309020	1.001248
980.606360	1.001776
980.903664	1.001598
981.200931	1.000836
981.498162	1.001866
981.795356	1.001195
982.092513	1.000287
982.389633	0.999348
982.686717	0.996903
982.983764	0.995904
983.280775	0.996771
983.577749	0.996188
983.874686	0.996888
984.171587	0.997721
984.468451	0.998064
984.765279	1.000099
985.062070	1.000441
985.358824	0.999931
985.655543	1.002375
985.952224	1.002299
986.248869	1.002646
986.545478	1.003391
986.842050	1.002292
987.138586	1.001881
987.435086	1.003190
987.731549	1.005011
988.027975	1.003779
988.324366	1.002559
988.620719	1.004326
988.917037	1.003489
989.213318	1.004110
989.509563	1.004490
989.805772	1.003841
990.101944	1.004525
990.398080	1.003186
990.694180	1.004666
990.990244	1.002376
991.286271	1.002837
991.582262	1.003087
991.878217	1.003380
992.174136	1.004801
992.470019	1.004774
992.765865	1.005730
993.061676	1.004162
993.357450	1.003802
993.653188	1.004648
993.948890	1.003632
994.244556	1.002874
994.540186	1.002889
994.835780	1.003103
995.131337	1.003685
995.426859	1.001569
995.722345	1.001203
996.017795	1.001873
996.313208	1.001933
996.608586	1.000641
996.903928	1.002064
997.199234	1.003105
997.494504	1.003185
997.789738	1.001096
998.084936	1.002967
998.380099	1.001915
998.675225	1.003758
998.970316	1.003572
999.265371	1.003909
999.560390	1.003936
999.855373	1.003147
1000.150320	1.003370
1000.445232	1.003559
1000.740108	1.003518
1001.034948	1.003184
1001.329752	1.004479
1001.624521	1.003944
1001.919254	1.004443
1002.213951	1.003353
1002.508613	1.003247
1002.803239	1.002526
1003.097829	1.004318
1003.392384	1.003901
1003.686903	1.003424
1003.981386	1.003147
1004.275834	1.005145
1004.570246	1.003108
1004.864623	1.004446
1005.158964	1.005018
1005.453270	1.002762
1005.747540	1.003805
1006.041775	1.004662
1006.335974	1.004524
1006.630138	1.004514
1006.924266	1.002834
1007.218359	1.002630
1007.512416	1.004840
1007.806438	1.003827
1008.100425	1.004363
1008.394376	1.004506
1008.688292	1.003328
1008.982172	1.003940
1009.276017	1.003864
1009.569827	1.005664
1009.863602	1.003942
1010.157341	1.005438
1010.451045	1.003930
1010.744714	1.005578
1011.038347	1.005496
1011.331945	1.004119
1011.625508	1.002710
1011.919036	1.003767
1012.212528	1.004294
1012.505986	1.004379
1012.799408	1.004629
1013.092795	1.004072
1013.386147	1.004792
1013.679464	1.004984
1013.972745	1.005103
1014.265992	1.004859
1014.559204	1.003782
1014.852380	1.004177
1015.145521	1.004202
1015.438628	1.004806
1015.731699	1.004503
1016.024736	1.004561
1016.317737	1.003817
1016.610703	1.003832
1016.903635	1.003561
1017.196531	1.002523
1017.489393	1.003736
1017.782219	1.004121
1018.075011	1.003806
1018.367768	1.003637
1018.660490	1.004056
1018.953177	1.004056
1019.245829	1.004056
