Dividing Wavelength (nm)	Counts (n)	Blue Motor Position (mm): 28.100000	Red Motor Position (mm): 0.000000	
326.493990	1.000749
326.888308	1.000749
327.282561	1.000749
327.676750	1.002473
328.070874	1.003044
328.464933	1.002624
328.858929	1.001497
329.252859	1.000809
329.646726	1.001623
330.040528	1.001914
330.434265	1.001151
330.827938	1.000571
331.221547	1.002273
331.615091	1.002014
332.008571	1.001473
332.401986	1.001303
332.795338	0.999739
333.188625	1.003280
333.581847	1.000767
333.975006	1.001334
334.368100	1.002494
334.761129	1.000309
335.154095	1.002377
335.546996	1.001481
335.939833	0.999169
336.332606	0.999721
336.725315	1.000030
337.117960	0.999874
337.510540	1.000324
337.903056	1.000134
338.295508	1.002398
338.687896	1.000776
339.080220	1.000875
339.472480	0.999580
339.864676	1.001115
340.256807	0.999161
340.648875	1.000643
341.040879	1.000269
341.432818	0.999685
341.824694	1.000153
342.216506	1.001025
342.608253	1.000670
342.999937	1.000659
343.391557	0.999809
343.783113	1.001228
344.174605	1.000602
344.566033	1.000038
344.957397	0.999658
345.348697	1.001042
345.739934	0.999859
346.131106	1.000104
346.522215	0.999769
346.913260	1.000204
347.304241	1.000060
347.695159	0.999298
348.086012	1.000112
348.476802	0.999655
348.867528	0.998978
349.258191	1.001354
349.648789	1.001757
350.039324	1.000679
350.429796	0.999762
350.820203	0.998514
351.210548	0.999330
351.600828	0.999742
351.991045	1.000067
352.381198	1.001182
352.771288	0.999379
353.161314	1.000044
353.551276	0.999054
353.941175	0.997920
354.331010	0.999153
354.720782	1.000030
355.110490	1.000115
355.500135	0.999755
355.889717	0.998760
356.279235	0.998725
356.668689	0.999893
357.058080	0.999953
357.447408	0.997613
357.836672	0.999053
358.225873	0.999229
358.615010	0.998795
359.004084	0.998669
359.393095	0.998510
359.782043	0.999115
360.170927	0.999220
360.559748	0.999203
360.948505	0.998312
361.337199	0.999071
361.725830	0.999415
362.114398	0.998721
362.502903	0.998948
362.891344	0.998186
363.279722	0.998777
363.668037	0.998050
364.056289	0.999392
364.444478	0.998879
364.832603	0.999415
365.220665	0.998891
365.608665	0.997536
365.996601	0.997288
366.384474	0.996052
366.772284	0.997221
367.160031	0.996279
367.547715	0.997012
367.935336	0.995813
368.322893	0.995455
368.710388	0.992960
369.097820	0.992737
369.485189	0.989659
369.872495	0.988442
370.259738	0.985614
370.646918	0.982090
371.034035	0.980632
371.421090	0.977805
371.808081	0.972823
372.195010	0.970886
372.581875	0.966242
372.968678	0.961408
373.355418	0.957884
373.742096	0.949626
374.128710	0.945337
374.515262	0.940556
374.901751	0.935285
375.288177	0.930420
375.674540	0.923348
376.060841	0.917499
376.447079	0.910306
376.833254	0.903707
377.219367	0.897594
377.605417	0.887371
377.991404	0.883842
378.377329	0.877695
378.763191	0.871613
379.148991	0.862420
379.534727	0.855489
379.920402	0.846693
380.306013	0.842309
380.691563	0.830769
381.077049	0.823900
381.462474	0.820082
381.847835	0.807097
382.233134	0.803358
382.618371	0.803467
383.003545	0.786151
383.388657	0.784303
383.773706	0.776505
384.158693	0.772555
384.543618	0.767011
384.928480	0.758547
385.313280	0.748854
385.698017	0.747938
386.082692	0.737059
386.467305	0.735186
386.851856	0.729524
387.236344	0.724342
387.620770	0.718267
388.005133	0.712694
388.389435	0.707372
388.773674	0.705090
389.157851	0.696568
389.541965	0.693995
389.926018	0.700404
390.310008	0.687665
390.693936	0.685140
391.077802	0.675975
391.461606	0.678206
391.845348	0.667878
392.229027	0.666574
392.612645	0.665188
392.996200	0.652559
393.379694	0.645602
393.763125	0.636007
394.146494	0.640482
394.529801	0.630229
394.913047	0.622434
395.296230	0.628409
395.679351	0.619744
396.062410	0.617142
396.445408	0.619615
396.828343	0.614470
397.211217	0.609746
397.594028	0.621834
397.976778	0.612154
398.359466	0.608633
398.742092	0.603706
399.124656	0.616111
399.507158	0.603952
399.889598	0.601993
400.271977	0.593028
400.654294	0.596969
401.036549	0.595559
401.418742	0.599434
401.800874	0.585865
402.182944	0.583031
402.564952	0.574347
402.946898	0.576338
403.328783	0.577404
403.710606	0.587969
404.092367	0.563243
404.474067	0.567736
404.855705	0.566767
405.237282	0.575894
405.618797	0.562108
406.000250	0.557775
406.381642	0.548399
406.762972	0.552921
407.144240	0.551610
407.525447	0.551063
407.906593	0.544763
408.287677	0.539347
408.668700	0.548278
409.049661	0.543135
409.430560	0.537015
409.811399	0.546241
410.192176	0.527881
410.572891	0.534381
410.953545	0.523047
411.334138	0.536570
411.714669	0.528988
412.095139	0.541156
412.475547	0.525155
412.855894	0.527263
413.236180	0.525925
413.616405	0.532096
413.996568	0.521847
414.376670	0.528687
414.756711	0.533582
415.136691	0.529954
415.516609	0.521159
415.896466	0.517807
416.276262	0.513785
416.655997	0.515992
417.035670	0.496559
417.415283	0.489216
417.794834	0.493217
418.174324	0.499160
418.553753	0.508221
418.933121	0.490002
419.312428	0.483906
419.691674	0.490033
420.070859	0.478723
420.449983	0.486592
420.829045	0.475521
421.208047	0.484850
421.586988	0.477975
421.965867	0.476747
422.344686	0.465456
422.723444	0.478113
423.102141	0.494922
423.480777	0.467638
423.859352	0.488018
424.237866	0.465696
424.616319	0.466250
424.994712	0.457822
425.373044	0.467978
425.751314	0.456171
426.129524	0.472179
426.507673	0.456000
426.885762	0.450038
427.263789	0.455353
427.641756	0.464924
428.019662	0.455048
428.397508	0.454537
428.775292	0.458716
429.153016	0.450915
429.530679	0.457190
429.908282	0.449978
430.285824	0.460702
430.663305	0.439492
431.040726	0.460311
431.418086	0.460118
431.795385	0.452702
432.172624	0.452020
432.549802	0.452253
432.926920	0.451339
433.303977	0.451392
433.680974	0.449361
434.057910	0.448155
434.434786	0.447911
434.811601	0.451245
435.188355	0.434250
435.565050	0.444444
435.941683	0.446605
436.318257	0.431515
436.694770	0.433565
437.071222	0.432813
437.447614	0.438749
437.823946	0.445730
438.200218	0.436729
438.576429	0.447957
438.952580	0.442482
439.328670	0.441184
439.704700	0.449234
440.080670	0.452273
440.456580	0.435877
440.832429	0.445815
441.208218	0.458302
441.583947	0.450083
441.959616	0.452030
442.335224	0.459573
442.710773	0.453583
443.086261	0.454904
443.461689	0.470475
443.837057	0.464398
444.212365	0.458282
444.587612	0.468194
444.962800	0.462242
445.337927	0.467671
445.712995	0.494923
446.088002	0.464546
446.462949	0.478138
446.837837	0.487391
447.212664	0.480496
447.587431	0.479043
447.962139	0.459694
448.336786	0.429774
448.711374	0.443078
449.085901	0.485398
449.460369	0.494687
449.834776	0.503667
450.209124	0.492991
450.583412	0.495365
450.957640	0.493644
451.331808	0.509376
451.705917	0.534799
452.079965	0.544378
452.453954	0.542076
452.827883	0.553363
453.201752	0.556751
453.575562	0.571742
453.949311	0.572485
454.323001	0.582566
454.696632	0.586299
455.070202	0.590387
455.443713	0.591801
455.817164	0.596437
456.190556	0.602051
456.563888	0.608109
456.937160	0.614285
457.310373	0.632460
457.683526	0.640196
458.056619	0.652065
458.429653	0.660346
458.802628	0.669817
459.175542	0.674605
459.548398	0.673634
459.921194	0.677229
460.293930	0.685795
460.666607	0.682944
461.039224	0.684599
461.411782	0.690055
461.784280	0.698289
462.156719	0.710063
462.529099	0.720882
462.901419	0.736850
463.273680	0.746664
463.645882	0.753889
464.018024	0.766323
464.390106	0.770602
464.762130	0.772107
465.134094	0.772251
465.505999	0.766145
465.877845	0.762506
466.249631	0.764932
466.621358	0.777819
466.993026	0.793864
467.364634	0.804017
467.736184	0.814593
468.107674	0.823990
468.479105	0.831709
468.850477	0.839154
469.221790	0.848341
469.593043	0.857004
469.964238	0.865268
470.335373	0.870469
470.706449	0.876755
471.077467	0.881245
471.448425	0.879899
471.819324	0.879518
472.190164	0.884494
472.560945	0.895957
472.931667	0.905306
473.302330	0.909539
473.672934	0.917088
474.043479	0.918717
474.413965	0.923449
474.784393	0.927558
475.154761	0.930900
475.525070	0.934634
475.895321	0.939202
476.265513	0.941244
476.635645	0.944611
477.005719	0.947499
477.375734	0.950204
477.745691	0.952218
478.115588	0.955483
478.485427	0.957595
478.855207	0.958588
479.224928	0.959674
479.594591	0.960695
479.964194	0.963691
480.333739	0.966238
480.703226	0.968500
481.072653	0.970365
481.442022	0.972183
481.811333	0.973259
482.180584	0.974470
482.549777	0.976880
482.918912	0.978041
483.287988	0.979231
483.657005	0.980680
484.025964	0.982394
484.394864	0.982400
484.763706	0.982954
485.132489	0.985411
485.501213	0.986297
485.869879	0.986101
486.238487	0.986797
486.607036	0.987806
486.975527	0.988622
487.343959	0.988611
487.712333	0.989682
488.080648	0.989606
488.448905	0.990654
488.817104	0.990357
489.185244	0.990486
489.553326	0.991463
489.921350	0.992049
490.289315	0.991368
490.657222	0.991330
491.025070	0.991615
491.392861	0.991508
491.760593	0.991764
492.128267	0.992341
492.495883	0.991810
492.863440	0.992648
493.230939	0.993494
493.598380	0.993686
493.965763	0.992765
494.333088	0.992755
494.700354	0.993765
495.067563	0.993564
495.434713	0.994386
495.801805	0.994143
496.168839	0.994595
496.535815	0.994157
496.902733	0.993898
497.269593	0.994117
497.636395	0.993980
498.003139	0.994002
498.369825	0.994847
498.736453	0.994518
499.103023	0.994035
499.469535	0.994482
499.835989	0.995192
500.202385	0.994322
500.568723	0.994818
500.935003	0.994538
501.301226	0.994902
501.667390	0.995186
502.033497	0.995007
502.399546	0.994604
502.765537	0.995144
503.131470	0.995563
503.497345	0.995334
503.863163	0.994863
504.228923	0.995094
504.594625	0.994995
504.960269	0.995579
505.325856	0.995924
505.691385	0.995958
506.056856	0.995395
506.422270	0.995420
506.787625	0.995705
507.152924	0.996080
507.518164	0.994853
507.883347	0.994934
508.248472	0.996164
508.613540	0.995745
508.978550	0.995416
509.343503	0.995627
509.708398	0.996473
510.073236	0.995726
510.438016	0.995394
510.802738	0.995051
511.167403	0.995020
511.532010	0.995300
511.896561	0.996143
512.261053	0.995032
512.625488	0.995077
512.989866	0.995830
513.354186	0.994984
513.718449	0.995574
514.082655	0.995461
514.446803	0.995278
514.810894	0.995797
515.174927	0.996090
515.538904	0.995990
515.902822	0.995919
516.266684	0.995980
516.630488	0.996172
516.994235	0.995540
517.357925	0.996154
517.721558	0.996038
518.085133	0.995313
518.448651	0.995489
518.812112	0.996428
519.175516	0.996015
519.538863	0.995763
519.902152	0.996429
520.265385	0.995848
520.628560	0.995849
520.991678	0.995917
521.354739	0.995978
521.717743	0.995548
522.080690	0.995535
522.443580	0.995906
522.806413	0.995463
523.169189	0.996027
523.531908	0.995010
523.894569	0.995728
524.257174	0.995951
524.619722	0.995463
524.982213	0.995814
525.344647	0.995815
525.707025	0.995228
526.069345	0.995319
526.431608	0.995881
526.793815	0.996406
527.155964	0.996182
527.518057	0.996328
527.880093	0.995620
528.242072	0.995640
528.603995	0.995696
528.965860	0.995910
529.327669	0.995970
529.689421	0.995275
530.051117	0.995622
530.412755	0.995892
530.774337	0.995655
531.135862	0.996419
531.497331	0.995691
531.858743	0.996185
532.220098	0.995569
532.581396	0.996279
532.942638	0.996285
533.303824	0.996267
533.664953	0.995177
534.026025	0.996926
534.387040	0.995838
534.747999	0.995592
535.108902	0.995389
535.469748	0.996127
535.830537	0.996262
536.191270	0.995982
536.551947	0.995687
536.912567	0.995802
537.273131	0.996598
537.633638	0.995192
537.994089	0.996541
538.354483	0.996694
538.714821	0.996068
539.075103	0.995953
539.435328	0.995937
539.795497	0.996199
540.155609	0.996222
540.515665	0.995895
540.875665	0.996369
541.235609	0.996636
541.595496	0.995684
541.955328	0.996094
542.315102	0.995942
542.674821	0.996530
543.034483	0.995947
543.394090	0.995668
543.753640	0.996183
544.113134	0.995753
544.472571	0.996284
544.831953	0.996383
545.191278	0.995707
545.550548	0.995718
545.909761	0.995265
546.268918	0.996612
546.628019	0.996119
546.987064	0.995767
547.346053	0.995545
547.704986	0.995440
548.063863	0.995978
548.422684	0.996386
548.781449	0.995772
549.140158	0.995631
549.498811	0.995686
549.857408	0.995704
550.215949	0.995761
550.574434	0.995384
550.932864	0.995829
551.291237	0.995758
551.649555	0.996249
552.007817	0.996280
552.366022	0.996120
552.724173	0.995975
553.082267	0.996109
553.440305	0.995138
553.798288	0.994980
554.156215	0.995319
554.514086	0.995263
554.871902	0.995611
555.229661	0.995100
555.587365	0.995249
555.945014	0.996408
556.302606	0.995256
556.660143	0.995937
557.017625	0.995951
557.375050	0.995624
557.732421	0.995643
558.089735	0.995207
558.446994	0.995747
558.804197	0.996377
559.161345	0.995619
559.518437	0.995760
559.875474	0.996319
560.232455	0.995880
560.589381	0.996238
560.946251	0.995562
561.303065	0.995452
561.659825	0.995625
562.016528	0.996260
562.373177	0.996029
562.729770	0.995404
563.086307	0.994823
563.442789	0.995938
563.799216	0.995432
564.155587	0.995871
564.511904	0.996875
564.868164	0.994999
565.224370	0.994770
565.580520	0.995854
565.936615	0.995259
566.292654	0.995556
566.648638	0.996227
567.004567	0.994902
567.360441	0.995635
567.716260	0.995737
568.072023	0.994817
568.427732	0.995853
568.783385	0.996049
569.138982	0.996317
569.494525	0.995012
569.850013	0.996183
570.205445	0.995615
570.560823	0.995879
570.916145	0.995659
571.271412	0.995811
571.626625	0.996199
571.981782	0.995902
572.336884	0.996679
572.691931	0.996032
573.046923	0.996050
573.401860	0.995837
573.756743	0.995651
574.111570	0.995129
574.466342	0.997185
574.821059	0.994955
575.175722	0.996238
575.530330	0.996029
575.884882	0.996049
576.239380	0.995623
576.593823	0.994956
576.948211	0.996135
577.302544	0.995017
577.656823	0.995378
578.011047	0.994516
578.365216	0.995818
578.719330	0.995300
579.073389	0.994620
579.427394	0.995742
579.781344	0.996388
580.135239	0.995016
580.489080	0.995267
580.842866	0.995715
581.196597	0.994984
581.550273	0.995067
581.903895	0.995972
582.257463	0.995236
582.610975	0.995370
582.964434	0.995386
583.317837	0.996012
583.671186	0.995697
584.024481	0.995230
584.377721	0.994802
584.730906	0.995609
585.084037	0.996017
585.437113	0.996045
585.790135	0.995676
586.143103	0.995238
586.496016	0.995533
586.848874	0.995194
587.201679	0.995700
587.554428	0.995854
587.907124	0.996034
588.259765	0.995863
588.612352	0.995999
588.964884	0.995918
589.317362	0.995321
589.669786	0.995449
590.022155	0.996069
590.374470	0.995514
590.726731	0.994824
591.078937	0.996190
591.431090	0.995382
591.783188	0.995340
592.135232	0.996224
592.487222	0.995367
592.839157	0.995298
593.191038	0.995449
593.542866	0.995279
593.894639	0.995269
594.246358	0.995529
594.598022	0.996194
594.949633	0.995418
595.301190	0.995771
595.652692	0.995006
596.004141	0.994707
596.355535	0.995321
596.706876	0.995537
597.058162	0.995388
597.409395	0.995602
597.760573	0.995299
598.111698	0.995385
598.462768	0.994533
598.813785	0.994572
599.164748	0.995497
599.515657	0.995242
599.866511	0.996118
600.217312	0.995488
600.568060	0.994798
600.918753	0.995948
601.269392	0.995323
601.619978	0.995713
601.970510	0.995444
602.320988	0.995486
602.671412	0.995187
603.021783	0.996324
603.372100	0.996066
603.722363	0.995859
604.072572	0.994838
604.422728	0.994816
604.772830	0.995523
605.122878	0.995297
605.472872	0.995646
605.822813	0.995741
606.172701	0.995268
606.522534	0.995689
606.872314	0.996169
607.222041	0.995652
607.571714	0.995302
607.921333	0.995752
608.270899	0.994499
608.620411	0.996075
608.969870	0.996016
609.319276	0.995134
609.668627	0.995525
610.017926	0.995757
610.367171	0.995583
610.716362	0.995333
611.065500	0.995163
611.414585	0.995637
611.763616	0.994353
612.112594	0.995951
612.461518	0.995051
612.810389	0.995374
613.159207	0.995338
613.507971	0.995739
613.856682	0.996422
614.205340	0.994456
614.553945	0.995175
614.902496	0.995300
615.250994	0.995485
615.599439	0.995164
615.947830	0.995214
616.296169	0.995463
616.644454	0.995880
616.992686	0.995131
617.340864	0.995686
617.688990	0.995411
618.037063	0.995508
618.385082	0.995168
618.733048	0.993825
619.080961	0.995203
619.428821	0.996009
619.776628	0.995525
620.124382	0.995654
620.472083	0.996049
620.819731	0.995758
621.167326	0.995456
621.514868	0.995721
621.862357	0.995920
622.209793	0.995375
622.557176	0.995547
622.904506	0.994436
623.251783	0.995745
623.599007	0.995827
623.946179	0.995090
624.293297	0.995888
624.640363	0.995528
624.987376	0.995449
625.334336	0.995283
625.681243	0.995712
626.028097	0.995933
626.374899	0.995108
626.721647	0.996002
627.068343	0.995128
627.414987	0.995776
627.761577	0.994906
628.108115	0.995626
628.454600	0.995640
628.801032	0.996520
629.147412	0.995481
629.493739	0.996452
629.840014	0.995040
630.186236	0.995459
630.532405	0.994646
630.878521	0.995609
631.224585	0.995417
631.570597	0.995322
631.916556	0.995949
632.262462	0.994701
632.608316	0.995794
632.954117	0.994733
633.299866	0.995117
633.645562	0.995442
633.991206	0.995714
634.336797	0.995072
634.682336	0.995871
635.027823	0.995353
635.373257	0.996047
635.718639	0.996537
636.063968	0.995805
636.409245	0.995236
636.754470	0.995610
637.099642	0.996487
637.444762	0.995992
637.789829	0.994600
638.134845	0.995184
638.479808	0.995632
638.824719	0.994901
639.169577	0.994720
639.514383	0.995608
639.859137	0.996246
640.203839	0.995472
640.548489	0.995316
640.893086	0.995451
641.237632	0.995782
641.582125	0.995164
641.926566	0.996517
642.270955	0.995799
642.615292	0.995149
642.959576	0.995404
643.303809	0.995798
643.647990	0.995714
643.992118	0.996560
644.336195	0.996008
644.680219	0.996532
645.024192	0.996422
645.368112	0.995222
645.711981	0.995995
646.055797	0.996374
646.399562	0.994589
646.743274	0.995550
647.086935	0.995530
647.430544	0.995396
647.774101	0.995458
648.117606	0.995853
648.461059	0.996705
648.804460	0.995152
649.147810	0.995506
649.491108	0.995820
649.834354	0.995841
650.177548	0.995887
650.520690	0.995294
650.863781	0.994862
651.206820	0.994872
651.549807	0.995419
651.892742	0.996561
652.235626	0.996241
652.578458	0.995638
652.921238	0.996297
653.263967	0.996262
653.606644	0.995354
653.949269	0.996965
654.291843	0.994741
654.634365	0.996411
654.976836	0.995970
655.319255	0.996135
655.661622	0.995786
656.003938	0.995738
656.346203	0.995157
656.688416	0.996655
657.030577	0.995541
657.372687	0.995990
657.714746	0.995054
658.056753	0.995523
658.398708	0.995018
658.740612	0.996364
659.082465	0.996438
659.424266	0.996492
659.766016	0.995695
660.107715	0.996717
660.449362	0.996218
660.790958	0.995511
661.132503	0.995868
661.473996	0.996038
661.815438	0.996438
662.156829	0.996255
662.498168	0.996535
662.839456	0.995180
663.180693	0.996027
663.521879	0.996672
663.863013	0.995858
664.204097	0.996317
664.545129	0.995587
664.886110	0.995673
665.227040	0.996738
665.567918	0.995604
665.908746	0.995453
666.249522	0.995092
666.590248	0.995594
666.930922	0.995513
667.271545	0.996000
667.612118	0.996097
667.952639	0.996108
668.293109	0.996116
668.633528	0.995077
668.973896	0.995392
669.314213	0.995614
669.654480	0.996499
669.994695	0.995272
670.334859	0.995695
670.674973	0.995496
671.015035	0.995887
671.355047	0.995831
671.695008	0.995210
672.034918	0.994802
672.374777	0.996454
672.714585	0.995804
673.054342	0.995962
673.394049	0.995693
673.733705	0.995269
674.073310	0.996117
674.412864	0.995686
674.752368	0.995673
675.091820	0.996925
675.431223	0.996491
675.770574	0.994983
676.109875	0.995161
676.449125	0.995454
676.788324	0.995672
677.127473	0.997273
677.466571	0.996278
677.805619	0.995206
678.144616	0.996343
678.483562	0.996604
678.822458	0.995880
679.161303	0.995896
679.500098	0.996649
679.838842	0.997023
680.177535	0.996427
680.516179	0.995533
680.854771	0.995461
681.193314	0.995966
681.531805	0.996685
681.870247	0.995761
682.208638	0.996202
682.546978	0.995733
682.885268	0.995570
683.223508	0.995579
683.561697	0.995708
683.899836	0.996514
684.237925	0.995750
684.575963	0.996268
684.913951	0.996019
685.251889	0.995691
685.589776	0.996050
685.927614	0.995994
686.265401	0.995255
686.603137	0.995686
686.940824	0.995743
687.278460	0.996536
687.616046	0.996073
687.953582	0.995989
688.291068	0.996183
688.628504	0.996175
688.965889	0.995621
689.303224	0.994828
689.640510	0.995936
689.977745	0.995370
690.314930	0.995338
690.652065	0.995535
690.989150	0.995065
691.326185	0.996628
691.663170	0.996758
692.000105	0.995778
692.336990	0.996276
692.673825	0.996112
693.010610	0.996088
693.347345	0.996706
693.684030	0.994820
694.020665	0.996230
694.357251	0.996319
694.693786	0.997048
695.030272	0.994728
695.366707	0.995520
695.703093	0.996149
696.039429	0.994915
696.375716	0.996645
696.711952	0.996189
697.048139	0.996491
697.384276	0.996551
697.720363	0.996321
698.056400	0.994439
698.392388	0.996080
698.728326	0.995839
699.064214	0.997280
699.400053	0.996075
699.735842	0.996789
700.071581	0.996385
700.407270	0.996337
700.742910	0.995991
701.078501	0.996723
701.414042	0.997222
701.749533	0.995526
702.084974	0.996743
702.420366	0.996919
702.755709	0.995716
703.091002	0.997609
703.426246	0.996792
703.761440	0.996594
704.096584	0.996138
704.431679	0.996603
704.766725	0.995768
705.101721	0.997033
705.436668	0.996431
705.771565	0.995908
706.106413	0.996407
706.441212	0.996278
706.775961	0.997202
707.110661	0.996391
707.445311	0.997362
707.779913	0.996769
708.114465	0.997233
708.448967	0.997253
708.783421	0.996704
709.117825	0.996593
709.452180	0.997018
709.786485	0.996271
710.120742	0.996154
710.454949	0.995958
710.789107	0.996256
711.123216	0.995829
711.457275	0.995896
711.791286	0.996210
712.125247	0.997823
712.459159	0.995379
712.793023	0.995944
713.126837	0.996795
713.460602	0.995758
713.794318	0.996010
714.127985	0.995363
714.461602	0.996730
714.795171	0.996337
715.128691	0.995578
715.462162	0.996730
715.795584	0.996647
716.128957	0.997045
716.462281	0.996015
716.795556	0.995870
717.128782	0.997518
717.461960	0.996137
717.795088	0.997183
718.128167	0.997364
718.461198	0.995968
718.794180	0.997105
719.127113	0.996775
719.459997	0.995915
719.792833	0.996826
720.125619	0.996018
720.458357	0.996541
720.791046	0.997234
721.123686	0.996381
721.456278	0.996342
721.788821	0.997361
722.121315	0.998245
722.453761	0.997343
722.786158	0.996538
723.118506	0.997515
723.450805	0.996821
723.783056	0.997867
724.115259	0.996080
724.447412	0.998116
724.779518	0.996843
725.111574	0.996042
725.443582	0.997266
725.775542	0.997368
726.107453	0.997449
726.439315	0.997887
726.771129	0.996759
727.102895	0.996917
727.434612	0.997911
727.766281	0.996736
728.097901	0.996824
728.429473	0.998741
728.760996	0.996296
729.092471	0.996944
729.423897	0.997115
729.755276	0.997640
730.086606	0.996317
730.417887	0.996859
730.749120	0.997360
731.080305	0.997190
731.411442	0.995393
731.742530	0.995446
732.073570	0.996025
732.404562	0.996420
732.735506	0.996177
733.066401	0.996789
733.397249	0.996736
733.728048	0.997183
734.058798	0.996882
734.389501	0.998056
734.720156	0.997038
735.050762	0.998307
735.381320	0.996909
735.711831	0.996180
736.042293	0.996309
736.372707	0.998227
736.703073	0.996140
737.033391	0.997002
737.363661	0.996964
737.693883	0.996904
738.024056	0.997184
738.354182	0.997342
738.684260	0.997217
739.014290	0.997537
739.344272	0.996371
739.674207	0.997199
740.004093	0.997249
740.333931	0.997194
740.663722	0.997115
740.993464	0.996992
741.323159	0.997422
741.652806	0.996958
741.982405	0.997368
742.311956	0.997590
742.641460	0.997378
742.970915	0.997582
743.300323	0.996161
743.629683	0.997911
743.958996	0.998170
744.288260	0.997620
744.617477	0.997122
744.946647	0.997264
745.275768	0.998637
745.604842	0.996872
745.933869	0.997025
746.262847	0.997786
746.591778	0.997669
746.920662	0.998493
747.249498	0.998451
747.578286	0.998496
747.907027	0.997262
748.235720	0.998026
748.564365	0.997648
748.892963	0.996880
749.221514	0.997591
749.550017	0.996499
749.878473	0.997650
750.206881	0.998247
750.535242	0.997633
750.863555	0.997352
751.191821	0.996518
751.520039	0.997030
751.848210	0.996274
752.176334	0.997843
752.504411	0.997538
752.832440	0.997387
753.160421	0.997651
753.488356	0.998300
753.816243	0.997511
754.144082	0.997816
754.471875	0.996507
754.799620	0.998748
755.127318	0.997381
755.454969	0.997637
755.782572	0.999581
756.110129	0.997041
756.437638	0.998049
756.765100	0.997759
757.092515	0.997358
757.419882	0.998355
757.747203	0.997186
758.074477	0.998270
758.401703	0.998027
758.728882	0.997908
759.056014	0.996915
759.383099	0.997603
759.710138	0.997117
760.037129	0.997505
760.364073	0.998396
760.690970	0.997572
761.017820	0.996880
761.344623	0.998599
761.671379	0.998656
761.998088	0.997470
762.324751	0.997807
762.651366	0.996945
762.977935	0.996230
763.304456	0.997152
763.630931	0.993955
763.957359	0.994631
764.283740	0.994701
764.610074	0.996559
764.936362	0.995512
765.262602	0.996190
765.588796	0.998128
765.914943	0.996656
766.241044	0.997666
766.567097	0.996965
766.893104	0.997670
767.219064	0.997037
767.544978	0.997642
767.870845	0.998117
768.196665	0.998469
768.522438	0.998313
768.848165	0.997898
769.173846	0.999728
769.499479	0.998746
769.825066	0.998935
770.150607	0.999842
770.476101	0.999156
770.801548	1.000010
771.126949	0.998768
771.452303	0.999437
771.777611	0.999061
772.102872	0.998750
772.428087	0.998473
772.753256	0.999507
773.078378	0.999095
773.403453	0.998033
773.728482	1.000061
774.053465	0.997742
774.378401	0.998211
774.703291	0.999218
775.028135	1.000075
775.352932	0.997965
775.677683	0.999100
776.002388	0.998589
776.327046	0.998465
776.651658	0.999992
776.976224	0.999052
777.300743	0.999098
777.625216	0.998380
777.949643	0.998895
778.274024	0.998839
778.598359	0.998956
778.922647	0.999254
779.246889	0.998616
779.571086	0.998998
779.895236	0.999378
780.219339	0.999986
780.543397	0.998452
780.867409	0.999280
781.191374	0.998548
781.515294	0.999043
781.839167	1.000293
782.162995	0.998771
782.486776	0.998513
782.810511	0.999249
783.134201	0.999229
783.457844	0.999808
783.781441	0.998571
784.104993	0.997822
784.428498	0.999174
784.751958	1.000069
785.075372	1.000235
785.398739	0.998560
785.722061	0.998931
786.045337	0.998806
786.368568	0.998615
786.691752	0.999216
787.014891	0.999095
787.337983	0.999026
787.661030	0.999059
787.984031	0.998955
788.306987	0.999217
788.629897	0.997024
788.952760	0.998829
789.275579	0.999252
789.598351	0.997970
789.921078	0.998884
790.243759	0.998839
790.566395	0.998684
790.888984	0.999343
791.211529	0.998988
791.534027	0.999142
791.856480	0.999092
792.178888	0.998988
792.501249	0.998583
792.823566	0.999830
793.145836	0.999058
793.468062	0.999361
793.790241	1.000119
794.112375	0.998417
794.434464	0.999241
794.756507	0.998971
795.078505	1.000104
795.400457	0.999959
795.722364	0.999581
796.044226	0.998648
796.366042	0.997971
796.687812	0.997649
797.009538	0.998392
797.331218	0.998930
797.652852	0.999996
797.974442	0.998614
798.295986	0.999279
798.617484	0.998357
798.938938	0.999416
799.260346	0.999161
799.581709	0.998205
799.903026	0.999715
800.224299	0.998552
800.545526	0.999573
800.866708	0.998470
801.187845	1.000415
801.508936	0.998347
801.829983	0.998770
802.150984	0.999291
802.471940	0.998702
802.792851	0.998598
803.113717	1.000249
803.434538	0.999600
803.755314	1.000191
804.076045	0.999687
804.396731	0.998846
804.717372	0.997630
805.037967	0.998781
805.358518	1.000458
805.679024	0.998349
805.999485	0.999581
806.319901	0.999340
806.640272	0.999591
806.960598	0.999161
807.280879	0.998878
807.601115	0.999724
807.921306	0.999917
808.241453	0.999130
808.561554	0.999559
808.881611	1.000221
809.201623	0.999363
809.521590	0.998286
809.841513	0.999206
810.161390	0.998890
810.481223	0.998825
810.801011	1.000012
811.120755	1.000030
811.440453	0.998522
811.760107	0.999854
812.079716	0.998381
812.399281	0.999320
812.718801	0.998202
813.038276	0.998893
813.357707	0.998832
813.677093	0.999572
813.996434	0.999680
814.315731	1.000468
814.634983	1.000486
814.954191	1.000125
815.273354	0.999258
815.592473	0.998095
815.911547	0.999780
816.230577	0.998528
816.549562	0.999815
816.868502	0.998505
817.187399	0.999803
817.506250	0.999887
817.825058	0.997637
818.143821	0.998896
818.462539	0.998618
818.781213	0.999549
819.099843	0.999333
819.418429	0.998867
819.736970	0.999213
820.055466	0.997043
820.373919	0.997212
820.692327	0.995797
821.010691	0.996160
821.329011	0.993731
821.647286	0.992659
821.965517	0.992001
822.283704	0.988950
822.601847	0.987597
822.919945	0.987903
823.237999	0.989570
823.556010	0.989881
823.873976	0.990333
824.191897	0.992986
824.509775	0.994126
824.827609	0.993753
825.145398	0.995846
825.463144	0.993975
825.780845	0.994764
826.098502	0.994649
826.416116	0.994984
826.733685	0.993985
827.051210	0.992084
827.368692	0.992930
827.686129	0.992144
828.003522	0.994798
828.320872	0.994577
828.638177	0.996296
828.955439	0.997435
829.272656	0.997523
829.589830	0.997376
829.906960	0.997802
830.224046	0.998193
830.541088	0.998161
830.858086	0.998511
831.175041	0.998416
831.491952	0.996821
831.808819	0.998402
832.125642	0.998239
832.442421	1.000330
832.759157	0.998509
833.075849	0.996474
833.392497	0.997759
833.709101	0.994586
834.025662	0.994676
834.342179	0.995604
834.658653	0.996755
834.975083	0.997683
835.291469	0.995810
835.607811	0.997508
835.924110	0.998002
836.240366	0.999299
836.556578	0.999439
836.872746	1.000141
837.188871	0.999057
837.504952	0.998908
837.820990	1.000016
838.136984	0.998533
838.452935	0.999136
838.768842	1.000528
839.084706	1.000051
839.400526	0.999787
839.716303	0.997867
840.032037	0.998377
840.347727	0.997381
840.663373	0.998428
840.978977	0.999078
841.294537	0.999267
841.610054	0.998705
841.925527	0.998699
842.240957	0.998851
842.556344	0.999024
842.871687	0.999902
843.186987	0.999514
843.502244	1.000565
843.817458	0.998936
844.132629	0.999128
844.447756	1.001012
844.762840	1.000990
845.077881	1.001456
845.392879	0.998879
845.707833	0.998796
846.022745	0.999978
846.337613	1.000448
846.652438	1.000041
846.967221	1.000882
847.281960	1.000282
847.596656	1.000752
847.911309	1.000341
848.225919	1.000077
848.540485	1.000795
848.855009	1.001490
849.169490	1.000023
849.483928	0.999403
849.798323	0.998936
850.112675	1.000839
850.426984	1.000661
850.741251	0.998934
851.055474	1.001473
851.369654	1.000797
851.683792	0.999990
851.997887	0.999893
852.311938	0.999949
852.625947	0.998916
852.939914	0.999690
853.253837	1.001188
853.567718	1.001294
853.881555	0.999446
854.195350	1.000375
854.509103	1.001200
854.822812	1.000919
855.136479	1.001187
855.450103	1.000412
855.763685	1.000609
856.077224	1.000621
856.390720	1.000835
856.704173	1.000745
857.017584	1.001496
857.330953	1.000215
857.644278	1.000146
857.957561	1.000348
858.270802	1.001268
858.584000	1.000773
858.897155	1.000494
859.210268	1.000819
859.523339	1.001302
859.836367	0.999292
860.149352	0.999342
860.462295	1.001226
860.775195	0.999845
861.088054	0.999224
861.400869	1.000487
861.713642	0.999675
862.026373	1.000570
862.339062	1.000815
862.651708	1.000979
862.964312	1.000102
863.276873	0.999792
863.589392	1.000310
863.901869	0.999561
864.214303	1.001197
864.526696	0.999996
864.839045	1.000122
865.151353	1.000667
865.463619	1.000114
865.775842	1.000544
866.088023	1.000933
866.400162	1.000224
866.712258	1.001294
867.024313	0.999975
867.336325	1.000358
867.648296	1.000187
867.960224	0.999046
868.272110	1.000693
868.583954	1.000817
868.895755	1.000576
869.207515	1.000597
869.519233	1.001929
869.830909	0.999898
870.142542	1.000090
870.454134	1.000295
870.765684	0.999921
871.077191	1.000384
871.388657	1.000177
871.700081	0.999855
872.011463	1.000652
872.322803	1.000142
872.634101	0.999045
872.945357	0.999633
873.256571	0.999267
873.567744	0.999368
873.878874	1.000184
874.189963	0.999774
874.501010	1.000919
874.812015	1.000325
875.122979	1.000759
875.433900	1.000279
875.744780	1.000303
876.055618	0.998944
876.366415	0.999817
876.677169	0.999841
876.987882	1.000129
877.298554	1.000288
877.609183	0.999442
877.919771	0.998839
878.230317	0.998991
878.540822	0.998804
878.851285	0.999713
879.161707	0.998826
879.472087	0.999463
879.782425	0.997614
880.092722	0.997112
880.402977	0.994962
880.713191	0.992713
881.023363	0.991446
881.333494	0.989692
881.643583	0.990409
881.953631	0.989918
882.263637	0.989755
882.573602	0.989962
882.883526	0.990424
883.193408	0.992431
883.503248	0.993323
883.813048	0.993132
884.122806	0.995602
884.432522	0.995263
884.742197	0.997411
885.051831	0.996272
885.361424	0.997588
885.670975	0.998681
885.980485	0.997880
886.289954	0.997205
886.599382	0.997863
886.908768	0.999140
887.218113	0.997846
887.527417	0.998604
887.836680	1.000344
888.145901	0.999127
888.455082	1.000421
888.764221	0.999658
889.073319	1.000108
889.382376	1.000151
889.691392	0.998483
890.000366	0.999414
890.309300	1.000961
890.618193	1.000552
890.927044	0.999305
891.235855	0.999314
891.544625	0.999374
891.853353	0.999370
892.162041	0.999207
892.470687	0.999928
892.779293	0.998135
893.087858	0.998082
893.396381	0.997975
893.704864	0.997180
894.013306	0.998166
894.321707	0.995580
894.630068	0.995111
894.938387	0.993355
895.246665	0.994825
895.554903	0.995248
895.863100	0.996631
896.171256	0.996594
896.479371	0.997466
896.787446	0.997201
897.095480	0.997427
897.403473	0.999764
897.711425	0.998561
898.019336	0.999122
898.327207	0.999547
898.635038	0.998559
898.942827	0.999752
899.250576	0.998719
899.558284	0.999554
899.865952	0.998861
900.173579	0.999395
900.481165	0.999832
900.788711	0.999038
901.096216	0.999734
901.403681	0.999505
901.711105	0.999142
902.018489	0.999309
902.325832	1.000313
902.633135	0.999042
902.940397	0.998710
903.247619	0.998093
903.554800	0.997782
903.861941	0.996678
904.169041	0.994985
904.476101	0.993539
904.783121	0.994612
905.090100	0.994051
905.397039	0.994897
905.703938	0.995951
906.010796	0.996551
906.317614	0.996645
906.624391	0.997649
906.931129	0.998692
907.237826	0.999394
907.544483	0.999203
907.851099	1.000353
908.157675	0.999450
908.464211	0.999852
908.770707	0.998645
909.077163	1.000008
909.383578	1.000051
909.689954	1.000369
909.996289	1.000356
910.302584	1.000596
910.608839	1.001319
910.915054	1.000127
911.221229	1.001609
911.527363	0.999366
911.833458	1.000309
912.139513	1.000598
912.445527	1.000462
912.751502	1.000928
913.057436	0.998710
913.363331	1.000088
913.669186	1.000692
913.975000	0.999457
914.280775	0.998900
914.586510	0.997565
914.892205	0.998256
915.197859	0.996638
915.503475	0.996000
915.809050	0.994456
916.114585	0.993554
916.420081	0.994559
916.725536	0.995458
917.030952	0.995111
917.336328	0.993799
917.641665	0.993926
917.946961	0.995658
918.252218	0.995439
918.557435	0.996280
918.862612	0.997905
919.167750	0.999551
919.472848	0.999233
919.777906	1.000084
920.082925	0.999402
920.387904	0.999190
920.692843	0.999026
920.997743	0.998515
921.302603	1.000003
921.607423	0.998755
921.912204	0.999649
922.216946	0.999895
922.521647	0.999822
922.826310	0.999147
923.130932	0.999532
923.435516	1.000004
923.740059	0.999917
924.044564	0.999516
924.349028	0.999374
924.653454	1.000788
924.957840	1.000271
925.262186	1.000736
925.566493	0.999011
925.870761	1.000475
926.174989	1.000272
926.479178	1.002220
926.783328	1.000281
927.087438	0.999162
927.391509	1.000646
927.695541	1.000503
927.999533	1.001072
928.303486	1.000769
928.607400	1.000623
928.911275	1.000401
929.215110	1.001220
929.518906	1.001548
929.822663	1.001031
930.126381	1.000948
930.430060	1.001170
930.733699	1.000957
931.037299	1.000562
931.340861	1.001121
931.644383	1.000683
931.947866	1.000588
932.251309	1.000739
932.554714	1.000476
932.858080	1.001338
933.161407	1.000153
933.464694	1.000685
933.767943	1.002046
934.071153	0.999464
934.374323	1.002520
934.677455	1.001308
934.980548	1.000192
935.283602	1.002672
935.586617	1.000579
935.889593	1.001099
936.192530	1.000787
936.495428	0.999876
936.798287	1.000087
937.101108	0.999961
937.403890	0.999958
937.706632	1.001353
938.009336	1.000460
938.312002	0.999645
938.614628	1.000363
938.917216	0.999648
939.219765	0.999674
939.522275	0.999950
939.824747	1.000442
940.127179	1.000558
940.429573	1.000424
940.731929	1.000206
941.034246	0.999579
941.336524	0.999468
941.638763	1.000732
941.940964	0.999698
942.243126	1.001378
942.545250	1.001873
942.847335	1.000165
943.149381	1.001629
943.451389	0.999209
943.753359	1.000767
944.055290	1.001571
944.357182	1.001475
944.659036	1.001286
944.960851	1.001421
945.262628	1.000963
945.564367	1.001555
945.866067	0.999262
946.167729	0.999889
946.469352	1.000846
946.770937	0.998016
947.072484	1.001347
947.373992	1.000741
947.675462	1.000004
947.976893	0.999946
948.278286	1.002729
948.579641	1.000534
948.880958	1.001042
949.182236	1.000881
949.483476	1.001221
949.784678	1.000573
950.085841	1.000522
950.386967	1.000849
950.688054	1.000320
950.989103	0.999162
951.290114	0.999977
951.591087	1.000621
951.892021	0.999909
952.192917	1.000453
952.493776	1.000445
952.794596	1.000532
953.095378	1.000450
953.396122	1.000438
953.696828	1.000904
953.997496	1.000646
954.298126	1.000890
954.598718	1.001261
954.899272	1.000953
955.199788	1.000970
955.500266	1.001402
955.800706	1.000764
956.101108	1.000409
956.401472	1.002260
956.701798	1.000446
957.002087	1.001139
957.302337	1.001158
957.602550	1.001867
957.902724	1.001064
958.202861	1.000953
958.502960	1.000668
958.803022	1.001864
959.103045	1.001139
959.403031	1.001053
959.702979	1.001380
960.002889	1.001530
960.302762	0.999819
960.602596	1.002164
960.902393	1.001436
961.202153	1.001140
961.501875	1.002054
961.801559	1.001675
962.101205	1.000587
962.400814	1.001100
962.700385	1.002176
962.999918	1.000537
963.299414	1.000003
963.598873	1.001027
963.898293	1.001134
964.197677	1.001242
964.497022	1.000494
964.796331	1.001484
965.095601	1.002602
965.394835	1.001468
965.694030	1.002013
965.993189	1.000335
966.292309	1.001582
966.591393	0.999781
966.890439	1.001819
967.189447	1.000310
967.488419	1.001051
967.787353	1.000678
968.086249	1.001330
968.385108	1.001152
968.683930	1.002547
968.982714	1.001938
969.281462	1.001748
969.580172	1.001222
969.878844	1.000895
970.177480	1.000294
970.476078	1.001966
970.774639	1.000781
971.073162	1.000505
971.371649	1.001232
971.670098	0.999944
971.968510	1.002028
972.266885	0.999390
972.565223	1.001440
972.863524	0.999387
973.161788	1.000628
973.460014	1.001820
973.758204	1.000954
974.056356	1.000829
974.354471	1.000521
974.652550	1.001693
974.950591	1.000945
975.248595	1.000578
975.546563	1.001553
975.844493	1.002675
976.142386	0.999257
976.440243	1.001253
976.738062	1.001173
977.035845	1.000531
977.333590	1.001213
977.631299	1.000663
977.928971	1.000386
978.226606	1.001411
978.524204	1.000098
978.821765	1.001279
979.119290	1.002501
979.416777	1.001411
979.714228	1.001273
980.011642	1.000781
980.309020	0.999816
980.606360	1.000570
980.903664	1.001935
981.200931	1.000605
981.498162	1.000412
981.795356	1.001630
982.092513	1.000968
982.389633	1.002350
982.686717	1.000884
982.983764	1.001126
983.280775	1.000563
983.577749	1.001759
983.874686	1.000447
984.171587	1.000536
984.468451	1.000915
984.765279	1.002009
985.062070	1.000859
985.358824	1.000608
985.655543	1.000868
985.952224	1.001906
986.248869	1.001354
986.545478	1.002827
986.842050	1.000924
987.138586	0.999985
987.435086	1.001024
987.731549	1.001777
988.027975	1.001227
988.324366	1.000287
988.620719	1.001694
988.917037	1.000794
989.213318	1.000585
989.509563	1.001567
989.805772	1.001984
990.101944	1.001505
990.398080	1.001870
990.694180	1.002091
990.990244	1.000553
991.286271	1.001481
991.582262	1.001316
991.878217	1.001233
992.174136	1.001621
992.470019	1.000869
992.765865	1.001833
993.061676	1.002281
993.357450	1.001568
993.653188	1.002058
993.948890	1.000903
994.244556	1.000832
994.540186	1.000785
994.835780	1.000044
995.131337	1.002613
995.426859	0.999993
995.722345	1.001795
996.017795	1.000980
996.313208	1.000702
996.608586	1.001580
996.903928	1.000690
997.199234	1.001958
997.494504	1.001315
997.789738	1.001197
998.084936	1.002042
998.380099	1.000949
998.675225	1.002363
998.970316	1.001239
999.265371	1.001139
999.560390	0.999981
999.855373	1.001242
1000.150320	1.001194
1000.445232	1.001987
1000.740108	1.000660
1001.034948	0.999924
1001.329752	1.002284
1001.624521	1.001824
1001.919254	1.001081
1002.213951	1.000860
1002.508613	1.000922
1002.803239	1.001325
1003.097829	1.001163
1003.392384	1.001431
1003.686903	1.002223
1003.981386	0.999433
1004.275834	1.002991
1004.570246	1.001115
1004.864623	1.002798
1005.158964	1.001636
1005.453270	1.000758
1005.747540	1.000916
1006.041775	1.002060
1006.335974	1.000839
1006.630138	1.001886
1006.924266	1.000249
1007.218359	1.000354
1007.512416	1.002547
1007.806438	1.000804
1008.100425	1.000406
1008.394376	1.002467
1008.688292	1.000929
1008.982172	1.000338
1009.276017	1.001310
1009.569827	1.002372
1009.863602	0.999330
1010.157341	1.001124
1010.451045	1.000556
1010.744714	1.002169
1011.038347	1.001227
1011.331945	1.000229
1011.625508	1.000798
1011.919036	1.001315
1012.212528	1.002192
1012.505986	1.001487
1012.799408	1.001539
1013.092795	1.001346
1013.386147	1.001514
1013.679464	1.001673
1013.972745	1.001636
1014.265992	1.001053
1014.559204	1.001268
1014.852380	1.002427
1015.145521	1.001243
1015.438628	1.001929
1015.731699	1.001822
1016.024736	1.001715
1016.317737	1.001821
1016.610703	1.001717
1016.903635	1.001281
1017.196531	1.001732
1017.489393	1.001484
1017.782219	1.001714
1018.075011	1.000855
1018.367768	1.000969
1018.660490	1.000974
1018.953177	1.000974
1019.245829	1.000974
