Dividing Wavelength (nm)	Counts (n)	Blue Motor Position (mm): 17.500000	Red Motor Position (mm): 0.000000	
326.493990	1.001843
326.888308	1.001843
327.282561	1.001843
327.676750	1.002387
328.070874	1.004138
328.464933	1.003157
328.858929	1.002352
329.252859	1.002697
329.646726	1.001349
330.040528	1.002186
330.434265	1.002481
330.827938	1.000910
331.221547	1.003310
331.615091	1.002444
332.008571	1.003062
332.401986	1.001881
332.795338	1.002263
333.188625	1.001836
333.581847	1.001577
333.975006	1.001688
334.368100	1.001884
334.761129	1.001265
335.154095	1.002386
335.546996	1.001864
335.939833	0.998426
336.332606	0.999515
336.725315	0.996861
337.117960	0.999932
337.510540	0.998118
337.903056	0.998605
338.295508	0.998983
338.687896	0.998333
339.080220	0.998866
339.472480	0.998092
339.864676	0.998678
340.256807	0.997627
340.648875	0.998912
341.040879	0.999047
341.432818	0.999734
341.824694	0.998827
342.216506	0.998528
342.608253	0.999058
342.999937	0.998523
343.391557	0.998904
343.783113	0.999660
344.174605	0.998762
344.566033	0.997588
344.957397	0.999018
345.348697	0.998858
345.739934	0.998191
346.131106	0.999045
346.522215	0.997605
346.913260	0.998400
347.304241	0.997479
347.695159	0.999579
348.086012	0.997894
348.476802	0.998775
348.867528	0.997641
349.258191	0.999403
349.648789	0.997898
350.039324	0.998070
350.429796	0.997636
350.820203	0.997167
351.210548	0.998636
351.600828	0.998438
351.991045	0.998877
352.381198	0.998812
352.771288	0.997854
353.161314	0.998382
353.551276	0.997473
353.941175	0.997359
354.331010	0.998064
354.720782	0.997207
355.110490	0.997602
355.500135	0.998062
355.889717	0.996392
356.279235	0.997363
356.668689	0.997934
357.058080	0.997416
357.447408	0.997162
357.836672	0.997652
358.225873	0.997398
358.615010	0.996783
359.004084	0.995283
359.393095	0.997351
359.782043	0.996729
360.170927	0.997472
360.559748	0.996811
360.948505	0.996573
361.337199	0.997367
361.725830	0.996561
362.114398	0.997205
362.502903	0.996095
362.891344	0.996334
363.279722	0.996315
363.668037	0.997200
364.056289	0.997249
364.444478	0.997860
364.832603	0.997209
365.220665	0.997720
365.608665	0.996042
365.996601	0.995660
366.384474	0.994626
366.772284	0.994965
367.160031	0.994044
367.547715	0.995746
367.935336	0.993798
368.322893	0.992613
368.710388	0.991280
369.097820	0.989930
369.485189	0.988198
369.872495	0.986961
370.259738	0.984539
370.646918	0.980569
371.034035	0.979656
371.421090	0.975458
371.808081	0.971986
372.195010	0.968747
372.581875	0.962829
372.968678	0.960056
373.355418	0.955030
373.742096	0.949653
374.128710	0.942807
374.515262	0.939153
374.901751	0.934184
375.288177	0.928060
375.674540	0.921537
376.060841	0.916743
376.447079	0.909042
376.833254	0.902322
377.219367	0.897088
377.605417	0.885815
377.991404	0.882281
378.377329	0.875803
378.763191	0.869994
379.148991	0.861715
379.534727	0.852583
379.920402	0.845502
380.306013	0.840798
380.691563	0.829038
381.077049	0.822316
381.462474	0.817864
381.847835	0.807253
382.233134	0.801311
382.618371	0.802233
383.003545	0.784930
383.388657	0.782608
383.773706	0.775136
384.158693	0.770894
384.543618	0.766056
384.928480	0.756732
385.313280	0.746747
385.698017	0.747269
386.082692	0.735456
386.467305	0.733397
386.851856	0.728331
387.236344	0.723394
387.620770	0.716517
388.005133	0.711398
388.389435	0.706360
388.773674	0.703261
389.157851	0.695247
389.541965	0.693042
389.926018	0.700217
390.310008	0.685203
390.693936	0.683532
391.077802	0.675452
391.461606	0.676964
391.845348	0.666889
392.229027	0.665429
392.612645	0.663728
392.996200	0.650655
393.379694	0.643579
393.763125	0.634247
394.146494	0.638585
394.529801	0.629588
394.913047	0.621337
395.296230	0.627375
395.679351	0.618457
396.062410	0.615609
396.445408	0.618130
396.828343	0.613807
397.211217	0.608127
397.594028	0.620341
397.976778	0.610667
398.359466	0.607415
398.742092	0.602769
399.124656	0.614378
399.507158	0.602767
399.889598	0.599768
400.271977	0.591029
400.654294	0.595131
401.036549	0.594516
401.418742	0.598476
401.800874	0.584420
402.182944	0.581054
402.564952	0.573446
402.946898	0.574805
403.328783	0.575801
403.710606	0.587283
404.092367	0.562672
404.474067	0.566562
404.855705	0.565561
405.237282	0.574050
405.618797	0.560542
406.000250	0.555912
406.381642	0.546584
406.762972	0.551576
407.144240	0.549806
407.525447	0.549586
407.906593	0.542811
408.287677	0.538481
408.668700	0.546168
409.049661	0.540671
409.430560	0.536094
409.811399	0.544431
410.192176	0.526682
410.572891	0.533076
410.953545	0.521644
411.334138	0.535527
411.714669	0.527488
412.095139	0.539605
412.475547	0.523400
412.855894	0.524995
413.236180	0.525104
413.616405	0.529865
413.996568	0.520284
414.376670	0.526695
414.756711	0.530619
415.136691	0.528743
415.516609	0.519196
415.896466	0.515754
416.276262	0.512073
416.655997	0.513926
417.035670	0.495566
417.415283	0.486710
417.794834	0.491725
418.174324	0.497322
418.553753	0.505995
418.933121	0.488384
419.312428	0.482860
419.691674	0.488138
420.070859	0.476823
420.449983	0.484187
420.829045	0.473721
421.208047	0.482755
421.586988	0.475538
421.965867	0.474210
422.344686	0.463237
422.723444	0.475564
423.102141	0.492698
423.480777	0.464962
423.859352	0.486486
424.237866	0.463952
424.616319	0.463897
424.994712	0.455414
425.373044	0.465698
425.751314	0.453616
426.129524	0.470277
426.507673	0.453736
426.885762	0.447359
427.263789	0.452660
427.641756	0.462010
428.019662	0.452777
428.397508	0.451963
428.775292	0.455872
429.153016	0.447711
429.530679	0.454617
429.908282	0.447574
430.285824	0.457930
430.663305	0.436316
431.040726	0.457436
431.418086	0.457138
431.795385	0.449023
432.172624	0.448050
432.549802	0.447994
432.926920	0.447573
433.303977	0.446682
433.680974	0.443929
434.057910	0.442531
434.434786	0.441781
434.811601	0.444506
435.188355	0.427384
435.565050	0.436209
435.941683	0.437246
436.318257	0.421119
436.694770	0.422207
437.071222	0.420638
437.447614	0.425082
437.823946	0.431365
438.200218	0.420694
438.576429	0.429976
438.952580	0.423230
439.328670	0.420101
439.704700	0.426265
440.080670	0.427552
440.456580	0.409211
440.832429	0.417291
441.208218	0.427872
441.583947	0.417427
441.959616	0.416847
442.335224	0.422264
442.710773	0.412286
443.086261	0.410767
443.461689	0.424274
443.837057	0.414612
444.212365	0.404685
444.587612	0.411726
444.962800	0.401422
445.337927	0.402504
445.712995	0.428971
446.088002	0.391161
446.462949	0.401174
446.837837	0.406305
447.212664	0.394606
447.587431	0.386517
447.962139	0.357384
448.336786	0.316013
448.711374	0.326406
449.085901	0.370757
449.460369	0.375111
449.834776	0.378662
450.209124	0.358018
450.583412	0.350450
450.957640	0.343325
451.331808	0.355063
451.705917	0.378203
452.079965	0.383257
452.453954	0.371190
452.827883	0.378056
453.201752	0.372959
453.575562	0.383861
453.949311	0.372445
454.323001	0.378973
454.696632	0.374548
455.070202	0.367224
455.443713	0.358998
455.817164	0.354001
456.190556	0.349676
456.563888	0.346408
456.937160	0.344013
457.310373	0.360893
457.683526	0.359972
458.056619	0.365770
458.429653	0.366424
458.802628	0.370018
459.175542	0.364109
459.548398	0.346321
459.921194	0.339042
460.293930	0.339553
460.666607	0.317055
461.039224	0.305065
461.411782	0.300550
461.784280	0.300021
462.156719	0.303925
462.529099	0.308506
462.901419	0.324545
463.273680	0.329051
463.645882	0.328333
464.018024	0.334226
464.390106	0.326902
464.762130	0.311421
465.134094	0.294405
465.505999	0.263615
465.877845	0.233769
466.249631	0.220908
466.621358	0.228309
466.993026	0.242424
467.364634	0.248787
467.736184	0.257208
468.107674	0.266058
468.479105	0.265305
468.850477	0.271991
469.221790	0.278837
469.593043	0.288961
469.964238	0.294089
470.335373	0.293395
470.706449	0.291526
471.077467	0.291965
471.448425	0.254267
471.819324	0.229404
472.190164	0.228880
472.560945	0.258002
472.931667	0.280340
473.302330	0.284548
473.672934	0.296496
474.043479	0.284356
474.413965	0.286399
474.784393	0.289560
475.154761	0.284828
475.525070	0.281798
475.895321	0.287913
476.265513	0.281970
476.635645	0.277229
477.005719	0.277313
477.375734	0.273630
477.745691	0.266734
478.115588	0.263194
478.485427	0.257077
478.855207	0.243637
479.224928	0.226354
479.594591	0.214078
479.964194	0.217680
480.333739	0.218911
480.703226	0.220450
481.072653	0.218619
481.442022	0.214364
481.811333	0.211018
482.180584	0.214806
482.549777	0.219835
482.918912	0.223358
483.287988	0.222888
483.657005	0.222489
484.025964	0.228997
484.394864	0.226285
484.763706	0.227034
485.132489	0.231725
485.501213	0.232947
485.869879	0.231175
486.238487	0.234398
486.607036	0.232308
486.975527	0.236953
487.343959	0.232951
487.712333	0.231737
488.080648	0.233369
488.448905	0.232560
488.817104	0.233623
489.185244	0.228199
489.553326	0.225055
489.921350	0.214916
490.289315	0.197434
490.657222	0.192095
491.025070	0.193661
491.392861	0.195553
491.760593	0.201453
492.128267	0.207295
492.495883	0.212823
492.863440	0.218951
493.230939	0.225120
493.598380	0.226851
493.965763	0.229186
494.333088	0.231114
494.700354	0.232939
495.067563	0.231651
495.434713	0.235223
495.801805	0.232764
496.168839	0.234555
496.535815	0.235976
496.902733	0.235835
497.269593	0.237196
497.636395	0.235198
498.003139	0.235794
498.369825	0.238483
498.736453	0.235046
499.103023	0.236739
499.469535	0.236098
499.835989	0.236263
500.202385	0.236997
500.568723	0.240605
500.935003	0.235679
501.301226	0.239851
501.667390	0.234280
502.033497	0.232194
502.399546	0.235288
502.765537	0.237343
503.131470	0.235742
503.497345	0.232067
503.863163	0.240790
504.228923	0.233818
504.594625	0.232322
504.960269	0.237814
505.325856	0.233446
505.691385	0.237776
506.056856	0.234700
506.422270	0.233917
506.787625	0.236692
507.152924	0.234282
507.518164	0.234526
507.883347	0.236170
508.248472	0.238227
508.613540	0.233186
508.978550	0.236231
509.343503	0.236366
509.708398	0.234393
510.073236	0.231918
510.438016	0.231960
510.802738	0.232997
511.167403	0.232095
511.532010	0.234425
511.896561	0.230062
512.261053	0.228758
512.625488	0.231280
512.989866	0.231784
513.354186	0.232298
513.718449	0.234441
514.082655	0.231008
514.446803	0.233380
514.810894	0.231230
515.174927	0.234505
515.538904	0.234214
515.902822	0.231547
516.266684	0.234346
516.630488	0.235695
516.994235	0.234885
517.357925	0.234202
517.721558	0.232812
518.085133	0.232650
518.448651	0.233251
518.812112	0.236170
519.175516	0.236184
519.538863	0.234339
519.902152	0.236898
520.265385	0.234139
520.628560	0.236128
520.991678	0.237216
521.354739	0.236762
521.717743	0.238709
522.080690	0.239603
522.443580	0.237653
522.806413	0.239263
523.169189	0.239403
523.531908	0.239114
523.894569	0.243369
524.257174	0.244013
524.619722	0.242925
524.982213	0.244717
525.344647	0.244911
525.707025	0.246904
526.069345	0.245745
526.431608	0.249202
526.793815	0.247500
527.155964	0.253190
527.518057	0.252890
527.880093	0.255162
528.242072	0.254973
528.603995	0.258092
528.965860	0.261153
529.327669	0.261263
529.689421	0.263531
530.051117	0.265461
530.412755	0.265399
530.774337	0.268575
531.135862	0.271067
531.497331	0.271302
531.858743	0.276103
532.220098	0.274402
532.581396	0.278890
532.942638	0.280566
533.303824	0.283099
533.664953	0.285228
534.026025	0.288716
534.387040	0.288885
534.747999	0.290341
535.108902	0.291659
535.469748	0.298717
535.830537	0.298545
536.191270	0.301479
536.551947	0.303032
536.912567	0.305410
537.273131	0.308980
537.633638	0.311746
537.994089	0.314824
538.354483	0.318205
538.714821	0.317536
539.075103	0.319862
539.435328	0.323691
539.795497	0.329241
540.155609	0.329441
540.515665	0.330309
540.875665	0.338440
541.235609	0.340071
541.595496	0.342962
541.955328	0.343116
542.315102	0.348115
542.674821	0.351928
543.034483	0.354786
543.394090	0.357941
543.753640	0.362580
544.113134	0.361708
544.472571	0.367617
544.831953	0.368556
545.191278	0.375601
545.550548	0.377858
545.909761	0.378656
546.268918	0.383633
546.628019	0.385292
546.987064	0.391749
547.346053	0.395585
547.704986	0.398396
548.063863	0.401709
548.422684	0.405197
548.781449	0.411037
549.140158	0.412715
549.498811	0.418766
549.857408	0.424153
550.215949	0.424934
550.574434	0.430823
550.932864	0.434087
551.291237	0.435360
551.649555	0.441963
552.007817	0.444674
552.366022	0.448826
552.724173	0.453790
553.082267	0.456812
553.440305	0.460019
553.798288	0.465494
554.156215	0.468714
554.514086	0.473371
554.871902	0.479412
555.229661	0.482805
555.587365	0.487243
555.945014	0.493008
556.302606	0.496053
556.660143	0.500969
557.017625	0.504339
557.375050	0.509323
557.732421	0.511337
558.089735	0.517175
558.446994	0.520905
558.804197	0.525260
559.161345	0.529093
559.518437	0.534270
559.875474	0.539550
560.232455	0.543050
560.589381	0.547250
560.946251	0.553412
561.303065	0.554107
561.659825	0.560540
562.016528	0.566257
562.373177	0.570994
562.729770	0.575135
563.086307	0.579221
563.442789	0.582341
563.799216	0.589915
564.155587	0.592819
564.511904	0.598686
564.868164	0.602416
565.224370	0.605960
565.580520	0.613233
565.936615	0.614973
566.292654	0.623536
566.648638	0.624897
567.004567	0.630294
567.360441	0.634252
567.716260	0.640460
568.072023	0.642126
568.427732	0.648619
568.783385	0.651607
569.138982	0.656771
569.494525	0.660211
569.850013	0.666717
570.205445	0.670636
570.560823	0.673956
570.916145	0.679930
571.271412	0.683616
571.626625	0.688526
571.981782	0.692758
572.336884	0.697512
572.691931	0.699794
573.046923	0.706435
573.401860	0.709792
573.756743	0.715097
574.111570	0.718167
574.466342	0.721726
574.821059	0.725363
575.175722	0.730567
575.530330	0.734717
575.884882	0.737816
576.239380	0.742881
576.593823	0.746150
576.948211	0.750275
577.302544	0.753965
577.656823	0.758829
578.011047	0.760672
578.365216	0.765851
578.719330	0.769627
579.073389	0.773085
579.427394	0.776823
579.781344	0.780850
580.135239	0.784181
580.489080	0.787186
580.842866	0.792698
581.196597	0.795378
581.550273	0.798023
581.903895	0.802404
582.257463	0.804458
582.610975	0.808390
582.964434	0.811197
583.317837	0.815978
583.671186	0.818041
584.024481	0.821339
584.377721	0.824095
584.730906	0.828774
585.084037	0.832421
585.437113	0.834781
585.790135	0.837878
586.143103	0.840963
586.496016	0.843816
586.848874	0.846830
587.201679	0.849014
587.554428	0.852521
587.907124	0.855947
588.259765	0.858182
588.612352	0.861133
588.964884	0.862950
589.317362	0.866530
589.669786	0.867993
590.022155	0.869634
590.374470	0.873154
590.726731	0.875165
591.078937	0.879092
591.431090	0.881385
591.783188	0.882802
592.135232	0.886902
592.487222	0.887757
592.839157	0.890156
593.191038	0.893083
593.542866	0.895027
593.894639	0.897054
594.246358	0.899468
594.598022	0.901885
594.949633	0.904101
595.301190	0.906388
595.652692	0.907955
596.004141	0.910255
596.355535	0.912726
596.706876	0.914953
597.058162	0.917122
597.409395	0.918224
597.760573	0.919713
598.111698	0.921193
598.462768	0.922501
598.813785	0.924004
599.164748	0.926338
599.515657	0.928335
599.866511	0.931017
600.217312	0.932642
600.568060	0.933085
600.918753	0.935667
601.269392	0.936090
601.619978	0.937907
601.970510	0.939114
602.320988	0.940341
602.671412	0.941601
603.021783	0.943595
603.372100	0.944841
603.722363	0.947139
604.072572	0.947267
604.422728	0.947437
604.772830	0.950123
605.122878	0.951378
605.472872	0.952364
605.822813	0.952757
606.172701	0.953947
606.522534	0.955120
606.872314	0.956197
607.222041	0.956885
607.571714	0.957711
607.921333	0.959322
608.270899	0.959623
608.620411	0.961089
608.969870	0.962303
609.319276	0.961865
609.668627	0.963597
610.017926	0.963493
610.367171	0.964819
610.716362	0.965554
611.065500	0.966745
611.414585	0.967216
611.763616	0.967026
612.112594	0.967769
612.461518	0.968198
612.810389	0.969172
613.159207	0.969814
613.507971	0.969883
613.856682	0.971649
614.205340	0.970951
614.553945	0.972370
614.902496	0.973140
615.250994	0.972498
615.599439	0.973859
615.947830	0.973890
616.296169	0.974519
616.644454	0.975168
616.992686	0.975548
617.340864	0.976194
617.688990	0.975668
618.037063	0.977041
618.385082	0.976832
618.733048	0.976565
619.080961	0.977597
619.428821	0.979038
619.776628	0.978273
620.124382	0.979243
620.472083	0.980074
620.819731	0.980809
621.167326	0.980657
621.514868	0.981292
621.862357	0.981185
622.209793	0.982034
622.557176	0.982557
622.904506	0.982961
623.251783	0.983464
623.599007	0.983929
623.946179	0.982836
624.293297	0.984572
624.640363	0.984421
624.987376	0.984900
625.334336	0.984965
625.681243	0.985933
626.028097	0.985658
626.374899	0.986294
626.721647	0.986842
627.068343	0.987032
627.414987	0.986430
627.761577	0.985702
628.108115	0.986019
628.454600	0.987638
628.801032	0.988006
629.147412	0.987047
629.493739	0.989131
629.840014	0.988003
630.186236	0.987480
630.532405	0.987991
630.878521	0.988007
631.224585	0.987940
631.570597	0.987983
631.916556	0.987985
632.262462	0.986700
632.608316	0.988984
632.954117	0.988395
633.299866	0.988680
633.645562	0.988637
633.991206	0.989669
634.336797	0.989380
634.682336	0.990322
635.027823	0.989226
635.373257	0.990258
635.718639	0.990435
636.063968	0.989629
636.409245	0.989696
636.754470	0.990421
637.099642	0.990470
637.444762	0.990421
637.789829	0.990035
638.134845	0.990559
638.479808	0.990983
638.824719	0.990672
639.169577	0.990053
639.514383	0.991297
639.859137	0.991288
640.203839	0.991021
640.548489	0.991039
640.893086	0.990876
641.237632	0.991554
641.582125	0.990928
641.926566	0.992529
642.270955	0.991804
642.615292	0.991321
642.959576	0.992005
643.303809	0.991971
643.647990	0.991660
643.992118	0.991737
644.336195	0.990633
644.680219	0.991360
645.024192	0.991109
645.368112	0.991307
645.711981	0.991436
646.055797	0.991591
646.399562	0.991625
646.743274	0.992189
647.086935	0.990688
647.430544	0.991089
647.774101	0.991006
648.117606	0.991948
648.461059	0.992640
648.804460	0.991700
649.147810	0.991079
649.491108	0.991255
649.834354	0.991574
650.177548	0.992028
650.520690	0.991911
650.863781	0.991743
651.206820	0.991488
651.549807	0.992173
651.892742	0.992840
652.235626	0.992326
652.578458	0.992816
652.921238	0.992726
653.263967	0.992058
653.606644	0.991464
653.949269	0.993304
654.291843	0.991802
654.634365	0.993666
654.976836	0.991671
655.319255	0.992736
655.661622	0.993217
656.003938	0.991826
656.346203	0.991399
656.688416	0.993739
657.030577	0.992286
657.372687	0.992735
657.714746	0.992622
658.056753	0.992853
658.398708	0.992292
658.740612	0.993361
659.082465	0.992282
659.424266	0.992757
659.766016	0.992125
660.107715	0.992515
660.449362	0.992193
660.790958	0.992291
661.132503	0.993524
661.473996	0.991998
661.815438	0.993505
662.156829	0.993607
662.498168	0.992319
662.839456	0.991886
663.180693	0.993202
663.521879	0.992373
663.863013	0.992271
664.204097	0.992074
664.545129	0.992798
664.886110	0.993421
665.227040	0.992758
665.567918	0.992131
665.908746	0.992135
666.249522	0.991854
666.590248	0.992714
666.930922	0.992535
667.271545	0.992931
667.612118	0.991825
667.952639	0.992311
668.293109	0.992118
668.633528	0.991641
668.973896	0.993137
669.314213	0.991823
669.654480	0.992732
669.994695	0.991736
670.334859	0.992360
670.674973	0.991873
671.015035	0.992695
671.355047	0.992296
671.695008	0.992436
672.034918	0.992621
672.374777	0.992767
672.714585	0.992850
673.054342	0.992917
673.394049	0.992513
673.733705	0.992639
674.073310	0.992608
674.412864	0.992473
674.752368	0.991723
675.091820	0.993418
675.431223	0.993145
675.770574	0.991134
676.109875	0.992314
676.449125	0.992006
676.788324	0.990998
677.127473	0.993096
677.466571	0.992073
677.805619	0.992598
678.144616	0.993019
678.483562	0.992856
678.822458	0.993248
679.161303	0.991653
679.500098	0.992862
679.838842	0.992623
680.177535	0.992753
680.516179	0.992460
680.854771	0.991918
681.193314	0.992791
681.531805	0.992248
681.870247	0.992186
682.208638	0.992443
682.546978	0.991166
682.885268	0.991806
683.223508	0.991660
683.561697	0.992313
683.899836	0.992231
684.237925	0.992152
684.575963	0.992054
684.913951	0.992235
685.251889	0.991512
685.589776	0.992040
685.927614	0.992055
686.265401	0.992151
686.603137	0.991306
686.940824	0.991962
687.278460	0.992414
687.616046	0.992001
687.953582	0.991749
688.291068	0.992145
688.628504	0.991461
688.965889	0.991506
689.303224	0.991037
689.640510	0.991726
689.977745	0.990937
690.314930	0.991020
690.652065	0.991528
690.989150	0.991585
691.326185	0.991217
691.663170	0.992464
692.000105	0.992026
692.336990	0.991856
692.673825	0.991778
693.010610	0.991744
693.347345	0.992965
693.684030	0.992775
694.020665	0.992204
694.357251	0.992745
694.693786	0.992763
695.030272	0.991504
695.366707	0.992853
695.703093	0.992245
696.039429	0.992102
696.375716	0.993527
696.711952	0.992340
697.048139	0.992641
697.384276	0.992672
697.720363	0.993324
698.056400	0.991278
698.392388	0.992560
698.728326	0.993128
699.064214	0.993973
699.400053	0.992614
699.735842	0.993607
700.071581	0.992535
700.407270	0.992905
700.742910	0.994058
701.078501	0.992113
701.414042	0.993301
701.749533	0.991396
702.084974	0.992531
702.420366	0.992816
702.755709	0.992308
703.091002	0.993655
703.426246	0.994496
703.761440	0.992721
704.096584	0.992403
704.431679	0.992149
704.766725	0.992882
705.101721	0.994356
705.436668	0.993283
705.771565	0.993234
706.106413	0.992572
706.441212	0.992414
706.775961	0.994442
707.110661	0.992967
707.445311	0.993910
707.779913	0.993627
708.114465	0.993824
708.448967	0.993262
708.783421	0.993868
709.117825	0.992474
709.452180	0.992720
709.786485	0.993561
710.120742	0.992604
710.454949	0.991866
710.789107	0.992385
711.123216	0.991315
711.457275	0.991743
711.791286	0.991775
712.125247	0.992783
712.459159	0.991792
712.793023	0.991733
713.126837	0.992190
713.460602	0.990885
713.794318	0.991108
714.127985	0.992179
714.461602	0.991893
714.795171	0.992175
715.128691	0.991595
715.462162	0.992654
715.795584	0.991921
716.128957	0.993647
716.462281	0.992609
716.795556	0.991839
717.128782	0.993210
717.461960	0.992816
717.795088	0.993483
718.128167	0.993677
718.461198	0.992903
718.794180	0.992983
719.127113	0.992383
719.459997	0.993027
719.792833	0.992982
720.125619	0.992388
720.458357	0.992886
720.791046	0.993835
721.123686	0.992911
721.456278	0.993171
721.788821	0.992559
722.121315	0.993784
722.453761	0.992956
722.786158	0.991907
723.118506	0.993410
723.450805	0.992842
723.783056	0.993627
724.115259	0.993885
724.447412	0.993922
724.779518	0.993937
725.111574	0.992381
725.443582	0.993445
725.775542	0.993233
726.107453	0.992743
726.439315	0.993715
726.771129	0.992782
727.102895	0.992056
727.434612	0.992892
727.766281	0.992677
728.097901	0.991854
728.429473	0.993498
728.760996	0.992242
729.092471	0.992369
729.423897	0.992564
729.755276	0.991987
730.086606	0.992103
730.417887	0.992661
730.749120	0.992494
731.080305	0.992696
731.411442	0.991297
731.742530	0.991832
732.073570	0.992207
732.404562	0.991486
732.735506	0.992663
733.066401	0.991125
733.397249	0.992347
733.728048	0.991755
734.058798	0.993058
734.389501	0.993843
734.720156	0.993094
735.050762	0.993011
735.381320	0.992578
735.711831	0.992744
736.042293	0.993520
736.372707	0.993889
736.703073	0.992339
737.033391	0.992058
737.363661	0.993377
737.693883	0.992820
738.024056	0.992648
738.354182	0.993427
738.684260	0.992201
739.014290	0.992538
739.344272	0.992415
739.674207	0.992537
740.004093	0.992841
740.333931	0.992847
740.663722	0.992846
740.993464	0.993079
741.323159	0.992552
741.652806	0.992470
741.982405	0.993094
742.311956	0.993330
742.641460	0.992927
742.970915	0.992450
743.300323	0.992182
743.629683	0.992693
743.958996	0.994731
744.288260	0.992803
744.617477	0.993631
744.946647	0.993481
745.275768	0.994212
745.604842	0.993219
745.933869	0.993904
746.262847	0.994054
746.591778	0.992811
746.920662	0.993718
747.249498	0.994543
747.578286	0.994590
747.907027	0.992892
748.235720	0.992761
748.564365	0.993941
748.892963	0.992960
749.221514	0.993842
749.550017	0.993220
749.878473	0.993060
750.206881	0.994877
750.535242	0.993555
750.863555	0.993654
751.191821	0.993470
751.520039	0.993559
751.848210	0.992674
752.176334	0.992979
752.504411	0.993573
752.832440	0.993205
753.160421	0.993213
753.488356	0.994036
753.816243	0.993849
754.144082	0.993427
754.471875	0.993914
754.799620	0.994547
755.127318	0.992578
755.454969	0.993532
755.782572	0.994799
756.110129	0.992861
756.437638	0.994717
756.765100	0.994058
757.092515	0.994385
757.419882	0.993706
757.747203	0.992956
758.074477	0.994419
758.401703	0.993752
758.728882	0.993227
759.056014	0.993134
759.383099	0.993634
759.710138	0.992506
760.037129	0.993453
760.364073	0.992568
760.690970	0.992728
761.017820	0.992984
761.344623	0.993944
761.671379	0.993403
761.998088	0.993613
762.324751	0.993067
762.651366	0.991984
762.977935	0.990677
763.304456	0.989560
763.630931	0.986254
763.957359	0.987056
764.283740	0.988643
764.610074	0.990328
764.936362	0.990442
765.262602	0.991754
765.588796	0.992604
765.914943	0.993004
766.241044	0.993927
766.567097	0.993884
766.893104	0.993834
767.219064	0.993729
767.544978	0.994231
767.870845	0.993999
768.196665	0.994076
768.522438	0.994220
768.848165	0.994677
769.173846	0.995752
769.499479	0.996002
769.825066	0.995352
770.150607	0.996367
770.476101	0.995053
770.801548	0.995946
771.126949	0.995689
771.452303	0.995023
771.777611	0.995673
772.102872	0.994373
772.428087	0.994997
772.753256	0.995341
773.078378	0.995374
773.403453	0.995439
773.728482	0.996505
774.053465	0.995041
774.378401	0.995208
774.703291	0.996009
775.028135	0.996939
775.352932	0.993832
775.677683	0.996527
776.002388	0.995892
776.327046	0.996308
776.651658	0.997233
776.976224	0.996709
777.300743	0.995617
777.625216	0.996388
777.949643	0.996393
778.274024	0.995316
778.598359	0.996329
778.922647	0.996507
779.246889	0.996170
779.571086	0.996034
779.895236	0.996268
780.219339	0.996751
780.543397	0.996020
780.867409	0.995739
781.191374	0.996680
781.515294	0.997165
781.839167	0.995331
782.162995	0.996108
782.486776	0.995538
782.810511	0.996511
783.134201	0.997398
783.457844	0.997264
783.781441	0.996173
784.104993	0.995462
784.428498	0.997474
784.751958	0.997334
785.075372	0.997688
785.398739	0.996711
785.722061	0.996203
786.045337	0.996950
786.368568	0.995340
786.691752	0.996756
787.014891	0.996794
787.337983	0.995486
787.661030	0.996253
787.984031	0.995833
788.306987	0.996300
788.629897	0.993554
788.952760	0.995007
789.275579	0.995785
789.598351	0.995735
789.921078	0.995834
790.243759	0.994940
790.566395	0.994838
790.888984	0.996702
791.211529	0.996317
791.534027	0.996784
791.856480	0.995701
792.178888	0.995964
792.501249	0.995859
792.823566	0.997724
793.145836	0.996800
793.468062	0.996393
793.790241	0.997647
794.112375	0.996178
794.434464	0.996519
794.756507	0.996756
795.078505	0.995940
795.400457	0.996330
795.722364	0.996825
796.044226	0.995798
796.366042	0.994344
796.687812	0.994997
797.009538	0.995331
797.331218	0.996535
797.652852	0.996903
797.974442	0.995507
798.295986	0.995640
798.617484	0.994637
798.938938	0.996682
799.260346	0.995056
799.581709	0.996335
799.903026	0.998215
800.224299	0.996056
800.545526	0.996258
800.866708	0.995437
801.187845	0.997684
801.508936	0.997215
801.829983	0.995965
802.150984	0.996909
802.471940	0.997570
802.792851	0.996290
803.113717	0.997184
803.434538	0.997408
803.755314	0.998424
804.076045	0.997244
804.396731	0.996998
804.717372	0.995525
805.037967	0.997443
805.358518	0.996802
805.679024	0.996565
805.999485	0.996052
806.319901	0.997032
806.640272	0.997555
806.960598	0.997863
807.280879	0.996460
807.601115	0.997325
807.921306	0.997615
808.241453	0.995639
808.561554	0.997098
808.881611	0.995865
809.201623	0.995895
809.521590	0.996835
809.841513	0.997649
810.161390	0.996122
810.481223	0.995653
810.801011	0.996581
811.120755	0.997809
811.440453	0.996729
811.760107	0.997580
812.079716	0.996864
812.399281	0.996370
812.718801	0.996908
813.038276	0.996173
813.357707	0.995670
813.677093	0.997781
813.996434	0.997111
814.315731	0.998010
814.634983	0.996590
814.954191	0.998010
815.273354	0.996499
815.592473	0.996560
815.911547	0.997453
816.230577	0.997159
816.549562	0.996418
816.868502	0.995329
817.187399	0.996877
817.506250	0.996954
817.825058	0.994879
818.143821	0.997222
818.462539	0.995502
818.781213	0.996164
819.099843	0.995993
819.418429	0.994872
819.736970	0.993239
820.055466	0.991229
820.373919	0.991510
820.692327	0.990636
821.010691	0.988811
821.329011	0.984961
821.647286	0.981422
821.965517	0.977440
822.283704	0.974274
822.601847	0.971983
822.919945	0.972399
823.237999	0.974077
823.556010	0.976886
823.873976	0.978646
824.191897	0.981683
824.509775	0.983453
824.827609	0.984587
825.145398	0.987416
825.463144	0.985822
825.780845	0.986361
826.098502	0.986538
826.416116	0.985853
826.733685	0.983287
827.051210	0.979654
827.368692	0.981202
827.686129	0.982142
828.003522	0.986111
828.320872	0.987632
828.638177	0.989894
828.955439	0.990850
829.272656	0.992852
829.589830	0.991585
829.906960	0.994106
830.224046	0.993848
830.541088	0.994077
830.858086	0.995435
831.175041	0.996308
831.491952	0.994615
831.808819	0.995255
832.125642	0.994870
832.442421	0.994639
832.759157	0.994340
833.075849	0.990652
833.392497	0.988528
833.709101	0.987669
834.025662	0.986618
834.342179	0.987861
834.658653	0.990347
834.975083	0.991975
835.291469	0.991277
835.607811	0.993517
835.924110	0.994317
836.240366	0.996920
836.556578	0.996579
836.872746	0.996017
837.188871	0.995942
837.504952	0.995834
837.820990	0.997193
838.136984	0.996298
838.452935	0.996913
838.768842	0.997939
839.084706	0.998103
839.400526	0.997381
839.716303	0.994055
840.032037	0.993262
840.347727	0.991395
840.663373	0.994196
840.978977	0.994723
841.294537	0.996068
841.610054	0.996659
841.925527	0.998009
842.240957	0.997760
842.556344	0.997834
842.871687	0.997955
843.186987	0.998531
843.502244	0.997866
843.817458	0.998687
844.132629	0.999221
844.447756	0.999721
844.762840	0.998343
845.077881	1.000033
845.392879	0.998333
845.707833	0.998519
846.022745	0.999157
846.337613	0.999453
846.652438	0.998367
846.967221	0.999310
847.281960	0.998264
847.596656	0.999518
847.911309	0.999114
848.225919	0.998488
848.540485	0.998828
848.855009	1.000867
849.169490	0.998513
849.483928	0.999476
849.798323	0.998320
850.112675	1.000537
850.426984	0.999269
850.741251	0.999732
851.055474	0.999884
851.369654	0.999698
851.683792	0.998389
851.997887	0.999213
852.311938	1.000253
852.625947	0.998528
852.939914	0.998643
853.253837	1.000457
853.567718	0.999507
853.881555	1.000350
854.195350	0.999261
854.509103	0.999247
854.822812	1.000107
855.136479	0.999328
855.450103	0.998798
855.763685	0.999866
856.077224	0.999579
856.390720	0.999365
856.704173	0.998798
857.017584	0.999442
857.330953	0.999711
857.644278	0.999174
857.957561	0.999783
858.270802	0.999783
858.584000	0.999117
858.897155	0.998721
859.210268	0.998536
859.523339	0.999783
859.836367	0.999224
860.149352	0.999032
860.462295	0.999166
860.775195	0.999868
861.088054	0.998160
861.400869	0.998932
861.713642	0.999072
862.026373	0.999997
862.339062	1.000158
862.651708	0.999401
862.964312	0.999241
863.276873	0.998999
863.589392	0.998850
863.901869	0.998180
864.214303	0.999065
864.526696	0.999742
864.839045	0.998116
865.151353	0.999117
865.463619	0.998633
865.775842	1.000128
866.088023	0.999944
866.400162	0.999047
866.712258	0.999169
867.024313	0.999256
867.336325	0.999637
867.648296	0.998429
867.960224	0.998643
868.272110	1.000056
868.583954	0.998712
868.895755	0.999816
869.207515	0.997827
869.519233	0.999259
869.830909	0.998496
870.142542	0.997484
870.454134	0.998676
870.765684	0.998179
871.077191	0.998322
871.388657	0.998128
871.700081	0.998444
872.011463	0.998343
872.322803	0.997985
872.634101	0.996924
872.945357	0.997055
873.256571	0.998162
873.567744	0.997930
873.878874	0.998175
874.189963	0.997296
874.501010	0.999811
874.812015	0.997314
875.122979	0.997221
875.433900	0.997118
875.744780	0.998224
876.055618	0.996947
876.366415	0.998038
876.677169	0.997111
876.987882	0.998135
877.298554	0.998561
877.609183	0.996912
877.919771	0.996671
878.230317	0.997856
878.540822	0.996460
878.851285	0.996298
879.161707	0.995372
879.472087	0.996729
879.782425	0.992426
880.092722	0.990505
880.402977	0.988158
880.713191	0.983416
881.023363	0.979533
881.333494	0.975260
881.643583	0.975499
881.953631	0.975993
882.263637	0.974725
882.573602	0.977120
882.883526	0.979263
883.193408	0.982420
883.503248	0.984030
883.813048	0.985024
884.122806	0.987990
884.432522	0.988197
884.742197	0.990816
885.051831	0.990802
885.361424	0.993597
885.670975	0.995375
885.980485	0.993811
886.289954	0.994085
886.599382	0.994601
886.908768	0.995747
887.218113	0.995780
887.527417	0.995723
887.836680	0.996617
888.145901	0.998100
888.455082	0.998395
888.764221	0.997924
889.073319	0.998106
889.382376	0.997317
889.691392	0.995576
890.000366	0.998512
890.309300	0.997622
890.618193	0.996582
890.927044	0.997583
891.235855	0.997098
891.544625	0.997467
891.853353	0.996950
892.162041	0.996221
892.470687	0.998232
892.779293	0.996539
893.087858	0.995422
893.396381	0.995346
893.704864	0.993062
894.013306	0.991995
894.321707	0.989447
894.630068	0.988313
894.938387	0.988536
895.246665	0.987781
895.554903	0.988086
895.863100	0.990122
896.171256	0.991134
896.479371	0.991523
896.787446	0.993015
897.095480	0.993875
897.403473	0.994703
897.711425	0.995624
898.019336	0.996744
898.327207	0.995962
898.635038	0.995920
898.942827	0.997024
899.250576	0.995909
899.558284	0.998299
899.865952	0.996072
900.173579	0.997462
900.481165	0.997102
900.788711	0.996584
901.096216	0.997457
901.403681	0.996991
901.711105	0.997133
902.018489	0.997479
902.325832	0.997802
902.633135	0.997201
902.940397	0.996745
903.247619	0.996876
903.554800	0.993146
903.861941	0.990699
904.169041	0.986811
904.476101	0.984531
904.783121	0.984542
905.090100	0.985962
905.397039	0.987647
905.703938	0.990568
906.010796	0.990816
906.317614	0.993131
906.624391	0.993823
906.931129	0.996808
907.237826	0.997367
907.544483	0.997520
907.851099	0.996690
908.157675	0.997317
908.464211	0.998292
908.770707	0.997159
909.077163	0.998007
909.383578	0.998634
909.689954	0.998818
909.996289	0.998653
910.302584	0.998731
910.608839	1.000694
910.915054	0.999582
911.221229	1.000280
911.527363	0.998517
911.833458	0.999384
912.139513	0.997866
912.445527	1.000311
912.751502	0.999698
913.057436	0.997234
913.363331	0.999331
913.669186	0.998705
913.975000	0.997622
914.280775	0.996477
914.586510	0.994847
914.892205	0.993824
915.197859	0.992311
915.503475	0.990672
915.809050	0.988186
916.114585	0.984504
916.420081	0.984597
916.725536	0.985016
917.030952	0.986174
917.336328	0.987440
917.641665	0.988522
917.946961	0.989578
918.252218	0.990674
918.557435	0.992632
918.862612	0.993319
919.167750	0.994708
919.472848	0.995474
919.777906	0.996394
920.082925	0.996648
920.387904	0.997400
920.692843	0.996879
920.997743	0.996694
921.302603	0.998420
921.607423	0.996746
921.912204	0.998223
922.216946	0.998598
922.521647	0.998667
922.826310	0.997671
923.130932	0.998777
923.435516	0.999651
923.740059	0.998483
924.044564	0.998143
924.349028	0.998300
924.653454	0.999184
924.957840	1.000376
925.262186	1.000078
925.566493	0.999756
925.870761	0.999035
926.174989	0.999358
926.479178	1.000586
926.783328	1.000374
927.087438	1.000213
927.391509	1.000104
927.695541	0.999523
927.999533	1.000900
928.303486	1.000721
928.607400	1.000550
928.911275	1.000460
929.215110	1.002145
929.518906	1.000139
929.822663	1.001139
930.126381	1.001532
930.430060	0.998999
930.733699	1.001074
931.037299	0.999932
931.340861	1.002114
931.644383	0.999564
931.947866	1.000522
932.251309	1.001049
932.554714	1.000108
932.858080	1.001224
933.161407	0.999150
933.464694	1.000803
933.767943	0.999894
934.071153	1.000166
934.374323	1.000257
934.677455	1.000134
934.980548	0.999988
935.283602	0.999433
935.586617	0.999583
935.889593	1.001577
936.192530	1.000961
936.495428	1.000403
936.798287	0.999730
937.101108	1.000757
937.403890	1.000086
937.706632	1.001711
938.009336	0.999529
938.312002	0.999384
938.614628	0.999433
938.917216	0.998216
939.219765	0.997426
939.522275	0.999383
939.824747	1.000245
940.127179	0.999187
940.429573	0.999561
940.731929	0.999666
941.034246	0.998376
941.336524	0.998128
941.638763	0.998846
941.940964	0.999009
942.243126	0.999178
942.545250	1.000179
942.847335	1.000754
943.149381	1.000739
943.451389	0.999156
943.753359	0.999709
944.055290	1.001226
944.357182	1.000829
944.659036	1.000104
944.960851	0.999808
945.262628	0.999545
945.564367	1.000036
945.866067	1.000675
946.167729	1.000137
946.469352	0.999782
946.770937	0.998966
947.072484	1.000148
947.373992	1.000925
947.675462	0.998780
947.976893	0.999081
948.278286	1.001576
948.579641	1.000881
948.880958	1.000075
949.182236	1.000298
949.483476	1.000434
949.784678	0.999512
950.085841	0.999416
950.386967	1.000633
950.688054	0.999992
950.989103	0.999177
951.290114	0.999032
951.591087	0.999817
951.892021	0.999919
952.192917	1.000814
952.493776	0.999758
952.794596	0.999459
953.095378	1.000421
953.396122	0.999410
953.696828	1.001019
953.997496	0.999030
954.298126	1.001150
954.598718	0.999241
954.899272	1.000558
955.199788	0.999264
955.500266	1.001900
955.800706	0.999469
956.101108	1.000288
956.401472	1.001761
956.701798	1.000850
957.002087	1.000669
957.302337	1.000370
957.602550	1.000334
957.902724	0.999889
958.202861	1.000598
958.502960	1.001178
958.803022	1.001772
959.103045	1.001184
959.403031	1.002082
959.702979	1.001664
960.002889	1.000809
960.302762	1.001961
960.602596	1.001415
960.902393	1.001889
961.202153	1.001661
961.501875	1.001086
961.801559	1.001518
962.101205	1.000758
962.400814	1.001689
962.700385	1.001269
962.999918	1.001800
963.299414	0.999808
963.598873	1.002458
963.898293	1.001265
964.197677	1.001295
964.497022	1.001517
964.796331	1.001222
965.095601	1.003031
965.394835	1.000856
965.694030	1.002607
965.993189	1.000839
966.292309	1.002213
966.591393	1.000687
966.890439	1.001616
967.189447	1.001669
967.488419	1.000718
967.787353	1.001180
968.086249	1.001770
968.385108	1.000534
968.683930	1.001045
968.982714	1.002090
969.281462	1.000544
969.580172	1.000920
969.878844	1.002381
970.177480	1.002183
970.476078	1.002627
970.774639	1.001661
971.073162	1.001717
971.371649	1.001397
971.670098	1.001343
971.968510	1.001729
972.266885	1.000080
972.565223	1.002219
972.863524	0.999804
973.161788	1.001141
973.460014	1.002167
973.758204	1.000571
974.056356	1.001135
974.354471	1.001224
974.652550	1.001489
974.950591	1.000483
975.248595	1.000870
975.546563	1.001140
975.844493	1.003195
976.142386	1.000622
976.440243	1.001005
976.738062	1.001525
977.035845	1.000683
977.333590	1.002151
977.631299	1.001112
977.928971	1.001131
978.226606	1.000931
978.524204	1.001114
978.821765	1.000404
979.119290	1.002618
979.416777	1.001520
979.714228	1.001131
980.011642	1.001508
980.309020	1.001192
980.606360	1.001388
980.903664	1.001312
981.200931	1.001143
981.498162	1.000411
981.795356	1.001984
982.092513	1.001127
982.389633	1.001305
982.686717	1.000010
982.983764	1.000871
983.280775	1.001213
983.577749	1.001177
983.874686	0.999335
984.171587	1.000240
984.468451	0.999911
984.765279	1.001669
985.062070	1.000664
985.358824	0.999714
985.655543	1.002203
985.952224	1.001293
986.248869	1.000246
986.545478	1.002825
986.842050	1.000660
987.138586	1.000787
987.435086	1.000937
987.731549	1.001819
988.027975	1.002533
988.324366	1.000590
988.620719	1.001860
988.917037	1.002237
989.213318	1.002212
989.509563	1.001492
989.805772	1.001089
990.101944	1.002560
990.398080	1.002815
990.694180	1.003502
990.990244	1.000210
991.286271	1.000404
991.582262	1.001494
991.878217	1.002610
992.174136	1.001684
992.470019	1.002306
992.765865	1.003240
993.061676	1.002602
993.357450	1.001969
993.653188	1.002423
993.948890	1.001400
994.244556	1.001802
994.540186	1.002096
994.835780	1.001548
995.131337	1.002523
995.426859	1.002549
995.722345	1.001654
996.017795	1.002297
996.313208	1.000919
996.608586	1.001276
996.903928	1.002284
997.199234	1.000638
997.494504	1.001227
997.789738	1.001025
998.084936	0.999900
998.380099	1.001462
998.675225	1.002938
998.970316	1.002471
999.265371	1.000639
999.560390	1.000709
999.855373	1.001555
1000.150320	1.000831
1000.445232	1.001384
1000.740108	1.001261
1001.034948	1.000920
1001.329752	1.003236
1001.624521	1.001013
1001.919254	1.001130
1002.213951	1.001642
1002.508613	1.001802
1002.803239	1.000632
1003.097829	1.002902
1003.392384	1.002039
1003.686903	1.001381
1003.981386	1.003305
1004.275834	1.002718
1004.570246	0.999969
1004.864623	1.002315
1005.158964	1.001989
1005.453270	1.001556
1005.747540	1.001731
1006.041775	1.001853
1006.335974	1.002440
1006.630138	1.001916
1006.924266	1.000887
1007.218359	1.000556
1007.512416	1.001768
1007.806438	1.001702
1008.100425	1.001170
1008.394376	1.002987
1008.688292	1.001284
1008.982172	1.002145
1009.276017	1.001340
1009.569827	1.002879
1009.863602	1.001143
1010.157341	1.003082
1010.451045	1.001546
1010.744714	1.003428
1011.038347	1.002680
1011.331945	1.000952
1011.625508	1.001495
1011.919036	1.002273
1012.212528	1.002049
1012.505986	1.001409
1012.799408	1.001422
1013.092795	1.001505
1013.386147	1.001773
1013.679464	1.002868
1013.972745	1.001720
1014.265992	1.001503
1014.559204	1.000989
1014.852380	1.001719
1015.145521	1.000383
1015.438628	1.001383
1015.731699	1.001908
1016.024736	1.002819
1016.317737	1.001349
1016.610703	1.002759
1016.903635	1.001547
1017.196531	1.002759
1017.489393	1.000931
1017.782219	1.001836
1018.075011	1.000892
1018.367768	1.000619
1018.660490	1.002875
1018.953177	1.002875
1019.245829	1.002875
