Dividing Wavelength (nm)	Counts (n)	Blue Motor Position (mm): 40.200000	Red Motor Position (mm): 0.000000	
326.493990	0.998938
326.888308	0.998938
327.282561	0.998938
327.676750	1.000326
328.070874	1.000763
328.464933	1.000999
328.858929	1.001330
329.252859	0.999713
329.646726	0.999860
330.040528	0.999373
330.434265	1.000161
330.827938	0.998996
331.221547	0.999999
331.615091	1.001128
332.008571	1.001761
332.401986	0.999861
332.795338	0.999877
333.188625	1.000950
333.581847	0.998742
333.975006	0.998930
334.368100	1.000625
334.761129	0.999722
335.154095	1.000920
335.546996	1.000540
335.939833	0.999681
336.332606	0.999251
336.725315	0.999161
337.117960	1.000674
337.510540	0.998908
337.903056	0.999737
338.295508	1.000394
338.687896	1.000454
339.080220	0.999731
339.472480	0.999003
339.864676	1.001067
340.256807	0.998559
340.648875	0.999696
341.040879	0.999871
341.432818	0.999745
341.824694	0.999944
342.216506	1.000259
342.608253	1.000289
342.999937	1.000537
343.391557	0.999003
343.783113	1.001762
344.174605	0.999863
344.566033	0.998773
344.957397	0.999727
345.348697	1.000497
345.739934	0.999075
346.131106	0.999388
346.522215	0.999828
346.913260	0.998256
347.304241	0.998619
347.695159	0.999721
348.086012	0.998965
348.476802	0.999469
348.867528	0.999211
349.258191	1.000561
349.648789	0.999813
350.039324	0.998897
350.429796	0.999525
350.820203	0.998695
351.210548	0.998275
351.600828	0.999309
351.991045	0.999755
352.381198	0.999541
352.771288	0.998784
353.161314	0.999190
353.551276	0.999187
353.941175	0.997818
354.331010	1.000263
354.720782	0.998964
355.110490	0.999335
355.500135	0.998621
355.889717	0.998392
356.279235	0.998149
356.668689	0.999764
357.058080	0.998867
357.447408	0.998667
357.836672	0.999837
358.225873	0.998460
358.615010	0.998867
359.004084	0.997847
359.393095	0.998447
359.782043	0.998634
360.170927	0.998736
360.559748	0.999404
360.948505	0.999778
361.337199	0.998616
361.725830	0.999097
362.114398	0.997901
362.502903	0.996654
362.891344	0.997001
363.279722	0.998103
363.668037	0.999318
364.056289	0.997144
364.444478	1.000217
364.832603	0.997715
365.220665	0.999330
365.608665	0.997113
365.996601	0.997036
366.384474	0.996405
366.772284	0.998484
367.160031	0.995921
367.547715	0.996324
367.935336	0.995640
368.322893	0.995424
368.710388	0.993163
369.097820	0.992241
369.485189	0.990016
369.872495	0.987113
370.259738	0.986461
370.646918	0.983484
371.034035	0.981656
371.421090	0.978619
371.808081	0.973056
372.195010	0.971516
372.581875	0.966782
372.968678	0.961186
373.355418	0.957731
373.742096	0.950157
374.128710	0.946241
374.515262	0.940894
374.901751	0.935780
375.288177	0.931169
375.674540	0.924080
376.060841	0.918059
376.447079	0.912066
376.833254	0.905106
377.219367	0.900395
377.605417	0.888430
377.991404	0.885579
378.377329	0.880285
378.763191	0.873507
379.148991	0.863771
379.534727	0.855938
379.920402	0.848209
380.306013	0.844723
380.691563	0.831864
381.077049	0.825301
381.462474	0.822089
381.847835	0.810147
382.233134	0.805619
382.618371	0.805249
383.003545	0.787848
383.388657	0.786555
383.773706	0.778544
384.158693	0.774854
384.543618	0.769461
384.928480	0.760831
385.313280	0.751186
385.698017	0.750067
386.082692	0.738914
386.467305	0.739007
386.851856	0.733329
387.236344	0.728568
387.620770	0.724371
388.005133	0.719444
388.389435	0.715560
388.773674	0.715485
389.157851	0.708788
389.541965	0.709968
389.926018	0.717960
390.310008	0.707834
390.693936	0.709241
391.077802	0.704643
391.461606	0.710216
391.845348	0.705211
392.229027	0.707561
392.612645	0.711129
392.996200	0.704630
393.379694	0.703334
393.763125	0.701373
394.146494	0.710060
394.529801	0.709310
394.913047	0.709194
395.296230	0.720436
395.679351	0.720731
396.062410	0.725982
396.445408	0.735172
396.828343	0.739450
397.211217	0.743631
397.594028	0.759403
397.976778	0.762262
398.359466	0.767473
398.742092	0.773169
399.124656	0.788469
399.507158	0.789636
399.889598	0.796903
400.271977	0.800559
400.654294	0.810989
401.036549	0.819721
401.418742	0.830127
401.800874	0.832571
402.182944	0.838935
402.564952	0.844184
402.946898	0.853450
403.328783	0.862712
403.710606	0.873681
404.092367	0.873729
404.474067	0.884198
404.855705	0.889659
405.237282	0.899008
405.618797	0.902291
406.000250	0.907639
406.381642	0.911585
406.762972	0.920311
407.144240	0.925408
407.525447	0.930584
407.906593	0.935404
408.287677	0.940911
408.668700	0.946885
409.049661	0.951135
409.430560	0.953710
409.811399	0.959340
410.192176	0.962231
410.572891	0.966184
410.953545	0.968085
411.334138	0.972364
411.714669	0.974650
412.095139	0.978075
412.475547	0.980505
412.855894	0.982386
413.236180	0.984400
413.616405	0.986433
413.996568	0.988203
414.376670	0.989619
414.756711	0.989932
415.136691	0.991090
415.516609	0.992373
415.896466	0.993606
416.276262	0.993615
416.655997	0.994250
417.035670	0.995592
417.415283	0.994853
417.794834	0.996647
418.174324	0.997632
418.553753	0.997691
418.933121	0.997350
419.312428	0.998837
419.691674	0.998497
420.070859	0.998682
420.449983	0.998550
420.829045	0.998421
421.208047	0.998950
421.586988	0.998785
421.965867	0.997683
422.344686	0.999245
422.723444	0.998659
423.102141	0.999688
423.480777	0.998484
423.859352	0.998778
424.237866	0.999414
424.616319	1.000012
424.994712	0.999277
425.373044	0.999657
425.751314	1.000323
426.129524	0.999588
426.507673	0.998674
426.885762	0.999303
427.263789	0.999817
427.641756	0.999456
428.019662	1.000143
428.397508	0.999783
428.775292	0.999428
429.153016	0.999267
429.530679	0.999964
429.908282	0.999320
430.285824	0.999324
430.663305	0.999415
431.040726	1.000550
431.418086	0.999201
431.795385	1.000278
432.172624	1.000185
432.549802	0.999301
432.926920	0.999498
433.303977	0.999400
433.680974	1.000746
434.057910	0.999937
434.434786	0.998926
434.811601	0.999873
435.188355	1.000240
435.565050	1.000257
435.941683	0.999742
436.318257	0.999021
436.694770	1.000046
437.071222	1.000210
437.447614	0.999460
437.823946	0.999942
438.200218	0.999847
438.576429	0.999864
438.952580	0.999333
439.328670	0.999497
439.704700	0.999337
440.080670	0.999819
440.456580	1.000023
440.832429	0.999249
441.208218	1.000568
441.583947	1.000499
441.959616	0.998585
442.335224	1.000823
442.710773	0.999951
443.086261	1.000897
443.461689	0.999653
443.837057	1.000418
444.212365	1.000521
444.587612	1.000784
444.962800	1.000237
445.337927	0.999956
445.712995	0.999764
446.088002	1.000084
446.462949	0.999508
446.837837	1.001431
447.212664	0.999623
447.587431	1.000576
447.962139	1.000286
448.336786	0.999791
448.711374	0.999248
449.085901	1.000150
449.460369	1.000259
449.834776	0.999863
450.209124	0.999494
450.583412	1.000620
450.957640	0.999588
451.331808	1.000793
451.705917	0.999165
452.079965	1.000103
452.453954	1.000387
452.827883	0.999602
453.201752	1.000244
453.575562	0.999206
453.949311	0.999675
454.323001	0.999873
454.696632	0.999925
455.070202	0.999930
455.443713	1.000162
455.817164	0.999624
456.190556	0.999089
456.563888	1.000594
456.937160	0.999783
457.310373	0.999293
457.683526	0.999836
458.056619	0.999872
458.429653	0.999440
458.802628	0.999587
459.175542	0.999427
459.548398	1.000092
459.921194	1.000203
460.293930	1.000416
460.666607	1.000001
461.039224	0.999157
461.411782	0.999887
461.784280	0.999792
462.156719	1.000439
462.529099	0.999996
462.901419	0.999200
463.273680	0.999332
463.645882	0.999057
464.018024	1.000029
464.390106	1.000183
464.762130	0.999807
465.134094	1.000165
465.505999	0.999932
465.877845	0.999217
466.249631	0.999398
466.621358	0.998485
466.993026	0.999413
467.364634	0.999577
467.736184	1.000128
468.107674	1.000229
468.479105	0.998851
468.850477	0.999940
469.221790	1.000040
469.593043	0.999932
469.964238	0.999577
470.335373	0.998807
470.706449	0.999660
471.077467	0.999902
471.448425	1.000078
471.819324	0.999119
472.190164	0.999239
472.560945	0.999334
472.931667	0.999396
473.302330	0.999587
473.672934	0.999713
474.043479	0.999932
474.413965	0.999525
474.784393	0.999541
475.154761	0.998757
475.525070	0.999873
475.895321	1.000173
476.265513	0.999928
476.635645	0.999557
477.005719	1.000237
477.375734	0.999146
477.745691	0.999622
478.115588	0.999045
478.485427	0.998788
478.855207	0.999401
479.224928	0.999571
479.594591	0.999672
479.964194	0.999401
480.333739	0.999826
480.703226	0.999290
481.072653	0.999105
481.442022	0.999711
481.811333	0.999285
482.180584	0.999684
482.549777	0.999843
482.918912	0.999727
483.287988	0.999797
483.657005	0.999064
484.025964	0.999539
484.394864	0.999617
484.763706	0.998981
485.132489	0.999683
485.501213	0.999496
485.869879	0.999696
486.238487	0.999249
486.607036	1.000456
486.975527	0.999643
487.343959	0.999536
487.712333	0.999613
488.080648	0.998819
488.448905	0.999787
488.817104	1.000074
489.185244	0.999177
489.553326	0.999461
489.921350	1.000039
490.289315	0.999607
490.657222	0.999046
491.025070	0.999645
491.392861	0.999522
491.760593	0.999894
492.128267	0.999707
492.495883	0.999115
492.863440	0.999857
493.230939	0.999386
493.598380	1.000085
493.965763	0.999531
494.333088	0.998874
494.700354	0.998929
495.067563	0.999345
495.434713	0.999618
495.801805	0.999666
496.168839	0.999684
496.535815	0.999720
496.902733	0.999981
497.269593	0.999185
497.636395	0.999067
498.003139	0.998896
498.369825	1.000250
498.736453	0.999268
499.103023	0.999657
499.469535	0.999682
499.835989	1.000095
500.202385	0.999732
500.568723	0.999813
500.935003	0.999761
501.301226	0.999355
501.667390	0.999180
502.033497	0.999409
502.399546	0.999678
502.765537	1.000012
503.131470	0.999515
503.497345	0.999955
503.863163	0.999744
504.228923	0.999279
504.594625	0.998674
504.960269	1.000170
505.325856	1.000461
505.691385	1.000529
506.056856	1.000000
506.422270	0.999756
506.787625	1.000033
507.152924	1.000139
507.518164	0.999898
507.883347	0.999539
508.248472	0.999581
508.613540	0.999531
508.978550	0.999493
509.343503	0.999267
509.708398	1.000118
510.073236	1.000367
510.438016	0.999439
510.802738	0.999585
511.167403	0.999305
511.532010	1.000168
511.896561	1.000069
512.261053	0.999644
512.625488	0.999747
512.989866	0.999665
513.354186	0.998600
513.718449	0.999457
514.082655	0.998765
514.446803	0.999986
514.810894	1.000249
515.174927	0.999841
515.538904	1.000473
515.902822	0.999945
516.266684	0.999775
516.630488	1.000062
516.994235	1.000571
517.357925	1.000194
517.721558	1.000310
518.085133	0.999498
518.448651	0.999711
518.812112	0.999987
519.175516	1.000027
519.538863	0.999709
519.902152	0.999356
520.265385	1.000006
520.628560	0.999484
520.991678	0.999708
521.354739	1.000698
521.717743	1.000044
522.080690	0.998993
522.443580	0.999656
522.806413	0.998912
523.169189	1.000066
523.531908	0.998568
523.894569	0.999519
524.257174	1.000112
524.619722	0.999730
524.982213	1.000070
525.344647	0.999857
525.707025	0.999403
526.069345	0.999242
526.431608	1.000317
526.793815	1.000352
527.155964	1.000856
527.518057	0.999913
527.880093	0.999506
528.242072	0.999711
528.603995	0.999708
528.965860	1.000215
529.327669	1.000263
529.689421	0.999171
530.051117	1.000137
530.412755	1.000164
530.774337	0.999632
531.135862	1.000492
531.497331	0.999849
531.858743	1.000684
532.220098	0.999592
532.581396	0.999921
532.942638	1.000356
533.303824	1.000927
533.664953	0.999538
534.026025	1.001240
534.387040	1.000738
534.747999	0.999268
535.108902	0.999969
535.469748	1.000733
535.830537	1.000196
536.191270	1.000234
536.551947	0.999624
536.912567	1.000091
537.273131	0.999798
537.633638	0.999696
537.994089	1.000523
538.354483	0.999784
538.714821	1.000201
539.075103	1.000168
539.435328	1.000081
539.795497	1.000039
540.155609	0.999855
540.515665	1.000562
540.875665	0.999660
541.235609	0.999804
541.595496	1.000047
541.955328	0.999639
542.315102	1.000340
542.674821	1.000258
543.034483	1.000507
543.394090	0.999559
543.753640	1.000310
544.113134	0.999604
544.472571	1.000595
544.831953	1.000180
545.191278	0.999502
545.550548	0.999308
545.909761	1.000247
546.268918	1.000542
546.628019	1.000333
546.987064	0.999737
547.346053	0.999911
547.704986	0.999859
548.063863	0.999475
548.422684	0.999930
548.781449	1.000650
549.140158	1.000263
549.498811	0.999800
549.857408	0.999771
550.215949	0.999252
550.574434	0.999757
550.932864	1.000794
551.291237	0.999465
551.649555	1.000711
552.007817	0.999968
552.366022	1.000063
552.724173	1.000643
553.082267	0.999439
553.440305	0.999801
553.798288	0.998881
554.156215	0.999504
554.514086	1.000309
554.871902	0.999634
555.229661	0.999397
555.587365	0.999899
555.945014	1.000563
556.302606	1.000005
556.660143	1.000792
557.017625	1.000414
557.375050	0.999508
557.732421	0.999782
558.089735	1.000108
558.446994	0.999609
558.804197	1.000191
559.161345	0.999492
559.518437	0.999532
559.875474	0.999967
560.232455	1.000606
560.589381	1.000495
560.946251	0.999685
561.303065	1.000137
561.659825	0.999461
562.016528	1.000147
562.373177	1.000125
562.729770	0.999626
563.086307	0.999142
563.442789	1.000220
563.799216	0.999504
564.155587	1.000052
564.511904	1.000339
564.868164	0.998734
565.224370	1.000202
565.580520	1.000812
565.936615	0.999920
566.292654	1.000091
566.648638	1.000155
567.004567	0.999405
567.360441	1.000389
567.716260	1.000125
568.072023	0.999870
568.427732	0.999794
568.783385	0.999851
569.138982	0.999901
569.494525	0.999718
569.850013	1.000599
570.205445	0.999806
570.560823	0.999631
570.916145	0.999825
571.271412	0.999739
571.626625	1.000220
571.981782	0.999732
572.336884	1.000773
572.691931	0.999216
573.046923	0.999649
573.401860	0.999770
573.756743	0.999497
574.111570	0.999348
574.466342	0.999993
574.821059	0.999435
575.175722	1.000549
575.530330	1.000351
575.884882	0.999611
576.239380	0.999986
576.593823	0.999257
576.948211	0.999314
577.302544	0.999838
577.656823	0.999409
578.011047	0.998703
578.365216	1.000307
578.719330	0.999799
579.073389	0.998888
579.427394	1.000169
579.781344	1.000125
580.135239	0.999150
580.489080	0.999642
580.842866	0.999365
581.196597	0.999538
581.550273	0.998838
581.903895	0.999946
582.257463	0.999515
582.610975	0.999475
582.964434	0.999830
583.317837	1.000438
583.671186	0.999873
584.024481	0.999532
584.377721	0.999348
584.730906	1.000106
585.084037	1.000845
585.437113	1.000078
585.790135	0.999415
586.143103	0.999750
586.496016	0.999479
586.848874	0.999502
587.201679	0.999625
587.554428	0.999602
587.907124	0.999959
588.259765	1.000037
588.612352	1.000001
588.964884	1.000215
589.317362	0.999454
589.669786	0.999393
590.022155	0.998943
590.374470	0.998757
590.726731	0.999590
591.078937	1.000097
591.431090	0.999469
591.783188	0.999323
592.135232	0.999683
592.487222	0.999783
592.839157	0.998994
593.191038	0.999699
593.542866	0.999759
593.894639	0.998815
594.246358	1.000129
594.598022	0.999014
594.949633	0.999950
595.301190	0.998716
595.652692	0.998905
596.004141	0.999389
596.355535	0.999766
596.706876	0.999740
597.058162	0.999886
597.409395	0.999303
597.760573	0.999200
598.111698	0.999742
598.462768	0.998529
598.813785	0.999104
599.164748	0.999247
599.515657	0.999304
599.866511	1.000329
600.217312	1.000191
600.568060	0.999273
600.918753	0.999861
601.269392	0.999638
601.619978	0.999635
601.970510	0.999233
602.320988	0.999437
602.671412	0.999215
603.021783	0.999638
603.372100	1.000592
603.722363	0.999608
604.072572	0.999732
604.422728	0.999441
604.772830	0.999198
605.122878	0.999998
605.472872	0.999543
605.822813	0.998756
606.172701	0.999331
606.522534	0.999949
606.872314	0.999778
607.222041	0.999136
607.571714	0.999311
607.921333	1.000031
608.270899	0.998782
608.620411	0.999637
608.969870	1.000292
609.319276	0.999347
609.668627	0.999990
610.017926	0.999361
610.367171	0.999450
610.716362	0.999033
611.065500	0.998427
611.414585	0.999409
611.763616	0.998119
612.112594	0.999681
612.461518	0.998026
612.810389	0.999829
613.159207	0.998574
613.507971	0.998720
613.856682	1.000030
614.205340	0.998834
614.553945	0.999346
614.902496	0.999214
615.250994	0.999584
615.599439	0.999331
615.947830	0.999265
616.296169	0.999378
616.644454	0.999936
616.992686	0.999276
617.340864	0.999582
617.688990	0.998957
618.037063	0.999693
618.385082	0.998850
618.733048	0.998460
619.080961	0.999269
619.428821	0.999591
619.776628	0.998632
620.124382	0.999881
620.472083	0.999341
620.819731	0.999711
621.167326	0.999723
621.514868	0.999085
621.862357	0.999365
622.209793	0.999820
622.557176	0.999116
622.904506	0.999253
623.251783	0.999418
623.599007	0.999648
623.946179	0.998897
624.293297	0.999825
624.640363	0.999554
624.987376	0.998393
625.334336	0.999085
625.681243	0.998778
626.028097	0.999652
626.374899	0.998637
626.721647	1.000007
627.068343	0.999599
627.414987	0.998878
627.761577	0.998744
628.108115	0.998820
628.454600	0.999593
628.801032	0.999031
629.147412	1.000082
629.493739	0.999972
629.840014	0.998619
630.186236	0.998941
630.532405	0.999882
630.878521	0.999240
631.224585	0.999067
631.570597	0.998729
631.916556	0.999724
632.262462	0.998802
632.608316	0.999064
632.954117	0.998336
633.299866	0.998518
633.645562	0.998994
633.991206	0.999380
634.336797	0.998922
634.682336	0.999856
635.027823	0.998541
635.373257	0.999720
635.718639	0.999011
636.063968	0.999329
636.409245	0.998868
636.754470	0.998828
637.099642	0.999516
637.444762	0.998819
637.789829	0.998575
638.134845	0.998267
638.479808	0.998550
638.824719	0.998693
639.169577	0.998293
639.514383	0.998792
639.859137	0.999886
640.203839	0.998945
640.548489	0.998721
640.893086	0.998523
641.237632	0.999213
641.582125	0.998637
641.926566	0.999920
642.270955	0.999332
642.615292	0.998804
642.959576	0.998737
643.303809	0.999340
643.647990	0.998986
643.992118	0.998711
644.336195	0.998352
644.680219	0.998680
645.024192	0.998517
645.368112	0.998542
645.711981	0.998296
646.055797	0.998742
646.399562	0.997948
646.743274	0.999468
647.086935	0.998722
647.430544	0.999196
647.774101	0.997597
648.117606	0.999796
648.461059	0.999305
648.804460	0.999803
649.147810	0.998389
649.491108	0.998878
649.834354	0.999414
650.177548	0.999112
650.520690	0.998196
650.863781	0.998420
651.206820	0.999311
651.549807	0.998882
651.892742	0.999051
652.235626	0.999101
652.578458	0.999381
652.921238	0.999038
653.263967	0.999440
653.606644	0.998558
653.949269	0.999099
654.291843	0.998437
654.634365	0.999813
654.976836	0.998393
655.319255	0.999176
655.661622	0.999091
656.003938	0.998597
656.346203	0.998693
656.688416	0.999148
657.030577	0.998393
657.372687	0.998375
657.714746	0.998559
658.056753	0.998700
658.398708	0.998512
658.740612	0.999500
659.082465	0.998844
659.424266	0.998871
659.766016	0.998549
660.107715	0.999596
660.449362	0.998435
660.790958	0.997795
661.132503	0.998471
661.473996	0.998772
661.815438	0.998926
662.156829	0.998499
662.498168	0.999831
662.839456	0.998045
663.180693	0.998354
663.521879	0.998648
663.863013	0.999761
664.204097	0.997674
664.545129	0.998218
664.886110	0.998251
665.227040	0.999144
665.567918	0.998919
665.908746	0.997994
666.249522	0.997991
666.590248	0.998400
666.930922	0.999216
667.271545	0.998566
667.612118	0.999021
667.952639	0.998436
668.293109	0.999265
668.633528	0.997434
668.973896	0.999261
669.314213	0.998814
669.654480	0.998450
669.994695	0.997896
670.334859	0.998078
670.674973	0.998598
671.015035	0.998540
671.355047	0.998643
671.695008	0.998485
672.034918	0.998491
672.374777	0.998811
672.714585	0.997756
673.054342	0.998503
673.394049	0.998297
673.733705	0.997778
674.073310	0.997816
674.412864	0.998591
674.752368	0.997916
675.091820	0.999647
675.431223	0.999147
675.770574	0.997935
676.109875	0.999230
676.449125	0.998063
676.788324	0.998212
677.127473	0.999348
677.466571	0.999330
677.805619	0.999254
678.144616	0.998847
678.483562	0.998224
678.822458	0.998978
679.161303	0.998053
679.500098	0.999034
679.838842	0.998717
680.177535	0.998409
680.516179	0.998022
680.854771	0.998148
681.193314	0.998063
681.531805	0.998188
681.870247	0.997921
682.208638	0.999049
682.546978	0.998271
682.885268	0.998621
683.223508	0.998356
683.561697	0.998618
683.899836	0.998447
684.237925	0.997903
684.575963	0.997890
684.913951	0.998075
685.251889	0.998080
685.589776	0.998121
685.927614	0.998068
686.265401	0.998248
686.603137	0.998300
686.940824	0.997972
687.278460	0.998663
687.616046	0.998166
687.953582	0.997926
688.291068	0.999166
688.628504	0.998142
688.965889	0.997710
689.303224	0.997173
689.640510	0.998457
689.977745	0.997657
690.314930	0.997059
690.652065	0.998533
690.989150	0.997823
691.326185	0.998821
691.663170	0.997860
692.000105	0.998240
692.336990	0.997230
692.673825	0.997432
693.010610	0.998324
693.347345	0.997928
693.684030	0.997745
694.020665	0.998570
694.357251	0.997754
694.693786	0.998731
695.030272	0.997259
695.366707	0.997498
695.703093	0.997562
696.039429	0.997418
696.375716	0.998856
696.711952	0.997237
697.048139	0.998733
697.384276	0.998526
697.720363	0.997752
698.056400	0.997574
698.392388	0.997458
698.728326	0.998425
699.064214	0.999245
699.400053	0.997440
699.735842	0.998598
700.071581	0.998372
700.407270	0.998289
700.742910	0.998166
701.078501	0.997598
701.414042	0.998044
701.749533	0.997052
702.084974	0.998142
702.420366	0.998051
702.755709	0.997772
703.091002	0.998761
703.426246	0.998474
703.761440	0.998745
704.096584	0.998044
704.431679	0.997045
704.766725	0.998277
705.101721	0.999001
705.436668	0.998373
705.771565	0.997474
706.106413	0.997143
706.441212	0.997583
706.775961	0.998470
707.110661	0.996882
707.445311	0.998090
707.779913	0.998398
708.114465	0.998828
708.448967	0.999560
708.783421	0.999057
709.117825	0.997582
709.452180	0.998069
709.786485	0.998230
710.120742	0.997369
710.454949	0.998197
710.789107	0.998060
711.123216	0.996860
711.457275	0.997296
711.791286	0.997698
712.125247	0.999035
712.459159	0.998156
712.793023	0.998239
713.126837	0.997641
713.460602	0.997504
713.794318	0.997327
714.127985	0.997469
714.461602	0.998269
714.795171	0.997380
715.128691	0.997344
715.462162	0.998237
715.795584	0.998114
716.128957	0.998762
716.462281	0.997450
716.795556	0.997365
717.128782	0.998876
717.461960	0.997783
717.795088	0.998605
718.128167	0.999296
718.461198	0.998106
718.794180	0.998425
719.127113	0.997534
719.459997	0.997320
719.792833	0.997495
720.125619	0.996756
720.458357	0.997858
720.791046	0.998519
721.123686	0.997780
721.456278	0.998409
721.788821	0.998019
722.121315	0.998437
722.453761	0.998599
722.786158	0.997381
723.118506	0.997459
723.450805	0.997458
723.783056	0.998920
724.115259	0.998091
724.447412	0.998421
724.779518	0.997977
725.111574	0.998188
725.443582	0.998405
725.775542	0.997361
726.107453	0.997839
726.439315	0.998459
726.771129	0.998691
727.102895	0.998448
727.434612	0.997161
727.766281	0.998032
728.097901	0.998322
728.429473	0.998636
728.760996	0.996905
729.092471	0.997727
729.423897	0.998419
729.755276	0.997413
730.086606	0.997945
730.417887	0.997961
730.749120	0.998563
731.080305	0.997744
731.411442	0.996828
731.742530	0.997129
732.073570	0.997136
732.404562	0.998274
732.735506	0.997821
733.066401	0.997514
733.397249	0.997967
733.728048	0.997352
734.058798	0.997672
734.389501	0.998525
734.720156	0.998974
735.050762	0.998878
735.381320	0.998196
735.711831	0.997269
736.042293	0.998068
736.372707	0.999032
736.703073	0.997869
737.033391	0.997549
737.363661	0.998549
737.693883	0.998027
738.024056	0.997715
738.354182	0.998394
738.684260	0.998231
739.014290	0.997491
739.344272	0.997985
739.674207	0.997275
740.004093	0.998406
740.333931	0.998015
740.663722	0.997587
740.993464	0.998586
741.323159	0.998022
741.652806	0.998180
741.982405	0.998197
742.311956	0.997652
742.641460	0.997777
742.970915	0.997745
743.300323	0.997771
743.629683	0.998640
743.958996	0.998598
744.288260	0.998706
744.617477	0.998619
744.946647	0.998391
745.275768	0.999197
745.604842	0.998174
745.933869	0.997639
746.262847	0.998231
746.591778	0.996423
746.920662	0.998991
747.249498	0.999441
747.578286	0.999298
747.907027	0.999094
748.235720	0.998577
748.564365	0.998245
748.892963	0.997507
749.221514	0.998095
749.550017	0.997905
749.878473	0.998839
750.206881	0.999640
750.535242	0.998336
750.863555	0.998284
751.191821	0.998379
751.520039	0.998273
751.848210	0.997076
752.176334	0.997836
752.504411	0.998358
752.832440	0.997561
753.160421	0.997863
753.488356	0.997760
753.816243	0.998168
754.144082	0.998562
754.471875	0.998835
754.799620	0.998118
755.127318	0.998727
755.454969	0.998292
755.782572	0.999666
756.110129	0.997721
756.437638	0.999522
756.765100	0.999124
757.092515	0.997591
757.419882	0.998908
757.747203	0.998286
758.074477	0.999333
758.401703	0.999661
758.728882	0.997935
759.056014	0.998804
759.383099	0.998169
759.710138	0.998295
760.037129	0.998399
760.364073	0.998132
760.690970	0.998730
761.017820	0.997727
761.344623	0.998363
761.671379	0.998230
761.998088	0.998206
762.324751	0.998148
762.651366	0.997316
762.977935	0.997101
763.304456	0.998092
763.630931	0.996079
763.957359	0.996445
764.283740	0.997121
764.610074	0.995841
764.936362	0.997181
765.262602	0.997844
765.588796	0.998585
765.914943	0.996865
766.241044	0.998217
766.567097	0.998426
766.893104	0.997948
767.219064	0.997310
767.544978	0.998149
767.870845	0.998621
768.196665	0.998198
768.522438	0.998782
768.848165	0.998726
769.173846	0.999195
769.499479	0.999041
769.825066	1.000527
770.150607	0.999156
770.476101	0.998502
770.801548	0.999474
771.126949	1.000295
771.452303	0.998434
771.777611	0.999013
772.102872	0.999136
772.428087	0.998185
772.753256	0.998199
773.078378	0.998889
773.403453	0.998958
773.728482	0.999320
774.053465	0.998778
774.378401	0.998605
774.703291	0.999603
775.028135	0.999553
775.352932	0.997545
775.677683	0.999732
776.002388	0.999287
776.327046	0.998027
776.651658	0.999909
776.976224	0.998873
777.300743	0.998303
777.625216	0.997511
777.949643	0.999650
778.274024	0.998744
778.598359	0.999111
778.922647	0.998279
779.246889	0.998509
779.571086	0.998662
779.895236	0.998393
780.219339	0.999839
780.543397	0.999281
780.867409	0.998968
781.191374	0.998488
781.515294	1.000061
781.839167	0.998873
782.162995	1.000030
782.486776	0.998584
782.810511	0.998314
783.134201	0.999267
783.457844	0.999664
783.781441	0.998335
784.104993	0.999798
784.428498	0.999862
784.751958	1.000573
785.075372	1.000340
785.398739	0.998628
785.722061	0.998163
786.045337	0.999024
786.368568	0.998814
786.691752	0.999252
787.014891	0.997962
787.337983	0.997571
787.661030	0.998206
787.984031	0.998888
788.306987	1.000012
788.629897	0.996826
788.952760	0.998956
789.275579	0.999603
789.598351	0.998517
789.921078	0.999965
790.243759	0.998452
790.566395	0.997525
790.888984	0.998537
791.211529	0.998802
791.534027	0.999249
791.856480	0.998458
792.178888	0.999211
792.501249	0.999165
792.823566	0.999306
793.145836	0.998799
793.468062	0.998487
793.790241	0.999032
794.112375	0.997623
794.434464	0.998815
794.756507	0.999256
795.078505	0.998859
795.400457	0.999166
795.722364	0.999344
796.044226	0.998868
796.366042	0.998217
796.687812	0.997902
797.009538	0.997477
797.331218	0.999393
797.652852	0.999874
797.974442	0.997396
798.295986	0.998883
798.617484	0.997234
798.938938	0.998207
799.260346	0.998677
799.581709	0.997828
799.903026	1.000001
800.224299	0.998614
800.545526	0.999353
800.866708	0.998529
801.187845	0.999521
801.508936	0.999364
801.829983	0.999078
802.150984	0.998986
802.471940	0.999220
802.792851	0.998604
803.113717	1.000268
803.434538	0.999861
803.755314	1.000385
804.076045	0.998618
804.396731	0.999116
804.717372	0.997233
805.037967	1.000079
805.358518	0.998427
805.679024	0.998146
805.999485	0.998764
806.319901	0.998787
806.640272	0.999689
806.960598	0.998708
807.280879	0.998692
807.601115	0.999832
807.921306	0.999502
808.241453	0.998540
808.561554	0.998036
808.881611	0.999693
809.201623	0.998202
809.521590	0.998782
809.841513	0.999215
810.161390	0.997896
810.481223	0.998230
810.801011	0.998842
811.120755	1.000104
811.440453	0.998065
811.760107	0.999191
812.079716	0.999238
812.399281	0.999234
812.718801	0.999559
813.038276	0.999197
813.357707	0.998669
813.677093	0.999114
813.996434	0.999437
814.315731	1.000273
814.634983	0.998956
814.954191	0.999158
815.273354	0.998431
815.592473	0.998064
815.911547	0.999735
816.230577	0.998869
816.549562	0.998927
816.868502	0.997804
817.187399	0.998599
817.506250	0.999505
817.825058	0.998111
818.143821	0.998144
818.462539	0.999079
818.781213	0.998162
819.099843	0.998871
819.418429	0.998531
819.736970	0.998585
820.055466	0.998022
820.373919	0.997797
820.692327	0.996699
821.010691	0.997455
821.329011	0.996217
821.647286	0.994963
821.965517	0.994120
822.283704	0.992449
822.601847	0.992082
822.919945	0.992499
823.237999	0.993030
823.556010	0.993768
823.873976	0.994423
824.191897	0.995178
824.509775	0.997695
824.827609	0.996229
825.145398	0.996994
825.463144	0.995563
825.780845	0.995631
826.098502	0.995544
826.416116	0.995687
826.733685	0.996088
827.051210	0.994769
827.368692	0.994059
827.686129	0.995059
828.003522	0.997274
828.320872	0.997239
828.638177	0.997204
828.955439	0.998364
829.272656	0.997614
829.589830	0.997805
829.906960	0.997929
830.224046	0.998455
830.541088	0.997774
830.858086	0.998427
831.175041	0.999935
831.491952	0.999282
831.808819	0.998237
832.125642	0.998364
832.442421	0.999831
832.759157	0.999664
833.075849	0.998197
833.392497	0.997339
833.709101	0.995548
834.025662	0.996339
834.342179	0.996646
834.658653	0.997228
834.975083	0.998054
835.291469	0.998897
835.607811	0.997530
835.924110	0.998770
836.240366	1.000068
836.556578	0.999030
836.872746	0.998875
837.188871	0.997902
837.504952	0.999006
837.820990	0.999300
838.136984	0.998674
838.452935	0.998676
838.768842	1.000164
839.084706	0.999452
839.400526	0.999411
839.716303	0.997678
840.032037	0.998870
840.347727	0.997863
840.663373	0.998389
840.978977	0.998346
841.294537	0.999229
841.610054	0.998566
841.925527	0.999645
842.240957	0.998327
842.556344	0.999488
842.871687	0.999044
843.186987	0.999546
843.502244	0.998818
843.817458	0.998079
844.132629	0.999071
844.447756	0.999177
844.762840	0.999228
845.077881	1.000769
845.392879	0.997581
845.707833	0.999468
846.022745	1.000090
846.337613	0.998927
846.652438	0.998907
846.967221	1.000170
847.281960	1.000422
847.596656	0.999698
847.911309	0.999311
848.225919	0.999203
848.540485	0.999051
848.855009	1.000101
849.169490	0.999977
849.483928	0.999219
849.798323	0.998515
850.112675	1.001287
850.426984	1.000323
850.741251	0.999317
851.055474	0.998956
851.369654	0.999098
851.683792	0.998752
851.997887	0.999287
852.311938	0.999151
852.625947	0.998348
852.939914	0.999003
853.253837	1.000308
853.567718	0.999607
853.881555	0.999625
854.195350	1.000715
854.509103	0.998715
854.822812	0.999201
855.136479	0.999788
855.450103	1.000915
855.763685	0.999994
856.077224	0.999609
856.390720	0.998925
856.704173	0.999684
857.017584	0.999391
857.330953	0.999322
857.644278	0.999768
857.957561	0.999059
858.270802	0.999082
858.584000	0.999208
858.897155	0.999419
859.210268	1.000152
859.523339	1.000485
859.836367	0.998583
860.149352	0.998893
860.462295	0.999958
860.775195	0.998904
861.088054	0.999203
861.400869	0.999135
861.713642	0.998461
862.026373	0.999689
862.339062	0.999664
862.651708	0.999277
862.964312	1.000043
863.276873	0.999184
863.589392	0.998962
863.901869	0.998958
864.214303	0.999799
864.526696	0.999332
864.839045	1.000506
865.151353	1.000007
865.463619	0.998362
865.775842	1.000383
866.088023	1.000340
866.400162	0.999159
866.712258	1.000149
867.024313	0.999872
867.336325	1.000684
867.648296	0.999633
867.960224	0.999522
868.272110	1.000266
868.583954	0.999143
868.895755	0.999699
869.207515	0.999208
869.519233	1.000879
869.830909	0.999050
870.142542	0.999242
870.454134	0.999839
870.765684	0.998830
871.077191	1.000096
871.388657	0.999475
871.700081	0.999572
872.011463	1.001575
872.322803	0.999495
872.634101	0.998348
872.945357	0.998094
873.256571	0.998130
873.567744	0.999816
873.878874	0.999679
874.189963	0.999221
874.501010	1.001138
874.812015	0.999152
875.122979	0.999427
875.433900	0.998788
875.744780	0.999513
876.055618	0.998171
876.366415	0.998467
876.677169	0.999248
876.987882	0.999948
877.298554	0.999703
877.609183	0.998489
877.919771	1.000229
878.230317	0.999841
878.540822	0.997914
878.851285	0.998499
879.161707	0.998447
879.472087	0.999685
879.782425	0.997590
880.092722	0.997658
880.402977	0.996005
880.713191	0.995510
881.023363	0.994441
881.333494	0.994150
881.643583	0.995321
881.953631	0.993737
882.263637	0.992677
882.573602	0.995149
882.883526	0.994096
883.193408	0.996007
883.503248	0.995902
883.813048	0.996182
884.122806	0.997056
884.432522	0.997568
884.742197	0.998431
885.051831	0.998095
885.361424	0.999011
885.670975	0.998708
885.980485	0.998820
886.289954	0.998077
886.599382	0.997799
886.908768	1.000134
887.218113	0.998393
887.527417	0.999054
887.836680	0.999015
888.145901	0.998894
888.455082	0.999808
888.764221	0.999816
889.073319	0.998478
889.382376	0.999739
889.691392	0.998083
890.000366	0.999267
890.309300	0.999569
890.618193	0.999587
890.927044	0.999241
891.235855	0.999091
891.544625	0.998420
891.853353	0.999676
892.162041	0.998845
892.470687	0.999034
892.779293	0.999009
893.087858	0.998083
893.396381	0.999531
893.704864	0.997598
894.013306	0.998201
894.321707	0.997731
894.630068	0.996990
894.938387	0.996204
895.246665	0.997121
895.554903	0.996532
895.863100	0.998452
896.171256	0.997288
896.479371	0.998530
896.787446	0.997825
897.095480	0.998493
897.403473	0.998869
897.711425	0.998534
898.019336	1.000437
898.327207	0.999152
898.635038	0.998505
898.942827	0.999497
899.250576	0.998789
899.558284	0.999566
899.865952	0.998227
900.173579	0.998997
900.481165	0.999119
900.788711	0.998162
901.096216	0.998376
901.403681	0.999619
901.711105	0.999142
902.018489	0.999605
902.325832	0.999168
902.633135	0.999186
902.940397	0.999157
903.247619	0.998213
903.554800	0.997508
903.861941	0.997909
904.169041	0.997535
904.476101	0.995509
904.783121	0.996423
905.090100	0.996455
905.397039	0.997402
905.703938	0.997097
906.010796	0.997714
906.317614	0.997190
906.624391	0.999373
906.931129	0.999037
907.237826	0.999530
907.544483	0.998566
907.851099	0.999625
908.157675	0.998886
908.464211	1.000089
908.770707	0.998218
909.077163	0.999969
909.383578	0.998887
909.689954	0.997720
909.996289	0.998944
910.302584	0.999765
910.608839	1.001168
910.915054	0.998848
911.221229	1.000882
911.527363	0.999350
911.833458	0.999921
912.139513	0.999163
912.445527	1.000403
912.751502	1.000247
913.057436	0.999188
913.363331	0.999496
913.669186	1.000710
913.975000	0.999230
914.280775	0.999664
914.586510	0.999268
914.892205	0.998507
915.197859	0.997775
915.503475	0.998089
915.809050	0.996291
916.114585	0.995576
916.420081	0.998117
916.725536	0.997328
917.030952	0.997186
917.336328	0.996636
917.641665	0.996125
917.946961	0.997200
918.252218	0.997246
918.557435	0.997272
918.862612	0.998713
919.167750	0.998347
919.472848	0.997974
919.777906	0.999519
920.082925	0.999599
920.387904	0.999422
920.692843	0.999362
920.997743	0.998463
921.302603	0.999801
921.607423	0.999249
921.912204	0.999123
922.216946	1.000316
922.521647	0.998694
922.826310	0.999362
923.130932	0.998989
923.435516	0.998900
923.740059	0.999374
924.044564	0.999443
924.349028	0.999449
924.653454	1.000363
924.957840	1.000011
925.262186	0.999487
925.566493	0.998889
925.870761	0.999084
926.174989	0.999241
926.479178	1.000456
926.783328	0.999515
927.087438	0.998553
927.391509	0.998923
927.695541	0.999802
927.999533	0.999531
928.303486	0.999746
928.607400	1.000397
928.911275	0.999192
929.215110	0.999813
929.518906	0.999810
929.822663	1.001624
930.126381	1.000363
930.430060	1.000246
930.733699	1.000717
931.037299	1.000905
931.340861	1.000282
931.644383	0.998693
931.947866	0.999612
932.251309	1.000569
932.554714	0.999186
932.858080	1.000052
933.161407	0.998685
933.464694	0.999531
933.767943	0.999164
934.071153	1.000264
934.374323	1.000652
934.677455	0.999075
934.980548	0.999293
935.283602	1.000002
935.586617	0.999695
935.889593	1.001751
936.192530	1.000190
936.495428	0.999632
936.798287	0.999734
937.101108	1.000000
937.403890	0.998666
937.706632	1.000861
938.009336	1.001296
938.312002	0.999528
938.614628	1.000339
938.917216	0.999399
939.219765	0.998862
939.522275	0.999260
939.824747	1.000175
940.127179	0.999198
940.429573	1.001271
940.731929	0.998171
941.034246	0.999008
941.336524	0.998025
941.638763	0.999131
941.940964	0.998820
942.243126	0.999197
942.545250	1.000022
942.847335	0.999683
943.149381	1.000148
943.451389	0.998727
943.753359	0.998885
944.055290	1.001444
944.357182	1.000258
944.659036	0.999281
944.960851	1.000515
945.262628	1.000846
945.564367	0.999691
945.866067	1.000220
946.167729	0.999995
946.469352	1.000059
946.770937	0.997599
947.072484	1.000037
947.373992	0.999954
947.675462	0.999442
947.976893	0.999105
948.278286	1.002091
948.579641	0.999623
948.880958	0.998989
949.182236	0.998600
949.483476	0.999937
949.784678	0.999905
950.085841	1.000093
950.386967	0.998524
950.688054	0.998955
950.989103	0.997822
951.290114	0.998598
951.591087	0.999919
951.892021	0.999001
952.192917	0.999962
952.493776	0.999839
952.794596	0.999655
953.095378	0.999091
953.396122	0.999350
953.696828	1.000065
953.997496	0.999506
954.298126	1.000215
954.598718	0.998692
954.899272	0.999975
955.199788	0.999098
955.500266	1.000808
955.800706	0.998902
956.101108	1.000760
956.401472	1.001424
956.701798	0.998070
957.002087	0.998777
957.302337	0.999877
957.602550	0.999178
957.902724	0.999377
958.202861	1.000287
958.502960	0.997630
958.803022	1.000768
959.103045	1.000416
959.403031	1.000938
959.702979	1.000885
960.002889	0.999500
960.302762	0.998954
960.602596	1.000301
960.902393	1.000235
961.202153	1.000009
961.501875	1.000822
961.801559	0.999666
962.101205	0.999799
962.400814	1.000571
962.700385	1.000483
962.999918	1.000203
963.299414	0.999325
963.598873	0.999233
963.898293	0.999146
964.197677	0.999891
964.497022	0.999806
964.796331	0.999235
965.095601	1.000927
965.394835	0.999655
965.694030	0.999579
965.993189	0.998770
966.292309	1.000051
966.591393	0.998447
966.890439	0.999825
967.189447	0.999734
967.488419	0.999818
967.787353	0.998832
968.086249	1.000434
968.385108	0.998815
968.683930	1.001478
968.982714	0.999278
969.281462	1.000612
969.580172	0.999081
969.878844	1.001828
970.177480	1.000006
970.476078	1.001281
970.774639	1.000479
971.073162	0.998762
971.371649	0.999012
971.670098	1.000042
971.968510	1.000207
972.266885	0.999587
972.565223	0.999360
972.863524	0.999297
973.161788	0.998751
973.460014	1.000748
973.758204	0.999243
974.056356	0.999424
974.354471	0.999611
974.652550	1.000520
974.950591	0.999936
975.248595	0.999121
975.546563	0.999795
975.844493	0.999979
976.142386	0.999340
976.440243	0.999298
976.738062	1.000028
977.035845	0.999240
977.333590	1.000106
977.631299	0.999846
977.928971	0.997576
978.226606	0.999785
978.524204	0.998924
978.821765	1.000015
979.119290	1.001213
979.416777	0.999095
979.714228	0.999721
980.011642	0.999928
980.309020	0.998905
980.606360	0.998746
980.903664	0.999242
981.200931	0.999442
981.498162	0.999349
981.795356	1.000296
982.092513	0.999117
982.389633	1.001067
982.686717	0.998677
982.983764	0.999158
983.280775	1.000147
983.577749	1.001125
983.874686	0.998582
984.171587	0.999685
984.468451	0.999486
984.765279	1.001595
985.062070	1.000490
985.358824	0.999166
985.655543	1.000680
985.952224	1.000436
986.248869	1.000252
986.545478	1.000675
986.842050	1.000069
987.138586	0.998602
987.435086	0.998698
987.731549	1.001397
988.027975	1.001222
988.324366	0.999424
988.620719	1.002420
988.917037	0.998990
989.213318	0.999539
989.509563	0.999860
989.805772	0.999928
990.101944	1.000879
990.398080	1.000515
990.694180	1.000546
990.990244	0.998118
991.286271	0.999851
991.582262	1.001126
991.878217	0.999391
992.174136	1.001368
992.470019	1.000558
992.765865	1.000953
993.061676	0.999835
993.357450	0.999690
993.653188	1.001222
993.948890	1.000167
994.244556	0.998974
994.540186	1.000363
994.835780	0.999258
995.131337	1.001361
995.426859	0.999830
995.722345	0.999741
996.017795	0.999070
996.313208	1.000021
996.608586	0.999374
996.903928	1.000896
997.199234	0.999408
997.494504	1.001185
997.789738	0.999550
998.084936	1.000496
998.380099	0.999910
998.675225	1.000458
998.970316	1.000497
999.265371	1.000451
999.560390	0.999948
999.855373	1.000645
1000.150320	0.999761
1000.445232	1.000016
1000.740108	1.000022
1001.034948	0.999891
1001.329752	1.001578
1001.624521	0.999745
1001.919254	0.999418
1002.213951	1.001529
1002.508613	0.998695
1002.803239	0.999809
1003.097829	1.000114
1003.392384	0.998967
1003.686903	1.000027
1003.981386	0.999936
1004.275834	1.001028
1004.570246	0.999448
1004.864623	1.000770
1005.158964	1.000704
1005.453270	1.000351
1005.747540	0.999560
1006.041775	1.000339
1006.335974	1.000642
1006.630138	1.000467
1006.924266	1.000215
1007.218359	0.998402
1007.512416	0.999498
1007.806438	1.000289
1008.100425	0.999614
1008.394376	1.000935
1008.688292	1.000092
1008.982172	0.999727
1009.276017	1.000329
1009.569827	1.000451
1009.863602	0.998693
1010.157341	1.000473
1010.451045	0.998967
1010.744714	1.001591
1011.038347	0.999306
1011.331945	0.999621
1011.625508	0.999996
1011.919036	1.000858
1012.212528	1.000252
1012.505986	1.000134
1012.799408	1.000809
1013.092795	0.999993
1013.386147	0.999779
1013.679464	1.000843
1013.972745	0.999252
1014.265992	0.999645
1014.559204	1.001405
1014.852380	1.000702
1015.145521	1.000669
1015.438628	0.999243
1015.731699	0.999291
1016.024736	1.001053
1016.317737	1.000133
1016.610703	1.000846
1016.903635	0.999890
1017.196531	1.000155
1017.489393	1.000262
1017.782219	0.998561
1018.075011	0.999463
1018.367768	0.998457
1018.660490	1.000271
1018.953177	1.000271
1019.245829	1.000271
