Dividing Wavelength (nm)	Counts (n)	Blue Motor Position (mm): 37.000000	Red Motor Position (mm): 0.000000	
326.493990	0.998420
326.888308	0.998420
327.282561	0.998420
327.676750	1.000545
328.070874	0.999955
328.464933	1.001212
328.858929	1.000374
329.252859	0.999828
329.646726	0.999449
330.040528	1.000428
330.434265	1.000736
330.827938	0.999517
331.221547	0.999425
331.615091	1.000581
332.008571	1.000801
332.401986	0.999002
332.795338	0.998856
333.188625	1.000478
333.581847	0.999417
333.975006	1.000220
334.368100	1.000384
334.761129	0.999501
335.154095	0.999512
335.546996	0.998778
335.939833	0.998639
336.332606	0.998974
336.725315	0.998488
337.117960	1.001906
337.510540	0.998194
337.903056	1.000094
338.295508	1.001230
338.687896	1.000205
339.080220	0.999288
339.472480	0.997874
339.864676	1.000532
340.256807	0.998095
340.648875	0.999471
341.040879	0.999275
341.432818	0.999712
341.824694	0.998279
342.216506	0.999927
342.608253	0.998953
342.999937	0.997419
343.391557	0.999006
343.783113	1.000536
344.174605	0.999703
344.566033	0.998227
344.957397	1.000588
345.348697	1.000290
345.739934	0.998676
346.131106	0.999130
346.522215	0.998284
346.913260	0.998386
347.304241	0.997777
347.695159	0.999467
348.086012	0.998839
348.476802	0.999421
348.867528	0.997922
349.258191	0.999089
349.648789	0.999499
350.039324	0.999160
350.429796	0.998691
350.820203	0.996987
351.210548	0.998311
351.600828	0.999267
351.991045	0.998454
352.381198	0.999493
352.771288	0.998176
353.161314	1.000133
353.551276	0.997951
353.941175	0.998854
354.331010	0.999340
354.720782	0.998996
355.110490	0.998814
355.500135	0.998711
355.889717	0.998137
356.279235	0.997432
356.668689	0.998542
357.058080	0.999328
357.447408	0.997486
357.836672	0.998722
358.225873	0.999209
358.615010	0.998362
359.004084	0.998082
359.393095	0.999192
359.782043	0.998277
360.170927	0.997027
360.559748	0.998244
360.948505	0.997405
361.337199	0.998309
361.725830	0.998060
362.114398	0.996657
362.502903	0.997115
362.891344	0.996676
363.279722	0.996860
363.668037	0.997989
364.056289	0.996433
364.444478	0.999438
364.832603	0.996800
365.220665	0.997922
365.608665	0.996845
365.996601	0.996269
366.384474	0.995994
366.772284	0.996597
367.160031	0.996578
367.547715	0.995784
367.935336	0.994937
368.322893	0.993871
368.710388	0.993284
369.097820	0.991429
369.485189	0.988605
369.872495	0.986331
370.259738	0.984499
370.646918	0.982589
371.034035	0.979217
371.421090	0.977673
371.808081	0.971303
372.195010	0.970240
372.581875	0.963899
372.968678	0.960148
373.355418	0.956424
373.742096	0.950428
374.128710	0.945955
374.515262	0.940043
374.901751	0.934102
375.288177	0.930094
375.674540	0.922942
376.060841	0.917064
376.447079	0.909693
376.833254	0.903272
377.219367	0.898593
377.605417	0.887806
377.991404	0.883807
378.377329	0.877583
378.763191	0.872015
379.148991	0.862158
379.534727	0.855197
379.920402	0.847352
380.306013	0.843459
380.691563	0.830260
381.077049	0.823574
381.462474	0.819702
381.847835	0.808610
382.233134	0.803806
382.618371	0.803845
383.003545	0.786704
383.388657	0.784848
383.773706	0.777713
384.158693	0.772749
384.543618	0.767974
384.928480	0.759143
385.313280	0.748693
385.698017	0.748206
386.082692	0.737491
386.467305	0.735734
386.851856	0.731135
387.236344	0.725256
387.620770	0.719176
388.005133	0.713940
388.389435	0.708393
388.773674	0.705364
389.157851	0.698338
389.541965	0.695813
389.926018	0.702353
390.310008	0.688383
390.693936	0.686320
391.077802	0.677781
391.461606	0.679842
391.845348	0.668705
392.229027	0.668269
392.612645	0.666493
392.996200	0.653310
393.379694	0.646629
393.763125	0.637427
394.146494	0.642217
394.529801	0.632552
394.913047	0.624219
395.296230	0.631131
395.679351	0.621680
396.062410	0.619550
396.445408	0.622704
396.828343	0.618323
397.211217	0.614141
397.594028	0.627101
397.976778	0.618824
398.359466	0.617630
398.742092	0.613846
399.124656	0.627819
399.507158	0.618253
399.889598	0.618006
400.271977	0.611573
400.654294	0.618441
401.036549	0.621199
401.418742	0.628001
401.800874	0.617883
402.182944	0.619199
402.564952	0.616370
402.946898	0.622036
403.328783	0.627021
403.710606	0.641978
404.092367	0.625142
404.474067	0.634482
404.855705	0.639010
405.237282	0.652012
405.618797	0.647266
406.000250	0.650472
406.381642	0.648324
406.762972	0.659667
407.144240	0.665344
407.525447	0.671375
407.906593	0.674146
408.287677	0.677864
408.668700	0.691994
409.049661	0.695666
409.430560	0.700830
409.811399	0.715164
410.192176	0.711323
410.572891	0.724275
410.953545	0.726349
411.334138	0.742513
411.714669	0.746097
412.095139	0.762037
412.475547	0.762073
412.855894	0.771756
413.236180	0.780934
413.616405	0.792371
413.996568	0.796061
414.376670	0.807413
414.756711	0.817322
415.136691	0.823971
415.516609	0.829445
415.896466	0.835944
416.276262	0.842918
416.655997	0.851603
417.035670	0.853932
417.415283	0.859050
417.794834	0.868436
418.174324	0.877139
418.553753	0.886194
418.933121	0.888641
419.312428	0.895863
419.691674	0.903670
420.070859	0.907840
420.449983	0.914293
420.829045	0.918952
421.208047	0.926063
421.586988	0.929793
421.965867	0.934113
422.344686	0.939343
422.723444	0.943981
423.102141	0.950983
423.480777	0.951141
423.859352	0.957352
424.237866	0.960210
424.616319	0.963363
424.994712	0.965298
425.373044	0.969543
425.751314	0.972117
426.129524	0.976386
426.507673	0.976896
426.885762	0.978614
427.263789	0.980459
427.641756	0.982732
428.019662	0.983612
428.397508	0.986023
428.775292	0.987296
429.153016	0.987956
429.530679	0.989812
429.908282	0.990832
430.285824	0.991595
430.663305	0.992331
431.040726	0.993545
431.418086	0.994187
431.795385	0.995565
432.172624	0.994947
432.549802	0.994670
432.926920	0.995399
433.303977	0.994743
433.680974	0.996577
434.057910	0.996743
434.434786	0.996351
434.811601	0.997392
435.188355	0.997150
435.565050	0.997387
435.941683	0.997007
436.318257	0.996434
436.694770	0.997509
437.071222	0.997700
437.447614	0.997603
437.823946	0.998206
438.200218	0.997633
438.576429	0.997018
438.952580	0.998622
439.328670	0.997919
439.704700	0.996401
440.080670	0.998311
440.456580	0.998301
440.832429	0.998035
441.208218	0.998635
441.583947	0.998314
441.959616	0.997370
442.335224	0.998642
442.710773	0.999058
443.086261	0.998488
443.461689	0.997819
443.837057	0.998552
444.212365	0.998343
444.587612	0.999859
444.962800	0.997900
445.337927	0.998787
445.712995	0.998481
446.088002	0.997494
446.462949	0.997901
446.837837	0.999858
447.212664	0.998004
447.587431	0.998937
447.962139	0.998383
448.336786	0.997760
448.711374	0.998155
449.085901	0.998905
449.460369	0.998709
449.834776	0.998693
450.209124	0.998547
450.583412	0.999440
450.957640	0.998643
451.331808	0.999359
451.705917	0.998152
452.079965	0.998301
452.453954	0.998661
452.827883	0.998658
453.201752	0.998397
453.575562	0.998607
453.949311	0.998661
454.323001	0.998228
454.696632	0.998795
455.070202	0.997965
455.443713	0.998158
455.817164	0.997627
456.190556	0.997999
456.563888	0.999540
456.937160	0.998960
457.310373	0.998252
457.683526	0.998233
458.056619	0.998013
458.429653	0.997993
458.802628	0.998296
459.175542	0.998158
459.548398	0.998383
459.921194	0.998772
460.293930	0.999372
460.666607	0.998191
461.039224	0.998473
461.411782	0.997947
461.784280	0.997429
462.156719	0.999326
462.529099	0.997982
462.901419	0.998421
463.273680	0.997867
463.645882	0.997785
464.018024	0.998547
464.390106	0.997874
464.762130	0.998440
465.134094	0.997918
465.505999	0.998129
465.877845	0.998044
466.249631	0.997771
466.621358	0.997373
466.993026	0.997437
467.364634	0.997804
467.736184	0.997817
468.107674	0.998077
468.479105	0.997837
468.850477	0.997849
469.221790	0.997763
469.593043	0.997704
469.964238	0.997332
470.335373	0.997784
470.706449	0.998221
471.077467	0.997687
471.448425	0.997914
471.819324	0.998276
472.190164	0.997494
472.560945	0.997402
472.931667	0.997773
473.302330	0.997491
473.672934	0.998403
474.043479	0.997687
474.413965	0.998149
474.784393	0.997530
475.154761	0.997586
475.525070	0.997765
475.895321	0.998393
476.265513	0.998027
476.635645	0.998319
477.005719	0.997650
477.375734	0.997720
477.745691	0.997151
478.115588	0.997295
478.485427	0.997452
478.855207	0.997720
479.224928	0.997380
479.594591	0.997366
479.964194	0.997246
480.333739	0.997748
480.703226	0.997055
481.072653	0.997175
481.442022	0.997836
481.811333	0.997431
482.180584	0.997581
482.549777	0.997460
482.918912	0.997546
483.287988	0.997203
483.657005	0.997679
484.025964	0.997642
484.394864	0.997442
484.763706	0.996991
485.132489	0.997961
485.501213	0.997299
485.869879	0.997171
486.238487	0.996976
486.607036	0.998549
486.975527	0.997709
487.343959	0.997083
487.712333	0.997897
488.080648	0.997702
488.448905	0.997643
488.817104	0.997223
489.185244	0.997600
489.553326	0.998153
489.921350	0.997620
490.289315	0.997181
490.657222	0.997412
491.025070	0.997905
491.392861	0.997788
491.760593	0.998085
492.128267	0.997461
492.495883	0.996772
492.863440	0.998426
493.230939	0.997709
493.598380	0.998530
493.965763	0.997772
494.333088	0.996734
494.700354	0.997385
495.067563	0.997486
495.434713	0.998323
495.801805	0.997410
496.168839	0.998082
496.535815	0.997455
496.902733	0.997076
497.269593	0.997234
497.636395	0.996868
498.003139	0.996876
498.369825	0.998838
498.736453	0.997127
499.103023	0.997937
499.469535	0.997989
499.835989	0.997902
500.202385	0.997690
500.568723	0.997467
500.935003	0.997901
501.301226	0.998050
501.667390	0.997510
502.033497	0.998244
502.399546	0.998426
502.765537	0.997125
503.131470	0.997471
503.497345	0.997573
503.863163	0.997513
504.228923	0.998002
504.594625	0.997914
504.960269	0.997570
505.325856	0.997761
505.691385	0.998514
506.056856	0.997781
506.422270	0.998079
506.787625	0.998007
507.152924	0.997904
507.518164	0.997724
507.883347	0.997623
508.248472	0.997866
508.613540	0.997129
508.978550	0.997530
509.343503	0.997825
509.708398	0.997745
510.073236	0.997533
510.438016	0.997259
510.802738	0.996948
511.167403	0.997352
511.532010	0.998277
511.896561	0.998223
512.261053	0.997472
512.625488	0.997662
512.989866	0.997905
513.354186	0.997509
513.718449	0.998048
514.082655	0.997392
514.446803	0.997066
514.810894	0.997567
515.174927	0.997514
515.538904	0.997509
515.902822	0.997809
516.266684	0.997716
516.630488	0.997772
516.994235	0.998751
517.357925	0.998159
517.721558	0.997902
518.085133	0.997386
518.448651	0.997937
518.812112	0.998127
519.175516	0.998059
519.538863	0.996958
519.902152	0.998419
520.265385	0.998029
520.628560	0.997680
520.991678	0.997984
521.354739	0.998743
521.717743	0.998427
522.080690	0.997359
522.443580	0.998364
522.806413	0.997826
523.169189	0.997863
523.531908	0.997837
523.894569	0.998187
524.257174	0.998198
524.619722	0.998202
524.982213	0.997885
525.344647	0.997282
525.707025	0.997642
526.069345	0.997385
526.431608	0.998095
526.793815	0.997704
527.155964	0.998395
527.518057	0.998670
527.880093	0.997360
528.242072	0.997731
528.603995	0.998317
528.965860	0.997731
529.327669	0.997404
529.689421	0.997381
530.051117	0.997900
530.412755	0.997794
530.774337	0.997672
531.135862	0.997982
531.497331	0.997627
531.858743	0.998048
532.220098	0.997652
532.581396	0.998117
532.942638	0.998326
533.303824	0.998006
533.664953	0.997397
534.026025	0.998569
534.387040	0.997835
534.747999	0.997561
535.108902	0.997772
535.469748	0.998382
535.830537	0.998782
536.191270	0.997604
536.551947	0.997910
536.912567	0.998133
537.273131	0.998971
537.633638	0.997778
537.994089	0.997893
538.354483	0.997198
538.714821	0.997955
539.075103	0.998324
539.435328	0.998335
539.795497	0.997988
540.155609	0.997707
540.515665	0.998129
540.875665	0.997713
541.235609	0.998388
541.595496	0.997623
541.955328	0.998247
542.315102	0.998171
542.674821	0.998947
543.034483	0.998173
543.394090	0.998171
543.753640	0.997626
544.113134	0.997432
544.472571	0.999126
544.831953	0.997913
545.191278	0.998326
545.550548	0.997720
545.909761	0.998163
546.268918	0.999217
546.628019	0.998701
546.987064	0.997684
547.346053	0.997721
547.704986	0.998506
548.063863	0.997939
548.422684	0.998420
548.781449	0.998302
549.140158	0.997941
549.498811	0.997803
549.857408	0.997175
550.215949	0.997537
550.574434	0.997914
550.932864	0.998078
551.291237	0.997881
551.649555	0.999105
552.007817	0.998255
552.366022	0.998875
552.724173	0.998647
553.082267	0.997555
553.440305	0.997686
553.798288	0.997361
554.156215	0.997642
554.514086	0.998288
554.871902	0.998040
555.229661	0.997805
555.587365	0.998687
555.945014	0.998403
556.302606	0.998507
556.660143	0.998782
557.017625	0.998275
557.375050	0.998019
557.732421	0.998026
558.089735	0.997691
558.446994	0.998127
558.804197	0.997967
559.161345	0.997493
559.518437	0.998174
559.875474	0.998264
560.232455	0.998120
560.589381	0.998730
560.946251	0.998433
561.303065	0.998513
561.659825	0.998580
562.016528	0.998494
562.373177	0.998325
562.729770	0.998223
563.086307	0.996926
563.442789	0.998412
563.799216	0.997562
564.155587	0.997894
564.511904	0.998576
564.868164	0.997128
565.224370	0.997506
565.580520	0.998161
565.936615	0.998967
566.292654	0.997787
566.648638	0.998224
567.004567	0.997603
567.360441	0.998800
567.716260	0.998029
568.072023	0.998350
568.427732	0.998405
568.783385	0.998483
569.138982	0.998091
569.494525	0.998040
569.850013	0.998341
570.205445	0.998370
570.560823	0.998055
570.916145	0.997757
571.271412	0.997621
571.626625	0.997824
571.981782	0.998150
572.336884	0.998408
572.691931	0.997862
573.046923	0.998677
573.401860	0.998158
573.756743	0.998298
574.111570	0.998224
574.466342	0.998760
574.821059	0.997929
575.175722	0.998031
575.530330	0.998433
575.884882	0.998878
576.239380	0.998565
576.593823	0.998388
576.948211	0.998873
577.302544	0.998416
577.656823	0.998060
578.011047	0.997784
578.365216	0.999366
578.719330	0.998562
579.073389	0.997749
579.427394	0.998029
579.781344	0.998096
580.135239	0.997146
580.489080	0.998536
580.842866	0.998178
581.196597	0.997970
581.550273	0.997803
581.903895	0.998485
582.257463	0.998093
582.610975	0.998123
582.964434	0.998175
583.317837	0.998192
583.671186	0.998012
584.024481	0.998087
584.377721	0.997237
584.730906	0.998765
585.084037	0.998846
585.437113	0.999028
585.790135	0.998420
586.143103	0.998156
586.496016	0.997983
586.848874	0.998113
587.201679	0.998278
587.554428	0.997987
587.907124	0.998507
588.259765	0.998814
588.612352	0.999053
588.964884	0.998696
589.317362	0.997650
589.669786	0.998499
590.022155	0.997683
590.374470	0.998017
590.726731	0.998079
591.078937	0.997832
591.431090	0.998542
591.783188	0.997662
592.135232	0.999362
592.487222	0.999088
592.839157	0.998237
593.191038	0.998351
593.542866	0.997871
593.894639	0.997277
594.246358	0.998133
594.598022	0.997736
594.949633	0.997949
595.301190	0.998121
595.652692	0.997754
596.004141	0.998089
596.355535	0.998079
596.706876	0.998504
597.058162	0.998538
597.409395	0.997871
597.760573	0.998261
598.111698	0.998014
598.462768	0.997274
598.813785	0.997587
599.164748	0.998228
599.515657	0.998438
599.866511	0.999043
600.217312	0.998962
600.568060	0.997686
600.918753	0.998397
601.269392	0.998372
601.619978	0.998769
601.970510	0.998269
602.320988	0.998400
602.671412	0.997835
603.021783	0.997795
603.372100	0.999379
603.722363	0.999094
604.072572	0.997544
604.422728	0.998510
604.772830	0.998066
605.122878	0.998252
605.472872	0.998768
605.822813	0.997551
606.172701	0.997408
606.522534	0.999150
606.872314	0.998155
607.222041	0.998307
607.571714	0.997936
607.921333	0.997641
608.270899	0.998138
608.620411	0.998128
608.969870	0.998698
609.319276	0.998504
609.668627	0.998647
610.017926	0.997962
610.367171	0.997910
610.716362	0.997945
611.065500	0.997759
611.414585	0.998529
611.763616	0.997758
612.112594	0.997766
612.461518	0.997666
612.810389	0.998043
613.159207	0.998384
613.507971	0.997589
613.856682	0.998667
614.205340	0.997667
614.553945	0.998233
614.902496	0.997416
615.250994	0.997935
615.599439	0.998805
615.947830	0.997777
616.296169	0.997678
616.644454	0.997992
616.992686	0.997907
617.340864	0.998020
617.688990	0.997747
618.037063	0.998385
618.385082	0.997141
618.733048	0.997860
619.080961	0.997687
619.428821	0.998657
619.776628	0.998002
620.124382	0.998696
620.472083	0.997793
620.819731	0.999164
621.167326	0.998825
621.514868	0.998839
621.862357	0.998259
622.209793	0.998281
622.557176	0.998098
622.904506	0.997649
623.251783	0.998384
623.599007	0.998547
623.946179	0.997628
624.293297	0.998819
624.640363	0.998486
624.987376	0.997499
625.334336	0.997520
625.681243	0.997973
626.028097	0.999053
626.374899	0.998488
626.721647	0.999220
627.068343	0.998581
627.414987	0.997801
627.761577	0.997574
628.108115	0.997455
628.454600	0.998356
628.801032	0.998511
629.147412	0.998289
629.493739	0.998394
629.840014	0.998014
630.186236	0.998401
630.532405	0.998081
630.878521	0.997692
631.224585	0.998144
631.570597	0.998109
631.916556	0.998449
632.262462	0.997254
632.608316	0.998570
632.954117	0.997919
633.299866	0.997693
633.645562	0.997927
633.991206	0.998348
634.336797	0.998254
634.682336	0.998757
635.027823	0.997937
635.373257	0.998178
635.718639	0.998680
636.063968	0.998541
636.409245	0.998284
636.754470	0.998428
637.099642	0.998632
637.444762	0.999031
637.789829	0.998219
638.134845	0.997350
638.479808	0.998379
638.824719	0.998559
639.169577	0.997561
639.514383	0.998725
639.859137	0.999096
640.203839	0.998663
640.548489	0.998296
640.893086	0.997863
641.237632	0.998760
641.582125	0.997161
641.926566	0.999527
642.270955	0.998443
642.615292	0.998425
642.959576	0.998298
643.303809	0.998037
643.647990	0.998325
643.992118	0.999137
644.336195	0.997849
644.680219	0.998401
645.024192	0.998373
645.368112	0.996975
645.711981	0.998356
646.055797	0.997950
646.399562	0.996915
646.743274	0.998856
647.086935	0.997484
647.430544	0.998303
647.774101	0.997745
648.117606	0.998432
648.461059	0.998659
648.804460	0.997802
649.147810	0.998703
649.491108	0.997968
649.834354	0.998250
650.177548	0.997943
650.520690	0.997816
650.863781	0.997497
651.206820	0.998199
651.549807	0.997705
651.892742	0.998278
652.235626	0.997834
652.578458	0.998408
652.921238	0.998335
653.263967	0.999485
653.606644	0.997954
653.949269	0.998849
654.291843	0.997713
654.634365	0.998895
654.976836	0.997157
655.319255	0.998883
655.661622	0.997782
656.003938	0.998302
656.346203	0.997809
656.688416	0.999371
657.030577	0.998461
657.372687	0.998141
657.714746	0.998314
658.056753	0.998441
658.398708	0.997886
658.740612	0.998702
659.082465	0.998315
659.424266	0.998232
659.766016	0.997376
660.107715	0.998948
660.449362	0.997913
660.790958	0.998076
661.132503	0.998329
661.473996	0.997145
661.815438	0.998826
662.156829	0.997870
662.498168	0.998664
662.839456	0.997236
663.180693	0.998743
663.521879	0.998301
663.863013	0.998588
664.204097	0.998146
664.545129	0.998396
664.886110	0.997970
665.227040	0.997910
665.567918	0.997588
665.908746	0.998251
666.249522	0.997654
666.590248	0.998366
666.930922	0.997583
667.271545	0.998682
667.612118	0.998598
667.952639	0.997927
668.293109	0.998005
668.633528	0.997680
668.973896	0.997315
669.314213	0.998289
669.654480	0.998005
669.994695	0.997197
670.334859	0.997485
670.674973	0.997996
671.015035	0.998405
671.355047	0.997565
671.695008	0.997647
672.034918	0.998666
672.374777	0.997848
672.714585	0.998311
673.054342	0.998333
673.394049	0.997180
673.733705	0.997209
674.073310	0.998183
674.412864	0.998277
674.752368	0.997437
675.091820	0.999588
675.431223	0.998744
675.770574	0.997350
676.109875	0.997979
676.449125	0.997829
676.788324	0.998045
677.127473	0.998832
677.466571	0.998281
677.805619	0.998141
678.144616	0.998574
678.483562	0.998322
678.822458	0.997567
679.161303	0.998093
679.500098	0.998331
679.838842	0.998710
680.177535	0.996881
680.516179	0.997349
680.854771	0.997640
681.193314	0.998233
681.531805	0.997548
681.870247	0.998377
682.208638	0.996921
682.546978	0.996644
682.885268	0.997424
683.223508	0.997260
683.561697	0.997602
683.899836	0.997315
684.237925	0.997182
684.575963	0.997984
684.913951	0.997544
685.251889	0.997313
685.589776	0.997715
685.927614	0.997548
686.265401	0.997480
686.603137	0.997577
686.940824	0.997782
687.278460	0.998344
687.616046	0.997556
687.953582	0.998131
688.291068	0.997622
688.628504	0.997504
688.965889	0.997055
689.303224	0.996237
689.640510	0.997457
689.977745	0.997237
690.314930	0.997177
690.652065	0.997542
690.989150	0.996876
691.326185	0.998378
691.663170	0.997497
692.000105	0.997399
692.336990	0.998085
692.673825	0.997558
693.010610	0.998272
693.347345	0.997516
693.684030	0.997455
694.020665	0.998122
694.357251	0.996530
694.693786	0.998436
695.030272	0.996344
695.366707	0.997268
695.703093	0.997225
696.039429	0.996517
696.375716	0.997534
696.711952	0.996849
697.048139	0.997783
697.384276	0.997554
697.720363	0.997808
698.056400	0.996647
698.392388	0.996792
698.728326	0.997547
699.064214	0.998428
699.400053	0.997347
699.735842	0.999332
700.071581	0.997207
700.407270	0.997158
700.742910	0.997973
701.078501	0.996506
701.414042	0.998593
701.749533	0.996358
702.084974	0.998053
702.420366	0.997901
702.755709	0.996956
703.091002	0.997898
703.426246	0.998177
703.761440	0.997889
704.096584	0.997288
704.431679	0.996907
704.766725	0.996955
705.101721	0.998043
705.436668	0.997409
705.771565	0.997737
706.106413	0.996973
706.441212	0.997077
706.775961	0.997882
707.110661	0.997623
707.445311	0.997378
707.779913	0.998790
708.114465	0.998148
708.448967	0.997179
708.783421	0.997895
709.117825	0.997087
709.452180	0.997566
709.786485	0.997623
710.120742	0.997776
710.454949	0.997018
710.789107	0.997509
711.123216	0.996634
711.457275	0.996887
711.791286	0.997662
712.125247	0.999445
712.459159	0.997297
712.793023	0.997231
713.126837	0.997759
713.460602	0.997012
713.794318	0.996939
714.127985	0.996495
714.461602	0.997878
714.795171	0.996511
715.128691	0.996556
715.462162	0.998103
715.795584	0.997317
716.128957	0.997094
716.462281	0.997636
716.795556	0.996501
717.128782	0.998066
717.461960	0.997128
717.795088	0.997474
718.128167	0.998460
718.461198	0.997884
718.794180	0.998139
719.127113	0.997495
719.459997	0.996802
719.792833	0.997899
720.125619	0.996406
720.458357	0.997527
720.791046	0.997922
721.123686	0.996963
721.456278	0.998104
721.788821	0.997292
722.121315	0.997475
722.453761	0.998045
722.786158	0.996228
723.118506	0.997669
723.450805	0.996844
723.783056	0.997888
724.115259	0.996823
724.447412	0.997569
724.779518	0.997810
725.111574	0.996846
725.443582	0.998132
725.775542	0.997338
726.107453	0.997954
726.439315	0.998252
726.771129	0.997556
727.102895	0.997374
727.434612	0.997729
727.766281	0.996779
728.097901	0.997369
728.429473	0.997836
728.760996	0.996786
729.092471	0.997328
729.423897	0.997340
729.755276	0.996996
730.086606	0.996429
730.417887	0.997088
730.749120	0.997341
731.080305	0.997163
731.411442	0.996221
731.742530	0.997144
732.073570	0.996964
732.404562	0.997846
732.735506	0.996844
733.066401	0.997187
733.397249	0.997933
733.728048	0.997046
734.058798	0.996303
734.389501	0.997861
734.720156	0.998216
735.050762	0.997188
735.381320	0.997251
735.711831	0.996170
736.042293	0.996769
736.372707	0.998552
736.703073	0.996715
737.033391	0.997710
737.363661	0.997283
737.693883	0.997763
738.024056	0.996634
738.354182	0.997846
738.684260	0.997057
739.014290	0.996919
739.344272	0.997403
739.674207	0.997219
740.004093	0.997481
740.333931	0.997581
740.663722	0.997078
740.993464	0.997310
741.323159	0.996801
741.652806	0.997363
741.982405	0.997760
742.311956	0.998013
742.641460	0.997342
742.970915	0.996471
743.300323	0.997702
743.629683	0.996775
743.958996	0.999249
744.288260	0.996995
744.617477	0.997312
744.946647	0.997801
745.275768	0.997680
745.604842	0.996640
745.933869	0.997402
746.262847	0.998529
746.591778	0.996887
746.920662	0.998255
747.249498	0.997578
747.578286	0.998000
747.907027	0.997163
748.235720	0.997837
748.564365	0.999344
748.892963	0.996811
749.221514	0.997672
749.550017	0.996491
749.878473	0.997793
750.206881	0.999363
750.535242	0.997412
750.863555	0.996677
751.191821	0.996662
751.520039	0.997088
751.848210	0.995635
752.176334	0.996334
752.504411	0.997460
752.832440	0.997103
753.160421	0.996675
753.488356	0.997758
753.816243	0.997285
754.144082	0.996500
754.471875	0.997537
754.799620	0.997344
755.127318	0.997153
755.454969	0.997304
755.782572	0.998469
756.110129	0.997175
756.437638	0.998611
756.765100	0.997107
757.092515	0.996683
757.419882	0.998129
757.747203	0.997216
758.074477	0.998609
758.401703	0.997128
758.728882	0.997179
759.056014	0.997312
759.383099	0.997088
759.710138	0.997207
760.037129	0.997263
760.364073	0.998410
760.690970	0.997135
761.017820	0.996995
761.344623	0.998960
761.671379	0.998126
761.998088	0.997529
762.324751	0.997300
762.651366	0.997379
762.977935	0.996132
763.304456	0.997058
763.630931	0.995907
763.957359	0.994903
764.283740	0.996314
764.610074	0.996827
764.936362	0.996702
765.262602	0.997910
765.588796	0.997662
765.914943	0.996155
766.241044	0.996588
766.567097	0.997096
766.893104	0.997126
767.219064	0.996332
767.544978	0.997379
767.870845	0.997840
768.196665	0.997298
768.522438	0.998590
768.848165	0.997685
769.173846	0.997775
769.499479	0.998667
769.825066	0.997989
770.150607	0.998416
770.476101	0.998134
770.801548	0.998478
771.126949	0.998652
771.452303	0.998212
771.777611	0.998395
772.102872	0.998718
772.428087	0.997823
772.753256	0.998238
773.078378	0.998816
773.403453	0.997207
773.728482	0.999541
774.053465	0.997116
774.378401	0.998412
774.703291	0.997384
775.028135	0.999906
775.352932	0.997632
775.677683	0.999025
776.002388	0.998379
776.327046	0.998070
776.651658	0.999480
776.976224	0.998197
777.300743	0.997466
777.625216	0.997737
777.949643	0.997132
778.274024	0.997656
778.598359	0.998445
778.922647	0.998864
779.246889	0.998557
779.571086	0.997248
779.895236	0.998270
780.219339	0.998453
780.543397	0.998453
780.867409	0.999090
781.191374	0.997312
781.515294	0.998520
781.839167	0.998590
782.162995	0.998020
782.486776	0.997919
782.810511	0.998789
783.134201	0.999143
783.457844	0.999441
783.781441	0.998845
784.104993	0.997545
784.428498	0.998866
784.751958	0.999238
785.075372	0.999304
785.398739	0.997793
785.722061	0.997359
786.045337	0.998284
786.368568	0.997932
786.691752	0.998341
787.014891	0.998460
787.337983	0.997225
787.661030	0.998303
787.984031	0.998513
788.306987	0.998006
788.629897	0.996521
788.952760	0.998053
789.275579	0.998520
789.598351	0.998699
789.921078	0.999145
790.243759	0.997734
790.566395	0.998526
790.888984	0.998080
791.211529	0.998728
791.534027	0.997380
791.856480	0.997989
792.178888	0.997834
792.501249	0.997847
792.823566	1.000096
793.145836	0.998324
793.468062	0.998971
793.790241	0.998689
794.112375	0.997502
794.434464	0.998557
794.756507	0.998887
795.078505	0.999026
795.400457	0.998855
795.722364	0.999439
796.044226	0.998545
796.366042	0.998129
796.687812	0.997306
797.009538	0.998493
797.331218	0.998856
797.652852	0.998686
797.974442	0.997362
798.295986	0.998491
798.617484	0.997980
798.938938	0.998307
799.260346	0.998273
799.581709	0.998098
799.903026	0.997613
800.224299	0.997323
800.545526	0.997212
800.866708	0.998035
801.187845	0.998566
801.508936	0.998606
801.829983	0.997834
802.150984	0.998296
802.471940	0.999018
802.792851	0.998140
803.113717	0.998615
803.434538	0.998591
803.755314	0.999809
804.076045	0.998502
804.396731	0.998511
804.717372	0.997790
805.037967	1.000116
805.358518	0.998773
805.679024	0.999113
805.999485	0.997974
806.319901	0.999105
806.640272	0.998593
806.960598	0.999344
807.280879	0.998445
807.601115	0.998674
807.921306	0.999133
808.241453	0.998363
808.561554	0.998562
808.881611	0.998399
809.201623	0.998260
809.521590	0.997710
809.841513	0.997385
810.161390	0.997838
810.481223	0.997829
810.801011	0.998537
811.120755	0.999039
811.440453	0.997760
811.760107	0.998450
812.079716	0.998304
812.399281	0.998845
812.718801	0.997060
813.038276	0.998933
813.357707	0.998062
813.677093	0.999111
813.996434	0.998034
814.315731	0.998952
814.634983	0.998354
814.954191	0.998778
815.273354	0.998061
815.592473	0.998555
815.911547	0.998366
816.230577	0.997524
816.549562	0.999408
816.868502	0.997278
817.187399	0.999823
817.506250	0.999081
817.825058	0.996964
818.143821	0.998695
818.462539	0.998462
818.781213	0.998163
819.099843	0.998565
819.418429	0.998059
819.736970	0.998202
820.055466	0.996958
820.373919	0.996811
820.692327	0.994871
821.010691	0.996992
821.329011	0.994835
821.647286	0.993264
821.965517	0.992468
822.283704	0.991472
822.601847	0.990856
822.919945	0.990908
823.237999	0.991056
823.556010	0.992500
823.873976	0.992885
824.191897	0.993933
824.509775	0.994466
824.827609	0.994544
825.145398	0.995373
825.463144	0.994561
825.780845	0.994244
826.098502	0.994784
826.416116	0.995463
826.733685	0.994371
827.051210	0.992773
827.368692	0.993253
827.686129	0.993681
828.003522	0.995451
828.320872	0.995698
828.638177	0.996052
828.955439	0.997335
829.272656	0.997862
829.589830	0.996804
829.906960	0.997411
830.224046	0.997001
830.541088	0.997793
830.858086	0.997499
831.175041	0.999229
831.491952	0.996539
831.808819	0.997756
832.125642	0.997663
832.442421	0.998652
832.759157	0.998921
833.075849	0.996624
833.392497	0.996569
833.709101	0.995611
834.025662	0.995533
834.342179	0.995938
834.658653	0.997300
834.975083	0.996546
835.291469	0.996742
835.607811	0.996939
835.924110	0.997292
836.240366	0.998208
836.556578	0.998013
836.872746	0.998855
837.188871	0.998213
837.504952	0.997857
837.820990	0.998412
838.136984	0.998292
838.452935	0.998790
838.768842	0.999006
839.084706	0.998213
839.400526	0.997924
839.716303	0.996796
840.032037	0.997774
840.347727	0.997954
840.663373	0.997659
840.978977	0.998047
841.294537	0.998171
841.610054	0.998794
841.925527	0.998742
842.240957	0.999148
842.556344	0.997979
842.871687	0.997925
843.186987	0.998368
843.502244	0.998573
843.817458	0.998188
844.132629	0.998214
844.447756	0.998875
844.762840	0.998746
845.077881	1.000605
845.392879	0.998593
845.707833	0.998646
846.022745	0.999356
846.337613	0.998584
846.652438	0.997870
846.967221	0.999408
847.281960	0.999006
847.596656	0.999755
847.911309	0.999294
848.225919	0.998899
848.540485	0.999701
848.855009	1.000415
849.169490	0.998518
849.483928	0.998487
849.798323	0.997988
850.112675	0.999882
850.426984	0.999020
850.741251	0.998358
851.055474	0.998738
851.369654	0.999460
851.683792	0.998561
851.997887	0.998292
852.311938	0.999455
852.625947	0.998424
852.939914	0.997554
853.253837	1.000308
853.567718	0.999588
853.881555	0.998943
854.195350	0.999338
854.509103	0.998366
854.822812	0.998989
855.136479	0.997207
855.450103	0.998339
855.763685	0.999370
856.077224	0.999523
856.390720	0.998375
856.704173	0.999386
857.017584	0.999765
857.330953	0.999516
857.644278	1.000015
857.957561	0.999221
858.270802	0.999668
858.584000	0.998674
858.897155	0.998177
859.210268	0.999852
859.523339	0.999656
859.836367	0.998859
860.149352	0.998464
860.462295	0.998755
860.775195	0.999867
861.088054	0.998299
861.400869	0.998822
861.713642	0.998002
862.026373	1.000515
862.339062	0.999388
862.651708	0.999251
862.964312	0.999822
863.276873	0.999801
863.589392	0.998442
863.901869	0.999382
864.214303	0.999800
864.526696	0.999153
864.839045	0.998688
865.151353	0.998153
865.463619	0.998863
865.775842	0.999644
866.088023	1.000152
866.400162	0.999225
866.712258	0.999987
867.024313	0.999829
867.336325	0.999793
867.648296	0.999989
867.960224	0.998833
868.272110	0.999526
868.583954	0.998768
868.895755	0.999964
869.207515	0.999021
869.519233	0.999081
869.830909	0.998503
870.142542	0.998101
870.454134	0.998366
870.765684	0.998693
871.077191	0.999351
871.388657	0.998293
871.700081	0.998855
872.011463	0.999756
872.322803	0.999984
872.634101	0.998355
872.945357	0.998741
873.256571	0.998563
873.567744	0.999977
873.878874	0.998341
874.189963	0.998365
874.501010	1.000440
874.812015	0.999064
875.122979	0.999818
875.433900	0.998337
875.744780	0.999697
876.055618	0.999062
876.366415	0.998631
876.677169	0.998378
876.987882	1.000028
877.298554	1.000081
877.609183	0.998070
877.919771	0.998123
878.230317	0.998387
878.540822	0.997996
878.851285	0.998167
879.161707	0.998344
879.472087	0.999347
879.782425	0.996822
880.092722	0.997409
880.402977	0.995361
880.713191	0.994139
881.023363	0.993214
881.333494	0.991949
881.643583	0.992509
881.953631	0.992890
882.263637	0.991667
882.573602	0.992168
882.883526	0.993214
883.193408	0.995037
883.503248	0.993790
883.813048	0.994149
884.122806	0.995342
884.432522	0.995773
884.742197	0.997579
885.051831	0.995444
885.361424	0.997167
885.670975	0.998262
885.980485	0.997104
886.289954	0.996767
886.599382	0.997216
886.908768	0.998192
887.218113	0.997022
887.527417	0.999504
887.836680	0.998912
888.145901	0.998407
888.455082	1.000083
888.764221	0.998144
889.073319	0.997539
889.382376	0.999524
889.691392	0.997474
890.000366	0.998366
890.309300	0.998522
890.618193	0.999249
890.927044	0.997828
891.235855	0.997889
891.544625	0.998046
891.853353	0.998412
892.162041	0.999041
892.470687	0.998392
892.779293	0.998755
893.087858	0.996461
893.396381	0.997622
893.704864	0.996899
894.013306	0.997120
894.321707	0.996615
894.630068	0.996124
894.938387	0.995593
895.246665	0.995278
895.554903	0.996340
895.863100	0.996208
896.171256	0.995720
896.479371	0.996525
896.787446	0.997354
897.095480	0.998075
897.403473	0.999097
897.711425	0.998331
898.019336	0.998653
898.327207	0.998579
898.635038	0.996652
898.942827	0.998522
899.250576	0.998508
899.558284	0.999261
899.865952	0.998127
900.173579	0.999574
900.481165	0.997640
900.788711	0.997944
901.096216	0.998469
901.403681	0.998933
901.711105	0.999095
902.018489	0.998632
902.325832	0.997571
902.633135	0.998349
902.940397	0.999458
903.247619	0.997889
903.554800	0.997200
903.861941	0.997655
904.169041	0.996058
904.476101	0.995491
904.783121	0.995290
905.090100	0.995597
905.397039	0.995773
905.703938	0.996864
906.010796	0.997005
906.317614	0.997814
906.624391	0.998113
906.931129	0.998627
907.237826	0.997504
907.544483	0.998382
907.851099	0.997873
908.157675	0.998518
908.464211	0.999722
908.770707	0.997715
909.077163	0.999530
909.383578	0.998445
909.689954	0.998257
909.996289	0.999402
910.302584	0.999222
910.608839	0.999872
910.915054	0.998644
911.221229	1.000259
911.527363	0.998198
911.833458	0.999129
912.139513	1.000002
912.445527	0.999088
912.751502	0.999014
913.057436	0.998408
913.363331	1.000497
913.669186	0.999843
913.975000	0.998473
914.280775	0.998495
914.586510	0.997744
914.892205	0.997059
915.197859	0.997225
915.503475	0.997457
915.809050	0.996304
916.114585	0.994444
916.420081	0.995814
916.725536	0.996208
917.030952	0.995766
917.336328	0.997018
917.641665	0.995299
917.946961	0.995982
918.252218	0.995698
918.557435	0.997090
918.862612	0.997867
919.167750	0.998230
919.472848	0.997848
919.777906	0.998041
920.082925	0.998593
920.387904	0.998101
920.692843	0.998444
920.997743	0.997703
921.302603	0.998976
921.607423	0.997222
921.912204	0.998630
922.216946	0.999854
922.521647	0.998856
922.826310	0.999279
923.130932	0.999689
923.435516	0.999545
923.740059	0.999072
924.044564	0.999095
924.349028	0.998222
924.653454	1.000198
924.957840	0.998691
925.262186	1.000273
925.566493	0.997825
925.870761	0.998534
926.174989	0.997963
926.479178	1.001045
926.783328	0.999310
927.087438	0.998643
927.391509	0.997713
927.695541	0.998305
927.999533	0.999643
928.303486	0.999434
928.607400	0.999532
928.911275	0.999723
929.215110	1.000378
929.518906	0.999192
929.822663	1.000940
930.126381	0.999820
930.430060	1.000058
930.733699	0.999548
931.037299	0.999361
931.340861	0.999648
931.644383	0.998452
931.947866	0.999782
932.251309	0.999111
932.554714	0.999309
932.858080	0.999616
933.161407	0.998727
933.464694	1.000719
933.767943	0.999122
934.071153	1.000945
934.374323	0.999946
934.677455	1.000576
934.980548	0.998582
935.283602	1.000041
935.586617	0.999924
935.889593	0.999414
936.192530	1.000217
936.495428	0.999534
936.798287	0.999129
937.101108	0.999260
937.403890	0.999452
937.706632	1.000813
938.009336	1.000114
938.312002	0.998837
938.614628	0.999854
938.917216	0.998848
939.219765	0.998122
939.522275	0.999119
939.824747	0.998974
940.127179	0.999822
940.429573	1.000798
940.731929	0.999094
941.034246	0.997284
941.336524	0.998949
941.638763	0.999149
941.940964	0.998943
942.243126	0.998203
942.545250	0.998958
942.847335	0.999941
943.149381	0.999062
943.451389	0.998818
943.753359	0.999766
944.055290	1.000384
944.357182	0.998909
944.659036	0.999164
944.960851	0.999494
945.262628	0.999618
945.564367	0.999166
945.866067	0.999163
946.167729	1.000152
946.469352	1.000062
946.770937	0.997488
947.072484	1.000660
947.373992	0.999482
947.675462	1.000424
947.976893	0.998784
948.278286	1.000212
948.579641	0.998508
948.880958	0.998534
949.182236	0.998560
949.483476	0.999519
949.784678	0.999096
950.085841	0.999094
950.386967	0.999463
950.688054	0.999893
950.989103	0.998436
951.290114	0.997882
951.591087	0.999332
951.892021	0.999257
952.192917	0.998684
952.493776	0.999021
952.794596	0.997319
953.095378	0.998109
953.396122	0.999227
953.696828	1.000541
953.997496	0.998962
954.298126	0.999634
954.598718	0.999502
954.899272	1.000103
955.199788	0.999253
955.500266	0.999718
955.800706	0.998212
956.101108	0.999703
956.401472	1.000449
956.701798	0.999506
957.002087	0.998620
957.302337	0.998580
957.602550	1.000508
957.902724	0.999403
958.202861	0.999225
958.502960	0.998965
958.803022	0.999433
959.103045	0.998927
959.403031	0.999467
959.702979	1.000615
960.002889	0.998798
960.302762	0.999950
960.602596	1.000138
960.902393	1.000799
961.202153	0.999065
961.501875	0.999672
961.801559	0.999708
962.101205	0.999109
962.400814	1.001222
962.700385	0.999691
962.999918	1.000457
963.299414	0.998234
963.598873	1.000520
963.898293	0.999806
964.197677	0.999208
964.497022	0.999433
964.796331	0.999982
965.095601	1.001239
965.394835	0.999498
965.694030	1.000201
965.993189	0.998419
966.292309	1.000812
966.591393	0.999442
966.890439	0.999820
967.189447	0.998898
967.488419	1.000426
967.787353	0.999623
968.086249	1.000263
968.385108	0.999250
968.683930	1.000306
968.982714	0.998305
969.281462	0.999222
969.580172	0.999493
969.878844	1.000124
970.177480	0.999112
970.476078	1.000989
970.774639	1.000398
971.073162	0.998377
971.371649	0.999313
971.670098	0.999153
971.968510	0.999687
972.266885	0.999105
972.565223	0.999011
972.863524	0.998753
973.161788	0.999009
973.460014	1.000261
973.758204	0.999110
974.056356	0.998557
974.354471	0.999159
974.652550	1.000571
974.950591	0.999942
975.248595	0.998309
975.546563	1.000061
975.844493	1.000938
976.142386	0.998851
976.440243	1.000607
976.738062	0.999721
977.035845	0.998053
977.333590	0.999714
977.631299	0.999561
977.928971	0.999020
978.226606	0.999804
978.524204	0.998972
978.821765	0.999927
979.119290	1.000217
979.416777	0.999893
979.714228	1.000984
980.011642	0.999768
980.309020	0.999589
980.606360	0.999065
980.903664	0.999116
981.200931	0.999168
981.498162	0.998792
981.795356	0.999922
982.092513	0.999810
982.389633	1.000614
982.686717	0.998716
982.983764	0.999494
983.280775	1.000370
983.577749	1.000420
983.874686	0.999288
984.171587	0.997977
984.468451	0.998873
984.765279	1.000104
985.062070	0.999212
985.358824	0.999694
985.655543	0.998992
985.952224	1.000657
986.248869	0.999246
986.545478	1.000346
986.842050	0.999857
987.138586	0.999104
987.435086	0.998469
987.731549	1.002230
988.027975	0.999944
988.324366	0.999643
988.620719	1.000669
988.917037	1.000666
989.213318	1.000059
989.509563	0.999134
989.805772	0.999171
990.101944	1.000588
990.398080	0.999770
990.694180	1.000213
990.990244	0.999419
991.286271	0.998390
991.582262	1.000149
991.878217	0.999322
992.174136	1.000283
992.470019	0.999385
992.765865	1.001458
993.061676	1.000129
993.357450	1.000278
993.653188	1.001231
993.948890	0.999141
994.244556	0.999352
994.540186	0.999955
994.835780	0.998761
995.131337	1.000782
995.426859	0.999961
995.722345	0.999266
996.017795	0.998951
996.313208	0.999358
996.608586	1.000284
996.903928	1.000653
997.199234	0.999614
997.494504	1.000550
997.789738	0.998631
998.084936	1.000537
998.380099	0.998680
998.675225	0.999083
998.970316	0.999948
999.265371	1.001126
999.560390	0.999598
999.855373	0.999717
1000.150320	1.000788
1000.445232	1.000788
1000.740108	1.000439
1001.034948	0.998583
1001.329752	1.000381
1001.624521	0.998547
1001.919254	0.999155
1002.213951	1.000237
1002.508613	0.999853
1002.803239	1.000057
1003.097829	0.999651
1003.392384	0.999497
1003.686903	0.999985
1003.981386	0.999744
1004.275834	1.000762
1004.570246	0.997243
1004.864623	1.000172
1005.158964	0.999820
1005.453270	0.999142
1005.747540	1.000131
1006.041775	1.001130
1006.335974	1.000073
1006.630138	1.000504
1006.924266	0.998355
1007.218359	0.999063
1007.512416	1.000035
1007.806438	0.999709
1008.100425	1.000541
1008.394376	1.001026
1008.688292	0.999303
1008.982172	0.999640
1009.276017	1.000868
1009.569827	1.000303
1009.863602	0.999243
1010.157341	1.000668
1010.451045	0.999183
1010.744714	1.001082
1011.038347	1.000285
1011.331945	0.998999
1011.625508	0.999818
1011.919036	0.998692
1012.212528	0.999877
1012.505986	1.000123
1012.799408	0.999642
1013.092795	1.000128
1013.386147	0.999394
1013.679464	1.000252
1013.972745	0.998987
1014.265992	0.999880
1014.559204	1.000320
1014.852380	1.001310
1015.145521	0.999681
1015.438628	1.000166
1015.731699	0.999632
1016.024736	1.000040
1016.317737	1.000049
1016.610703	1.000376
1016.903635	1.000045
1017.196531	0.998087
1017.489393	0.999607
1017.782219	0.998668
1018.075011	0.999016
1018.367768	0.998177
1018.660490	1.000142
1018.953177	1.000142
1019.245829	1.000142
