Dividing Wavelength (nm)	Counts (n)	Blue Motor Position (mm): 3.600000	Red Motor Position (mm): 0.000000	
326.493990	1.005278
326.888308	1.005278
327.282561	1.005278
327.676750	1.007389
328.070874	1.006884
328.464933	1.007882
328.858929	1.007514
329.252859	1.006138
329.646726	1.006479
330.040528	1.006626
330.434265	1.006550
330.827938	1.007069
331.221547	1.006691
331.615091	1.006977
332.008571	1.008200
332.401986	1.005370
332.795338	1.006417
333.188625	1.008090
333.581847	1.006008
333.975006	1.007275
334.368100	1.006986
334.761129	1.005676
335.154095	1.006074
335.546996	1.004382
335.939833	0.998612
336.332606	1.000179
336.725315	0.999203
337.117960	0.999567
337.510540	0.999263
337.903056	0.999921
338.295508	0.999907
338.687896	0.999317
339.080220	1.000216
339.472480	0.999870
339.864676	0.999730
340.256807	0.998544
340.648875	0.999866
341.040879	0.999880
341.432818	0.999593
341.824694	0.998736
342.216506	1.000788
342.608253	0.999643
342.999937	0.999235
343.391557	0.998942
343.783113	1.001873
344.174605	0.999536
344.566033	0.999344
344.957397	0.999565
345.348697	0.999603
345.739934	0.999749
346.131106	0.999870
346.522215	0.998806
346.913260	0.999763
347.304241	0.998497
347.695159	1.000109
348.086012	0.999414
348.476802	0.999509
348.867528	0.998392
349.258191	0.999922
349.648789	0.998802
350.039324	0.998246
350.429796	0.998164
350.820203	0.997355
351.210548	0.998877
351.600828	0.999182
351.991045	1.000317
352.381198	0.998853
352.771288	0.998204
353.161314	0.999354
353.551276	0.998308
353.941175	0.997838
354.331010	1.000013
354.720782	0.998485
355.110490	0.998756
355.500135	0.999501
355.889717	0.997800
356.279235	0.997505
356.668689	0.998000
357.058080	0.998393
357.447408	0.997357
357.836672	0.999909
358.225873	0.997608
358.615010	0.997962
359.004084	0.997121
359.393095	0.999151
359.782043	0.998412
360.170927	0.999245
360.559748	0.997989
360.948505	0.996726
361.337199	0.997469
361.725830	0.998340
362.114398	0.997669
362.502903	0.997277
362.891344	0.997905
363.279722	0.997143
363.668037	0.997994
364.056289	0.997479
364.444478	0.998519
364.832603	0.996813
365.220665	0.997799
365.608665	0.997426
365.996601	0.996540
366.384474	0.996065
366.772284	0.997479
367.160031	0.995683
367.547715	0.995283
367.935336	0.995164
368.322893	0.994863
368.710388	0.993103
369.097820	0.990279
369.485189	0.988672
369.872495	0.988061
370.259738	0.985429
370.646918	0.980823
371.034035	0.980404
371.421090	0.976814
371.808081	0.973078
372.195010	0.969659
372.581875	0.965852
372.968678	0.959982
373.355418	0.956833
373.742096	0.947612
374.128710	0.944160
374.515262	0.940144
374.901751	0.933792
375.288177	0.929876
375.674540	0.922687
376.060841	0.916476
376.447079	0.909254
376.833254	0.903301
377.219367	0.898968
377.605417	0.886545
377.991404	0.883003
378.377329	0.876762
378.763191	0.870600
379.148991	0.861421
379.534727	0.853663
379.920402	0.846061
380.306013	0.842521
380.691563	0.829634
381.077049	0.823052
381.462474	0.818401
381.847835	0.808033
382.233134	0.802331
382.618371	0.803780
383.003545	0.785042
383.388657	0.783995
383.773706	0.775572
384.158693	0.772101
384.543618	0.766711
384.928480	0.757289
385.313280	0.747595
385.698017	0.747477
386.082692	0.736694
386.467305	0.733858
386.851856	0.729446
387.236344	0.723388
387.620770	0.718070
388.005133	0.711932
388.389435	0.706734
388.773674	0.704437
389.157851	0.695790
389.541965	0.693360
389.926018	0.699610
390.310008	0.687081
390.693936	0.683226
391.077802	0.675796
391.461606	0.677750
391.845348	0.666381
392.229027	0.666291
392.612645	0.664447
392.996200	0.651247
393.379694	0.644297
393.763125	0.635109
394.146494	0.640060
394.529801	0.630358
394.913047	0.621824
395.296230	0.628134
395.679351	0.618291
396.062410	0.615958
396.445408	0.618423
396.828343	0.614030
397.211217	0.608852
397.594028	0.621247
397.976778	0.610860
398.359466	0.608281
398.742092	0.603309
399.124656	0.615048
399.507158	0.603368
399.889598	0.601083
400.271977	0.592110
400.654294	0.595555
401.036549	0.594771
401.418742	0.599497
401.800874	0.585295
402.182944	0.581367
402.564952	0.573652
402.946898	0.575090
403.328783	0.575927
403.710606	0.586799
404.092367	0.562130
404.474067	0.567509
404.855705	0.565570
405.237282	0.574754
405.618797	0.561095
406.000250	0.556739
406.381642	0.547037
406.762972	0.552206
407.144240	0.551187
407.525447	0.550384
407.906593	0.543789
408.287677	0.538852
408.668700	0.547124
409.049661	0.541507
409.430560	0.535882
409.811399	0.544931
410.192176	0.526531
410.572891	0.532963
410.953545	0.521971
411.334138	0.535504
411.714669	0.527746
412.095139	0.540321
412.475547	0.523866
412.855894	0.526081
413.236180	0.524349
413.616405	0.529830
413.996568	0.520942
414.376670	0.527194
414.756711	0.532006
415.136691	0.528141
415.516609	0.520098
415.896466	0.516385
416.276262	0.512754
416.655997	0.514440
417.035670	0.495806
417.415283	0.487257
417.794834	0.492350
418.174324	0.497199
418.553753	0.506782
418.933121	0.488784
419.312428	0.483114
419.691674	0.488179
420.070859	0.476703
420.449983	0.484367
420.829045	0.473749
421.208047	0.483261
421.586988	0.476012
421.965867	0.475497
422.344686	0.463144
422.723444	0.476219
423.102141	0.493353
423.480777	0.465740
423.859352	0.486370
424.237866	0.464059
424.616319	0.464393
424.994712	0.455844
425.373044	0.465993
425.751314	0.454013
426.129524	0.470653
426.507673	0.454083
426.885762	0.447037
427.263789	0.453348
427.641756	0.462810
428.019662	0.453235
428.397508	0.452347
428.775292	0.456488
429.153016	0.448949
429.530679	0.455215
429.908282	0.447591
430.285824	0.457945
430.663305	0.436665
431.040726	0.457462
431.418086	0.458017
431.795385	0.449142
432.172624	0.448244
432.549802	0.448971
432.926920	0.447351
433.303977	0.447152
433.680974	0.444331
434.057910	0.442841
434.434786	0.441887
434.811601	0.444651
435.188355	0.427046
435.565050	0.436668
435.941683	0.437924
436.318257	0.421545
436.694770	0.423123
437.071222	0.420953
437.447614	0.425503
437.823946	0.431460
438.200218	0.421124
438.576429	0.431040
438.952580	0.423476
439.328670	0.420382
439.704700	0.426777
440.080670	0.428199
440.456580	0.409576
440.832429	0.417833
441.208218	0.428714
441.583947	0.417175
441.959616	0.417028
442.335224	0.422416
442.710773	0.412659
443.086261	0.411047
443.461689	0.425449
443.837057	0.414718
444.212365	0.404706
444.587612	0.411999
444.962800	0.402066
445.337927	0.403434
445.712995	0.429095
446.088002	0.391212
446.462949	0.401469
446.837837	0.407019
447.212664	0.395208
447.587431	0.387056
447.962139	0.357316
448.336786	0.316097
448.711374	0.326701
449.085901	0.371316
449.460369	0.375461
449.834776	0.378708
450.209124	0.358134
450.583412	0.350771
450.957640	0.343491
451.331808	0.355287
451.705917	0.378608
452.079965	0.383677
452.453954	0.371604
452.827883	0.378303
453.201752	0.373056
453.575562	0.384141
453.949311	0.372996
454.323001	0.378982
454.696632	0.374805
455.070202	0.367399
455.443713	0.359124
455.817164	0.353896
456.190556	0.349926
456.563888	0.346596
456.937160	0.344489
457.310373	0.361134
457.683526	0.360487
458.056619	0.366155
458.429653	0.366808
458.802628	0.369735
459.175542	0.364522
459.548398	0.346958
459.921194	0.339696
460.293930	0.339389
460.666607	0.316821
461.039224	0.305205
461.411782	0.300593
461.784280	0.299993
462.156719	0.304077
462.529099	0.308783
462.901419	0.324736
463.273680	0.328911
463.645882	0.328349
464.018024	0.334425
464.390106	0.326787
464.762130	0.311896
465.134094	0.294519
465.505999	0.263466
465.877845	0.233689
466.249631	0.220817
466.621358	0.228328
466.993026	0.242471
467.364634	0.248203
467.736184	0.257252
468.107674	0.266211
468.479105	0.264947
468.850477	0.271881
469.221790	0.278725
469.593043	0.288761
469.964238	0.294227
470.335373	0.293189
470.706449	0.291516
471.077467	0.291660
471.448425	0.253974
471.819324	0.229618
472.190164	0.228949
472.560945	0.257958
472.931667	0.280086
473.302330	0.284498
473.672934	0.296296
474.043479	0.284501
474.413965	0.286187
474.784393	0.289318
475.154761	0.284615
475.525070	0.281416
475.895321	0.287699
476.265513	0.281619
476.635645	0.277258
477.005719	0.277015
477.375734	0.273272
477.745691	0.266328
478.115588	0.263114
478.485427	0.256741
478.855207	0.243603
479.224928	0.225713
479.594591	0.214121
479.964194	0.217398
480.333739	0.218791
480.703226	0.219846
481.072653	0.218474
481.442022	0.214104
481.811333	0.210750
482.180584	0.214046
482.549777	0.219611
482.918912	0.222900
483.287988	0.222647
483.657005	0.222282
484.025964	0.228774
484.394864	0.225905
484.763706	0.226587
485.132489	0.231879
485.501213	0.232393
485.869879	0.230968
486.238487	0.233870
486.607036	0.231943
486.975527	0.236776
487.343959	0.232195
487.712333	0.231523
488.080648	0.232922
488.448905	0.231987
488.817104	0.233249
489.185244	0.227690
489.553326	0.224693
489.921350	0.214573
490.289315	0.196750
490.657222	0.191703
491.025070	0.192998
491.392861	0.195122
491.760593	0.200833
492.128267	0.206603
492.495883	0.212151
492.863440	0.218377
493.230939	0.224957
493.598380	0.226211
493.965763	0.228419
494.333088	0.230935
494.700354	0.232177
495.067563	0.231033
495.434713	0.234713
495.801805	0.232441
496.168839	0.233969
496.535815	0.235251
496.902733	0.235078
497.269593	0.236676
497.636395	0.234464
498.003139	0.234679
498.369825	0.237935
498.736453	0.234270
499.103023	0.235855
499.469535	0.234886
499.835989	0.235444
500.202385	0.236027
500.568723	0.239386
500.935003	0.234873
501.301226	0.238937
501.667390	0.233143
502.033497	0.231213
502.399546	0.234302
502.765537	0.236125
503.131470	0.234741
503.497345	0.231190
503.863163	0.239511
504.228923	0.232383
504.594625	0.231241
504.960269	0.236608
505.325856	0.231934
505.691385	0.236372
506.056856	0.233267
506.422270	0.232651
506.787625	0.234940
507.152924	0.232429
507.518164	0.232734
507.883347	0.234386
508.248472	0.236263
508.613540	0.231156
508.978550	0.233675
509.343503	0.234241
509.708398	0.231733
510.073236	0.229390
510.438016	0.229175
510.802738	0.230285
511.167403	0.229213
511.532010	0.231297
511.896561	0.226998
512.261053	0.225228
512.625488	0.227511
512.989866	0.228161
513.354186	0.228105
513.718449	0.230066
514.082655	0.226320
514.446803	0.228549
514.810894	0.226265
515.174927	0.228971
515.538904	0.228510
515.902822	0.225245
516.266684	0.227643
516.630488	0.228718
516.994235	0.227907
517.357925	0.226725
517.721558	0.224672
518.085133	0.224345
518.448651	0.224072
518.812112	0.226759
519.175516	0.226304
519.538863	0.223546
519.902152	0.225482
520.265385	0.222293
520.628560	0.223950
520.991678	0.224619
521.354739	0.223358
521.717743	0.224374
522.080690	0.225034
522.443580	0.222190
522.806413	0.223000
523.169189	0.222582
523.531908	0.221480
523.894569	0.224853
524.257174	0.224870
524.619722	0.222476
524.982213	0.223933
525.344647	0.222647
525.707025	0.223700
526.069345	0.221720
526.431608	0.223591
526.793815	0.221083
527.155964	0.225444
527.518057	0.224432
527.880093	0.225296
528.242072	0.224057
528.603995	0.225797
528.965860	0.227390
529.327669	0.226479
529.689421	0.227144
530.051117	0.228139
530.412755	0.226129
530.774337	0.228068
531.135862	0.228887
531.497331	0.228001
531.858743	0.230831
532.220098	0.227381
532.581396	0.230216
532.942638	0.230654
533.303824	0.231742
533.664953	0.231150
534.026025	0.232949
534.387040	0.231215
534.747999	0.230681
535.108902	0.229685
535.469748	0.235056
535.830537	0.232689
536.191270	0.233028
536.551947	0.232659
536.912567	0.232494
537.273131	0.234518
537.633638	0.234423
537.994089	0.234829
538.354483	0.236190
538.714821	0.233033
539.075103	0.232627
539.435328	0.233586
539.795497	0.237216
540.155609	0.234143
540.515665	0.231979
540.875665	0.237736
541.235609	0.236315
541.595496	0.236388
541.955328	0.232845
542.315102	0.235586
542.674821	0.236671
543.034483	0.236593
543.394090	0.236168
543.753640	0.237951
544.113134	0.232852
544.472571	0.236723
544.831953	0.233277
545.191278	0.237264
545.550548	0.236867
545.909761	0.233544
546.268918	0.234607
546.628019	0.232957
546.987064	0.235587
547.346053	0.237125
547.704986	0.234718
548.063863	0.235301
548.422684	0.235776
548.781449	0.237286
549.140158	0.235189
549.498811	0.237453
549.857408	0.240872
550.215949	0.235556
550.574434	0.238781
550.932864	0.236911
551.291237	0.235132
551.649555	0.236895
552.007817	0.236326
552.366022	0.237602
552.724173	0.237668
553.082267	0.237875
553.440305	0.234702
553.798288	0.239166
554.156215	0.235534
554.514086	0.236345
554.871902	0.239888
555.229661	0.238997
555.587365	0.239303
555.945014	0.241961
556.302606	0.238961
556.660143	0.241546
557.017625	0.237945
557.375050	0.240208
557.732421	0.237350
558.089735	0.239047
558.446994	0.239186
558.804197	0.238372
559.161345	0.238041
559.518437	0.241683
559.875474	0.239819
560.232455	0.239155
560.589381	0.240351
560.946251	0.240440
561.303065	0.237853
561.659825	0.239477
562.016528	0.241037
562.373177	0.243685
562.729770	0.240846
563.086307	0.242780
563.442789	0.240882
563.799216	0.243362
564.155587	0.242537
564.511904	0.243653
564.868164	0.243711
565.224370	0.243678
565.580520	0.245499
565.936615	0.244980
566.292654	0.247990
566.648638	0.245275
567.004567	0.245548
567.360441	0.246446
567.716260	0.248437
568.072023	0.246202
568.427732	0.247111
568.783385	0.249343
569.138982	0.247274
569.494525	0.247365
569.850013	0.250265
570.205445	0.248783
570.560823	0.251136
570.916145	0.252888
571.271412	0.251485
571.626625	0.253168
571.981782	0.253374
572.336884	0.254155
572.691931	0.253858
573.046923	0.255516
573.401860	0.256156
573.756743	0.258063
574.111570	0.256885
574.466342	0.257488
574.821059	0.256885
575.175722	0.259712
575.530330	0.259294
575.884882	0.259448
576.239380	0.261560
576.593823	0.262332
576.948211	0.261435
577.302544	0.264923
577.656823	0.264295
578.011047	0.264259
578.365216	0.265166
578.719330	0.267075
579.073389	0.267101
579.427394	0.268389
579.781344	0.269145
580.135239	0.270309
580.489080	0.270302
580.842866	0.273015
581.196597	0.272743
581.550273	0.271433
581.903895	0.272391
582.257463	0.270793
582.610975	0.274096
582.964434	0.273390
583.317837	0.276230
583.671186	0.276752
584.024481	0.276361
584.377721	0.278953
584.730906	0.279743
585.084037	0.278997
585.437113	0.280800
585.790135	0.280247
586.143103	0.283595
586.496016	0.283843
586.848874	0.281807
587.201679	0.282204
587.554428	0.285508
587.907124	0.284751
588.259765	0.285551
588.612352	0.285764
588.964884	0.289540
589.317362	0.289112
589.669786	0.289128
590.022155	0.287349
590.374470	0.287151
590.726731	0.288873
591.078937	0.294488
591.431090	0.290160
591.783188	0.294170
592.135232	0.294841
592.487222	0.294772
592.839157	0.293111
593.191038	0.295045
593.542866	0.297079
593.894639	0.300514
594.246358	0.298858
594.598022	0.298046
594.949633	0.301600
595.301190	0.302633
595.652692	0.301814
596.004141	0.297623
596.355535	0.305814
596.706876	0.306719
597.058162	0.308685
597.409395	0.305808
597.760573	0.303778
598.111698	0.307129
598.462768	0.307602
598.813785	0.308847
599.164748	0.309941
599.515657	0.310413
599.866511	0.314138
600.217312	0.309466
600.568060	0.314193
600.918753	0.310784
601.269392	0.311594
601.619978	0.315172
601.970510	0.312804
602.320988	0.313039
602.671412	0.310525
603.021783	0.312988
603.372100	0.314380
603.722363	0.313930
604.072572	0.314978
604.422728	0.314533
604.772830	0.316728
605.122878	0.316309
605.472872	0.316985
605.822813	0.315284
606.172701	0.318186
606.522534	0.315106
606.872314	0.315513
607.222041	0.316463
607.571714	0.314267
607.921333	0.315833
608.270899	0.315397
608.620411	0.312145
608.969870	0.316339
609.319276	0.316338
609.668627	0.316212
610.017926	0.314719
610.367171	0.313077
610.716362	0.313992
611.065500	0.313943
611.414585	0.312767
611.763616	0.313112
612.112594	0.313470
612.461518	0.312789
612.810389	0.310952
613.159207	0.313382
613.507971	0.315273
613.856682	0.311027
614.205340	0.312037
614.553945	0.309428
614.902496	0.313367
615.250994	0.311069
615.599439	0.311902
615.947830	0.311077
616.296169	0.312268
616.644454	0.311901
616.992686	0.311518
617.340864	0.309883
617.688990	0.313049
618.037063	0.310038
618.385082	0.311630
618.733048	0.308758
619.080961	0.310705
619.428821	0.310509
619.776628	0.310076
620.124382	0.312439
620.472083	0.312514
620.819731	0.311823
621.167326	0.315366
621.514868	0.315636
621.862357	0.319732
622.209793	0.319275
622.557176	0.321249
622.904506	0.322846
623.251783	0.325293
623.599007	0.327157
623.946179	0.326478
624.293297	0.328912
624.640363	0.332827
624.987376	0.333341
625.334336	0.335738
625.681243	0.337946
626.028097	0.338688
626.374899	0.339842
626.721647	0.340076
627.068343	0.342940
627.414987	0.344610
627.761577	0.346260
628.108115	0.344614
628.454600	0.349758
628.801032	0.347538
629.147412	0.349318
629.493739	0.350142
629.840014	0.352527
630.186236	0.350294
630.532405	0.355557
630.878521	0.353055
631.224585	0.355160
631.570597	0.359055
631.916556	0.357709
632.262462	0.357446
632.608316	0.359511
632.954117	0.360707
633.299866	0.361247
633.645562	0.361500
633.991206	0.366149
634.336797	0.368710
634.682336	0.371499
635.027823	0.372771
635.373257	0.373281
635.718639	0.377443
636.063968	0.376521
636.409245	0.382719
636.754470	0.382201
637.099642	0.385211
637.444762	0.388781
637.789829	0.387649
638.134845	0.391073
638.479808	0.391788
638.824719	0.391952
639.169577	0.396278
639.514383	0.394991
639.859137	0.399655
640.203839	0.398914
640.548489	0.399405
640.893086	0.400647
641.237632	0.402387
641.582125	0.401298
641.926566	0.402931
642.270955	0.402960
642.615292	0.402984
642.959576	0.402365
643.303809	0.403219
643.647990	0.402333
643.992118	0.402916
644.336195	0.406331
644.680219	0.404724
645.024192	0.405678
645.368112	0.398913
645.711981	0.397662
646.055797	0.392795
646.399562	0.395787
646.743274	0.388611
647.086935	0.384921
647.430544	0.385077
647.774101	0.383849
648.117606	0.384285
648.461059	0.384226
648.804460	0.386911
649.147810	0.391886
649.491108	0.393907
649.834354	0.395151
650.177548	0.400520
650.520690	0.405815
650.863781	0.406628
651.206820	0.406482
651.549807	0.411083
651.892742	0.415316
652.235626	0.414756
652.578458	0.415799
652.921238	0.422482
653.263967	0.419473
653.606644	0.422948
653.949269	0.423096
654.291843	0.426804
654.634365	0.424367
654.976836	0.426886
655.319255	0.427564
655.661622	0.428545
656.003938	0.428871
656.346203	0.431785
656.688416	0.429668
657.030577	0.433104
657.372687	0.435087
657.714746	0.436303
658.056753	0.433349
658.398708	0.436048
658.740612	0.438185
659.082465	0.434112
659.424266	0.434609
659.766016	0.433877
660.107715	0.437541
660.449362	0.435561
660.790958	0.436153
661.132503	0.437039
661.473996	0.434737
661.815438	0.435729
662.156829	0.436065
662.498168	0.436824
662.839456	0.437901
663.180693	0.435724
663.521879	0.434891
663.863013	0.436269
664.204097	0.434389
664.545129	0.431837
664.886110	0.431931
665.227040	0.429762
665.567918	0.431784
665.908746	0.429879
666.249522	0.429665
666.590248	0.430498
666.930922	0.428606
667.271545	0.427805
667.612118	0.427199
667.952639	0.429828
668.293109	0.427808
668.633528	0.430928
668.973896	0.430676
669.314213	0.431215
669.654480	0.432892
669.994695	0.432815
670.334859	0.433948
670.674973	0.434314
671.015035	0.434739
671.355047	0.434098
671.695008	0.435122
672.034918	0.437757
672.374777	0.436572
672.714585	0.437812
673.054342	0.437643
673.394049	0.436719
673.733705	0.435645
674.073310	0.436950
674.412864	0.439664
674.752368	0.439999
675.091820	0.440082
675.431223	0.444668
675.770574	0.444978
676.109875	0.447399
676.449125	0.447753
676.788324	0.449864
677.127473	0.454812
677.466571	0.455262
677.805619	0.457291
678.144616	0.458311
678.483562	0.459715
678.822458	0.462046
679.161303	0.462613
679.500098	0.463765
679.838842	0.465597
680.177535	0.464115
680.516179	0.462483
680.854771	0.461917
681.193314	0.455471
681.531805	0.446686
681.870247	0.435710
682.208638	0.427809
682.546978	0.426844
682.885268	0.428525
683.223508	0.434602
683.561697	0.439467
683.899836	0.441230
684.237925	0.444487
684.575963	0.447040
684.913951	0.450634
685.251889	0.445795
685.589776	0.448300
685.927614	0.450721
686.265401	0.444984
686.603137	0.445772
686.940824	0.440171
687.278460	0.438806
687.616046	0.437639
687.953582	0.432813
688.291068	0.434123
688.628504	0.429248
688.965889	0.431929
689.303224	0.435720
689.640510	0.439726
689.977745	0.445533
690.314930	0.453399
690.652065	0.457916
690.989150	0.465685
691.326185	0.472124
691.663170	0.476711
692.000105	0.483929
692.336990	0.491510
692.673825	0.493355
693.010610	0.500353
693.347345	0.505757
693.684030	0.507242
694.020665	0.512410
694.357251	0.520849
694.693786	0.521125
695.030272	0.523495
695.366707	0.528051
695.703093	0.532038
696.039429	0.529337
696.375716	0.531751
696.711952	0.533810
697.048139	0.535876
697.384276	0.538329
697.720363	0.537429
698.056400	0.535161
698.392388	0.540980
698.728326	0.543749
699.064214	0.547044
699.400053	0.547347
699.735842	0.551801
700.071581	0.554001
700.407270	0.556671
700.742910	0.560410
701.078501	0.566480
701.414042	0.566830
701.749533	0.569000
702.084974	0.578867
702.420366	0.571545
702.755709	0.578244
703.091002	0.586032
703.426246	0.580472
703.761440	0.586218
704.096584	0.590127
704.431679	0.587107
704.766725	0.589861
705.101721	0.591306
705.436668	0.587245
705.771565	0.594679
706.106413	0.590372
706.441212	0.586668
706.775961	0.585322
707.110661	0.587709
707.445311	0.584529
707.779913	0.581582
708.114465	0.579624
708.448967	0.576886
708.783421	0.569158
709.117825	0.563649
709.452180	0.562944
709.786485	0.557192
710.120742	0.546624
710.454949	0.548848
710.789107	0.540565
711.123216	0.531190
711.457275	0.533034
711.791286	0.523972
712.125247	0.523796
712.459159	0.533833
712.793023	0.525675
713.126837	0.530872
713.460602	0.530946
713.794318	0.539417
714.127985	0.538771
714.461602	0.548941
714.795171	0.552435
715.128691	0.560524
715.462162	0.567467
715.795584	0.573891
716.128957	0.576891
716.462281	0.583129
716.795556	0.586324
717.128782	0.592151
717.461960	0.601750
717.795088	0.600000
718.128167	0.606627
718.461198	0.614407
718.794180	0.615686
719.127113	0.618276
719.459997	0.621989
719.792833	0.627737
720.125619	0.628999
720.458357	0.635197
720.791046	0.634828
721.123686	0.638604
721.456278	0.646037
721.788821	0.642468
722.121315	0.647830
722.453761	0.651193
722.786158	0.648684
723.118506	0.644741
723.450805	0.653356
723.783056	0.649726
724.115259	0.645786
724.447412	0.645823
724.779518	0.647762
725.111574	0.645834
725.443582	0.641696
725.775542	0.643820
726.107453	0.636175
726.439315	0.636210
726.771129	0.635355
727.102895	0.628449
727.434612	0.621165
727.766281	0.618949
728.097901	0.617431
728.429473	0.617104
728.760996	0.616262
729.092471	0.616626
729.423897	0.620019
729.755276	0.618261
730.086606	0.618934
730.417887	0.613391
730.749120	0.604114
731.080305	0.594779
731.411442	0.591158
731.742530	0.595272
732.073570	0.594510
732.404562	0.587423
732.735506	0.588478
733.066401	0.592693
733.397249	0.602485
733.728048	0.614091
734.058798	0.627136
734.389501	0.638609
734.720156	0.647366
735.050762	0.655560
735.381320	0.656115
735.711831	0.665263
736.042293	0.670332
736.372707	0.666142
736.703073	0.671191
737.033391	0.672857
737.363661	0.669370
737.693883	0.664965
738.024056	0.664592
738.354182	0.664865
738.684260	0.653365
739.014290	0.650047
739.344272	0.651199
739.674207	0.644293
740.004093	0.643605
740.333931	0.644177
740.663722	0.643661
740.993464	0.644481
741.323159	0.647225
741.652806	0.653521
741.982405	0.658047
742.311956	0.663405
742.641460	0.664936
742.970915	0.668225
743.300323	0.674826
743.629683	0.681964
743.958996	0.685645
744.288260	0.688960
744.617477	0.695509
744.946647	0.696596
745.275768	0.702619
745.604842	0.700858
745.933869	0.711948
746.262847	0.713100
746.591778	0.705942
746.920662	0.713579
747.249498	0.718999
747.578286	0.710641
747.907027	0.706346
748.235720	0.706837
748.564365	0.702171
748.892963	0.701357
749.221514	0.705412
749.550017	0.709324
749.878473	0.709849
750.206881	0.716912
750.535242	0.716654
750.863555	0.715819
751.191821	0.717290
751.520039	0.721159
751.848210	0.724029
752.176334	0.718822
752.504411	0.717830
752.832440	0.725318
753.160421	0.729679
753.488356	0.726921
753.816243	0.724834
754.144082	0.733512
754.471875	0.737040
754.799620	0.733614
755.127318	0.734095
755.454969	0.734425
755.782572	0.734135
756.110129	0.738440
756.437638	0.740930
756.765100	0.737598
757.092515	0.735946
757.419882	0.734272
757.747203	0.739213
758.074477	0.740111
758.401703	0.736177
758.728882	0.731561
759.056014	0.730688
759.383099	0.730476
759.710138	0.729966
760.037129	0.726238
760.364073	0.721383
760.690970	0.723221
761.017820	0.728073
761.344623	0.724148
761.671379	0.715505
761.998088	0.704234
762.324751	0.679960
762.651366	0.637438
762.977935	0.569400
763.304456	0.518093
763.630931	0.508129
763.957359	0.547361
764.283740	0.591395
764.610074	0.619483
764.936362	0.652208
765.262602	0.679384
765.588796	0.700678
765.914943	0.717410
766.241044	0.735535
766.567097	0.741390
766.893104	0.752730
767.219064	0.759129
767.544978	0.765830
767.870845	0.779641
768.196665	0.783093
768.522438	0.781523
768.848165	0.782675
769.173846	0.791142
769.499479	0.796298
769.825066	0.799701
770.150607	0.805461
770.476101	0.800672
770.801548	0.801848
771.126949	0.813209
771.452303	0.817985
771.777611	0.816401
772.102872	0.814411
772.428087	0.820467
772.753256	0.824072
773.078378	0.825672
773.403453	0.834377
773.728482	0.839139
774.053465	0.832342
774.378401	0.836088
774.703291	0.845797
775.028135	0.845422
775.352932	0.845960
775.677683	0.849336
776.002388	0.850620
776.327046	0.848468
776.651658	0.853541
776.976224	0.856156
777.300743	0.855548
777.625216	0.858087
777.949643	0.859812
778.274024	0.859082
778.598359	0.861381
778.922647	0.860171
779.246889	0.859979
779.571086	0.864006
779.895236	0.866721
780.219339	0.864675
780.543397	0.861075
780.867409	0.859319
781.191374	0.861201
781.515294	0.862983
781.839167	0.862706
782.162995	0.864997
782.486776	0.862118
782.810511	0.863306
783.134201	0.868144
783.457844	0.865101
783.781441	0.867234
784.104993	0.872013
784.428498	0.873518
784.751958	0.870006
785.075372	0.871844
785.398739	0.875533
785.722061	0.871066
786.045337	0.867292
786.368568	0.872530
786.691752	0.873948
787.014891	0.860802
787.337983	0.850958
787.661030	0.844215
787.984031	0.825143
788.306987	0.813042
788.629897	0.813956
788.952760	0.818977
789.275579	0.823727
789.598351	0.839560
789.921078	0.852221
790.243759	0.854567
790.566395	0.858549
790.888984	0.866774
791.211529	0.871281
791.534027	0.874459
791.856480	0.878315
792.178888	0.882605
792.501249	0.884484
792.823566	0.887135
793.145836	0.886067
793.468062	0.887773
793.790241	0.888364
794.112375	0.886146
794.434464	0.882508
794.756507	0.881627
795.078505	0.880139
795.400457	0.875146
795.722364	0.863629
796.044226	0.857195
796.366042	0.854965
796.687812	0.856908
797.009538	0.853565
797.331218	0.857192
797.652852	0.861539
797.974442	0.866325
798.295986	0.867491
798.617484	0.868988
798.938938	0.874365
799.260346	0.878358
799.581709	0.879927
799.903026	0.883765
800.224299	0.883563
800.545526	0.887119
800.866708	0.891870
801.187845	0.896412
801.508936	0.895056
801.829983	0.892785
802.150984	0.896998
802.471940	0.901594
802.792851	0.900369
803.113717	0.901521
803.434538	0.899712
803.755314	0.903634
804.076045	0.903533
804.396731	0.903525
804.717372	0.901379
805.037967	0.906023
805.358518	0.903105
805.679024	0.899313
805.999485	0.899550
806.319901	0.899137
806.640272	0.902707
806.960598	0.899590
807.280879	0.896611
807.601115	0.894797
807.921306	0.898798
808.241453	0.900195
808.561554	0.897737
808.881611	0.897498
809.201623	0.899387
809.521590	0.898974
809.841513	0.900805
810.161390	0.899371
810.481223	0.900396
810.801011	0.904503
811.120755	0.906273
811.440453	0.905279
811.760107	0.905515
812.079716	0.904736
812.399281	0.907409
812.718801	0.910634
813.038276	0.910762
813.357707	0.911044
813.677093	0.908763
813.996434	0.909912
814.315731	0.912707
814.634983	0.913047
814.954191	0.912051
815.273354	0.907659
815.592473	0.904662
815.911547	0.905782
816.230577	0.901323
816.549562	0.898957
816.868502	0.898254
817.187399	0.897097
817.506250	0.890923
817.825058	0.891713
818.143821	0.889560
818.462539	0.883024
818.781213	0.876639
819.099843	0.865689
819.418429	0.847179
819.736970	0.830983
820.055466	0.810968
820.373919	0.785094
820.692327	0.750506
821.010691	0.715282
821.329011	0.634542
821.647286	0.517546
821.965517	0.402510
822.283704	0.359349
822.601847	0.359975
822.919945	0.395947
823.237999	0.430941
823.556010	0.479294
823.873976	0.536019
824.191897	0.586396
824.509775	0.630720
824.827609	0.676978
825.145398	0.699707
825.463144	0.701882
825.780845	0.684849
826.098502	0.666394
826.416116	0.619502
826.733685	0.574739
827.051210	0.565557
827.368692	0.580823
827.686129	0.618308
828.003522	0.674586
828.320872	0.723527
828.638177	0.766616
828.955439	0.800500
829.272656	0.822110
829.589830	0.839000
829.906960	0.855820
830.224046	0.868774
830.541088	0.879374
830.858086	0.884388
831.175041	0.891932
831.491952	0.889777
831.808819	0.884819
832.125642	0.878425
832.442421	0.866001
832.759157	0.841712
833.075849	0.793470
833.392497	0.728349
833.709101	0.687553
834.025662	0.697462
834.342179	0.730477
834.658653	0.769917
834.975083	0.806471
835.291469	0.833875
835.607811	0.857438
835.924110	0.874410
836.240366	0.891026
836.556578	0.904130
836.872746	0.911423
837.188871	0.918695
837.504952	0.924217
837.820990	0.926955
838.136984	0.931166
838.452935	0.933826
838.768842	0.935399
839.084706	0.929172
839.400526	0.902338
839.716303	0.859590
840.032037	0.839225
840.347727	0.841868
840.663373	0.860106
840.978977	0.881208
841.294537	0.906238
841.610054	0.921300
841.925527	0.929971
842.240957	0.936489
842.556344	0.944510
842.871687	0.949047
843.186987	0.953247
843.502244	0.954975
843.817458	0.957416
844.132629	0.960172
844.447756	0.964070
844.762840	0.964718
845.077881	0.965560
845.392879	0.964389
845.707833	0.967176
846.022745	0.969288
846.337613	0.968761
846.652438	0.969669
846.967221	0.970171
847.281960	0.970436
847.596656	0.971856
847.911309	0.970820
848.225919	0.971165
848.540485	0.974208
848.855009	0.974243
849.169490	0.972589
849.483928	0.974159
849.798323	0.973021
850.112675	0.974947
850.426984	0.973768
850.741251	0.975470
851.055474	0.974964
851.369654	0.974637
851.683792	0.972283
851.997887	0.974307
852.311938	0.974356
852.625947	0.973406
852.939914	0.972590
853.253837	0.974477
853.567718	0.976558
853.881555	0.975270
854.195350	0.973851
854.509103	0.974301
854.822812	0.974376
855.136479	0.975263
855.450103	0.974967
855.763685	0.973650
856.077224	0.974591
856.390720	0.975658
856.704173	0.975210
857.017584	0.972914
857.330953	0.973912
857.644278	0.971097
857.957561	0.974393
858.270802	0.973174
858.584000	0.974006
858.897155	0.970886
859.210268	0.972998
859.523339	0.974883
859.836367	0.975323
860.149352	0.974794
860.462295	0.974086
860.775195	0.975234
861.088054	0.973938
861.400869	0.974585
861.713642	0.974964
862.026373	0.976534
862.339062	0.975481
862.651708	0.973911
862.964312	0.973282
863.276873	0.972914
863.589392	0.972909
863.901869	0.970496
864.214303	0.969401
864.526696	0.968557
864.839045	0.968705
865.151353	0.966016
865.463619	0.965995
865.775842	0.968312
866.088023	0.968307
866.400162	0.967918
866.712258	0.967170
867.024313	0.967691
867.336325	0.969502
867.648296	0.969099
867.960224	0.966138
868.272110	0.967694
868.583954	0.968855
868.895755	0.969059
869.207515	0.965885
869.519233	0.964700
869.830909	0.965523
870.142542	0.966672
870.454134	0.965812
870.765684	0.964954
871.077191	0.964617
871.388657	0.963333
871.700081	0.962271
872.011463	0.963481
872.322803	0.962111
872.634101	0.959728
872.945357	0.958315
873.256571	0.956936
873.567744	0.957737
873.878874	0.957961
874.189963	0.957027
874.501010	0.957326
874.812015	0.955089
875.122979	0.953966
875.433900	0.955997
875.744780	0.958616
876.055618	0.954863
876.366415	0.953442
876.677169	0.953392
876.987882	0.956264
877.298554	0.955608
877.609183	0.950842
877.919771	0.948326
878.230317	0.947301
878.540822	0.943938
878.851285	0.938424
879.161707	0.929284
879.472087	0.917593
879.782425	0.900826
880.092722	0.864632
880.402977	0.810155
880.713191	0.747458
881.023363	0.686004
881.333494	0.651470
881.643583	0.623591
881.953631	0.624315
882.263637	0.652181
882.573602	0.692374
882.883526	0.718661
883.193408	0.744567
883.503248	0.767779
883.813048	0.795571
884.122806	0.827402
884.432522	0.850401
884.742197	0.870850
885.051831	0.882572
885.361424	0.893751
885.670975	0.905629
885.980485	0.915876
886.289954	0.921448
886.599382	0.925365
886.908768	0.931045
887.218113	0.936627
887.527417	0.943047
887.836680	0.945566
888.145901	0.947349
888.455082	0.951396
888.764221	0.954513
889.073319	0.956576
889.382376	0.957838
889.691392	0.955936
890.000366	0.957774
890.309300	0.957339
890.618193	0.957539
890.927044	0.955757
891.235855	0.955328
891.544625	0.955080
891.853353	0.955871
892.162041	0.952471
892.470687	0.947126
892.779293	0.941708
893.087858	0.936734
893.396381	0.928322
893.704864	0.914677
894.013306	0.889858
894.321707	0.863503
894.630068	0.848113
894.938387	0.841455
895.246665	0.844010
895.554903	0.857475
895.863100	0.871311
896.171256	0.888290
896.479371	0.908161
896.787446	0.920245
897.095480	0.928025
897.403473	0.930234
897.711425	0.935637
898.019336	0.942804
898.327207	0.946776
898.635038	0.947451
898.942827	0.948913
899.250576	0.951344
899.558284	0.956186
899.865952	0.957394
900.173579	0.959590
900.481165	0.959748
900.788711	0.962963
901.096216	0.964805
901.403681	0.968321
901.711105	0.966584
902.018489	0.967668
902.325832	0.966223
902.633135	0.964814
902.940397	0.959538
903.247619	0.945813
903.554800	0.921508
903.861941	0.878337
904.169041	0.840299
904.476101	0.823346
904.783121	0.825829
905.090100	0.840980
905.397039	0.863210
905.703938	0.886289
906.010796	0.906711
906.317614	0.925027
906.624391	0.938315
906.931129	0.947718
907.237826	0.956158
907.544483	0.962013
907.851099	0.967791
908.157675	0.970419
908.464211	0.974445
908.770707	0.976043
909.077163	0.978911
909.383578	0.979411
909.689954	0.980004
909.996289	0.981859
910.302584	0.983921
910.608839	0.984276
910.915054	0.983828
911.221229	0.984220
911.527363	0.982061
911.833458	0.982424
912.139513	0.980907
912.445527	0.981571
912.751502	0.979019
913.057436	0.976616
913.363331	0.975452
913.669186	0.970792
913.975000	0.965300
914.280775	0.959105
914.586510	0.952503
914.892205	0.937498
915.197859	0.914561
915.503475	0.886894
915.809050	0.866125
916.114585	0.859756
916.420081	0.856978
916.725536	0.854207
917.030952	0.862565
917.336328	0.876129
917.641665	0.891507
917.946961	0.908291
918.252218	0.920100
918.557435	0.929694
918.862612	0.938938
919.167750	0.944293
919.472848	0.951386
919.777906	0.957064
920.082925	0.961632
920.387904	0.964804
920.692843	0.966942
920.997743	0.966918
921.302603	0.971726
921.607423	0.973682
921.912204	0.976965
922.216946	0.977350
922.521647	0.977813
922.826310	0.979888
923.130932	0.982007
923.435516	0.983378
923.740059	0.983989
924.044564	0.984809
924.349028	0.985854
924.653454	0.986838
924.957840	0.988249
925.262186	0.988593
925.566493	0.988412
925.870761	0.990627
926.174989	0.991205
926.479178	0.992995
926.783328	0.991957
927.087438	0.992677
927.391509	0.993229
927.695541	0.994667
927.999533	0.995494
928.303486	0.994495
928.607400	0.996474
928.911275	0.996079
929.215110	0.996324
929.518906	0.995750
929.822663	0.996453
930.126381	0.997354
930.430060	0.995671
930.733699	0.997231
931.037299	0.995859
931.340861	0.995480
931.644383	0.993314
931.947866	0.995554
932.251309	0.995676
932.554714	0.994988
932.858080	0.995722
933.161407	0.995165
933.464694	0.995598
933.767943	0.996725
934.071153	0.996155
934.374323	0.996756
934.677455	0.996774
934.980548	0.996668
935.283602	0.997617
935.586617	0.995980
935.889593	0.998307
936.192530	0.996826
936.495428	0.996020
936.798287	0.995689
937.101108	0.994939
937.403890	0.993091
937.706632	0.994334
938.009336	0.992690
938.312002	0.990597
938.614628	0.990222
938.917216	0.986777
939.219765	0.987095
939.522275	0.986789
939.824747	0.987818
940.127179	0.987977
940.429573	0.990341
940.731929	0.988845
941.034246	0.989241
941.336524	0.989112
941.638763	0.991401
941.940964	0.990170
942.243126	0.991721
942.545250	0.992897
942.847335	0.993704
943.149381	0.993383
943.451389	0.993592
943.753359	0.994618
944.055290	0.995623
944.357182	0.995117
944.659036	0.995559
944.960851	0.995683
945.262628	0.994454
945.564367	0.995101
945.866067	0.995594
946.167729	0.994737
946.469352	0.994990
946.770937	0.992249
947.072484	0.995372
947.373992	0.995629
947.675462	0.994576
947.976893	0.995589
948.278286	0.997218
948.579641	0.997450
948.880958	0.996291
949.182236	0.996462
949.483476	0.996068
949.784678	0.996739
950.085841	0.996422
950.386967	0.995310
950.688054	0.995898
950.989103	0.993492
951.290114	0.994827
951.591087	0.995751
951.892021	0.993808
952.192917	0.996184
952.493776	0.993866
952.794596	0.994153
953.095378	0.993171
953.396122	0.993083
953.696828	0.993116
953.997496	0.995319
954.298126	0.996079
954.598718	0.994796
954.899272	0.995412
955.199788	0.995348
955.500266	0.998224
955.800706	0.996467
956.101108	0.998100
956.401472	0.999894
956.701798	0.999572
957.002087	0.999762
957.302337	1.000156
957.602550	1.000435
957.902724	0.999649
958.202861	1.000002
958.502960	1.000154
958.803022	1.001569
959.103045	1.000722
959.403031	1.002375
959.702979	1.001178
960.002889	1.001382
960.302762	1.000560
960.602596	1.002268
960.902393	1.002128
961.202153	1.001878
961.501875	1.002455
961.801559	1.003438
962.101205	1.001179
962.400814	1.003347
962.700385	1.003093
962.999918	1.002082
963.299414	1.000573
963.598873	1.003768
963.898293	1.001940
964.197677	1.001812
964.497022	1.002424
964.796331	1.002684
965.095601	1.003719
965.394835	1.001847
965.694030	1.003353
965.993189	1.002802
966.292309	1.003448
966.591393	1.002498
966.890439	1.003607
967.189447	1.001962
967.488419	1.002288
967.787353	1.003200
968.086249	1.002918
968.385108	1.001974
968.683930	1.003327
968.982714	1.003731
969.281462	1.003137
969.580172	1.002201
969.878844	1.003413
970.177480	1.002037
970.476078	1.002857
970.774639	1.002443
971.073162	1.001653
971.371649	1.002897
971.670098	1.001957
971.968510	1.002955
972.266885	1.001617
972.565223	1.001497
972.863524	1.001449
973.161788	1.002860
973.460014	1.002894
973.758204	1.002167
974.056356	1.002210
974.354471	1.001994
974.652550	1.002975
974.950591	1.001140
975.248595	1.001609
975.546563	1.003138
975.844493	1.003058
976.142386	1.001935
976.440243	1.003140
976.738062	1.003085
977.035845	1.001776
977.333590	1.003425
977.631299	1.001678
977.928971	1.002166
978.226606	1.003085
978.524204	1.000913
978.821765	1.004488
979.119290	1.004058
979.416777	1.002851
979.714228	1.002109
980.011642	1.003643
980.309020	1.002626
980.606360	1.001672
980.903664	1.001878
981.200931	1.001440
981.498162	1.001792
981.795356	1.000915
982.092513	0.999885
982.389633	1.000079
982.686717	0.996119
982.983764	0.996478
983.280775	0.996270
983.577749	0.997315
983.874686	0.996204
984.171587	0.997697
984.468451	0.999215
984.765279	0.999518
985.062070	1.000758
985.358824	1.000418
985.655543	1.002224
985.952224	1.002415
986.248869	1.002879
986.545478	1.003698
986.842050	1.002741
987.138586	1.002093
987.435086	1.003344
987.731549	1.004197
988.027975	1.004239
988.324366	1.003605
988.620719	1.004531
988.917037	1.003065
989.213318	1.004400
989.509563	1.002935
989.805772	1.003481
990.101944	1.003529
990.398080	1.004860
990.694180	1.005177
990.990244	1.003986
991.286271	1.003327
991.582262	1.004904
991.878217	1.005462
992.174136	1.005375
992.470019	1.004125
992.765865	1.005478
993.061676	1.003294
993.357450	1.004809
993.653188	1.005713
993.948890	1.005189
994.244556	1.003672
994.540186	1.002341
994.835780	1.002520
995.131337	1.003729
995.426859	1.003922
995.722345	1.002999
996.017795	1.002427
996.313208	1.002522
996.608586	1.002224
996.903928	1.003496
997.199234	1.002561
997.494504	1.003462
997.789738	1.002392
998.084936	1.003537
998.380099	1.002907
998.675225	1.004239
998.970316	1.004365
999.265371	1.003378
999.560390	1.004167
999.855373	1.004680
1000.150320	1.004302
1000.445232	1.004752
1000.740108	1.004997
1001.034948	1.003678
1001.329752	1.004485
1001.624521	1.003899
1001.919254	1.003585
1002.213951	1.004259
1002.508613	1.002988
1002.803239	1.004107
1003.097829	1.004964
1003.392384	1.004047
1003.686903	1.004728
1003.981386	1.004410
1004.275834	1.005763
1004.570246	1.003389
1004.864623	1.004683
1005.158964	1.005132
1005.453270	1.004057
1005.747540	1.004990
1006.041775	1.004410
1006.335974	1.005327
1006.630138	1.004996
1006.924266	1.003701
1007.218359	1.003790
1007.512416	1.005508
1007.806438	1.004750
1008.100425	1.004216
1008.394376	1.004249
1008.688292	1.004406
1008.982172	1.004662
1009.276017	1.004227
1009.569827	1.005936
1009.863602	1.004238
1010.157341	1.006097
1010.451045	1.003903
1010.744714	1.006429
1011.038347	1.005340
1011.331945	1.003095
1011.625508	1.005024
1011.919036	1.003867
1012.212528	1.005123
1012.505986	1.004279
1012.799408	1.005157
1013.092795	1.004858
1013.386147	1.003949
1013.679464	1.006119
1013.972745	1.004495
1014.265992	1.004939
1014.559204	1.004232
1014.852380	1.005885
1015.145521	1.004027
1015.438628	1.004981
1015.731699	1.005377
1016.024736	1.005599
1016.317737	1.005599
1016.610703	1.005543
1016.903635	1.004514
1017.196531	1.003951
1017.489393	1.004019
1017.782219	1.004759
1018.075011	1.004342
1018.367768	1.003682
1018.660490	1.005338
1018.953177	1.005338
1019.245829	1.005338
