Dividing Wavelength (nm)	Counts (n)	Blue Motor Position (mm): 7.600000	Red Motor Position (mm): 0.000000	
326.493990	1.005780
326.888308	1.005780
327.282561	1.005780
327.676750	1.005677
328.070874	1.006833
328.464933	1.006730
328.858929	1.007329
329.252859	1.005540
329.646726	1.004828
330.040528	1.005301
330.434265	1.005893
330.827938	1.005195
331.221547	1.005792
331.615091	1.006520
332.008571	1.005881
332.401986	1.004055
332.795338	1.004974
333.188625	1.006615
333.581847	1.005345
333.975006	1.004680
334.368100	1.005812
334.761129	1.004291
335.154095	1.005628
335.546996	1.002670
335.939833	0.997833
336.332606	0.998947
336.725315	0.998240
337.117960	1.000026
337.510540	0.998141
337.903056	0.998462
338.295508	1.001415
338.687896	0.999120
339.080220	0.999530
339.472480	0.998653
339.864676	0.999261
340.256807	0.997577
340.648875	0.999290
341.040879	0.998986
341.432818	0.999945
341.824694	0.997907
342.216506	0.999503
342.608253	0.998890
342.999937	0.998425
343.391557	0.999859
343.783113	0.999689
344.174605	0.999028
344.566033	0.998629
344.957397	0.999595
345.348697	0.998187
345.739934	0.999267
346.131106	0.999282
346.522215	0.996815
346.913260	0.998719
347.304241	0.998049
347.695159	0.999335
348.086012	0.998957
348.476802	0.998943
348.867528	0.998330
349.258191	0.998750
349.648789	0.998929
350.039324	0.998042
350.429796	0.997966
350.820203	0.998553
351.210548	0.998884
351.600828	0.998584
351.991045	0.999679
352.381198	0.998285
352.771288	0.998376
353.161314	0.997987
353.551276	0.998521
353.941175	0.996241
354.331010	0.998773
354.720782	0.998417
355.110490	0.997662
355.500135	0.998252
355.889717	0.996366
356.279235	0.996904
356.668689	0.998354
357.058080	0.996923
357.447408	0.996451
357.836672	0.996498
358.225873	0.998212
358.615010	0.997388
359.004084	0.997166
359.393095	0.998466
359.782043	0.997762
360.170927	0.998048
360.559748	0.997613
360.948505	0.997756
361.337199	0.996385
361.725830	0.998321
362.114398	0.998049
362.502903	0.996353
362.891344	0.996649
363.279722	0.997379
363.668037	0.998542
364.056289	0.996619
364.444478	0.998353
364.832603	0.997023
365.220665	0.996973
365.608665	0.997745
365.996601	0.996016
366.384474	0.995217
366.772284	0.995694
367.160031	0.994671
367.547715	0.996133
367.935336	0.994741
368.322893	0.992801
368.710388	0.992306
369.097820	0.990241
369.485189	0.987895
369.872495	0.987997
370.259738	0.984785
370.646918	0.981726
371.034035	0.979056
371.421090	0.976031
371.808081	0.971873
372.195010	0.969471
372.581875	0.963907
372.968678	0.959679
373.355418	0.955513
373.742096	0.948420
374.128710	0.943789
374.515262	0.939907
374.901751	0.934166
375.288177	0.928531
375.674540	0.921835
376.060841	0.915375
376.447079	0.908793
376.833254	0.902491
377.219367	0.896909
377.605417	0.884862
377.991404	0.883637
378.377329	0.876879
378.763191	0.870853
379.148991	0.861583
379.534727	0.852896
379.920402	0.845535
380.306013	0.841425
380.691563	0.829554
381.077049	0.822692
381.462474	0.817834
381.847835	0.806798
382.233134	0.801748
382.618371	0.802574
383.003545	0.784595
383.388657	0.783328
383.773706	0.775675
384.158693	0.771863
384.543618	0.765949
384.928480	0.756872
385.313280	0.746836
385.698017	0.746799
386.082692	0.735681
386.467305	0.734369
386.851856	0.728412
387.236344	0.723068
387.620770	0.717375
388.005133	0.711431
388.389435	0.706564
388.773674	0.703993
389.157851	0.695526
389.541965	0.692822
389.926018	0.699867
390.310008	0.685218
390.693936	0.683418
391.077802	0.675406
391.461606	0.676827
391.845348	0.666482
392.229027	0.664412
392.612645	0.663682
392.996200	0.650776
393.379694	0.644389
393.763125	0.634482
394.146494	0.638528
394.529801	0.629280
394.913047	0.621044
395.296230	0.626982
395.679351	0.618821
396.062410	0.615472
396.445408	0.618346
396.828343	0.613827
397.211217	0.608226
397.594028	0.620600
397.976778	0.611105
398.359466	0.607591
398.742092	0.602702
399.124656	0.615108
399.507158	0.602904
399.889598	0.600340
400.271977	0.591112
400.654294	0.595971
401.036549	0.594680
401.418742	0.598638
401.800874	0.584007
402.182944	0.581261
402.564952	0.572714
402.946898	0.574752
403.328783	0.575056
403.710606	0.586786
404.092367	0.561527
404.474067	0.567040
404.855705	0.566110
405.237282	0.574403
405.618797	0.560740
406.000250	0.556043
406.381642	0.546710
406.762972	0.551473
407.144240	0.550055
407.525447	0.550160
407.906593	0.542742
408.287677	0.538367
408.668700	0.547266
409.049661	0.540767
409.430560	0.535732
409.811399	0.544719
410.192176	0.526264
410.572891	0.533685
410.953545	0.521268
411.334138	0.534885
411.714669	0.527113
412.095139	0.539482
412.475547	0.523783
412.855894	0.525438
413.236180	0.524933
413.616405	0.529785
413.996568	0.520639
414.376670	0.526724
414.756711	0.531649
415.136691	0.527986
415.516609	0.519703
415.896466	0.515471
416.276262	0.512132
416.655997	0.513719
417.035670	0.495608
417.415283	0.487287
417.794834	0.491897
418.174324	0.497813
418.553753	0.506250
418.933121	0.488359
419.312428	0.482831
419.691674	0.488502
420.070859	0.477082
420.449983	0.483928
420.829045	0.473498
421.208047	0.482386
421.586988	0.475880
421.965867	0.474025
422.344686	0.463512
422.723444	0.475934
423.102141	0.493168
423.480777	0.465357
423.859352	0.486866
424.237866	0.463793
424.616319	0.464415
424.994712	0.455192
425.373044	0.465751
425.751314	0.454081
426.129524	0.471134
426.507673	0.453398
426.885762	0.447172
427.263789	0.452843
427.641756	0.462985
428.019662	0.452570
428.397508	0.452007
428.775292	0.456448
429.153016	0.448216
429.530679	0.454588
429.908282	0.447441
430.285824	0.457478
430.663305	0.436307
431.040726	0.457551
431.418086	0.456848
431.795385	0.448906
432.172624	0.448053
432.549802	0.448041
432.926920	0.447286
433.303977	0.447172
433.680974	0.443561
434.057910	0.442357
434.434786	0.441851
434.811601	0.444151
435.188355	0.426945
435.565050	0.436300
435.941683	0.437355
436.318257	0.421262
436.694770	0.422750
437.071222	0.420641
437.447614	0.424936
437.823946	0.431197
438.200218	0.421091
438.576429	0.430252
438.952580	0.423205
439.328670	0.420251
439.704700	0.426559
440.080670	0.427728
440.456580	0.409059
440.832429	0.417108
441.208218	0.427638
441.583947	0.417420
441.959616	0.415974
442.335224	0.422059
442.710773	0.413069
443.086261	0.410765
443.461689	0.424803
443.837057	0.414493
444.212365	0.404449
444.587612	0.411614
444.962800	0.401245
445.337927	0.402868
445.712995	0.429472
446.088002	0.391153
446.462949	0.401309
446.837837	0.406976
447.212664	0.395003
447.587431	0.386231
447.962139	0.357090
448.336786	0.316468
448.711374	0.326177
449.085901	0.370916
449.460369	0.375252
449.834776	0.378662
450.209124	0.357663
450.583412	0.350606
450.957640	0.343294
451.331808	0.355116
451.705917	0.378385
452.079965	0.382935
452.453954	0.371306
452.827883	0.377794
453.201752	0.372759
453.575562	0.384036
453.949311	0.372598
454.323001	0.378637
454.696632	0.374684
455.070202	0.367064
455.443713	0.358877
455.817164	0.353616
456.190556	0.349297
456.563888	0.346245
456.937160	0.343540
457.310373	0.361258
457.683526	0.360235
458.056619	0.365893
458.429653	0.366319
458.802628	0.369736
459.175542	0.364267
459.548398	0.346656
459.921194	0.339132
460.293930	0.339559
460.666607	0.316803
461.039224	0.305170
461.411782	0.300289
461.784280	0.299781
462.156719	0.303944
462.529099	0.308260
462.901419	0.324209
463.273680	0.329033
463.645882	0.327853
464.018024	0.334111
464.390106	0.326439
464.762130	0.311557
465.134094	0.294174
465.505999	0.262943
465.877845	0.233876
466.249631	0.220493
466.621358	0.228014
466.993026	0.241858
467.364634	0.248345
467.736184	0.256935
468.107674	0.266031
468.479105	0.264773
468.850477	0.271556
469.221790	0.278681
469.593043	0.289087
469.964238	0.293515
470.335373	0.293127
470.706449	0.291050
471.077467	0.291966
471.448425	0.253854
471.819324	0.229383
472.190164	0.228930
472.560945	0.257305
472.931667	0.280104
473.302330	0.284268
473.672934	0.296289
474.043479	0.284140
474.413965	0.286076
474.784393	0.289404
475.154761	0.284662
475.525070	0.281787
475.895321	0.287272
476.265513	0.281741
476.635645	0.276873
477.005719	0.276622
477.375734	0.273428
477.745691	0.266415
478.115588	0.262823
478.485427	0.256192
478.855207	0.243230
479.224928	0.225887
479.594591	0.213778
479.964194	0.217372
480.333739	0.218410
480.703226	0.219814
481.072653	0.218218
481.442022	0.213957
481.811333	0.210641
482.180584	0.213974
482.549777	0.219540
482.918912	0.222722
483.287988	0.222679
483.657005	0.222109
484.025964	0.228314
484.394864	0.225914
484.763706	0.226455
485.132489	0.231482
485.501213	0.232275
485.869879	0.230487
486.238487	0.233767
486.607036	0.231777
486.975527	0.236299
487.343959	0.232078
487.712333	0.231388
488.080648	0.232655
488.448905	0.231852
488.817104	0.232805
489.185244	0.227406
489.553326	0.224557
489.921350	0.214207
490.289315	0.196678
490.657222	0.191498
491.025070	0.193212
491.392861	0.194849
491.760593	0.200975
492.128267	0.206378
492.495883	0.212089
492.863440	0.218524
493.230939	0.224724
493.598380	0.226175
493.965763	0.228218
494.333088	0.230380
494.700354	0.231934
495.067563	0.230817
495.434713	0.234309
495.801805	0.232070
496.168839	0.233734
496.535815	0.234857
496.902733	0.235195
497.269593	0.236362
497.636395	0.234136
498.003139	0.234674
498.369825	0.237446
498.736453	0.234277
499.103023	0.235560
499.469535	0.234901
499.835989	0.235211
500.202385	0.236028
500.568723	0.239261
500.935003	0.234694
501.301226	0.238840
501.667390	0.233064
502.033497	0.231062
502.399546	0.233845
502.765537	0.235882
503.131470	0.234476
503.497345	0.230781
503.863163	0.239343
504.228923	0.232561
504.594625	0.230976
504.960269	0.236535
505.325856	0.232091
505.691385	0.236348
506.056856	0.233123
506.422270	0.232553
506.787625	0.234901
507.152924	0.232426
507.518164	0.232686
507.883347	0.234510
508.248472	0.236054
508.613540	0.230879
508.978550	0.233538
509.343503	0.233977
509.708398	0.231702
510.073236	0.229157
510.438016	0.229042
510.802738	0.230088
511.167403	0.229055
511.532010	0.231302
511.896561	0.226492
512.261053	0.225351
512.625488	0.227266
512.989866	0.227553
513.354186	0.227985
513.718449	0.230006
514.082655	0.225981
514.446803	0.228210
514.810894	0.226193
515.174927	0.228874
515.538904	0.228493
515.902822	0.225309
516.266684	0.227495
516.630488	0.228852
516.994235	0.227615
517.357925	0.226483
517.721558	0.224612
518.085133	0.224293
518.448651	0.223938
518.812112	0.226334
519.175516	0.226104
519.538863	0.223775
519.902152	0.225585
520.265385	0.222168
520.628560	0.223893
520.991678	0.224165
521.354739	0.223370
521.717743	0.224439
522.080690	0.225005
522.443580	0.222167
522.806413	0.222731
523.169189	0.222767
523.531908	0.221119
523.894569	0.224976
524.257174	0.224691
524.619722	0.222561
524.982213	0.223797
525.344647	0.222562
525.707025	0.223204
526.069345	0.221624
526.431608	0.223191
526.793815	0.221314
527.155964	0.225425
527.518057	0.224264
527.880093	0.225269
528.242072	0.223848
528.603995	0.225969
528.965860	0.227368
529.327669	0.226428
529.689421	0.227216
530.051117	0.227864
530.412755	0.225852
530.774337	0.227949
531.135862	0.228829
531.497331	0.227739
531.858743	0.230785
532.220098	0.227312
532.581396	0.229965
532.942638	0.230326
533.303824	0.231449
533.664953	0.231218
534.026025	0.233122
534.387040	0.231018
534.747999	0.230432
535.108902	0.229456
535.469748	0.235169
535.830537	0.232442
536.191270	0.233115
536.551947	0.232475
536.912567	0.232400
537.273131	0.234249
537.633638	0.234506
537.994089	0.235038
538.354483	0.236032
538.714821	0.232998
539.075103	0.232694
539.435328	0.233610
539.795497	0.236971
540.155609	0.234110
540.515665	0.232062
540.875665	0.237604
541.235609	0.236083
541.595496	0.236441
541.955328	0.232932
542.315102	0.235414
542.674821	0.236608
543.034483	0.236652
543.394090	0.236384
543.753640	0.238133
544.113134	0.233268
544.472571	0.236622
544.831953	0.233143
545.191278	0.237695
545.550548	0.236682
545.909761	0.233919
546.268918	0.234384
546.628019	0.232818
546.987064	0.235680
547.346053	0.237222
547.704986	0.234912
548.063863	0.235382
548.422684	0.235726
548.781449	0.237521
549.140158	0.235393
549.498811	0.238047
549.857408	0.240901
550.215949	0.235561
550.574434	0.238640
550.932864	0.237037
551.291237	0.235456
551.649555	0.237052
552.007817	0.236989
552.366022	0.237846
552.724173	0.237733
553.082267	0.238086
553.440305	0.234981
553.798288	0.239130
554.156215	0.235943
554.514086	0.236658
554.871902	0.240012
555.229661	0.238844
555.587365	0.239609
555.945014	0.242161
556.302606	0.239144
556.660143	0.241787
557.017625	0.238455
557.375050	0.240250
557.732421	0.237602
558.089735	0.239350
558.446994	0.239487
558.804197	0.238586
559.161345	0.238391
559.518437	0.241701
559.875474	0.239945
560.232455	0.239443
560.589381	0.240442
560.946251	0.240344
561.303065	0.237990
561.659825	0.239285
562.016528	0.241124
562.373177	0.243937
562.729770	0.241221
563.086307	0.242815
563.442789	0.240931
563.799216	0.243573
564.155587	0.242568
564.511904	0.243887
564.868164	0.243801
565.224370	0.243404
565.580520	0.245173
565.936615	0.245398
566.292654	0.248202
566.648638	0.245452
567.004567	0.246285
567.360441	0.246701
567.716260	0.248841
568.072023	0.246559
568.427732	0.247155
568.783385	0.249834
569.138982	0.247668
569.494525	0.247570
569.850013	0.250570
570.205445	0.248688
570.560823	0.251199
570.916145	0.253250
571.271412	0.251532
571.626625	0.253148
571.981782	0.253744
572.336884	0.254468
572.691931	0.253900
573.046923	0.255611
573.401860	0.256781
573.756743	0.258323
574.111570	0.256966
574.466342	0.257864
574.821059	0.257025
575.175722	0.259790
575.530330	0.259405
575.884882	0.259582
576.239380	0.261568
576.593823	0.262121
576.948211	0.261508
577.302544	0.264642
577.656823	0.264521
578.011047	0.264211
578.365216	0.265409
578.719330	0.267472
579.073389	0.266737
579.427394	0.268228
579.781344	0.269271
580.135239	0.270095
580.489080	0.269951
580.842866	0.273267
581.196597	0.273012
581.550273	0.271865
581.903895	0.272740
582.257463	0.270791
582.610975	0.274216
582.964434	0.273475
583.317837	0.276140
583.671186	0.276665
584.024481	0.276385
584.377721	0.278929
584.730906	0.279572
585.084037	0.279173
585.437113	0.280679
585.790135	0.280377
586.143103	0.283360
586.496016	0.284093
586.848874	0.281838
587.201679	0.282704
587.554428	0.285436
587.907124	0.284461
588.259765	0.285103
588.612352	0.285560
588.964884	0.289853
589.317362	0.288889
589.669786	0.289142
590.022155	0.287294
590.374470	0.286805
590.726731	0.288814
591.078937	0.294105
591.431090	0.290336
591.783188	0.294240
592.135232	0.294745
592.487222	0.294940
592.839157	0.292936
593.191038	0.295437
593.542866	0.296769
593.894639	0.300248
594.246358	0.298800
594.598022	0.298120
594.949633	0.302103
595.301190	0.302458
595.652692	0.301751
596.004141	0.297526
596.355535	0.305633
596.706876	0.306502
597.058162	0.308906
597.409395	0.305674
597.760573	0.303974
598.111698	0.306779
598.462768	0.307195
598.813785	0.308868
599.164748	0.310002
599.515657	0.310418
599.866511	0.313663
600.217312	0.309224
600.568060	0.314181
600.918753	0.310701
601.269392	0.311886
601.619978	0.314976
601.970510	0.312463
602.320988	0.312578
602.671412	0.310313
603.021783	0.312870
603.372100	0.314672
603.722363	0.314127
604.072572	0.314827
604.422728	0.314552
604.772830	0.316669
605.122878	0.316525
605.472872	0.317036
605.822813	0.315086
606.172701	0.317772
606.522534	0.315346
606.872314	0.315329
607.222041	0.316376
607.571714	0.314167
607.921333	0.315921
608.270899	0.315748
608.620411	0.312056
608.969870	0.316535
609.319276	0.316659
609.668627	0.316405
610.017926	0.314723
610.367171	0.313269
610.716362	0.314321
611.065500	0.314464
611.414585	0.312938
611.763616	0.313287
612.112594	0.313948
612.461518	0.313006
612.810389	0.311003
613.159207	0.313306
613.507971	0.315320
613.856682	0.310992
614.205340	0.312058
614.553945	0.309416
614.902496	0.313285
615.250994	0.311331
615.599439	0.311997
615.947830	0.311344
616.296169	0.312452
616.644454	0.311825
616.992686	0.311724
617.340864	0.309997
617.688990	0.313264
618.037063	0.309859
618.385082	0.311737
618.733048	0.308378
619.080961	0.310842
619.428821	0.310399
619.776628	0.310152
620.124382	0.312174
620.472083	0.313016
620.819731	0.312027
621.167326	0.315539
621.514868	0.315599
621.862357	0.319847
622.209793	0.319304
622.557176	0.321620
622.904506	0.322750
623.251783	0.325088
623.599007	0.327224
623.946179	0.326703
624.293297	0.329029
624.640363	0.332815
624.987376	0.333602
625.334336	0.335806
625.681243	0.337916
626.028097	0.338921
626.374899	0.339277
626.721647	0.340249
627.068343	0.343061
627.414987	0.344429
627.761577	0.345807
628.108115	0.344765
628.454600	0.349896
628.801032	0.347498
629.147412	0.349496
629.493739	0.350323
629.840014	0.353146
630.186236	0.350063
630.532405	0.356070
630.878521	0.353193
631.224585	0.355101
631.570597	0.359251
631.916556	0.357640
632.262462	0.357410
632.608316	0.359674
632.954117	0.360406
633.299866	0.361373
633.645562	0.361609
633.991206	0.365988
634.336797	0.369044
634.682336	0.371436
635.027823	0.372927
635.373257	0.373700
635.718639	0.377331
636.063968	0.376725
636.409245	0.382534
636.754470	0.382894
637.099642	0.385315
637.444762	0.388357
637.789829	0.387687
638.134845	0.391049
638.479808	0.392971
638.824719	0.392034
639.169577	0.396618
639.514383	0.395016
639.859137	0.399710
640.203839	0.398759
640.548489	0.400021
640.893086	0.400590
641.237632	0.402879
641.582125	0.401191
641.926566	0.403662
642.270955	0.402900
642.615292	0.403002
642.959576	0.402195
643.303809	0.403193
643.647990	0.402783
643.992118	0.403250
644.336195	0.406098
644.680219	0.404831
645.024192	0.405711
645.368112	0.399237
645.711981	0.398133
646.055797	0.393375
646.399562	0.395649
646.743274	0.388993
647.086935	0.385181
647.430544	0.385602
647.774101	0.384305
648.117606	0.384316
648.461059	0.384656
648.804460	0.387247
649.147810	0.392312
649.491108	0.394395
649.834354	0.395714
650.177548	0.400445
650.520690	0.406124
650.863781	0.407449
651.206820	0.406381
651.549807	0.411272
651.892742	0.415498
652.235626	0.415058
652.578458	0.415652
652.921238	0.422290
653.263967	0.419600
653.606644	0.423666
653.949269	0.423707
654.291843	0.426979
654.634365	0.424740
654.976836	0.427225
655.319255	0.428044
655.661622	0.428961
656.003938	0.429535
656.346203	0.432304
656.688416	0.430161
657.030577	0.433218
657.372687	0.435761
657.714746	0.436127
658.056753	0.433548
658.398708	0.436809
658.740612	0.438927
659.082465	0.434301
659.424266	0.434866
659.766016	0.434419
660.107715	0.437928
660.449362	0.436384
660.790958	0.437024
661.132503	0.438204
661.473996	0.435427
661.815438	0.436092
662.156829	0.436484
662.498168	0.437583
662.839456	0.438641
663.180693	0.436154
663.521879	0.436431
663.863013	0.437571
664.204097	0.435587
664.545129	0.432962
664.886110	0.433183
665.227040	0.430844
665.567918	0.432725
665.908746	0.431076
666.249522	0.430712
666.590248	0.432098
666.930922	0.429923
667.271545	0.429242
667.612118	0.428966
667.952639	0.431204
668.293109	0.429833
668.633528	0.432131
668.973896	0.431957
669.314213	0.432883
669.654480	0.434354
669.994695	0.434632
670.334859	0.436006
670.674973	0.436309
671.015035	0.435869
671.355047	0.435923
671.695008	0.436965
672.034918	0.438725
672.374777	0.438073
672.714585	0.439573
673.054342	0.439717
673.394049	0.439692
673.733705	0.437576
674.073310	0.439562
674.412864	0.442012
674.752368	0.442797
675.091820	0.442757
675.431223	0.447444
675.770574	0.447136
676.109875	0.450205
676.449125	0.450552
676.788324	0.452530
677.127473	0.457795
677.466571	0.457766
677.805619	0.459269
678.144616	0.460828
678.483562	0.463617
678.822458	0.465203
679.161303	0.466441
679.500098	0.467166
679.838842	0.468428
680.177535	0.467669
680.516179	0.466552
680.854771	0.466407
681.193314	0.459150
681.531805	0.450863
681.870247	0.439582
682.208638	0.432405
682.546978	0.431392
682.885268	0.433219
683.223508	0.439368
683.561697	0.443914
683.899836	0.446244
684.237925	0.449599
684.575963	0.452733
684.913951	0.456214
685.251889	0.451674
685.589776	0.453877
685.927614	0.456425
686.265401	0.451325
686.603137	0.452377
686.940824	0.446895
687.278460	0.445767
687.616046	0.444800
687.953582	0.440649
688.291068	0.442279
688.628504	0.438100
688.965889	0.440292
689.303224	0.444136
689.640510	0.448158
689.977745	0.453811
690.314930	0.461664
690.652065	0.466780
690.989150	0.473473
691.326185	0.480890
691.663170	0.485376
692.000105	0.491986
692.336990	0.499357
692.673825	0.501968
693.010610	0.508461
693.347345	0.514645
693.684030	0.516484
694.020665	0.520570
694.357251	0.529226
694.693786	0.529124
695.030272	0.532416
695.366707	0.537029
695.703093	0.540199
696.039429	0.538225
696.375716	0.541065
696.711952	0.543634
697.048139	0.544644
697.384276	0.547343
697.720363	0.546487
698.056400	0.545169
698.392388	0.551203
698.728326	0.553508
699.064214	0.556623
699.400053	0.557067
699.735842	0.561771
700.071581	0.564227
700.407270	0.567338
700.742910	0.569903
701.078501	0.575977
701.414042	0.577021
701.749533	0.579843
702.084974	0.588412
702.420366	0.581522
702.755709	0.588896
703.091002	0.596622
703.426246	0.591359
703.761440	0.596447
704.096584	0.600902
704.431679	0.598308
704.766725	0.600670
705.101721	0.602789
705.436668	0.599669
705.771565	0.605678
706.106413	0.601713
706.441212	0.598529
706.775961	0.598279
707.110661	0.598925
707.445311	0.597361
707.779913	0.595292
708.114465	0.594196
708.448967	0.590019
708.783421	0.583546
709.117825	0.578335
709.452180	0.578353
709.786485	0.572372
710.120742	0.563098
710.454949	0.565200
710.789107	0.557179
711.123216	0.548816
711.457275	0.550666
711.791286	0.543300
712.125247	0.543448
712.459159	0.552861
712.793023	0.544414
713.126837	0.550875
713.460602	0.551372
713.794318	0.558424
714.127985	0.558896
714.461602	0.568414
714.795171	0.570995
715.128691	0.579287
715.462162	0.586754
715.795584	0.592489
716.128957	0.595613
716.462281	0.601592
716.795556	0.604787
717.128782	0.610751
717.461960	0.619939
717.795088	0.618510
718.128167	0.624737
718.461198	0.632214
718.794180	0.632769
719.127113	0.636294
719.459997	0.638943
719.792833	0.645622
720.125619	0.646639
720.458357	0.652508
720.791046	0.653341
721.123686	0.656870
721.456278	0.663201
721.788821	0.660704
722.121315	0.665735
722.453761	0.668467
722.786158	0.668325
723.118506	0.664024
723.450805	0.671274
723.783056	0.668486
724.115259	0.666846
724.447412	0.666129
724.779518	0.666456
725.111574	0.666353
725.443582	0.662075
725.775542	0.665274
726.107453	0.657720
726.439315	0.658921
726.771129	0.657044
727.102895	0.650583
727.434612	0.644749
727.766281	0.642704
728.097901	0.642062
728.429473	0.641542
728.760996	0.640962
729.092471	0.641040
729.423897	0.644671
729.755276	0.645434
730.086606	0.644121
730.417887	0.638612
730.749120	0.630345
731.080305	0.623443
731.411442	0.619187
731.742530	0.622047
732.073570	0.621946
732.404562	0.616521
732.735506	0.617698
733.066401	0.622836
733.397249	0.630912
733.728048	0.641440
734.058798	0.654871
734.389501	0.665086
734.720156	0.673424
735.050762	0.681305
735.381320	0.682830
735.711831	0.690107
736.042293	0.695149
736.372707	0.693569
736.703073	0.696847
737.033391	0.697652
737.363661	0.696024
737.693883	0.692209
738.024056	0.690800
738.354182	0.690829
738.684260	0.682006
739.014290	0.678697
739.344272	0.678271
739.674207	0.673502
740.004093	0.672782
740.333931	0.673983
740.663722	0.674984
740.993464	0.675576
741.323159	0.679202
741.652806	0.684241
741.982405	0.688593
742.311956	0.693973
742.641460	0.695486
742.970915	0.698472
743.300323	0.705326
743.629683	0.710829
743.958996	0.714037
744.288260	0.717581
744.617477	0.723668
744.946647	0.725326
745.275768	0.731386
745.604842	0.731457
745.933869	0.738531
746.262847	0.740440
746.591778	0.734851
746.920662	0.740102
747.249498	0.746452
747.578286	0.740384
747.907027	0.736382
748.235720	0.734141
748.564365	0.731440
748.892963	0.732028
749.221514	0.736280
749.550017	0.739189
749.878473	0.740044
750.206881	0.746113
750.535242	0.746533
750.863555	0.746155
751.191821	0.747279
751.520039	0.750454
751.848210	0.751885
752.176334	0.748486
752.504411	0.748523
752.832440	0.754660
753.160421	0.757749
753.488356	0.757173
753.816243	0.756346
754.144082	0.762745
754.471875	0.766040
754.799620	0.762588
755.127318	0.763760
755.454969	0.763892
755.782572	0.765271
756.110129	0.767653
756.437638	0.771183
756.765100	0.768362
757.092515	0.766691
757.419882	0.765752
757.747203	0.769846
758.074477	0.770399
758.401703	0.767317
758.728882	0.763339
759.056014	0.762381
759.383099	0.761745
759.710138	0.761100
760.037129	0.757739
760.364073	0.754343
760.690970	0.756801
761.017820	0.759934
761.344623	0.757664
761.671379	0.750539
761.998088	0.740675
762.324751	0.720422
762.651366	0.680753
762.977935	0.619073
763.304456	0.575490
763.630931	0.570263
763.957359	0.603552
764.283740	0.642820
764.610074	0.670000
764.936362	0.699059
765.262602	0.722491
765.588796	0.741638
765.914943	0.756276
766.241044	0.771315
766.567097	0.778691
766.893104	0.787206
767.219064	0.792146
767.544978	0.799242
767.870845	0.809347
768.196665	0.812860
768.522438	0.811067
768.848165	0.813585
769.173846	0.821851
769.499479	0.824888
769.825066	0.827929
770.150607	0.832388
770.476101	0.829704
770.801548	0.831644
771.126949	0.840329
771.452303	0.844449
771.777611	0.844268
772.102872	0.842678
772.428087	0.848001
772.753256	0.851473
773.078378	0.853341
773.403453	0.859673
773.728482	0.863490
774.053465	0.858478
774.378401	0.861872
774.703291	0.868274
775.028135	0.869099
775.352932	0.868785
775.677683	0.872770
776.002388	0.874221
776.327046	0.874050
776.651658	0.877959
776.976224	0.879680
777.300743	0.877550
777.625216	0.881881
777.949643	0.882659
778.274024	0.881489
778.598359	0.884232
778.922647	0.883312
779.246889	0.884232
779.571086	0.886989
779.895236	0.889209
780.219339	0.886870
780.543397	0.884454
780.867409	0.884070
781.191374	0.885605
781.515294	0.886604
781.839167	0.885996
782.162995	0.888434
782.486776	0.885654
782.810511	0.887487
783.134201	0.891060
783.457844	0.890321
783.781441	0.891003
784.104993	0.894710
784.428498	0.895628
784.751958	0.893531
785.075372	0.894762
785.398739	0.897381
785.722061	0.893753
786.045337	0.893146
786.368568	0.895302
786.691752	0.896770
787.014891	0.886094
787.337983	0.877771
787.661030	0.870521
787.984031	0.856152
788.306987	0.847091
788.629897	0.846454
788.952760	0.852580
789.275579	0.856845
789.598351	0.868967
789.921078	0.879539
790.243759	0.883358
790.566395	0.886670
790.888984	0.892026
791.211529	0.896954
791.534027	0.898985
791.856480	0.901462
792.178888	0.904982
792.501249	0.905680
792.823566	0.909289
793.145836	0.908057
793.468062	0.909295
793.790241	0.910361
794.112375	0.907911
794.434464	0.905476
794.756507	0.905127
795.078505	0.903089
795.400457	0.898332
795.722364	0.889646
796.044226	0.885037
796.366042	0.883118
796.687812	0.883947
797.009538	0.881440
797.331218	0.886960
797.652852	0.890208
797.974442	0.892596
798.295986	0.895100
798.617484	0.896117
798.938938	0.900676
799.260346	0.902386
799.581709	0.904215
799.903026	0.907094
800.224299	0.907498
800.545526	0.910299
800.866708	0.912974
801.187845	0.917203
801.508936	0.916375
801.829983	0.915404
802.150984	0.919197
802.471940	0.921964
802.792851	0.921268
803.113717	0.922121
803.434538	0.921211
803.755314	0.923703
804.076045	0.923476
804.396731	0.924113
804.717372	0.921919
805.037967	0.925032
805.358518	0.923590
805.679024	0.920717
805.999485	0.922098
806.319901	0.921350
806.640272	0.923252
806.960598	0.921489
807.280879	0.919565
807.601115	0.918468
807.921306	0.921915
808.241453	0.920823
808.561554	0.920301
808.881611	0.921020
809.201623	0.921746
809.521590	0.922203
809.841513	0.923454
810.161390	0.920443
810.481223	0.922558
810.801011	0.926489
811.120755	0.927748
811.440453	0.925847
811.760107	0.926650
812.079716	0.927497
812.399281	0.929264
812.718801	0.930369
813.038276	0.932157
813.357707	0.931809
813.677093	0.930709
813.996434	0.932699
814.315731	0.934005
814.634983	0.933734
814.954191	0.935635
815.273354	0.930701
815.592473	0.928772
815.911547	0.928365
816.230577	0.925831
816.549562	0.923438
816.868502	0.923665
817.187399	0.923079
817.506250	0.919210
817.825058	0.918884
818.143821	0.916859
818.462539	0.913607
818.781213	0.907356
819.099843	0.899924
819.418429	0.884485
819.736970	0.871899
820.055466	0.854882
820.373919	0.837008
820.692327	0.811838
821.010691	0.782819
821.329011	0.713692
821.647286	0.609392
821.965517	0.508745
822.283704	0.470486
822.601847	0.474316
822.919945	0.513334
823.237999	0.554200
823.556010	0.596561
823.873976	0.645545
824.191897	0.688734
824.509775	0.724512
824.827609	0.757774
825.145398	0.777517
825.463144	0.778005
825.780845	0.765788
826.098502	0.747624
826.416116	0.710303
826.733685	0.671567
827.051210	0.665072
827.368692	0.679911
827.686129	0.715921
828.003522	0.758386
828.320872	0.796837
828.638177	0.830662
828.955439	0.855142
829.272656	0.871267
829.589830	0.884012
829.906960	0.896837
830.224046	0.905190
830.541088	0.914192
830.858086	0.917913
831.175041	0.922821
831.491952	0.921872
831.808819	0.919029
832.125642	0.913805
832.442421	0.903910
832.759157	0.886457
833.075849	0.848309
833.392497	0.797008
833.709101	0.767379
834.025662	0.777318
834.342179	0.803059
834.658653	0.834522
834.975083	0.861276
835.291469	0.883460
835.607811	0.899719
835.924110	0.912019
836.240366	0.923964
836.556578	0.933223
836.872746	0.938487
837.188871	0.942736
837.504952	0.946281
837.820990	0.949722
838.136984	0.952166
838.452935	0.954196
838.768842	0.954890
839.084706	0.950294
839.400526	0.930717
839.716303	0.897941
840.032037	0.880741
840.347727	0.885938
840.663373	0.901751
840.978977	0.918824
841.294537	0.935975
841.610054	0.945915
841.925527	0.952615
842.240957	0.957760
842.556344	0.962471
842.871687	0.965915
843.186987	0.968123
843.502244	0.968768
843.817458	0.970627
844.132629	0.974266
844.447756	0.975742
844.762840	0.976233
845.077881	0.977032
845.392879	0.975100
845.707833	0.978711
846.022745	0.979138
846.337613	0.980915
846.652438	0.980057
846.967221	0.979867
847.281960	0.980542
847.596656	0.980700
847.911309	0.981350
848.225919	0.980620
848.540485	0.982352
848.855009	0.983114
849.169490	0.982461
849.483928	0.981769
849.798323	0.981890
850.112675	0.984242
850.426984	0.983168
850.741251	0.984513
851.055474	0.983296
851.369654	0.982483
851.683792	0.982491
851.997887	0.983644
852.311938	0.983785
852.625947	0.982000
852.939914	0.981698
853.253837	0.984660
853.567718	0.983919
853.881555	0.983839
854.195350	0.982537
854.509103	0.983228
854.822812	0.984222
855.136479	0.983411
855.450103	0.983564
855.763685	0.983182
856.077224	0.983898
856.390720	0.984341
856.704173	0.984077
857.017584	0.983268
857.330953	0.982024
857.644278	0.981541
857.957561	0.981594
858.270802	0.983519
858.584000	0.983022
858.897155	0.982261
859.210268	0.981300
859.523339	0.983692
859.836367	0.984034
860.149352	0.983799
860.462295	0.984467
860.775195	0.984166
861.088054	0.983188
861.400869	0.984503
861.713642	0.983458
862.026373	0.985078
862.339062	0.984959
862.651708	0.984721
862.964312	0.982464
863.276873	0.984034
863.589392	0.982392
863.901869	0.981065
864.214303	0.979634
864.526696	0.980212
864.839045	0.978946
865.151353	0.978679
865.463619	0.978922
865.775842	0.980614
866.088023	0.980278
866.400162	0.979150
866.712258	0.981170
867.024313	0.980758
867.336325	0.982632
867.648296	0.981121
867.960224	0.979370
868.272110	0.980508
868.583954	0.981169
868.895755	0.981846
869.207515	0.979595
869.519233	0.978509
869.830909	0.978222
870.142542	0.978782
870.454134	0.979361
870.765684	0.977270
871.077191	0.977856
871.388657	0.977148
871.700081	0.976940
872.011463	0.977980
872.322803	0.976880
872.634101	0.974545
872.945357	0.974353
873.256571	0.972619
873.567744	0.973442
873.878874	0.974677
874.189963	0.973371
874.501010	0.974770
874.812015	0.973534
875.122979	0.973332
875.433900	0.974309
875.744780	0.974587
876.055618	0.972655
876.366415	0.972252
876.677169	0.971940
876.987882	0.971948
877.298554	0.973651
877.609183	0.972690
877.919771	0.971474
878.230317	0.970561
878.540822	0.967423
878.851285	0.965447
879.161707	0.960287
879.472087	0.954057
879.782425	0.940698
880.092722	0.918527
880.402977	0.879284
880.713191	0.826901
881.023363	0.773319
881.333494	0.742142
881.643583	0.724075
881.953631	0.730646
882.263637	0.756436
882.573602	0.789580
882.883526	0.811749
883.193408	0.832679
883.503248	0.850864
883.813048	0.871686
884.122806	0.891626
884.432522	0.907749
884.742197	0.922402
885.051831	0.929266
885.361424	0.937023
885.670975	0.944860
885.980485	0.950537
886.289954	0.954192
886.599382	0.956080
886.908768	0.960665
887.218113	0.962419
887.527417	0.966541
887.836680	0.968163
888.145901	0.970396
888.455082	0.973156
888.764221	0.974489
889.073319	0.974637
889.382376	0.976505
889.691392	0.975162
890.000366	0.975601
890.309300	0.976209
890.618193	0.976143
890.927044	0.974455
891.235855	0.974323
891.544625	0.974829
891.853353	0.974567
892.162041	0.971186
892.470687	0.970148
892.779293	0.965470
893.087858	0.962168
893.396381	0.956939
893.704864	0.947976
894.013306	0.931754
894.321707	0.913707
894.630068	0.902239
894.938387	0.899864
895.246665	0.903504
895.554903	0.912802
895.863100	0.923777
896.171256	0.935108
896.479371	0.946155
896.787446	0.953945
897.095480	0.959025
897.403473	0.961612
897.711425	0.963843
898.019336	0.967342
898.327207	0.971172
898.635038	0.970259
898.942827	0.971493
899.250576	0.972818
899.558284	0.975773
899.865952	0.975076
900.173579	0.978032
900.481165	0.978470
900.788711	0.980175
901.096216	0.979683
901.403681	0.981904
901.711105	0.981308
902.018489	0.980913
902.325832	0.982204
902.633135	0.980607
902.940397	0.977849
903.247619	0.968848
903.554800	0.953510
903.861941	0.924761
904.169041	0.897787
904.476101	0.886580
904.783121	0.888889
905.090100	0.901265
905.397039	0.918700
905.703938	0.932137
906.010796	0.945721
906.317614	0.956748
906.624391	0.965352
906.931129	0.972149
907.237826	0.974625
907.544483	0.978840
907.851099	0.982594
908.157675	0.983632
908.464211	0.986149
908.770707	0.986008
909.077163	0.989098
909.383578	0.988748
909.689954	0.988477
909.996289	0.990224
910.302584	0.990874
910.608839	0.992217
910.915054	0.990697
911.221229	0.991607
911.527363	0.988907
911.833458	0.991181
912.139513	0.990487
912.445527	0.990144
912.751502	0.989349
913.057436	0.987456
913.363331	0.986839
913.669186	0.984996
913.975000	0.981004
914.280775	0.977855
914.586510	0.971804
914.892205	0.962787
915.197859	0.949080
915.503475	0.932560
915.809050	0.917790
916.114585	0.910765
916.420081	0.911302
916.725536	0.910718
917.030952	0.917494
917.336328	0.927352
917.641665	0.936412
917.946961	0.946448
918.252218	0.953679
918.557435	0.959261
918.862612	0.965404
919.167750	0.968675
919.472848	0.972622
919.777906	0.977214
920.082925	0.978605
920.387904	0.979892
920.692843	0.982139
920.997743	0.981742
921.302603	0.984907
921.607423	0.984614
921.912204	0.987309
922.216946	0.987484
922.521647	0.988704
922.826310	0.988883
923.130932	0.989698
923.435516	0.990735
923.740059	0.990928
924.044564	0.991761
924.349028	0.991526
924.653454	0.994809
924.957840	0.993641
925.262186	0.993373
925.566493	0.993775
925.870761	0.994135
926.174989	0.995295
926.479178	0.996538
926.783328	0.996754
927.087438	0.996366
927.391509	0.996116
927.695541	0.997636
927.999533	0.997982
928.303486	0.997151
928.607400	0.996880
928.911275	0.997985
929.215110	0.999291
929.518906	0.998573
929.822663	0.998322
930.126381	0.998836
930.430060	0.997972
930.733699	0.998816
931.037299	0.998278
931.340861	0.998202
931.644383	0.997011
931.947866	0.997449
932.251309	0.998001
932.554714	0.997963
932.858080	0.998727
933.161407	0.996966
933.464694	0.997627
933.767943	0.998663
934.071153	0.999112
934.374323	0.998216
934.677455	0.997311
934.980548	0.998356
935.283602	0.999052
935.586617	0.998238
935.889593	1.000140
936.192530	0.999155
936.495428	0.997812
936.798287	0.997919
937.101108	0.997100
937.403890	0.997014
937.706632	0.997094
938.009336	0.997054
938.312002	0.994042
938.614628	0.995014
938.917216	0.993082
939.219765	0.993651
939.522275	0.993619
939.824747	0.994278
940.127179	0.993837
940.429573	0.996071
940.731929	0.993499
941.034246	0.993984
941.336524	0.994122
941.638763	0.995737
941.940964	0.995672
942.243126	0.995656
942.545250	0.996676
942.847335	0.996895
943.149381	0.997247
943.451389	0.996590
943.753359	0.997702
944.055290	0.999413
944.357182	0.998004
944.659036	0.998573
944.960851	0.999103
945.262628	0.998962
945.564367	0.997905
945.866067	0.997755
946.167729	0.997852
946.469352	0.999233
946.770937	0.995077
947.072484	0.999191
947.373992	0.999372
947.675462	0.998362
947.976893	0.998096
948.278286	0.999882
948.579641	0.999646
948.880958	0.998989
949.182236	0.999558
949.483476	0.998770
949.784678	0.999552
950.085841	0.998166
950.386967	0.998989
950.688054	0.999484
950.989103	0.996521
951.290114	0.997873
951.591087	0.998264
951.892021	0.997787
952.192917	0.996836
952.493776	0.997014
952.794596	0.997620
953.095378	0.995893
953.396122	0.997286
953.696828	0.996519
953.997496	0.996842
954.298126	0.999317
954.598718	0.997731
954.899272	0.998131
955.199788	0.998047
955.500266	0.999259
955.800706	0.999534
956.101108	0.998674
956.401472	1.000864
956.701798	0.999873
957.002087	0.999812
957.302337	1.000284
957.602550	1.000702
957.902724	1.000206
958.202861	1.000864
958.502960	1.001233
958.803022	1.002609
959.103045	1.001239
959.403031	1.001810
959.702979	1.002712
960.002889	1.001321
960.302762	1.000524
960.602596	1.001552
960.902393	1.001445
961.202153	1.002860
961.501875	1.002464
961.801559	1.002014
962.101205	1.001657
962.400814	1.002998
962.700385	1.002022
962.999918	1.002042
963.299414	1.001083
963.598873	1.003234
963.898293	1.003035
964.197677	1.001945
964.497022	1.001772
964.796331	1.002671
965.095601	1.003045
965.394835	1.002456
965.694030	1.004003
965.993189	1.001519
966.292309	1.003457
966.591393	1.001508
966.890439	1.002951
967.189447	1.001698
967.488419	1.001995
967.787353	1.002079
968.086249	1.003107
968.385108	1.001893
968.683930	1.003260
968.982714	1.002360
969.281462	1.002568
969.580172	1.002203
969.878844	1.003730
970.177480	1.002205
970.476078	1.003450
970.774639	1.003288
971.073162	1.002092
971.371649	1.001405
971.670098	1.002121
971.968510	1.002052
972.266885	1.000899
972.565223	1.002160
972.863524	1.001609
973.161788	1.002094
973.460014	1.002990
973.758204	1.001029
974.056356	1.002368
974.354471	1.000960
974.652550	1.002870
974.950591	1.002060
975.248595	1.001508
975.546563	1.002711
975.844493	1.002718
976.142386	1.002578
976.440243	1.002626
976.738062	1.003009
977.035845	1.001147
977.333590	1.003844
977.631299	1.002333
977.928971	1.002546
978.226606	1.001975
978.524204	1.001183
978.821765	1.002963
979.119290	1.004012
979.416777	1.001518
979.714228	1.003561
980.011642	1.001986
980.309020	1.003023
980.606360	1.001859
980.903664	1.002260
981.200931	1.002495
981.498162	1.001625
981.795356	1.002535
982.092513	0.999968
982.389633	1.001852
982.686717	0.999436
982.983764	0.998540
983.280775	0.999202
983.577749	0.999599
983.874686	0.999704
984.171587	0.999955
984.468451	1.001006
984.765279	1.001114
985.062070	1.001656
985.358824	1.002304
985.655543	1.002408
985.952224	1.003032
986.248869	1.001927
986.545478	1.003384
986.842050	1.002314
987.138586	1.002345
987.435086	1.002770
987.731549	1.003448
988.027975	1.004166
988.324366	1.002327
988.620719	1.003750
988.917037	1.001701
989.213318	1.003255
989.509563	1.002896
989.805772	1.003980
990.101944	1.004364
990.398080	1.003553
990.694180	1.003856
990.990244	1.002418
991.286271	1.002794
991.582262	1.003886
991.878217	1.003765
992.174136	1.004643
992.470019	1.003441
992.765865	1.004494
993.061676	1.003121
993.357450	1.003396
993.653188	1.003901
993.948890	1.002714
994.244556	1.002474
994.540186	1.002817
994.835780	1.002152
995.131337	1.004022
995.426859	1.002328
995.722345	1.001478
996.017795	1.001902
996.313208	1.003441
996.608586	1.002278
996.903928	1.002808
997.199234	1.001889
997.494504	1.003439
997.789738	1.002806
998.084936	1.002816
998.380099	1.002209
998.675225	1.004269
998.970316	1.003116
999.265371	1.002950
999.560390	1.002943
999.855373	1.003166
1000.150320	1.003089
1000.445232	1.002670
1000.740108	1.003068
1001.034948	1.002294
1001.329752	1.004195
1001.624521	1.003485
1001.919254	1.003210
1002.213951	1.004530
1002.508613	1.003096
1002.803239	1.003461
1003.097829	1.004559
1003.392384	1.003718
1003.686903	1.003651
1003.981386	1.004092
1004.275834	1.003575
1004.570246	1.002767
1004.864623	1.003824
1005.158964	1.004632
1005.453270	1.003560
1005.747540	1.003077
1006.041775	1.003671
1006.335974	1.004144
1006.630138	1.003858
1006.924266	1.002657
1007.218359	1.002112
1007.512416	1.005180
1007.806438	1.003050
1008.100425	1.003878
1008.394376	1.005764
1008.688292	1.002365
1008.982172	1.002458
1009.276017	1.004386
1009.569827	1.005147
1009.863602	1.002434
1010.157341	1.004588
1010.451045	1.002958
1010.744714	1.005553
1011.038347	1.004913
1011.331945	1.003381
1011.625508	1.003014
1011.919036	1.003702
1012.212528	1.004499
1012.505986	1.003683
1012.799408	1.005262
1013.092795	1.003329
1013.386147	1.004424
1013.679464	1.005492
1013.972745	1.003293
1014.265992	1.004368
1014.559204	1.003799
1014.852380	1.004735
1015.145521	1.004218
1015.438628	1.003648
1015.731699	1.004464
1016.024736	1.005490
1016.317737	1.003985
1016.610703	1.004291
1016.903635	1.004539
1017.196531	1.003163
1017.489393	1.003486
1017.782219	1.003099
1018.075011	1.003624
1018.367768	1.003214
1018.660490	1.004311
1018.953177	1.004311
1019.245829	1.004311
