Dividing Wavelength (nm)	Counts (n)	Blue Motor Position (mm): 2.800000	Red Motor Position (mm): 0.000000	
326.493990	1.005952
326.888308	1.005952
327.282561	1.005952
327.676750	1.006822
328.070874	1.007109
328.464933	1.007811
328.858929	1.008009
329.252859	1.007628
329.646726	1.005831
330.040528	1.006598
330.434265	1.005533
330.827938	1.006374
331.221547	1.007153
331.615091	1.007119
332.008571	1.008114
332.401986	1.005252
332.795338	1.007346
333.188625	1.006864
333.581847	1.006029
333.975006	1.007140
334.368100	1.007679
334.761129	1.006426
335.154095	1.006145
335.546996	1.004054
335.939833	0.998819
336.332606	1.000239
336.725315	0.998298
337.117960	0.999549
337.510540	0.998980
337.903056	0.999607
338.295508	1.001831
338.687896	1.000310
339.080220	0.999168
339.472480	0.999421
339.864676	1.000498
340.256807	0.998774
340.648875	1.000284
341.040879	0.998721
341.432818	1.000169
341.824694	0.999240
342.216506	0.999915
342.608253	1.000109
342.999937	0.998134
343.391557	0.999440
343.783113	1.000388
344.174605	1.001176
344.566033	0.998767
344.957397	1.000677
345.348697	1.000773
345.739934	0.999535
346.131106	0.998599
346.522215	0.998551
346.913260	1.000295
347.304241	0.998541
347.695159	0.999886
348.086012	0.998873
348.476802	0.999518
348.867528	0.997935
349.258191	0.999719
349.648789	0.998466
350.039324	0.998171
350.429796	0.999194
350.820203	0.997561
351.210548	0.998778
351.600828	0.999136
351.991045	0.998739
352.381198	0.999475
352.771288	0.998942
353.161314	1.000751
353.551276	0.997956
353.941175	0.997520
354.331010	0.999589
354.720782	0.999926
355.110490	0.999270
355.500135	0.999500
355.889717	0.997760
356.279235	0.997358
356.668689	0.999007
357.058080	0.998343
357.447408	0.997576
357.836672	0.998595
358.225873	0.999124
358.615010	0.998252
359.004084	0.997561
359.393095	0.998793
359.782043	0.997420
360.170927	0.997118
360.559748	0.998545
360.948505	0.997649
361.337199	0.997469
361.725830	0.998740
362.114398	0.998059
362.502903	0.997086
362.891344	0.997295
363.279722	0.997694
363.668037	0.997810
364.056289	0.997300
364.444478	0.998430
364.832603	0.997372
365.220665	0.997443
365.608665	0.997528
365.996601	0.998072
366.384474	0.995878
366.772284	0.996699
367.160031	0.995764
367.547715	0.995768
367.935336	0.994570
368.322893	0.994137
368.710388	0.993826
369.097820	0.990869
369.485189	0.988176
369.872495	0.987694
370.259738	0.985446
370.646918	0.982550
371.034035	0.980091
371.421090	0.977551
371.808081	0.972302
372.195010	0.968971
372.581875	0.964445
372.968678	0.959610
373.355418	0.956025
373.742096	0.948880
374.128710	0.944396
374.515262	0.940063
374.901751	0.933834
375.288177	0.929904
375.674540	0.921705
376.060841	0.916176
376.447079	0.909152
376.833254	0.901651
377.219367	0.898100
377.605417	0.886843
377.991404	0.884002
378.377329	0.876878
378.763191	0.870644
379.148991	0.861747
379.534727	0.853932
379.920402	0.846110
380.306013	0.842113
380.691563	0.829075
381.077049	0.822836
381.462474	0.818607
381.847835	0.807903
382.233134	0.802769
382.618371	0.804004
383.003545	0.785370
383.388657	0.783764
383.773706	0.776581
384.158693	0.772504
384.543618	0.767393
384.928480	0.757982
385.313280	0.747750
385.698017	0.747812
386.082692	0.736056
386.467305	0.734211
386.851856	0.729081
387.236344	0.723410
387.620770	0.717843
388.005133	0.712094
388.389435	0.707162
388.773674	0.703700
389.157851	0.696019
389.541965	0.693660
389.926018	0.699818
390.310008	0.687038
390.693936	0.684039
391.077802	0.676265
391.461606	0.677503
391.845348	0.667400
392.229027	0.666148
392.612645	0.664959
392.996200	0.651220
393.379694	0.644317
393.763125	0.635320
394.146494	0.639227
394.529801	0.630091
394.913047	0.621730
395.296230	0.627960
395.679351	0.618716
396.062410	0.615948
396.445408	0.618421
396.828343	0.613441
397.211217	0.608685
397.594028	0.620670
397.976778	0.610918
398.359466	0.608275
398.742092	0.603590
399.124656	0.614661
399.507158	0.603342
399.889598	0.600718
400.271977	0.591540
400.654294	0.595407
401.036549	0.594685
401.418742	0.599326
401.800874	0.584622
402.182944	0.581750
402.564952	0.573199
402.946898	0.575298
403.328783	0.575883
403.710606	0.587374
404.092367	0.562176
404.474067	0.567337
404.855705	0.566751
405.237282	0.574338
405.618797	0.560571
406.000250	0.557278
406.381642	0.546831
406.762972	0.552406
407.144240	0.550545
407.525447	0.550514
407.906593	0.543352
408.287677	0.538226
408.668700	0.546833
409.049661	0.541091
409.430560	0.535808
409.811399	0.545512
410.192176	0.526639
410.572891	0.533699
410.953545	0.522198
411.334138	0.535382
411.714669	0.527241
412.095139	0.540441
412.475547	0.524439
412.855894	0.525739
413.236180	0.524684
413.616405	0.530156
413.996568	0.520945
414.376670	0.526811
414.756711	0.531783
415.136691	0.528654
415.516609	0.519782
415.896466	0.516559
416.276262	0.512394
416.655997	0.514911
417.035670	0.495178
417.415283	0.487461
417.794834	0.491790
418.174324	0.497718
418.553753	0.507023
418.933121	0.489263
419.312428	0.482435
419.691674	0.489093
420.070859	0.476913
420.449983	0.484749
420.829045	0.473876
421.208047	0.483034
421.586988	0.476219
421.965867	0.475099
422.344686	0.463888
422.723444	0.475927
423.102141	0.493574
423.480777	0.466248
423.859352	0.487050
424.237866	0.464048
424.616319	0.464896
424.994712	0.455555
425.373044	0.466147
425.751314	0.454028
426.129524	0.470852
426.507673	0.453681
426.885762	0.447331
427.263789	0.453267
427.641756	0.462900
428.019662	0.453160
428.397508	0.452477
428.775292	0.456566
429.153016	0.448420
429.530679	0.454774
429.908282	0.448077
430.285824	0.458283
430.663305	0.436351
431.040726	0.457442
431.418086	0.457604
431.795385	0.448982
432.172624	0.448785
432.549802	0.448676
432.926920	0.447177
433.303977	0.446880
433.680974	0.444450
434.057910	0.443060
434.434786	0.442023
434.811601	0.445013
435.188355	0.427420
435.565050	0.436791
435.941683	0.437642
436.318257	0.421683
436.694770	0.422771
437.071222	0.421072
437.447614	0.425304
437.823946	0.431539
438.200218	0.421026
438.576429	0.431114
438.952580	0.424130
439.328670	0.420488
439.704700	0.426867
440.080670	0.428029
440.456580	0.409477
440.832429	0.417283
441.208218	0.427975
441.583947	0.417197
441.959616	0.416944
442.335224	0.422617
442.710773	0.412947
443.086261	0.411268
443.461689	0.424883
443.837057	0.415188
444.212365	0.405020
444.587612	0.412096
444.962800	0.401622
445.337927	0.403050
445.712995	0.429633
446.088002	0.391257
446.462949	0.402142
446.837837	0.406631
447.212664	0.395142
447.587431	0.386904
447.962139	0.356997
448.336786	0.316302
448.711374	0.326592
449.085901	0.371313
449.460369	0.374983
449.834776	0.378876
450.209124	0.357693
450.583412	0.350842
450.957640	0.343659
451.331808	0.355109
451.705917	0.378132
452.079965	0.383406
452.453954	0.371395
452.827883	0.378031
453.201752	0.373183
453.575562	0.384017
453.949311	0.372528
454.323001	0.378850
454.696632	0.374833
455.070202	0.367169
455.443713	0.359308
455.817164	0.353650
456.190556	0.349863
456.563888	0.346508
456.937160	0.343852
457.310373	0.361647
457.683526	0.359972
458.056619	0.365938
458.429653	0.366502
458.802628	0.370020
459.175542	0.364467
459.548398	0.346940
459.921194	0.339308
460.293930	0.339289
460.666607	0.317211
461.039224	0.305376
461.411782	0.300515
461.784280	0.300083
462.156719	0.304133
462.529099	0.308677
462.901419	0.324755
463.273680	0.328701
463.645882	0.328378
464.018024	0.334412
464.390106	0.326791
464.762130	0.311598
465.134094	0.294754
465.505999	0.263585
465.877845	0.233865
466.249631	0.220762
466.621358	0.228281
466.993026	0.242094
467.364634	0.248569
467.736184	0.257105
468.107674	0.265938
468.479105	0.265174
468.850477	0.271770
469.221790	0.278571
469.593043	0.289086
469.964238	0.293626
470.335373	0.293154
470.706449	0.291401
471.077467	0.292163
471.448425	0.253896
471.819324	0.229363
472.190164	0.228959
472.560945	0.257872
472.931667	0.280106
473.302330	0.284044
473.672934	0.296148
474.043479	0.284369
474.413965	0.286407
474.784393	0.289584
475.154761	0.284702
475.525070	0.281852
475.895321	0.287548
476.265513	0.282069
476.635645	0.277183
477.005719	0.276844
477.375734	0.273519
477.745691	0.266858
478.115588	0.263293
478.485427	0.256529
478.855207	0.243510
479.224928	0.225881
479.594591	0.213942
479.964194	0.217398
480.333739	0.218736
480.703226	0.220021
481.072653	0.218492
481.442022	0.214247
481.811333	0.210671
482.180584	0.214253
482.549777	0.219752
482.918912	0.222870
483.287988	0.222473
483.657005	0.222473
484.025964	0.228440
484.394864	0.226030
484.763706	0.226692
485.132489	0.231545
485.501213	0.232617
485.869879	0.230647
486.238487	0.233791
486.607036	0.231845
486.975527	0.236407
487.343959	0.232350
487.712333	0.231451
488.080648	0.232753
488.448905	0.231970
488.817104	0.233221
489.185244	0.227895
489.553326	0.224465
489.921350	0.214376
490.289315	0.196972
490.657222	0.191740
491.025070	0.193119
491.392861	0.195124
491.760593	0.200795
492.128267	0.206729
492.495883	0.211826
492.863440	0.218457
493.230939	0.224909
493.598380	0.226208
493.965763	0.228680
494.333088	0.230347
494.700354	0.232165
495.067563	0.231126
495.434713	0.234378
495.801805	0.232087
496.168839	0.233748
496.535815	0.235189
496.902733	0.235190
497.269593	0.236512
497.636395	0.234374
498.003139	0.234626
498.369825	0.237680
498.736453	0.234414
499.103023	0.235734
499.469535	0.235032
499.835989	0.235368
500.202385	0.236172
500.568723	0.239747
500.935003	0.234756
501.301226	0.239012
501.667390	0.233218
502.033497	0.231318
502.399546	0.234261
502.765537	0.236201
503.131470	0.234579
503.497345	0.230969
503.863163	0.239359
504.228923	0.232516
504.594625	0.231231
504.960269	0.236700
505.325856	0.232108
505.691385	0.236406
506.056856	0.233153
506.422270	0.232367
506.787625	0.234863
507.152924	0.232425
507.518164	0.232727
507.883347	0.234385
508.248472	0.236375
508.613540	0.231079
508.978550	0.233620
509.343503	0.234099
509.708398	0.231914
510.073236	0.229421
510.438016	0.229199
510.802738	0.230159
511.167403	0.229353
511.532010	0.231515
511.896561	0.226540
512.261053	0.225443
512.625488	0.227567
512.989866	0.227865
513.354186	0.227950
513.718449	0.230146
514.082655	0.226391
514.446803	0.228609
514.810894	0.226254
515.174927	0.229088
515.538904	0.228326
515.902822	0.225301
516.266684	0.227595
516.630488	0.228799
516.994235	0.227683
517.357925	0.226697
517.721558	0.224568
518.085133	0.224328
518.448651	0.224258
518.812112	0.226500
519.175516	0.226368
519.538863	0.223669
519.902152	0.225489
520.265385	0.222213
520.628560	0.224139
520.991678	0.224265
521.354739	0.223405
521.717743	0.224664
522.080690	0.224778
522.443580	0.222380
522.806413	0.223173
523.169189	0.222522
523.531908	0.221559
523.894569	0.224818
524.257174	0.225117
524.619722	0.222614
524.982213	0.223628
525.344647	0.222250
525.707025	0.223583
526.069345	0.221419
526.431608	0.223467
526.793815	0.221305
527.155964	0.225586
527.518057	0.224547
527.880093	0.225242
528.242072	0.223982
528.603995	0.226010
528.965860	0.227413
529.327669	0.226592
529.689421	0.227365
530.051117	0.228213
530.412755	0.225984
530.774337	0.228194
531.135862	0.228659
531.497331	0.228005
531.858743	0.230941
532.220098	0.227418
532.581396	0.230143
532.942638	0.230598
533.303824	0.231689
533.664953	0.231057
534.026025	0.233254
534.387040	0.230919
534.747999	0.230891
535.108902	0.229925
535.469748	0.234766
535.830537	0.232805
536.191270	0.233087
536.551947	0.232498
536.912567	0.232496
537.273131	0.234221
537.633638	0.234778
537.994089	0.234922
538.354483	0.235946
538.714821	0.232991
539.075103	0.233002
539.435328	0.233751
539.795497	0.237220
540.155609	0.233916
540.515665	0.231839
540.875665	0.237488
541.235609	0.235923
541.595496	0.236284
541.955328	0.232983
542.315102	0.235505
542.674821	0.236545
543.034483	0.236814
543.394090	0.236267
543.753640	0.238326
544.113134	0.233072
544.472571	0.236550
544.831953	0.233399
545.191278	0.237549
545.550548	0.236624
545.909761	0.233740
546.268918	0.234581
546.628019	0.232830
546.987064	0.235536
547.346053	0.237056
547.704986	0.234955
548.063863	0.235197
548.422684	0.235672
548.781449	0.237248
549.140158	0.235260
549.498811	0.237829
549.857408	0.240747
550.215949	0.235868
550.574434	0.238712
550.932864	0.237058
551.291237	0.235049
551.649555	0.237078
552.007817	0.236474
552.366022	0.237553
552.724173	0.237651
553.082267	0.237727
553.440305	0.234636
553.798288	0.239328
554.156215	0.235657
554.514086	0.236565
554.871902	0.239749
555.229661	0.238701
555.587365	0.239543
555.945014	0.241970
556.302606	0.238930
556.660143	0.241529
557.017625	0.238037
557.375050	0.240387
557.732421	0.237218
558.089735	0.239169
558.446994	0.239032
558.804197	0.238535
559.161345	0.238289
559.518437	0.241443
559.875474	0.239704
560.232455	0.239171
560.589381	0.240374
560.946251	0.240270
561.303065	0.237842
561.659825	0.239215
562.016528	0.241035
562.373177	0.243428
562.729770	0.241088
563.086307	0.242767
563.442789	0.241049
563.799216	0.243462
564.155587	0.242593
564.511904	0.243771
564.868164	0.243485
565.224370	0.243201
565.580520	0.245054
565.936615	0.244928
566.292654	0.247958
566.648638	0.245221
567.004567	0.245898
567.360441	0.246709
567.716260	0.248404
568.072023	0.246178
568.427732	0.246703
568.783385	0.249432
569.138982	0.247503
569.494525	0.247237
569.850013	0.250593
570.205445	0.248734
570.560823	0.251205
570.916145	0.253016
571.271412	0.251539
571.626625	0.253124
571.981782	0.253415
572.336884	0.254164
572.691931	0.253949
573.046923	0.255304
573.401860	0.256419
573.756743	0.258019
574.111570	0.256968
574.466342	0.257591
574.821059	0.256448
575.175722	0.259758
575.530330	0.259181
575.884882	0.259558
576.239380	0.261837
576.593823	0.262074
576.948211	0.261520
577.302544	0.265060
577.656823	0.264618
578.011047	0.264372
578.365216	0.265036
578.719330	0.267399
579.073389	0.266781
579.427394	0.268325
579.781344	0.269129
580.135239	0.270279
580.489080	0.270300
580.842866	0.273218
581.196597	0.272857
581.550273	0.271433
581.903895	0.272291
582.257463	0.270564
582.610975	0.273978
582.964434	0.273508
583.317837	0.275924
583.671186	0.276496
584.024481	0.276553
584.377721	0.278891
584.730906	0.279775
585.084037	0.278972
585.437113	0.280773
585.790135	0.280294
586.143103	0.283579
586.496016	0.284322
586.848874	0.282011
587.201679	0.282541
587.554428	0.285647
587.907124	0.284650
588.259765	0.285176
588.612352	0.285664
588.964884	0.289502
589.317362	0.289309
589.669786	0.289261
590.022155	0.287269
590.374470	0.287010
590.726731	0.288848
591.078937	0.293851
591.431090	0.290189
591.783188	0.294316
592.135232	0.295058
592.487222	0.294786
592.839157	0.292951
593.191038	0.295335
593.542866	0.297298
593.894639	0.300110
594.246358	0.299177
594.598022	0.298171
594.949633	0.301867
595.301190	0.302846
595.652692	0.301259
596.004141	0.297685
596.355535	0.305695
596.706876	0.306405
597.058162	0.309310
597.409395	0.305831
597.760573	0.303900
598.111698	0.307255
598.462768	0.307681
598.813785	0.308430
599.164748	0.310187
599.515657	0.310515
599.866511	0.314245
600.217312	0.309180
600.568060	0.314801
600.918753	0.310768
601.269392	0.311789
601.619978	0.315012
601.970510	0.312630
602.320988	0.312893
602.671412	0.310691
603.021783	0.313153
603.372100	0.313866
603.722363	0.314191
604.072572	0.315156
604.422728	0.314709
604.772830	0.316788
605.122878	0.316701
605.472872	0.317246
605.822813	0.315642
606.172701	0.318314
606.522534	0.315608
606.872314	0.315606
607.222041	0.316560
607.571714	0.314564
607.921333	0.315967
608.270899	0.315638
608.620411	0.312604
608.969870	0.315882
609.319276	0.316677
609.668627	0.315968
610.017926	0.314812
610.367171	0.313412
610.716362	0.314202
611.065500	0.314444
611.414585	0.313133
611.763616	0.313511
612.112594	0.314080
612.461518	0.313195
612.810389	0.311032
613.159207	0.313310
613.507971	0.314878
613.856682	0.311340
614.205340	0.312098
614.553945	0.309560
614.902496	0.313348
615.250994	0.311063
615.599439	0.312046
615.947830	0.311312
616.296169	0.312404
616.644454	0.311775
616.992686	0.312117
617.340864	0.310039
617.688990	0.313170
618.037063	0.309915
618.385082	0.311827
618.733048	0.308690
619.080961	0.311149
619.428821	0.310635
619.776628	0.309928
620.124382	0.312317
620.472083	0.312781
620.819731	0.311998
621.167326	0.315470
621.514868	0.315335
621.862357	0.319960
622.209793	0.318848
622.557176	0.321650
622.904506	0.322742
623.251783	0.325312
623.599007	0.327418
623.946179	0.326831
624.293297	0.329136
624.640363	0.332967
624.987376	0.333195
625.334336	0.335657
625.681243	0.337857
626.028097	0.338796
626.374899	0.339846
626.721647	0.340500
627.068343	0.343084
627.414987	0.344744
627.761577	0.345930
628.108115	0.344315
628.454600	0.349992
628.801032	0.347657
629.147412	0.349547
629.493739	0.350044
629.840014	0.352846
630.186236	0.349658
630.532405	0.355869
630.878521	0.353013
631.224585	0.355308
631.570597	0.359151
631.916556	0.357747
632.262462	0.357217
632.608316	0.359654
632.954117	0.360318
633.299866	0.361646
633.645562	0.361626
633.991206	0.366292
634.336797	0.369199
634.682336	0.371295
635.027823	0.372849
635.373257	0.373728
635.718639	0.377437
636.063968	0.376426
636.409245	0.382212
636.754470	0.382953
637.099642	0.385347
637.444762	0.388507
637.789829	0.387485
638.134845	0.391198
638.479808	0.392278
638.824719	0.391855
639.169577	0.396061
639.514383	0.394762
639.859137	0.399555
640.203839	0.398915
640.548489	0.399597
640.893086	0.400449
641.237632	0.402451
641.582125	0.401390
641.926566	0.403399
642.270955	0.402660
642.615292	0.402508
642.959576	0.401849
643.303809	0.403205
643.647990	0.402652
643.992118	0.402944
644.336195	0.406050
644.680219	0.404791
645.024192	0.405402
645.368112	0.399268
645.711981	0.398147
646.055797	0.393199
646.399562	0.395549
646.743274	0.388081
647.086935	0.385268
647.430544	0.385286
647.774101	0.384008
648.117606	0.383592
648.461059	0.384587
648.804460	0.387079
649.147810	0.391966
649.491108	0.393697
649.834354	0.395182
650.177548	0.400337
650.520690	0.405929
650.863781	0.407458
651.206820	0.406378
651.549807	0.410872
651.892742	0.415393
652.235626	0.415523
652.578458	0.415781
652.921238	0.421922
653.263967	0.419466
653.606644	0.422941
653.949269	0.423494
654.291843	0.427265
654.634365	0.424086
654.976836	0.426926
655.319255	0.427840
655.661622	0.429306
656.003938	0.429030
656.346203	0.431661
656.688416	0.429681
657.030577	0.433188
657.372687	0.435690
657.714746	0.436321
658.056753	0.432719
658.398708	0.436395
658.740612	0.437804
659.082465	0.434080
659.424266	0.434909
659.766016	0.434190
660.107715	0.437347
660.449362	0.435739
660.790958	0.435597
661.132503	0.437540
661.473996	0.434369
661.815438	0.435695
662.156829	0.435645
662.498168	0.436798
662.839456	0.437708
663.180693	0.435097
663.521879	0.435294
663.863013	0.436757
664.204097	0.434453
664.545129	0.431598
664.886110	0.431956
665.227040	0.429849
665.567918	0.432330
665.908746	0.430031
666.249522	0.429550
666.590248	0.430533
666.930922	0.428529
667.271545	0.427811
667.612118	0.427424
667.952639	0.429140
668.293109	0.428002
668.633528	0.430509
668.973896	0.430997
669.314213	0.431453
669.654480	0.432917
669.994695	0.433073
670.334859	0.433800
670.674973	0.434550
671.015035	0.434404
671.355047	0.434305
671.695008	0.435067
672.034918	0.437311
672.374777	0.437021
672.714585	0.437634
673.054342	0.437638
673.394049	0.437753
673.733705	0.435816
674.073310	0.436931
674.412864	0.439684
674.752368	0.439891
675.091820	0.440273
675.431223	0.444808
675.770574	0.444344
676.109875	0.447758
676.449125	0.447165
676.788324	0.450224
677.127473	0.455253
677.466571	0.455151
677.805619	0.456458
678.144616	0.458338
678.483562	0.460009
678.822458	0.462610
679.161303	0.462781
679.500098	0.463695
679.838842	0.465231
680.177535	0.464163
680.516179	0.463147
680.854771	0.462235
681.193314	0.455495
681.531805	0.446702
681.870247	0.435076
682.208638	0.428083
682.546978	0.426855
682.885268	0.428688
683.223508	0.434962
683.561697	0.438372
683.899836	0.440974
684.237925	0.444460
684.575963	0.447463
684.913951	0.450675
685.251889	0.445954
685.589776	0.447767
685.927614	0.451180
686.265401	0.444450
686.603137	0.445765
686.940824	0.440412
687.278460	0.438465
687.616046	0.437803
687.953582	0.433208
688.291068	0.433941
688.628504	0.429730
688.965889	0.432148
689.303224	0.436011
689.640510	0.439616
689.977745	0.444968
690.314930	0.453568
690.652065	0.458243
690.989150	0.465670
691.326185	0.472266
691.663170	0.476956
692.000105	0.484198
692.336990	0.490742
692.673825	0.493609
693.010610	0.500411
693.347345	0.506468
693.684030	0.507770
694.020665	0.512013
694.357251	0.520565
694.693786	0.521380
695.030272	0.524082
695.366707	0.528466
695.703093	0.531523
696.039429	0.529580
696.375716	0.531163
696.711952	0.534563
697.048139	0.535701
697.384276	0.538372
697.720363	0.536920
698.056400	0.535189
698.392388	0.540539
698.728326	0.543812
699.064214	0.547337
699.400053	0.547006
699.735842	0.552174
700.071581	0.554230
700.407270	0.556792
700.742910	0.559952
701.078501	0.566284
701.414042	0.566791
701.749533	0.569745
702.084974	0.579014
702.420366	0.571168
702.755709	0.578421
703.091002	0.585944
703.426246	0.580233
703.761440	0.585033
704.096584	0.591000
704.431679	0.587556
704.766725	0.590102
705.101721	0.591127
705.436668	0.587110
705.771565	0.594741
706.106413	0.590550
706.441212	0.586275
706.775961	0.585416
707.110661	0.587230
707.445311	0.584865
707.779913	0.581787
708.114465	0.580101
708.448967	0.577312
708.783421	0.569081
709.117825	0.563367
709.452180	0.563219
709.786485	0.557451
710.120742	0.546517
710.454949	0.548337
710.789107	0.540246
711.123216	0.531253
711.457275	0.532621
711.791286	0.524566
712.125247	0.523738
712.459159	0.533608
712.793023	0.526620
713.126837	0.530492
713.460602	0.530749
713.794318	0.539963
714.127985	0.538894
714.461602	0.549043
714.795171	0.552279
715.128691	0.560210
715.462162	0.567820
715.795584	0.573822
716.128957	0.576457
716.462281	0.582923
716.795556	0.586524
717.128782	0.592143
717.461960	0.601658
717.795088	0.600216
718.128167	0.606340
718.461198	0.614543
718.794180	0.616281
719.127113	0.618452
719.459997	0.621109
719.792833	0.627918
720.125619	0.628956
720.458357	0.635548
720.791046	0.635296
721.123686	0.637977
721.456278	0.645653
721.788821	0.642477
722.121315	0.647652
722.453761	0.651567
722.786158	0.648891
723.118506	0.644715
723.450805	0.653211
723.783056	0.649761
724.115259	0.646884
724.447412	0.646329
724.779518	0.646887
725.111574	0.646669
725.443582	0.641698
725.775542	0.644115
726.107453	0.636560
726.439315	0.636094
726.771129	0.634834
727.102895	0.627629
727.434612	0.620775
727.766281	0.618828
728.097901	0.617741
728.429473	0.617770
728.760996	0.615449
729.092471	0.616156
729.423897	0.620434
729.755276	0.618737
730.086606	0.619458
730.417887	0.614104
730.749120	0.604565
731.080305	0.594948
731.411442	0.590535
731.742530	0.594365
732.073570	0.594832
732.404562	0.587617
732.735506	0.589103
733.066401	0.593523
733.397249	0.602796
733.728048	0.614060
734.058798	0.627056
734.389501	0.637908
734.720156	0.648289
735.050762	0.656036
735.381320	0.656690
735.711831	0.665111
736.042293	0.669825
736.372707	0.666899
736.703073	0.671108
737.033391	0.672919
737.363661	0.669867
737.693883	0.665036
738.024056	0.663384
738.354182	0.664590
738.684260	0.653727
739.014290	0.649488
739.344272	0.650638
739.674207	0.643464
740.004093	0.643568
740.333931	0.644088
740.663722	0.643025
740.993464	0.644289
741.323159	0.648354
741.652806	0.652946
741.982405	0.658016
742.311956	0.662837
742.641460	0.665748
742.970915	0.668764
743.300323	0.675913
743.629683	0.681810
743.958996	0.685727
744.288260	0.688831
744.617477	0.695928
744.946647	0.696690
745.275768	0.702113
745.604842	0.702125
745.933869	0.712155
746.262847	0.712675
746.591778	0.705378
746.920662	0.713646
747.249498	0.719715
747.578286	0.710950
747.907027	0.706046
748.235720	0.707570
748.564365	0.702239
748.892963	0.701158
749.221514	0.705489
749.550017	0.708634
749.878473	0.710187
750.206881	0.717276
750.535242	0.716247
750.863555	0.715727
751.191821	0.717713
751.520039	0.721207
751.848210	0.724926
752.176334	0.718508
752.504411	0.717066
752.832440	0.724382
753.160421	0.729653
753.488356	0.727435
753.816243	0.724722
754.144082	0.733199
754.471875	0.737621
754.799620	0.733548
755.127318	0.734712
755.454969	0.734548
755.782572	0.734125
756.110129	0.738049
756.437638	0.741252
756.765100	0.738194
757.092515	0.735121
757.419882	0.733814
757.747203	0.740141
758.074477	0.739799
758.401703	0.736434
758.728882	0.731984
759.056014	0.729506
759.383099	0.729839
759.710138	0.730123
760.037129	0.726555
760.364073	0.719850
760.690970	0.722957
761.017820	0.727791
761.344623	0.723860
761.671379	0.714803
761.998088	0.703753
762.324751	0.680630
762.651366	0.636727
762.977935	0.569244
763.304456	0.517698
763.630931	0.508047
763.957359	0.548078
764.283740	0.591733
764.610074	0.619536
764.936362	0.651629
765.262602	0.678757
765.588796	0.699640
765.914943	0.717092
766.241044	0.736134
766.567097	0.741948
766.893104	0.752768
767.219064	0.758783
767.544978	0.766546
767.870845	0.778272
768.196665	0.782796
768.522438	0.781104
768.848165	0.783001
769.173846	0.792312
769.499479	0.796599
769.825066	0.800050
770.150607	0.805491
770.476101	0.801074
770.801548	0.802680
771.126949	0.814359
771.452303	0.817704
771.777611	0.816111
772.102872	0.814236
772.428087	0.820743
772.753256	0.823245
773.078378	0.825640
773.403453	0.834799
773.728482	0.839352
774.053465	0.832736
774.378401	0.836262
774.703291	0.844853
775.028135	0.845190
775.352932	0.845160
775.677683	0.849860
776.002388	0.850068
776.327046	0.848758
776.651658	0.854036
776.976224	0.857595
777.300743	0.855258
777.625216	0.857980
777.949643	0.860390
778.274024	0.858900
778.598359	0.862057
778.922647	0.858686
779.246889	0.861319
779.571086	0.863679
779.895236	0.867361
780.219339	0.865301
780.543397	0.860378
780.867409	0.859865
781.191374	0.861755
781.515294	0.863166
781.839167	0.863073
782.162995	0.864816
782.486776	0.861798
782.810511	0.863720
783.134201	0.868131
783.457844	0.864853
783.781441	0.867917
784.104993	0.873099
784.428498	0.872938
784.751958	0.870205
785.075372	0.871355
785.398739	0.875300
785.722061	0.870604
786.045337	0.868045
786.368568	0.871783
786.691752	0.874273
787.014891	0.860648
787.337983	0.851163
787.661030	0.844067
787.984031	0.825971
788.306987	0.813341
788.629897	0.814110
788.952760	0.819720
789.275579	0.823048
789.598351	0.840166
789.921078	0.852266
790.243759	0.854299
790.566395	0.859460
790.888984	0.866586
791.211529	0.871220
791.534027	0.874455
791.856480	0.877242
792.178888	0.882318
792.501249	0.884893
792.823566	0.886550
793.145836	0.886895
793.468062	0.888715
793.790241	0.888625
794.112375	0.884935
794.434464	0.883592
794.756507	0.882162
795.078505	0.880619
795.400457	0.875147
795.722364	0.862685
796.044226	0.856669
796.366042	0.854745
796.687812	0.857739
797.009538	0.852988
797.331218	0.857761
797.652852	0.862066
797.974442	0.866796
798.295986	0.867519
798.617484	0.868753
798.938938	0.874304
799.260346	0.878610
799.581709	0.879780
799.903026	0.883612
800.224299	0.883371
800.545526	0.887094
800.866708	0.891662
801.187845	0.895649
801.508936	0.894401
801.829983	0.893354
802.150984	0.897020
802.471940	0.901114
802.792851	0.900269
803.113717	0.903192
803.434538	0.899240
803.755314	0.902808
804.076045	0.902987
804.396731	0.903197
804.717372	0.901892
805.037967	0.905928
805.358518	0.903308
805.679024	0.898403
805.999485	0.900684
806.319901	0.899690
806.640272	0.902416
806.960598	0.899353
807.280879	0.897068
807.601115	0.895468
807.921306	0.899253
808.241453	0.900023
808.561554	0.898609
808.881611	0.897964
809.201623	0.899004
809.521590	0.899381
809.841513	0.900807
810.161390	0.897946
810.481223	0.900918
810.801011	0.905231
811.120755	0.906437
811.440453	0.904405
811.760107	0.904207
812.079716	0.903335
812.399281	0.907585
812.718801	0.909554
813.038276	0.910796
813.357707	0.911904
813.677093	0.908753
813.996434	0.910067
814.315731	0.912243
814.634983	0.913491
814.954191	0.912106
815.273354	0.907666
815.592473	0.904919
815.911547	0.904944
816.230577	0.901793
816.549562	0.898767
816.868502	0.898188
817.187399	0.896323
817.506250	0.891851
817.825058	0.892099
818.143821	0.888352
818.462539	0.884006
818.781213	0.875834
819.099843	0.864839
819.418429	0.847634
819.736970	0.831500
820.055466	0.810665
820.373919	0.783880
820.692327	0.750713
821.010691	0.715545
821.329011	0.634758
821.647286	0.517966
821.965517	0.402486
822.283704	0.359568
822.601847	0.360227
822.919945	0.396050
823.237999	0.430648
823.556010	0.478855
823.873976	0.535041
824.191897	0.587186
824.509775	0.631592
824.827609	0.677194
825.145398	0.700017
825.463144	0.701630
825.780845	0.685608
826.098502	0.666306
826.416116	0.619722
826.733685	0.575220
827.051210	0.565506
827.368692	0.580936
827.686129	0.618492
828.003522	0.673826
828.320872	0.721942
828.638177	0.766325
828.955439	0.799351
829.272656	0.822308
829.589830	0.840150
829.906960	0.856184
830.224046	0.869238
830.541088	0.879706
830.858086	0.884614
831.175041	0.890466
831.491952	0.889805
831.808819	0.885182
832.125642	0.877741
832.442421	0.866948
832.759157	0.842129
833.075849	0.794164
833.392497	0.727081
833.709101	0.687333
834.025662	0.696967
834.342179	0.729164
834.658653	0.770143
834.975083	0.806905
835.291469	0.833238
835.607811	0.856110
835.924110	0.873485
836.240366	0.891328
836.556578	0.903752
836.872746	0.911811
837.188871	0.918966
837.504952	0.923973
837.820990	0.927429
838.136984	0.930922
838.452935	0.934049
838.768842	0.934683
839.084706	0.928940
839.400526	0.902828
839.716303	0.860082
840.032037	0.837635
840.347727	0.841932
840.663373	0.859666
840.978977	0.882756
841.294537	0.905105
841.610054	0.922280
841.925527	0.929490
842.240957	0.936717
842.556344	0.943962
842.871687	0.949622
843.186987	0.953994
843.502244	0.954293
843.817458	0.955823
844.132629	0.960071
844.447756	0.964240
844.762840	0.964161
845.077881	0.964553
845.392879	0.963545
845.707833	0.965859
846.022745	0.969090
846.337613	0.968752
846.652438	0.968970
846.967221	0.970198
847.281960	0.971050
847.596656	0.971930
847.911309	0.971678
848.225919	0.971226
848.540485	0.973651
848.855009	0.974427
849.169490	0.974219
849.483928	0.974236
849.798323	0.973128
850.112675	0.975340
850.426984	0.974502
850.741251	0.974958
851.055474	0.975218
851.369654	0.973757
851.683792	0.973976
851.997887	0.974119
852.311938	0.974897
852.625947	0.973220
852.939914	0.972083
853.253837	0.974150
853.567718	0.975433
853.881555	0.974880
854.195350	0.973732
854.509103	0.973427
854.822812	0.974933
855.136479	0.975986
855.450103	0.974657
855.763685	0.973814
856.077224	0.974818
856.390720	0.975454
856.704173	0.976051
857.017584	0.973642
857.330953	0.973137
857.644278	0.971629
857.957561	0.973392
858.270802	0.973355
858.584000	0.973263
858.897155	0.971959
859.210268	0.971788
859.523339	0.975046
859.836367	0.975929
860.149352	0.975734
860.462295	0.973344
860.775195	0.974771
861.088054	0.974519
861.400869	0.974871
861.713642	0.975130
862.026373	0.976416
862.339062	0.976136
862.651708	0.974048
862.964312	0.973152
863.276873	0.974761
863.589392	0.972548
863.901869	0.972014
864.214303	0.969289
864.526696	0.968134
864.839045	0.967897
865.151353	0.967723
865.463619	0.965345
865.775842	0.967501
866.088023	0.967911
866.400162	0.966579
866.712258	0.967612
867.024313	0.968115
867.336325	0.968964
867.648296	0.967905
867.960224	0.966515
868.272110	0.967556
868.583954	0.968754
868.895755	0.969265
869.207515	0.964788
869.519233	0.965087
869.830909	0.965454
870.142542	0.965770
870.454134	0.966961
870.765684	0.964250
871.077191	0.964379
871.388657	0.961948
871.700081	0.963310
872.011463	0.963688
872.322803	0.961549
872.634101	0.960706
872.945357	0.958837
873.256571	0.957041
873.567744	0.957432
873.878874	0.958483
874.189963	0.956779
874.501010	0.957766
874.812015	0.953595
875.122979	0.954153
875.433900	0.957879
875.744780	0.958279
876.055618	0.955854
876.366415	0.951907
876.677169	0.954292
876.987882	0.954847
877.298554	0.956096
877.609183	0.951230
877.919771	0.947850
878.230317	0.946489
878.540822	0.943832
878.851285	0.939168
879.161707	0.930339
879.472087	0.918368
879.782425	0.899772
880.092722	0.865472
880.402977	0.811291
880.713191	0.746916
881.023363	0.685752
881.333494	0.651440
881.643583	0.623813
881.953631	0.624391
882.263637	0.652421
882.573602	0.692424
882.883526	0.718894
883.193408	0.744241
883.503248	0.768262
883.813048	0.795579
884.122806	0.826654
884.432522	0.850744
884.742197	0.871018
885.051831	0.881685
885.361424	0.892519
885.670975	0.906284
885.980485	0.915447
886.289954	0.921927
886.599382	0.924863
886.908768	0.932196
887.218113	0.936204
887.527417	0.942787
887.836680	0.945886
888.145901	0.947100
888.455082	0.950418
888.764221	0.954586
889.073319	0.957029
889.382376	0.958592
889.691392	0.955318
890.000366	0.956760
890.309300	0.958205
890.618193	0.956622
890.927044	0.955486
891.235855	0.954621
891.544625	0.955390
891.853353	0.956368
892.162041	0.952437
892.470687	0.947505
892.779293	0.941076
893.087858	0.936593
893.396381	0.928282
893.704864	0.914344
894.013306	0.890122
894.321707	0.863072
894.630068	0.847132
894.938387	0.841960
895.246665	0.843460
895.554903	0.856606
895.863100	0.870180
896.171256	0.887582
896.479371	0.908564
896.787446	0.921912
897.095480	0.927914
897.403473	0.930502
897.711425	0.936344
898.019336	0.942852
898.327207	0.947846
898.635038	0.947399
898.942827	0.950567
899.250576	0.952791
899.558284	0.957318
899.865952	0.958456
900.173579	0.958659
900.481165	0.960492
900.788711	0.962080
901.096216	0.966208
901.403681	0.965537
901.711105	0.967112
902.018489	0.966576
902.325832	0.965087
902.633135	0.964802
902.940397	0.960659
903.247619	0.947104
903.554800	0.920254
903.861941	0.880297
904.169041	0.841436
904.476101	0.823593
904.783121	0.824527
905.090100	0.841339
905.397039	0.863021
905.703938	0.885796
906.010796	0.907742
906.317614	0.923952
906.624391	0.937420
906.931129	0.947394
907.237826	0.956003
907.544483	0.962972
907.851099	0.967794
908.157675	0.971364
908.464211	0.974263
908.770707	0.976475
909.077163	0.979971
909.383578	0.979797
909.689954	0.979350
909.996289	0.980091
910.302584	0.982937
910.608839	0.984640
910.915054	0.982831
911.221229	0.984424
911.527363	0.980202
911.833458	0.981704
912.139513	0.981491
912.445527	0.981344
912.751502	0.980094
913.057436	0.976548
913.363331	0.975200
913.669186	0.970917
913.975000	0.966267
914.280775	0.959067
914.586510	0.951998
914.892205	0.938286
915.197859	0.914997
915.503475	0.886818
915.809050	0.867631
916.114585	0.859799
916.420081	0.857573
916.725536	0.855016
917.030952	0.863154
917.336328	0.877079
917.641665	0.893083
917.946961	0.907329
918.252218	0.919835
918.557435	0.928275
918.862612	0.938047
919.167750	0.944456
919.472848	0.951062
919.777906	0.958025
920.082925	0.961578
920.387904	0.965584
920.692843	0.966568
920.997743	0.967746
921.302603	0.971235
921.607423	0.973290
921.912204	0.975665
922.216946	0.978021
922.521647	0.978540
922.826310	0.979846
923.130932	0.983308
923.435516	0.983833
923.740059	0.983605
924.044564	0.984034
924.349028	0.985235
924.653454	0.987255
924.957840	0.987515
925.262186	0.989757
925.566493	0.988585
925.870761	0.991033
926.174989	0.990855
926.479178	0.994211
926.783328	0.992536
927.087438	0.992217
927.391509	0.993325
927.695541	0.994290
927.999533	0.995222
928.303486	0.994058
928.607400	0.994895
928.911275	0.995180
929.215110	0.995948
929.518906	0.996110
929.822663	0.996125
930.126381	0.997015
930.430060	0.996719
930.733699	0.996668
931.037299	0.995297
931.340861	0.995200
931.644383	0.993106
931.947866	0.995326
932.251309	0.995706
932.554714	0.994444
932.858080	0.996074
933.161407	0.994765
933.464694	0.997561
933.767943	0.995862
934.071153	0.995835
934.374323	0.996911
934.677455	0.996245
934.980548	0.997048
935.283602	0.997374
935.586617	0.994852
935.889593	0.997683
936.192530	0.997179
936.495428	0.997242
936.798287	0.996681
937.101108	0.996393
937.403890	0.994372
937.706632	0.994039
938.009336	0.992362
938.312002	0.989918
938.614628	0.989278
938.917216	0.987905
939.219765	0.987723
939.522275	0.988188
939.824747	0.987528
940.127179	0.988365
940.429573	0.990805
940.731929	0.987537
941.034246	0.988593
941.336524	0.989300
941.638763	0.991595
941.940964	0.990166
942.243126	0.990797
942.545250	0.994729
942.847335	0.993485
943.149381	0.993652
943.451389	0.993311
943.753359	0.994893
944.055290	0.995581
944.357182	0.995153
944.659036	0.995992
944.960851	0.996033
945.262628	0.995222
945.564367	0.995307
945.866067	0.994519
946.167729	0.994896
946.469352	0.994960
946.770937	0.992589
947.072484	0.996791
947.373992	0.995601
947.675462	0.994622
947.976893	0.995351
948.278286	0.997159
948.579641	0.996172
948.880958	0.995503
949.182236	0.995838
949.483476	0.997040
949.784678	0.996455
950.085841	0.996112
950.386967	0.996009
950.688054	0.997036
950.989103	0.994086
951.290114	0.994198
951.591087	0.995048
951.892021	0.994208
952.192917	0.994096
952.493776	0.993699
952.794596	0.992997
953.095378	0.992216
953.396122	0.992207
953.696828	0.993964
953.997496	0.995117
954.298126	0.996104
954.598718	0.995362
954.899272	0.995637
955.199788	0.995914
955.500266	0.996811
955.800706	0.996703
956.101108	0.997819
956.401472	1.000452
956.701798	0.997901
957.002087	0.998503
957.302337	0.999413
957.602550	0.999875
957.902724	0.999549
958.202861	1.001774
958.502960	1.000883
958.803022	1.001046
959.103045	1.000898
959.403031	1.001795
959.702979	1.002950
960.002889	1.001613
960.302762	1.001441
960.602596	1.002274
960.902393	1.001726
961.202153	1.002343
961.501875	1.001709
961.801559	1.002874
962.101205	1.002289
962.400814	1.002881
962.700385	1.003280
962.999918	1.003195
963.299414	1.001059
963.598873	1.003509
963.898293	1.002570
964.197677	1.002655
964.497022	1.002692
964.796331	1.002448
965.095601	1.003926
965.394835	1.002074
965.694030	1.003123
965.993189	1.002030
966.292309	1.003562
966.591393	1.001194
966.890439	1.003272
967.189447	1.002484
967.488419	1.002561
967.787353	1.002681
968.086249	1.003155
968.385108	1.001137
968.683930	1.003274
968.982714	1.003735
969.281462	1.001809
969.580172	1.002565
969.878844	1.002669
970.177480	1.002640
970.476078	1.004375
970.774639	1.002203
971.073162	1.002316
971.371649	1.002690
971.670098	1.001259
971.968510	1.001916
972.266885	1.000764
972.565223	1.001877
972.863524	1.002356
973.161788	1.002096
973.460014	1.003948
973.758204	1.001504
974.056356	1.002510
974.354471	1.002485
974.652550	1.002047
974.950591	1.001919
975.248595	1.002568
975.546563	1.002873
975.844493	1.003451
976.142386	1.003205
976.440243	1.003097
976.738062	1.003787
977.035845	1.002637
977.333590	1.002824
977.631299	1.002484
977.928971	1.003523
978.226606	1.002277
978.524204	1.001918
978.821765	1.003453
979.119290	1.004618
979.416777	1.002693
979.714228	1.003545
980.011642	1.003578
980.309020	1.002523
980.606360	1.003197
980.903664	1.002936
981.200931	1.001912
981.498162	1.001027
981.795356	1.001740
982.092513	0.999187
982.389633	1.000010
982.686717	0.996628
982.983764	0.996518
983.280775	0.995901
983.577749	0.996884
983.874686	0.997226
984.171587	0.997243
984.468451	0.998887
984.765279	1.001164
985.062070	1.001216
985.358824	1.001176
985.655543	1.001871
985.952224	1.003147
986.248869	1.002819
986.545478	1.004209
986.842050	1.002441
987.138586	1.002163
987.435086	1.003518
987.731549	1.004823
988.027975	1.003971
988.324366	1.001703
988.620719	1.005034
988.917037	1.003822
989.213318	1.004070
989.509563	1.003507
989.805772	1.004224
990.101944	1.004138
990.398080	1.003114
990.694180	1.005443
990.990244	1.003287
991.286271	1.004424
991.582262	1.004015
991.878217	1.003609
992.174136	1.005142
992.470019	1.003993
992.765865	1.003830
993.061676	1.004878
993.357450	1.003502
993.653188	1.004880
993.948890	1.003820
994.244556	1.003267
994.540186	1.003313
994.835780	1.002949
995.131337	1.004405
995.426859	1.002577
995.722345	1.002244
996.017795	1.001574
996.313208	1.002606
996.608586	1.001157
996.903928	1.002886
997.199234	1.001656
997.494504	1.003095
997.789738	1.001159
998.084936	1.002663
998.380099	1.003244
998.675225	1.002899
998.970316	1.003907
999.265371	1.003284
999.560390	1.004580
999.855373	1.003768
1000.150320	1.004307
1000.445232	1.003901
1000.740108	1.003907
1001.034948	1.004472
1001.329752	1.004681
1001.624521	1.003791
1001.919254	1.003393
1002.213951	1.003931
1002.508613	1.003940
1002.803239	1.004699
1003.097829	1.004748
1003.392384	1.004293
1003.686903	1.005407
1003.981386	1.003171
1004.275834	1.005826
1004.570246	1.003710
1004.864623	1.004763
1005.158964	1.004991
1005.453270	1.004708
1005.747540	1.004034
1006.041775	1.004833
1006.335974	1.006131
1006.630138	1.003326
1006.924266	1.003585
1007.218359	1.003655
1007.512416	1.005448
1007.806438	1.005395
1008.100425	1.004984
1008.394376	1.005173
1008.688292	1.004098
1008.982172	1.004583
1009.276017	1.004533
1009.569827	1.005374
1009.863602	1.003956
1010.157341	1.006250
1010.451045	1.005056
1010.744714	1.006461
1011.038347	1.005068
1011.331945	1.003988
1011.625508	1.003767
1011.919036	1.004263
1012.212528	1.005220
1012.505986	1.004093
1012.799408	1.004146
1013.092795	1.005559
1013.386147	1.004747
1013.679464	1.005550
1013.972745	1.004737
1014.265992	1.005159
1014.559204	1.005685
1014.852380	1.005093
1015.145521	1.004911
1015.438628	1.005404
1015.731699	1.004459
1016.024736	1.005184
1016.317737	1.004747
1016.610703	1.005259
1016.903635	1.004702
1017.196531	1.004079
1017.489393	1.005114
1017.782219	1.003886
1018.075011	1.004566
1018.367768	1.003969
1018.660490	1.004658
1018.953177	1.004658
1019.245829	1.004658
