Dividing Wavelength (nm)	Counts (n)	Blue Motor Position (mm): 32.100000	Red Motor Position (mm): 0.000000	
326.493990	1.000347
326.888308	1.000347
327.282561	1.000347
327.676750	1.001224
328.070874	1.002480
328.464933	1.000516
328.858929	1.000983
329.252859	0.999181
329.646726	1.000291
330.040528	1.000941
330.434265	1.001227
330.827938	0.999590
331.221547	1.001759
331.615091	1.001581
332.008571	1.002274
332.401986	1.000230
332.795338	1.000663
333.188625	1.000769
333.581847	1.000368
333.975006	1.002068
334.368100	1.000261
334.761129	0.999749
335.154095	1.000119
335.546996	1.000647
335.939833	0.999160
336.332606	1.000117
336.725315	0.998251
337.117960	1.001623
337.510540	0.999782
337.903056	0.999661
338.295508	1.001057
338.687896	1.000522
339.080220	1.000092
339.472480	1.001212
339.864676	1.000776
340.256807	0.999568
340.648875	0.999233
341.040879	0.999260
341.432818	1.000981
341.824694	0.999912
342.216506	1.001167
342.608253	0.999976
342.999937	0.999222
343.391557	0.999301
343.783113	1.001554
344.174605	1.000420
344.566033	0.999709
344.957397	0.999765
345.348697	0.999985
345.739934	0.999943
346.131106	0.999243
346.522215	0.998691
346.913260	0.999767
347.304241	1.000069
347.695159	0.999469
348.086012	1.000346
348.476802	0.999830
348.867528	0.999804
349.258191	0.999107
349.648789	1.000298
350.039324	0.999508
350.429796	0.999561
350.820203	0.998921
351.210548	0.999888
351.600828	1.000039
351.991045	1.000266
352.381198	1.000316
352.771288	0.998949
353.161314	0.999310
353.551276	0.999409
353.941175	0.997510
354.331010	1.000901
354.720782	1.000577
355.110490	0.998636
355.500135	0.999679
355.889717	0.999055
356.279235	0.998657
356.668689	1.001033
357.058080	0.998500
357.447408	0.999421
357.836672	0.998519
358.225873	0.998047
358.615010	0.998472
359.004084	0.997792
359.393095	0.999438
359.782043	0.998754
360.170927	0.999497
360.559748	0.998472
360.948505	0.998803
361.337199	0.998793
361.725830	0.999447
362.114398	0.998445
362.502903	0.997734
362.891344	0.996095
363.279722	0.997773
363.668037	0.998610
364.056289	0.998409
364.444478	0.999719
364.832603	0.997530
365.220665	0.998485
365.608665	0.996867
365.996601	0.997788
366.384474	0.996912
366.772284	0.997670
367.160031	0.995834
367.547715	0.996281
367.935336	0.995485
368.322893	0.994791
368.710388	0.993107
369.097820	0.991755
369.485189	0.989764
369.872495	0.988079
370.259738	0.985111
370.646918	0.982588
371.034035	0.980355
371.421090	0.977169
371.808081	0.972774
372.195010	0.970280
372.581875	0.965718
372.968678	0.960790
373.355418	0.957030
373.742096	0.949212
374.128710	0.945211
374.515262	0.940814
374.901751	0.935002
375.288177	0.929500
375.674540	0.923612
376.060841	0.916450
376.447079	0.911116
376.833254	0.903721
377.219367	0.898844
377.605417	0.886650
377.991404	0.883407
378.377329	0.878273
378.763191	0.872322
379.148991	0.862335
379.534727	0.855034
379.920402	0.846317
380.306013	0.842540
380.691563	0.830146
381.077049	0.823385
381.462474	0.819446
381.847835	0.807451
382.233134	0.803878
382.618371	0.803499
383.003545	0.786966
383.388657	0.785359
383.773706	0.776894
384.158693	0.773078
384.543618	0.767171
384.928480	0.759092
385.313280	0.748251
385.698017	0.748559
386.082692	0.737596
386.467305	0.734685
386.851856	0.729617
387.236344	0.724704
387.620770	0.718150
388.005133	0.714094
388.389435	0.707905
388.773674	0.705383
389.157851	0.697854
389.541965	0.694811
389.926018	0.700761
390.310008	0.687752
390.693936	0.684471
391.077802	0.676691
391.461606	0.678145
391.845348	0.667143
392.229027	0.667061
392.612645	0.665230
392.996200	0.652508
393.379694	0.644559
393.763125	0.636061
394.146494	0.640606
394.529801	0.630732
394.913047	0.623319
395.296230	0.628721
395.679351	0.620347
396.062410	0.617118
396.445408	0.619556
396.828343	0.615267
397.211217	0.610123
397.594028	0.622603
397.976778	0.612667
398.359466	0.609975
398.742092	0.603756
399.124656	0.616908
399.507158	0.605323
399.889598	0.601709
400.271977	0.593140
400.654294	0.597201
401.036549	0.596784
401.418742	0.600557
401.800874	0.586368
402.182944	0.583085
402.564952	0.575154
402.946898	0.576652
403.328783	0.577725
403.710606	0.589009
404.092367	0.563904
404.474067	0.569060
404.855705	0.568771
405.237282	0.576398
405.618797	0.562835
406.000250	0.558315
406.381642	0.548876
406.762972	0.554065
407.144240	0.552716
407.525447	0.552767
407.906593	0.544778
408.287677	0.540772
408.668700	0.548934
409.049661	0.543549
409.430560	0.538366
409.811399	0.546945
410.192176	0.528733
410.572891	0.536058
410.953545	0.524724
411.334138	0.538053
411.714669	0.530992
412.095139	0.542787
412.475547	0.527323
412.855894	0.529439
413.236180	0.528083
413.616405	0.534109
413.996568	0.524775
414.376670	0.531339
414.756711	0.537409
415.136691	0.534276
415.516609	0.526316
415.896466	0.524011
416.276262	0.520799
416.655997	0.524235
417.035670	0.506962
417.415283	0.499923
417.794834	0.506520
418.174324	0.513682
418.553753	0.524541
418.933121	0.508870
419.312428	0.504814
419.691674	0.512458
420.070859	0.503966
420.449983	0.514379
420.829045	0.506325
421.208047	0.517120
421.586988	0.514101
421.965867	0.516088
422.344686	0.509945
422.723444	0.524315
423.102141	0.543680
423.480777	0.521785
423.859352	0.545846
424.237866	0.529624
424.616319	0.534532
424.994712	0.531189
425.373044	0.544700
425.751314	0.539913
426.129524	0.560114
426.507673	0.550738
426.885762	0.550110
427.263789	0.562186
427.641756	0.575396
428.019662	0.574125
428.397508	0.580305
428.775292	0.591140
429.153016	0.591259
429.530679	0.603097
429.908282	0.605249
430.285824	0.619484
430.663305	0.611782
431.040726	0.635146
431.418086	0.642157
431.795385	0.644813
432.172624	0.652357
432.549802	0.660086
432.926920	0.668040
433.303977	0.675465
433.680974	0.682687
434.057910	0.690873
434.434786	0.698403
434.811601	0.708548
435.188355	0.707596
435.565050	0.721194
435.941683	0.729853
436.318257	0.730621
436.694770	0.740674
437.071222	0.748737
437.447614	0.760338
437.823946	0.770526
438.200218	0.774770
438.576429	0.786826
438.952580	0.793634
439.328670	0.799618
439.704700	0.808803
440.080670	0.818235
440.456580	0.820328
440.832429	0.831053
441.208218	0.841826
441.583947	0.845495
441.959616	0.851986
442.335224	0.862064
442.710773	0.865839
443.086261	0.872782
443.461689	0.880604
443.837057	0.886236
444.212365	0.890532
444.587612	0.897769
444.962800	0.901355
445.337927	0.907861
445.712995	0.917533
446.088002	0.915725
446.462949	0.922125
446.837837	0.929072
447.212664	0.930964
447.587431	0.935689
447.962139	0.935942
448.336786	0.933666
448.711374	0.939051
449.085901	0.948518
449.460369	0.953489
449.834776	0.956721
450.209124	0.958524
450.583412	0.960997
450.957640	0.962933
451.331808	0.967488
451.705917	0.970893
452.079965	0.973509
452.453954	0.975506
452.827883	0.977719
453.201752	0.979001
453.575562	0.980563
453.949311	0.982160
454.323001	0.983055
454.696632	0.984493
455.070202	0.986076
455.443713	0.986595
455.817164	0.988002
456.190556	0.988688
456.563888	0.990695
456.937160	0.990006
457.310373	0.990818
457.683526	0.992031
458.056619	0.992192
458.429653	0.992677
458.802628	0.993266
459.175542	0.993582
459.548398	0.994609
459.921194	0.994483
460.293930	0.995633
460.666607	0.995182
461.039224	0.994773
461.411782	0.995690
461.784280	0.994615
462.156719	0.996195
462.529099	0.996915
462.901419	0.995890
463.273680	0.995039
463.645882	0.996104
464.018024	0.996430
464.390106	0.995876
464.762130	0.996555
465.134094	0.996657
465.505999	0.996177
465.877845	0.996045
466.249631	0.995842
466.621358	0.995248
466.993026	0.996250
467.364634	0.996216
467.736184	0.995738
468.107674	0.996662
468.479105	0.995742
468.850477	0.996595
469.221790	0.996755
469.593043	0.996331
469.964238	0.996943
470.335373	0.996349
470.706449	0.997378
471.077467	0.997030
471.448425	0.997080
471.819324	0.997174
472.190164	0.996297
472.560945	0.996793
472.931667	0.996497
473.302330	0.996905
473.672934	0.997048
474.043479	0.996609
474.413965	0.996605
474.784393	0.996208
475.154761	0.996634
475.525070	0.996788
475.895321	0.996918
476.265513	0.997659
476.635645	0.996592
477.005719	0.997541
477.375734	0.996008
477.745691	0.996603
478.115588	0.996556
478.485427	0.996389
478.855207	0.996895
479.224928	0.997024
479.594591	0.996702
479.964194	0.996473
480.333739	0.996531
480.703226	0.995950
481.072653	0.996025
481.442022	0.996622
481.811333	0.996602
482.180584	0.996216
482.549777	0.996617
482.918912	0.996392
483.287988	0.996705
483.657005	0.995953
484.025964	0.996716
484.394864	0.995393
484.763706	0.995946
485.132489	0.996774
485.501213	0.997038
485.869879	0.996139
486.238487	0.995646
486.607036	0.997358
486.975527	0.996116
487.343959	0.996576
487.712333	0.996596
488.080648	0.996193
488.448905	0.996515
488.817104	0.996341
489.185244	0.996683
489.553326	0.996914
489.921350	0.997587
490.289315	0.995817
490.657222	0.996116
491.025070	0.996767
491.392861	0.996869
491.760593	0.996328
492.128267	0.996299
492.495883	0.995358
492.863440	0.997284
493.230939	0.996653
493.598380	0.996770
493.965763	0.997101
494.333088	0.995475
494.700354	0.996131
495.067563	0.996606
495.434713	0.996700
495.801805	0.996844
496.168839	0.996729
496.535815	0.997052
496.902733	0.996860
497.269593	0.996334
497.636395	0.995796
498.003139	0.996420
498.369825	0.997603
498.736453	0.996651
499.103023	0.997091
499.469535	0.996831
499.835989	0.997151
500.202385	0.996773
500.568723	0.996426
500.935003	0.997039
501.301226	0.997183
501.667390	0.996682
502.033497	0.996701
502.399546	0.997117
502.765537	0.997058
503.131470	0.996793
503.497345	0.996674
503.863163	0.996626
504.228923	0.996690
504.594625	0.996634
504.960269	0.997014
505.325856	0.997662
505.691385	0.996992
506.056856	0.997048
506.422270	0.996720
506.787625	0.997063
507.152924	0.997389
507.518164	0.996927
507.883347	0.996455
508.248472	0.997330
508.613540	0.996829
508.978550	0.997139
509.343503	0.996711
509.708398	0.997120
510.073236	0.996646
510.438016	0.996107
510.802738	0.997012
511.167403	0.996602
511.532010	0.996849
511.896561	0.996708
512.261053	0.996667
512.625488	0.996127
512.989866	0.996447
513.354186	0.996266
513.718449	0.996823
514.082655	0.996257
514.446803	0.996260
514.810894	0.997249
515.174927	0.997299
515.538904	0.996769
515.902822	0.997360
516.266684	0.997541
516.630488	0.997027
516.994235	0.996538
517.357925	0.996793
517.721558	0.996817
518.085133	0.996799
518.448651	0.996962
518.812112	0.996892
519.175516	0.996969
519.538863	0.996524
519.902152	0.997723
520.265385	0.997030
520.628560	0.996366
520.991678	0.996988
521.354739	0.997330
521.717743	0.997156
522.080690	0.996420
522.443580	0.996580
522.806413	0.996283
523.169189	0.997395
523.531908	0.996318
523.894569	0.996637
524.257174	0.996638
524.619722	0.996647
524.982213	0.996682
525.344647	0.996898
525.707025	0.996373
526.069345	0.996413
526.431608	0.997276
526.793815	0.996899
527.155964	0.997826
527.518057	0.997426
527.880093	0.996481
528.242072	0.996265
528.603995	0.996572
528.965860	0.997015
529.327669	0.996773
529.689421	0.996382
530.051117	0.996863
530.412755	0.997128
530.774337	0.996693
531.135862	0.997205
531.497331	0.996767
531.858743	0.997326
532.220098	0.995876
532.581396	0.997156
532.942638	0.997232
533.303824	0.997465
533.664953	0.997034
534.026025	0.997901
534.387040	0.997387
534.747999	0.996889
535.108902	0.997118
535.469748	0.997656
535.830537	0.997452
536.191270	0.997074
536.551947	0.996820
536.912567	0.996642
537.273131	0.997423
537.633638	0.996823
537.994089	0.996860
538.354483	0.997298
538.714821	0.997189
539.075103	0.997188
539.435328	0.997219
539.795497	0.996629
540.155609	0.996308
540.515665	0.997324
540.875665	0.996698
541.235609	0.996913
541.595496	0.996591
541.955328	0.997313
542.315102	0.997379
542.674821	0.997142
543.034483	0.997178
543.394090	0.996690
543.753640	0.997134
544.113134	0.996236
544.472571	0.997203
544.831953	0.997177
545.191278	0.997171
545.550548	0.996657
545.909761	0.996311
546.268918	0.997777
546.628019	0.997466
546.987064	0.996734
547.346053	0.996712
547.704986	0.997250
548.063863	0.996870
548.422684	0.996648
548.781449	0.996659
549.140158	0.997256
549.498811	0.996499
549.857408	0.996349
550.215949	0.996478
550.574434	0.996136
550.932864	0.996926
551.291237	0.996446
551.649555	0.997063
552.007817	0.996925
552.366022	0.997120
552.724173	0.997220
553.082267	0.996573
553.440305	0.996953
553.798288	0.995812
554.156215	0.996190
554.514086	0.996502
554.871902	0.997150
555.229661	0.997074
555.587365	0.996884
555.945014	0.997478
556.302606	0.996699
556.660143	0.996901
557.017625	0.997885
557.375050	0.997177
557.732421	0.997226
558.089735	0.996770
558.446994	0.996975
558.804197	0.996914
559.161345	0.996666
559.518437	0.996600
559.875474	0.996840
560.232455	0.997533
560.589381	0.996916
560.946251	0.996809
561.303065	0.997214
561.659825	0.996811
562.016528	0.996985
562.373177	0.996916
562.729770	0.996678
563.086307	0.995877
563.442789	0.997208
563.799216	0.996898
564.155587	0.997549
564.511904	0.997216
564.868164	0.996000
565.224370	0.996902
565.580520	0.997420
565.936615	0.996589
566.292654	0.996865
566.648638	0.997323
567.004567	0.996273
567.360441	0.997223
567.716260	0.997081
568.072023	0.996002
568.427732	0.996953
568.783385	0.997481
569.138982	0.996708
569.494525	0.997180
569.850013	0.997038
570.205445	0.997407
570.560823	0.996791
570.916145	0.996958
571.271412	0.997199
571.626625	0.997132
571.981782	0.997133
572.336884	0.997414
572.691931	0.997104
573.046923	0.997653
573.401860	0.996816
573.756743	0.996962
574.111570	0.997476
574.466342	0.997556
574.821059	0.997778
575.175722	0.997494
575.530330	0.997373
575.884882	0.996743
576.239380	0.997275
576.593823	0.996885
576.948211	0.997645
577.302544	0.996697
577.656823	0.997290
578.011047	0.996952
578.365216	0.997769
578.719330	0.997299
579.073389	0.996732
579.427394	0.996845
579.781344	0.997072
580.135239	0.996905
580.489080	0.997316
580.842866	0.996814
581.196597	0.996759
581.550273	0.996828
581.903895	0.996511
582.257463	0.997283
582.610975	0.996337
582.964434	0.997050
583.317837	0.996819
583.671186	0.997326
584.024481	0.996816
584.377721	0.996608
584.730906	0.997938
585.084037	0.997851
585.437113	0.998290
585.790135	0.996935
586.143103	0.997508
586.496016	0.996891
586.848874	0.996795
587.201679	0.997076
587.554428	0.997156
587.907124	0.997786
588.259765	0.997525
588.612352	0.997808
588.964884	0.997168
589.317362	0.997172
589.669786	0.997361
590.022155	0.996385
590.374470	0.997464
590.726731	0.996950
591.078937	0.997127
591.431090	0.997156
591.783188	0.997189
592.135232	0.997795
592.487222	0.997204
592.839157	0.997302
593.191038	0.997831
593.542866	0.997519
593.894639	0.996614
594.246358	0.997097
594.598022	0.997375
594.949633	0.996957
595.301190	0.997114
595.652692	0.997365
596.004141	0.997624
596.355535	0.996972
596.706876	0.997784
597.058162	0.997174
597.409395	0.998216
597.760573	0.996726
598.111698	0.997214
598.462768	0.997219
598.813785	0.996480
599.164748	0.997324
599.515657	0.997121
599.866511	0.998115
600.217312	0.997438
600.568060	0.997012
600.918753	0.997744
601.269392	0.997588
601.619978	0.997031
601.970510	0.997401
602.320988	0.997833
602.671412	0.997306
603.021783	0.997533
603.372100	0.998241
603.722363	0.998311
604.072572	0.997072
604.422728	0.996859
604.772830	0.996824
605.122878	0.997764
605.472872	0.998044
605.822813	0.997645
606.172701	0.997153
606.522534	0.998362
606.872314	0.997755
607.222041	0.996564
607.571714	0.996840
607.921333	0.997024
608.270899	0.996996
608.620411	0.997246
608.969870	0.998117
609.319276	0.996910
609.668627	0.998071
610.017926	0.996659
610.367171	0.997625
610.716362	0.997349
611.065500	0.997267
611.414585	0.998177
611.763616	0.996572
612.112594	0.996795
612.461518	0.997005
612.810389	0.997742
613.159207	0.998203
613.507971	0.996559
613.856682	0.998078
614.205340	0.997094
614.553945	0.997768
614.902496	0.997671
615.250994	0.998147
615.599439	0.997963
615.947830	0.997023
616.296169	0.996853
616.644454	0.997702
616.992686	0.997988
617.340864	0.997833
617.688990	0.997132
618.037063	0.997955
618.385082	0.997698
618.733048	0.996607
619.080961	0.997393
619.428821	0.998209
619.776628	0.997084
620.124382	0.998126
620.472083	0.997710
620.819731	0.998313
621.167326	0.998157
621.514868	0.998516
621.862357	0.997492
622.209793	0.997381
622.557176	0.997081
622.904506	0.996860
623.251783	0.997124
623.599007	0.998077
623.946179	0.996594
624.293297	0.998305
624.640363	0.998003
624.987376	0.996543
625.334336	0.997499
625.681243	0.997632
626.028097	0.998534
626.374899	0.997637
626.721647	0.998541
627.068343	0.997394
627.414987	0.997929
627.761577	0.997253
628.108115	0.997445
628.454600	0.998277
628.801032	0.998415
629.147412	0.997555
629.493739	0.998076
629.840014	0.997131
630.186236	0.997016
630.532405	0.997928
630.878521	0.997033
631.224585	0.997494
631.570597	0.997674
631.916556	0.997997
632.262462	0.996950
632.608316	0.998401
632.954117	0.997068
633.299866	0.997618
633.645562	0.997717
633.991206	0.997996
634.336797	0.997555
634.682336	0.998155
635.027823	0.997881
635.373257	0.998064
635.718639	0.998075
636.063968	0.997540
636.409245	0.997591
636.754470	0.997374
637.099642	0.998132
637.444762	0.997901
637.789829	0.997278
638.134845	0.997220
638.479808	0.997669
638.824719	0.997565
639.169577	0.997825
639.514383	0.997832
639.859137	0.998679
640.203839	0.998161
640.548489	0.997634
640.893086	0.997103
641.237632	0.998345
641.582125	0.997894
641.926566	0.998580
642.270955	0.997174
642.615292	0.997022
642.959576	0.997865
643.303809	0.998247
643.647990	0.997984
643.992118	0.997877
644.336195	0.997085
644.680219	0.997058
645.024192	0.997879
645.368112	0.997318
645.711981	0.998245
646.055797	0.997732
646.399562	0.997225
646.743274	0.998718
647.086935	0.997574
647.430544	0.996996
647.774101	0.997471
648.117606	0.998439
648.461059	0.998522
648.804460	0.998305
649.147810	0.997925
649.491108	0.997642
649.834354	0.998226
650.177548	0.998086
650.520690	0.998067
650.863781	0.996915
651.206820	0.997637
651.549807	0.997440
651.892742	0.997948
652.235626	0.998219
652.578458	0.997707
652.921238	0.998260
653.263967	0.998652
653.606644	0.996638
653.949269	0.998154
654.291843	0.997047
654.634365	0.998603
654.976836	0.997027
655.319255	0.999065
655.661622	0.997259
656.003938	0.997481
656.346203	0.996633
656.688416	0.998684
657.030577	0.996976
657.372687	0.998195
657.714746	0.997887
658.056753	0.997389
658.398708	0.997574
658.740612	0.999198
659.082465	0.998102
659.424266	0.997415
659.766016	0.998111
660.107715	0.997413
660.449362	0.998292
660.790958	0.997498
661.132503	0.997772
661.473996	0.996986
661.815438	0.997579
662.156829	0.997597
662.498168	0.998707
662.839456	0.997565
663.180693	0.998093
663.521879	0.997826
663.863013	0.998117
664.204097	0.997683
664.545129	0.997864
664.886110	0.998464
665.227040	0.998523
665.567918	0.997068
665.908746	0.996833
666.249522	0.997999
666.590248	0.998252
666.930922	0.996963
667.271545	0.997950
667.612118	0.997233
667.952639	0.997609
668.293109	0.997193
668.633528	0.997517
668.973896	0.998110
669.314213	0.997543
669.654480	0.997703
669.994695	0.996895
670.334859	0.998035
670.674973	0.996950
671.015035	0.997884
671.355047	0.997603
671.695008	0.996931
672.034918	0.996649
672.374777	0.997050
672.714585	0.997044
673.054342	0.998029
673.394049	0.997630
673.733705	0.997123
674.073310	0.997807
674.412864	0.997371
674.752368	0.997221
675.091820	0.998772
675.431223	0.997418
675.770574	0.996926
676.109875	0.998602
676.449125	0.997448
676.788324	0.997380
677.127473	0.998761
677.466571	0.997713
677.805619	0.997545
678.144616	0.997774
678.483562	0.998526
678.822458	0.998036
679.161303	0.997379
679.500098	0.998070
679.838842	0.997585
680.177535	0.996987
680.516179	0.997124
680.854771	0.996691
681.193314	0.996931
681.531805	0.997199
681.870247	0.998000
682.208638	0.997305
682.546978	0.996601
682.885268	0.997125
683.223508	0.996772
683.561697	0.997296
683.899836	0.997577
684.237925	0.997562
684.575963	0.997453
684.913951	0.997084
685.251889	0.997129
685.589776	0.997210
685.927614	0.998062
686.265401	0.997937
686.603137	0.997032
686.940824	0.997447
687.278460	0.998307
687.616046	0.996710
687.953582	0.997557
688.291068	0.997443
688.628504	0.997206
688.965889	0.997032
689.303224	0.996402
689.640510	0.996842
689.977745	0.996884
690.314930	0.997443
690.652065	0.997573
690.989150	0.996053
691.326185	0.997450
691.663170	0.997589
692.000105	0.997873
692.336990	0.997141
692.673825	0.997131
693.010610	0.997389
693.347345	0.996837
693.684030	0.996727
694.020665	0.997153
694.357251	0.996924
694.693786	0.997903
695.030272	0.995723
695.366707	0.997191
695.703093	0.997708
696.039429	0.997088
696.375716	0.998232
696.711952	0.997714
697.048139	0.997791
697.384276	0.997163
697.720363	0.997420
698.056400	0.996725
698.392388	0.997075
698.728326	0.997346
699.064214	0.997536
699.400053	0.997227
699.735842	0.997721
700.071581	0.997679
700.407270	0.996179
700.742910	0.997328
701.078501	0.997587
701.414042	0.998307
701.749533	0.995252
702.084974	0.997054
702.420366	0.997424
702.755709	0.996527
703.091002	0.997020
703.426246	0.998445
703.761440	0.996502
704.096584	0.996755
704.431679	0.996846
704.766725	0.996964
705.101721	0.997650
705.436668	0.997549
705.771565	0.996942
706.106413	0.996299
706.441212	0.997320
706.775961	0.998207
707.110661	0.996902
707.445311	0.997190
707.779913	0.998339
708.114465	0.998201
708.448967	0.998367
708.783421	0.998194
709.117825	0.996682
709.452180	0.997890
709.786485	0.997142
710.120742	0.996511
710.454949	0.996894
710.789107	0.997401
711.123216	0.996339
711.457275	0.996808
711.791286	0.997180
712.125247	0.998359
712.459159	0.996780
712.793023	0.996628
713.126837	0.996878
713.460602	0.996276
713.794318	0.996701
714.127985	0.996185
714.461602	0.997555
714.795171	0.995956
715.128691	0.996409
715.462162	0.997759
715.795584	0.996972
716.128957	0.997678
716.462281	0.997305
716.795556	0.996489
717.128782	0.997914
717.461960	0.997168
717.795088	0.997202
718.128167	0.998083
718.461198	0.997366
718.794180	0.996804
719.127113	0.997251
719.459997	0.996521
719.792833	0.997485
720.125619	0.996230
720.458357	0.996472
720.791046	0.998230
721.123686	0.997424
721.456278	0.997832
721.788821	0.997286
722.121315	0.997587
722.453761	0.997694
722.786158	0.996897
723.118506	0.997506
723.450805	0.996024
723.783056	0.997812
724.115259	0.997010
724.447412	0.998504
724.779518	0.997435
725.111574	0.995523
725.443582	0.997756
725.775542	0.997766
726.107453	0.997103
726.439315	0.997845
726.771129	0.996841
727.102895	0.996724
727.434612	0.996862
727.766281	0.997664
728.097901	0.997634
728.429473	0.996769
728.760996	0.996368
729.092471	0.996629
729.423897	0.997384
729.755276	0.997416
730.086606	0.996872
730.417887	0.997063
730.749120	0.997482
731.080305	0.997885
731.411442	0.996187
731.742530	0.996534
732.073570	0.996269
732.404562	0.997336
732.735506	0.997653
733.066401	0.996600
733.397249	0.997159
733.728048	0.998053
734.058798	0.997729
734.389501	0.997180
734.720156	0.996884
735.050762	0.997625
735.381320	0.996523
735.711831	0.997171
736.042293	0.997021
736.372707	0.998290
736.703073	0.996833
737.033391	0.997607
737.363661	0.997772
737.693883	0.997409
738.024056	0.997381
738.354182	0.997321
738.684260	0.997210
739.014290	0.997724
739.344272	0.997710
739.674207	0.997155
740.004093	0.997106
740.333931	0.997185
740.663722	0.996451
740.993464	0.997739
741.323159	0.996286
741.652806	0.996358
741.982405	0.996699
742.311956	0.998150
742.641460	0.996915
742.970915	0.996961
743.300323	0.996931
743.629683	0.997248
743.958996	0.998551
744.288260	0.996807
744.617477	0.996898
744.946647	0.997340
745.275768	0.998154
745.604842	0.997780
745.933869	0.997154
746.262847	0.997945
746.591778	0.996288
746.920662	0.997768
747.249498	0.998328
747.578286	0.998601
747.907027	0.998373
748.235720	0.998215
748.564365	0.997181
748.892963	0.996781
749.221514	0.997675
749.550017	0.996917
749.878473	0.997435
750.206881	0.999135
750.535242	0.997405
750.863555	0.996882
751.191821	0.996562
751.520039	0.996984
751.848210	0.995632
752.176334	0.997346
752.504411	0.996965
752.832440	0.996812
753.160421	0.996281
753.488356	0.997325
753.816243	0.996380
754.144082	0.997166
754.471875	0.998164
754.799620	0.998361
755.127318	0.997459
755.454969	0.997663
755.782572	0.999091
756.110129	0.996983
756.437638	0.998820
756.765100	0.997755
757.092515	0.997655
757.419882	0.997582
757.747203	0.997308
758.074477	0.998082
758.401703	0.997870
758.728882	0.997342
759.056014	0.997060
759.383099	0.997407
759.710138	0.996018
760.037129	0.997482
760.364073	0.997558
760.690970	0.997825
761.017820	0.996312
761.344623	0.997261
761.671379	0.997382
761.998088	0.997645
762.324751	0.996752
762.651366	0.996996
762.977935	0.995525
763.304456	0.997009
763.630931	0.994555
763.957359	0.994431
764.283740	0.994628
764.610074	0.996101
764.936362	0.996394
765.262602	0.996865
765.588796	0.997292
765.914943	0.996820
766.241044	0.996375
766.567097	0.997578
766.893104	0.997536
767.219064	0.996258
767.544978	0.997680
767.870845	0.997460
768.196665	0.997473
768.522438	0.997239
768.848165	0.998064
769.173846	0.997903
769.499479	0.998527
769.825066	0.999025
770.150607	0.998811
770.476101	0.997536
770.801548	0.998236
771.126949	0.998781
771.452303	0.996822
771.777611	0.998108
772.102872	0.998364
772.428087	0.997650
772.753256	0.997674
773.078378	0.997861
773.403453	0.997515
773.728482	0.998557
774.053465	0.998431
774.378401	0.999266
774.703291	0.999444
775.028135	0.999364
775.352932	0.996870
775.677683	0.999287
776.002388	0.998175
776.327046	0.997944
776.651658	1.000063
776.976224	0.999221
777.300743	0.998227
777.625216	0.998620
777.949643	0.998094
778.274024	0.997060
778.598359	0.999316
778.922647	0.998291
779.246889	0.998893
779.571086	0.998329
779.895236	0.999163
780.219339	0.998572
780.543397	0.998420
780.867409	0.999129
781.191374	0.997974
781.515294	0.998558
781.839167	0.998773
782.162995	0.998732
782.486776	0.997691
782.810511	0.999019
783.134201	0.998860
783.457844	0.999287
783.781441	0.998681
784.104993	0.997596
784.428498	0.998717
784.751958	0.999379
785.075372	0.999341
785.398739	0.997464
785.722061	0.997705
786.045337	0.999240
786.368568	0.998558
786.691752	0.998861
787.014891	0.998469
787.337983	0.997945
787.661030	0.998101
787.984031	0.998390
788.306987	0.999086
788.629897	0.995507
788.952760	0.998660
789.275579	0.998615
789.598351	0.997973
789.921078	0.998645
790.243759	0.998130
790.566395	0.997448
790.888984	0.998180
791.211529	0.998803
791.534027	0.999194
791.856480	0.999134
792.178888	0.998554
792.501249	0.998155
792.823566	1.000173
793.145836	0.998931
793.468062	0.998221
793.790241	0.998629
794.112375	0.997527
794.434464	0.999025
794.756507	0.998753
795.078505	0.999616
795.400457	0.998398
795.722364	0.998991
796.044226	0.997616
796.366042	0.998152
796.687812	0.996938
797.009538	0.998222
797.331218	0.999723
797.652852	0.998529
797.974442	0.997723
798.295986	0.999197
798.617484	0.997747
798.938938	0.998187
799.260346	0.997686
799.581709	0.997877
799.903026	0.997743
800.224299	0.997859
800.545526	0.998145
800.866708	0.998416
801.187845	0.998265
801.508936	0.998114
801.829983	0.998537
802.150984	0.998838
802.471940	0.999342
802.792851	0.999091
803.113717	0.999215
803.434538	0.998829
803.755314	1.000239
804.076045	0.999054
804.396731	0.998507
804.717372	0.996815
805.037967	0.999224
805.358518	0.998255
805.679024	0.997984
805.999485	0.998585
806.319901	0.999333
806.640272	0.999247
806.960598	0.999628
807.280879	0.999446
807.601115	0.998776
807.921306	1.000007
808.241453	0.997757
808.561554	0.999592
808.881611	0.999124
809.201623	0.998249
809.521590	0.997659
809.841513	0.999047
810.161390	0.997518
810.481223	0.998123
810.801011	0.999557
811.120755	1.000455
811.440453	0.998461
811.760107	0.999805
812.079716	0.997669
812.399281	0.998384
812.718801	0.998443
813.038276	0.998407
813.357707	0.997952
813.677093	0.999088
813.996434	0.999104
814.315731	1.000898
814.634983	0.999389
814.954191	0.999500
815.273354	0.998470
815.592473	0.997825
815.911547	0.999045
816.230577	0.998190
816.549562	0.998084
816.868502	0.997858
817.187399	0.998985
817.506250	0.999037
817.825058	0.996933
818.143821	0.998474
818.462539	0.999114
818.781213	0.998809
819.099843	0.997627
819.418429	0.997438
819.736970	0.997709
820.055466	0.995979
820.373919	0.996308
820.692327	0.996124
821.010691	0.995707
821.329011	0.992436
821.647286	0.990752
821.965517	0.989247
822.283704	0.987822
822.601847	0.986648
822.919945	0.986649
823.237999	0.988242
823.556010	0.989265
823.873976	0.989902
824.191897	0.991436
824.509775	0.992669
824.827609	0.994130
825.145398	0.993830
825.463144	0.993201
825.780845	0.994185
826.098502	0.993714
826.416116	0.993539
826.733685	0.992241
827.051210	0.991517
827.368692	0.991326
827.686129	0.992271
828.003522	0.993243
828.320872	0.993949
828.638177	0.995098
828.955439	0.996077
829.272656	0.996173
829.589830	0.996498
829.906960	0.997048
830.224046	0.997240
830.541088	0.997599
830.858086	0.997577
831.175041	0.999301
831.491952	0.998143
831.808819	0.997359
832.125642	0.996571
832.442421	0.997498
832.759157	0.997941
833.075849	0.996602
833.392497	0.995798
833.709101	0.993886
834.025662	0.994700
834.342179	0.993762
834.658653	0.996357
834.975083	0.996838
835.291469	0.995694
835.607811	0.996805
835.924110	0.996546
836.240366	0.998969
836.556578	0.998867
836.872746	0.998082
837.188871	0.998127
837.504952	0.998169
837.820990	0.998705
838.136984	0.997973
838.452935	0.998497
838.768842	0.999266
839.084706	0.998692
839.400526	0.998819
839.716303	0.996386
840.032037	0.997930
840.347727	0.996764
840.663373	0.997205
840.978977	0.997186
841.294537	0.998145
841.610054	0.999138
841.925527	0.998359
842.240957	0.998620
842.556344	0.998247
842.871687	0.998176
843.186987	0.999438
843.502244	0.999612
843.817458	0.999715
844.132629	0.999633
844.447756	0.998979
844.762840	0.999038
845.077881	1.001463
845.392879	0.998760
845.707833	0.999117
846.022745	0.999249
846.337613	1.001280
846.652438	1.000214
846.967221	0.999942
847.281960	0.999574
847.596656	1.000071
847.911309	0.998791
848.225919	0.997740
848.540485	1.000166
848.855009	1.001287
849.169490	1.000153
849.483928	0.998624
849.798323	0.998737
850.112675	1.000503
850.426984	0.999959
850.741251	0.999786
851.055474	0.999188
851.369654	1.000120
851.683792	0.998195
851.997887	0.998735
852.311938	1.000557
852.625947	0.999257
852.939914	0.999929
853.253837	1.001041
853.567718	1.000380
853.881555	0.999697
854.195350	0.999864
854.509103	1.000282
854.822812	0.999529
855.136479	0.999808
855.450103	0.999015
855.763685	1.000913
856.077224	0.999691
856.390720	0.999296
856.704173	1.000265
857.017584	1.000129
857.330953	0.999679
857.644278	0.999275
857.957561	0.999755
858.270802	1.000544
858.584000	1.000199
858.897155	0.999042
859.210268	0.999396
859.523339	0.998799
859.836367	0.999983
860.149352	0.999283
860.462295	0.999910
860.775195	0.999797
861.088054	0.998425
861.400869	0.999105
861.713642	0.999113
862.026373	1.000669
862.339062	0.999864
862.651708	0.999573
862.964312	0.999897
863.276873	0.999590
863.589392	0.998348
863.901869	0.998446
864.214303	1.000253
864.526696	0.999332
864.839045	0.999662
865.151353	0.999068
865.463619	0.999727
865.775842	0.999478
866.088023	1.000436
866.400162	0.998849
866.712258	1.001609
867.024313	1.000371
867.336325	1.000193
867.648296	1.000389
867.960224	0.999465
868.272110	1.000111
868.583954	1.000138
868.895755	1.000427
869.207515	0.999116
869.519233	1.000715
869.830909	0.998849
870.142542	0.999520
870.454134	1.000121
870.765684	0.998614
871.077191	0.999469
871.388657	0.999285
871.700081	0.999871
872.011463	1.000584
872.322803	1.000011
872.634101	0.998743
872.945357	0.998986
873.256571	0.999457
873.567744	0.999453
873.878874	0.999490
874.189963	0.998575
874.501010	1.000675
874.812015	0.999517
875.122979	0.999052
875.433900	0.999515
875.744780	0.998523
876.055618	0.999180
876.366415	0.998906
876.677169	0.998584
876.987882	0.998118
877.298554	1.000385
877.609183	0.998882
877.919771	0.999194
878.230317	0.999165
878.540822	0.998434
878.851285	0.998190
879.161707	0.997361
879.472087	0.999085
879.782425	0.996021
880.092722	0.996119
880.402977	0.993591
880.713191	0.991727
881.023363	0.989673
881.333494	0.988728
881.643583	0.990206
881.953631	0.988593
882.263637	0.987671
882.573602	0.988575
882.883526	0.989245
883.193408	0.991913
883.503248	0.992017
883.813048	0.992037
884.122806	0.994279
884.432522	0.995238
884.742197	0.995874
885.051831	0.995716
885.361424	0.997161
885.670975	0.998366
885.980485	0.997116
886.289954	0.997262
886.599382	0.996258
886.908768	0.998635
887.218113	0.997787
887.527417	0.998323
887.836680	0.997810
888.145901	0.998852
888.455082	1.000313
888.764221	0.999889
889.073319	0.998102
889.382376	0.999371
889.691392	0.997443
890.000366	0.999355
890.309300	0.999076
890.618193	0.998694
890.927044	0.999101
891.235855	0.998995
891.544625	0.998600
891.853353	0.998780
892.162041	0.997632
892.470687	0.999546
892.779293	0.998698
893.087858	0.996711
893.396381	0.997507
893.704864	0.995399
894.013306	0.997005
894.321707	0.995626
894.630068	0.993492
894.938387	0.994274
895.246665	0.994499
895.554903	0.993946
895.863100	0.995771
896.171256	0.995994
896.479371	0.995776
896.787446	0.995590
897.095480	0.997531
897.403473	0.996677
897.711425	0.997129
898.019336	0.997939
898.327207	0.998827
898.635038	0.997900
898.942827	0.997864
899.250576	0.998028
899.558284	0.998865
899.865952	0.997000
900.173579	0.998691
900.481165	0.999077
900.788711	0.997784
901.096216	0.999285
901.403681	1.000204
901.711105	0.998742
902.018489	0.998943
902.325832	0.998501
902.633135	0.997217
902.940397	0.999039
903.247619	0.998286
903.554800	0.996420
903.861941	0.996725
904.169041	0.994716
904.476101	0.994403
904.783121	0.992707
905.090100	0.992350
905.397039	0.995246
905.703938	0.995555
906.010796	0.996451
906.317614	0.995912
906.624391	0.998351
906.931129	0.997616
907.237826	0.997678
907.544483	0.998068
907.851099	0.998396
908.157675	0.997739
908.464211	0.998442
908.770707	0.998055
909.077163	0.999405
909.383578	0.998923
909.689954	0.998923
909.996289	0.999362
910.302584	0.998978
910.608839	1.000302
910.915054	1.000004
911.221229	1.000600
911.527363	0.998445
911.833458	0.999215
912.139513	0.999721
912.445527	1.000343
912.751502	0.999712
913.057436	0.997804
913.363331	0.999634
913.669186	0.999397
913.975000	0.999818
914.280775	0.998291
914.586510	0.998387
914.892205	0.997258
915.197859	0.996233
915.503475	0.995850
915.809050	0.993812
916.114585	0.993098
916.420081	0.993510
916.725536	0.993338
917.030952	0.993383
917.336328	0.994808
917.641665	0.993904
917.946961	0.994978
918.252218	0.995633
918.557435	0.996329
918.862612	0.997233
919.167750	0.997973
919.472848	0.999062
919.777906	0.999236
920.082925	0.998621
920.387904	0.998709
920.692843	0.998645
920.997743	0.998388
921.302603	0.999991
921.607423	0.998120
921.912204	0.998551
922.216946	1.000109
922.521647	0.999268
922.826310	0.999569
923.130932	0.999961
923.435516	1.000166
923.740059	0.999629
924.044564	0.998084
924.349028	0.997980
924.653454	0.999189
924.957840	0.999167
925.262186	0.999589
925.566493	1.000622
925.870761	1.001156
926.174989	0.998814
926.479178	1.000265
926.783328	1.000401
927.087438	0.999819
927.391509	0.999659
927.695541	1.000675
927.999533	1.000559
928.303486	1.000552
928.607400	1.001034
928.911275	1.000016
929.215110	1.000398
929.518906	1.000479
929.822663	1.000885
930.126381	1.001040
930.430060	1.000588
930.733699	1.000130
931.037299	1.001186
931.340861	1.000100
931.644383	0.999289
931.947866	1.001017
932.251309	1.000561
932.554714	0.999646
932.858080	1.000572
933.161407	1.000104
933.464694	1.001214
933.767943	1.000171
934.071153	0.999542
934.374323	1.000575
934.677455	1.000483
934.980548	1.000009
935.283602	1.000513
935.586617	1.000082
935.889593	1.001218
936.192530	1.001279
936.495428	0.999675
936.798287	1.000328
937.101108	1.000850
937.403890	1.000094
937.706632	1.001561
938.009336	1.000416
938.312002	0.999457
938.614628	1.000077
938.917216	0.998185
939.219765	0.998947
939.522275	0.999984
939.824747	0.999402
940.127179	0.999100
940.429573	1.001317
940.731929	0.999412
941.034246	0.999673
941.336524	0.999106
941.638763	0.999571
941.940964	0.998490
942.243126	0.999399
942.545250	1.000505
942.847335	1.000220
943.149381	1.000004
943.451389	0.998278
943.753359	1.000198
944.055290	1.000245
944.357182	0.999691
944.659036	1.000190
944.960851	1.000137
945.262628	1.000148
945.564367	1.000496
945.866067	1.000066
946.167729	1.000318
946.469352	1.000685
946.770937	0.998940
947.072484	1.001615
947.373992	1.000305
947.675462	0.999575
947.976893	0.999467
948.278286	1.001981
948.579641	1.000233
948.880958	0.999578
949.182236	1.001010
949.483476	1.001820
949.784678	0.999957
950.085841	0.999467
950.386967	0.999524
950.688054	1.000425
950.989103	0.998415
951.290114	0.999939
951.591087	1.000488
951.892021	0.999736
952.192917	1.001495
952.493776	1.000360
952.794596	1.000017
953.095378	0.998784
953.396122	1.000395
953.696828	1.000372
953.997496	1.000081
954.298126	1.001537
954.598718	0.998999
954.899272	1.000229
955.199788	0.999583
955.500266	1.000432
955.800706	1.000803
956.101108	1.000294
956.401472	1.001670
956.701798	1.000879
957.002087	1.001029
957.302337	1.000125
957.602550	1.001084
957.902724	1.000150
958.202861	1.000175
958.502960	0.999558
958.803022	1.001482
959.103045	1.001350
959.403031	1.001186
959.702979	1.001056
960.002889	0.999849
960.302762	1.000072
960.602596	1.002516
960.902393	0.999936
961.202153	0.999879
961.501875	1.000967
961.801559	1.000867
962.101205	1.000142
962.400814	1.000815
962.700385	1.001524
962.999918	1.000964
963.299414	0.998939
963.598873	1.000967
963.898293	1.001593
964.197677	0.999221
964.497022	1.000698
964.796331	1.000382
965.095601	1.000817
965.394835	0.999790
965.694030	1.002900
965.993189	0.999036
966.292309	1.001982
966.591393	0.998840
966.890439	1.000636
967.189447	0.998475
967.488419	1.000453
967.787353	1.000782
968.086249	1.001910
968.385108	1.000345
968.683930	1.002439
968.982714	1.000803
969.281462	1.000824
969.580172	1.002469
969.878844	1.001645
970.177480	1.000518
970.476078	1.001015
970.774639	1.001311
971.073162	1.000367
971.371649	1.001023
971.670098	0.999929
971.968510	1.001181
972.266885	1.000391
972.565223	0.999953
972.863524	0.998929
973.161788	0.999937
973.460014	1.002605
973.758204	1.000087
974.056356	1.000362
974.354471	0.999269
974.652550	1.001834
974.950591	0.998963
975.248595	1.000224
975.546563	1.000165
975.844493	1.001920
976.142386	0.999237
976.440243	1.001049
976.738062	1.000221
977.035845	0.998641
977.333590	1.001341
977.631299	1.000051
977.928971	0.999404
978.226606	0.999880
978.524204	0.999631
978.821765	1.000654
979.119290	1.001882
979.416777	0.999524
979.714228	1.000380
980.011642	1.001058
980.309020	1.000078
980.606360	0.999994
980.903664	1.000759
981.200931	1.000304
981.498162	1.000036
981.795356	0.999926
982.092513	1.000168
982.389633	1.001781
982.686717	1.000612
982.983764	1.000268
983.280775	1.000286
983.577749	1.000864
983.874686	0.999996
984.171587	1.000653
984.468451	1.000607
984.765279	1.001634
985.062070	1.001901
985.358824	1.000659
985.655543	1.001504
985.952224	1.000987
986.248869	0.999331
986.545478	1.002063
986.842050	1.001255
987.138586	0.999650
987.435086	0.999290
987.731549	1.001840
988.027975	1.001554
988.324366	0.999898
988.620719	1.001923
988.917037	1.000387
989.213318	1.001214
989.509563	1.000660
989.805772	1.000075
990.101944	1.001969
990.398080	1.001587
990.694180	1.001592
990.990244	0.999685
991.286271	1.002181
991.582262	1.000567
991.878217	0.999866
992.174136	1.001246
992.470019	1.000719
992.765865	1.002277
993.061676	1.001355
993.357450	1.001746
993.653188	1.001428
993.948890	1.001524
994.244556	1.000803
994.540186	1.000535
994.835780	0.999830
995.131337	1.001388
995.426859	1.000067
995.722345	0.999852
996.017795	1.000261
996.313208	1.001198
996.608586	1.000291
996.903928	1.001073
997.199234	1.000856
997.494504	1.001143
997.789738	0.999785
998.084936	1.001443
998.380099	0.999909
998.675225	1.002166
998.970316	1.001172
999.265371	1.001198
999.560390	1.000798
999.855373	1.001055
1000.150320	1.000109
1000.445232	1.001249
1000.740108	1.000392
1001.034948	0.999710
1001.329752	1.000804
1001.624521	1.001011
1001.919254	0.999748
1002.213951	1.000969
1002.508613	1.001427
1002.803239	0.999621
1003.097829	1.000706
1003.392384	1.001102
1003.686903	1.000851
1003.981386	1.001215
1004.275834	1.001522
1004.570246	0.999540
1004.864623	1.000395
1005.158964	1.001121
1005.453270	0.999792
1005.747540	1.000451
1006.041775	1.000647
1006.335974	1.001457
1006.630138	1.001105
1006.924266	0.999537
1007.218359	0.998979
1007.512416	1.001571
1007.806438	0.999976
1008.100425	1.001394
1008.394376	1.001703
1008.688292	1.000112
1008.982172	1.000773
1009.276017	1.001024
1009.569827	1.001607
1009.863602	1.000158
1010.157341	1.002184
1010.451045	1.000644
1010.744714	1.003114
1011.038347	1.000483
1011.331945	1.000600
1011.625508	1.000459
1011.919036	1.000825
1012.212528	1.001595
1012.505986	1.001009
1012.799408	1.000953
1013.092795	1.001385
1013.386147	1.000978
1013.679464	1.001336
1013.972745	1.000796
1014.265992	1.000802
1014.559204	1.000761
1014.852380	1.000816
1015.145521	1.001587
1015.438628	1.000781
1015.731699	1.000883
1016.024736	1.000549
1016.317737	1.000961
1016.610703	1.001340
1016.903635	1.000757
1017.196531	1.000296
1017.489393	1.000773
1017.782219	1.000166
1018.075011	0.999324
1018.367768	1.000919
1018.660490	1.000291
1018.953177	1.000291
1019.245829	1.000291
