Dividing Wavelength (nm)	Counts (n)	Blue Motor Position (mm): 28.200000	Red Motor Position (mm): 0.000000	
326.493990	1.001493
326.888308	1.001493
327.282561	1.001493
327.676750	1.002768
328.070874	1.001997
328.464933	1.002926
328.858929	1.002873
329.252859	1.001583
329.646726	1.000706
330.040528	1.001701
330.434265	1.001049
330.827938	1.000970
331.221547	1.001592
331.615091	1.001878
332.008571	1.001857
332.401986	1.000633
332.795338	0.999690
333.188625	1.001572
333.581847	1.002087
333.975006	1.001172
334.368100	1.002123
334.761129	1.000243
335.154095	1.001701
335.546996	1.000612
335.939833	0.999564
336.332606	1.000310
336.725315	1.000174
337.117960	1.000451
337.510540	0.998899
337.903056	1.000657
338.295508	1.001563
338.687896	1.001274
339.080220	0.999917
339.472480	0.999183
339.864676	1.000641
340.256807	0.998443
340.648875	1.001469
341.040879	0.999797
341.432818	1.000001
341.824694	0.999758
342.216506	1.001164
342.608253	0.999339
342.999937	0.999176
343.391557	0.999416
343.783113	1.001436
344.174605	0.999966
344.566033	0.999001
344.957397	1.000761
345.348697	1.001211
345.739934	0.999566
346.131106	1.000334
346.522215	0.999514
346.913260	1.000130
347.304241	0.998267
347.695159	1.000476
348.086012	1.000360
348.476802	1.001239
348.867528	1.000038
349.258191	1.000659
349.648789	0.998774
350.039324	1.000830
350.429796	0.998792
350.820203	0.998667
351.210548	0.999531
351.600828	0.999552
351.991045	0.999203
352.381198	0.999381
352.771288	0.999105
353.161314	0.999907
353.551276	0.998977
353.941175	0.997449
354.331010	0.999814
354.720782	0.999251
355.110490	0.998830
355.500135	1.000228
355.889717	0.997950
356.279235	0.998536
356.668689	1.000146
357.058080	1.000381
357.447408	0.997794
357.836672	0.999443
358.225873	0.998859
358.615010	0.998514
359.004084	0.999571
359.393095	0.998911
359.782043	0.999182
360.170927	0.998827
360.559748	0.997384
360.948505	0.999033
361.337199	0.998563
361.725830	0.998683
362.114398	0.998893
362.502903	0.998501
362.891344	0.997059
363.279722	0.998135
363.668037	0.998593
364.056289	0.998570
364.444478	1.000263
364.832603	0.999280
365.220665	0.997883
365.608665	0.998329
365.996601	0.998041
366.384474	0.996874
366.772284	0.998444
367.160031	0.996933
367.547715	0.996799
367.935336	0.995538
368.322893	0.993819
368.710388	0.993177
369.097820	0.992489
369.485189	0.989524
369.872495	0.987476
370.259738	0.986199
370.646918	0.983715
371.034035	0.981047
371.421090	0.978058
371.808081	0.972745
372.195010	0.968426
372.581875	0.964528
372.968678	0.960610
373.355418	0.956834
373.742096	0.948826
374.128710	0.945126
374.515262	0.941789
374.901751	0.935942
375.288177	0.929964
375.674540	0.923720
376.060841	0.918177
376.447079	0.910004
376.833254	0.903820
377.219367	0.899213
377.605417	0.887609
377.991404	0.884232
378.377329	0.878026
378.763191	0.871871
379.148991	0.862003
379.534727	0.854258
379.920402	0.846203
380.306013	0.843695
380.691563	0.829809
381.077049	0.823662
381.462474	0.818748
381.847835	0.807696
382.233134	0.803134
382.618371	0.803615
383.003545	0.786431
383.388657	0.785355
383.773706	0.777183
384.158693	0.772291
384.543618	0.766910
384.928480	0.757767
385.313280	0.748439
385.698017	0.747892
386.082692	0.736167
386.467305	0.734748
386.851856	0.729921
387.236344	0.724664
387.620770	0.719104
388.005133	0.713037
388.389435	0.707355
388.773674	0.704738
389.157851	0.696883
389.541965	0.694529
389.926018	0.700743
390.310008	0.687787
390.693936	0.684786
391.077802	0.677156
391.461606	0.677514
391.845348	0.667799
392.229027	0.667081
392.612645	0.665432
392.996200	0.652081
393.379694	0.645214
393.763125	0.635629
394.146494	0.640187
394.529801	0.630142
394.913047	0.622352
395.296230	0.628424
395.679351	0.619507
396.062410	0.617146
396.445408	0.619329
396.828343	0.614710
397.211217	0.609383
397.594028	0.622569
397.976778	0.612046
398.359466	0.608757
398.742092	0.604456
399.124656	0.616395
399.507158	0.604485
399.889598	0.601948
400.271977	0.592573
400.654294	0.596829
401.036549	0.595774
401.418742	0.599885
401.800874	0.585814
402.182944	0.582742
402.564952	0.574600
402.946898	0.576501
403.328783	0.576895
403.710606	0.588377
404.092367	0.562938
404.474067	0.568700
404.855705	0.566516
405.237282	0.575774
405.618797	0.562171
406.000250	0.558757
406.381642	0.547743
406.762972	0.553473
407.144240	0.551387
407.525447	0.551691
407.906593	0.544064
408.287677	0.539994
408.668700	0.548089
409.049661	0.542711
409.430560	0.537254
409.811399	0.545829
410.192176	0.527759
410.572891	0.534789
410.953545	0.523472
411.334138	0.536022
411.714669	0.528561
412.095139	0.541019
412.475547	0.525065
412.855894	0.527526
413.236180	0.525931
413.616405	0.531548
413.996568	0.522004
414.376670	0.528264
414.756711	0.532335
415.136691	0.530129
415.516609	0.520995
415.896466	0.518064
416.276262	0.513994
416.655997	0.515848
417.035670	0.497274
417.415283	0.488474
417.794834	0.493895
418.174324	0.499532
418.553753	0.508453
418.933121	0.489538
419.312428	0.484576
419.691674	0.489974
420.070859	0.478652
420.449983	0.486682
420.829045	0.476090
421.208047	0.484092
421.586988	0.477880
421.965867	0.476613
422.344686	0.465013
422.723444	0.478150
423.102141	0.494832
423.480777	0.467750
423.859352	0.488314
424.237866	0.465569
424.616319	0.466417
424.994712	0.457575
425.373044	0.467485
425.751314	0.455911
426.129524	0.472766
426.507673	0.455801
426.885762	0.449922
427.263789	0.455358
427.641756	0.465107
428.019662	0.454953
428.397508	0.454501
428.775292	0.458906
429.153016	0.450894
429.530679	0.457455
429.908282	0.450732
430.285824	0.461077
430.663305	0.439413
431.040726	0.461268
431.418086	0.460690
431.795385	0.453230
432.172624	0.452129
432.549802	0.452322
432.926920	0.452318
433.303977	0.452646
433.680974	0.449889
434.057910	0.449074
434.434786	0.448594
434.811601	0.452077
435.188355	0.435519
435.565050	0.445683
435.941683	0.447819
436.318257	0.432935
436.694770	0.435228
437.071222	0.435018
437.447614	0.439893
437.823946	0.447942
438.200218	0.439389
438.576429	0.450049
438.952580	0.444915
439.328670	0.443636
439.704700	0.451755
440.080670	0.455192
440.456580	0.438982
440.832429	0.449026
441.208218	0.462148
441.583947	0.454016
441.959616	0.456095
442.335224	0.464230
442.710773	0.457632
443.086261	0.459421
443.461689	0.475398
443.837057	0.469576
444.212365	0.464296
444.587612	0.473956
444.962800	0.468449
445.337927	0.473376
445.712995	0.501893
446.088002	0.471413
446.462949	0.485218
446.837837	0.494626
447.212664	0.488238
447.587431	0.487623
447.962139	0.468343
448.336786	0.439027
448.711374	0.452907
449.085901	0.495237
449.460369	0.504929
449.834776	0.513386
450.209124	0.503497
450.583412	0.506673
450.957640	0.505156
451.331808	0.521141
451.705917	0.545651
452.079965	0.555926
452.453954	0.554017
452.827883	0.566193
453.201752	0.568822
453.575562	0.584405
453.949311	0.585118
454.323001	0.595471
454.696632	0.599851
455.070202	0.603443
455.443713	0.605713
455.817164	0.610698
456.190556	0.616826
456.563888	0.622627
456.937160	0.628774
457.310373	0.647283
457.683526	0.654421
458.056619	0.666287
458.429653	0.674580
458.802628	0.684485
459.175542	0.688966
459.548398	0.688974
459.921194	0.693170
460.293930	0.700620
460.666607	0.698414
461.039224	0.700437
461.411782	0.706403
461.784280	0.715260
462.156719	0.725383
462.529099	0.736352
462.901419	0.751861
463.273680	0.761621
463.645882	0.768812
464.018024	0.780918
464.390106	0.784567
464.762130	0.786303
465.134094	0.787052
465.505999	0.780953
465.877845	0.777885
466.249631	0.781042
466.621358	0.793501
466.993026	0.807806
467.364634	0.818389
467.736184	0.828451
468.107674	0.837993
468.479105	0.844856
468.850477	0.851453
469.221790	0.860093
469.593043	0.868781
469.964238	0.876011
470.335373	0.881509
470.706449	0.887239
471.077467	0.892187
471.448425	0.890627
471.819324	0.891568
472.190164	0.895471
472.560945	0.905616
472.931667	0.914289
473.302330	0.919153
473.672934	0.924695
474.043479	0.927251
474.413965	0.931758
474.784393	0.935677
475.154761	0.938525
475.525070	0.941899
475.895321	0.945254
476.265513	0.948938
476.635645	0.951009
477.005719	0.954062
477.375734	0.956280
477.745691	0.958039
478.115588	0.960336
478.485427	0.963205
478.855207	0.963833
479.224928	0.964687
479.594591	0.966258
479.964194	0.968381
480.333739	0.970752
480.703226	0.972288
481.072653	0.973924
481.442022	0.975637
481.811333	0.976933
482.180584	0.978401
482.549777	0.979818
482.918912	0.981381
483.287988	0.981618
483.657005	0.982162
484.025964	0.983993
484.394864	0.984278
484.763706	0.984956
485.132489	0.986052
485.501213	0.987399
485.869879	0.987929
486.238487	0.987722
486.607036	0.989218
486.975527	0.990077
487.343959	0.989562
487.712333	0.989432
488.080648	0.990026
488.448905	0.990903
488.817104	0.990719
489.185244	0.991549
489.553326	0.991651
489.921350	0.992372
490.289315	0.991631
490.657222	0.990858
491.025070	0.991579
491.392861	0.991969
491.760593	0.991447
492.128267	0.992129
492.495883	0.992010
492.863440	0.993397
493.230939	0.992801
493.598380	0.993266
493.965763	0.993142
494.333088	0.992647
494.700354	0.993154
495.067563	0.993776
495.434713	0.994056
495.801805	0.994074
496.168839	0.993386
496.535815	0.994125
496.902733	0.994235
497.269593	0.993767
497.636395	0.993487
498.003139	0.993933
498.369825	0.995242
498.736453	0.994662
499.103023	0.994606
499.469535	0.994209
499.835989	0.994571
500.202385	0.994233
500.568723	0.994122
500.935003	0.994532
501.301226	0.994310
501.667390	0.994312
502.033497	0.994683
502.399546	0.994801
502.765537	0.994878
503.131470	0.994479
503.497345	0.995201
503.863163	0.994852
504.228923	0.994582
504.594625	0.994945
504.960269	0.995098
505.325856	0.995535
505.691385	0.995072
506.056856	0.995319
506.422270	0.995178
506.787625	0.995119
507.152924	0.995414
507.518164	0.994961
507.883347	0.994995
508.248472	0.995214
508.613540	0.994556
508.978550	0.995701
509.343503	0.995314
509.708398	0.996023
510.073236	0.995684
510.438016	0.994745
510.802738	0.994849
511.167403	0.994735
511.532010	0.995633
511.896561	0.994800
512.261053	0.994792
512.625488	0.994604
512.989866	0.995231
513.354186	0.994682
513.718449	0.995315
514.082655	0.995228
514.446803	0.995520
514.810894	0.995830
515.174927	0.995909
515.538904	0.996044
515.902822	0.995618
516.266684	0.994897
516.630488	0.995572
516.994235	0.995019
517.357925	0.996226
517.721558	0.995932
518.085133	0.994796
518.448651	0.995339
518.812112	0.996308
519.175516	0.995568
519.538863	0.995152
519.902152	0.995635
520.265385	0.995457
520.628560	0.995203
520.991678	0.995795
521.354739	0.996152
521.717743	0.994780
522.080690	0.995472
522.443580	0.994731
522.806413	0.995196
523.169189	0.995895
523.531908	0.994355
523.894569	0.995492
524.257174	0.995674
524.619722	0.995272
524.982213	0.995680
525.344647	0.995524
525.707025	0.994851
526.069345	0.995048
526.431608	0.995655
526.793815	0.996043
527.155964	0.996240
527.518057	0.995815
527.880093	0.995542
528.242072	0.995504
528.603995	0.995561
528.965860	0.995862
529.327669	0.996415
529.689421	0.995045
530.051117	0.995536
530.412755	0.995785
530.774337	0.995007
531.135862	0.995821
531.497331	0.995817
531.858743	0.996285
532.220098	0.995243
532.581396	0.995404
532.942638	0.995920
533.303824	0.996089
533.664953	0.995827
534.026025	0.996399
534.387040	0.995212
534.747999	0.994749
535.108902	0.995565
535.469748	0.995753
535.830537	0.996015
536.191270	0.995208
536.551947	0.994652
536.912567	0.995141
537.273131	0.996060
537.633638	0.995290
537.994089	0.995623
538.354483	0.995606
538.714821	0.994913
539.075103	0.996119
539.435328	0.995607
539.795497	0.995930
540.155609	0.995842
540.515665	0.995720
540.875665	0.995130
541.235609	0.995716
541.595496	0.995561
541.955328	0.995579
542.315102	0.996135
542.674821	0.995705
543.034483	0.995527
543.394090	0.995310
543.753640	0.996252
544.113134	0.995170
544.472571	0.995593
544.831953	0.994933
545.191278	0.996051
545.550548	0.995157
545.909761	0.994997
546.268918	0.995996
546.628019	0.996259
546.987064	0.995536
547.346053	0.995156
547.704986	0.995101
548.063863	0.995095
548.422684	0.995716
548.781449	0.995918
549.140158	0.995730
549.498811	0.995170
549.857408	0.995444
550.215949	0.994876
550.574434	0.995342
550.932864	0.995563
551.291237	0.994581
551.649555	0.995515
552.007817	0.995432
552.366022	0.996194
552.724173	0.996024
553.082267	0.995239
553.440305	0.995015
553.798288	0.994652
554.156215	0.995618
554.514086	0.995746
554.871902	0.995416
555.229661	0.994453
555.587365	0.995712
555.945014	0.995974
556.302606	0.994438
556.660143	0.995734
557.017625	0.996039
557.375050	0.994354
557.732421	0.995924
558.089735	0.994802
558.446994	0.995245
558.804197	0.995384
559.161345	0.995051
559.518437	0.994833
559.875474	0.995000
560.232455	0.995933
560.589381	0.995358
560.946251	0.995029
561.303065	0.995248
561.659825	0.994461
562.016528	0.995160
562.373177	0.995774
562.729770	0.995661
563.086307	0.994366
563.442789	0.995892
563.799216	0.994568
564.155587	0.995748
564.511904	0.995864
564.868164	0.994427
565.224370	0.994512
565.580520	0.995619
565.936615	0.995920
566.292654	0.994761
566.648638	0.995452
567.004567	0.995486
567.360441	0.995427
567.716260	0.995025
568.072023	0.994557
568.427732	0.995013
568.783385	0.995057
569.138982	0.995588
569.494525	0.994727
569.850013	0.995515
570.205445	0.995080
570.560823	0.995798
570.916145	0.994995
571.271412	0.994971
571.626625	0.995371
571.981782	0.995386
572.336884	0.995704
572.691931	0.995968
573.046923	0.995564
573.401860	0.995275
573.756743	0.995560
574.111570	0.995145
574.466342	0.995982
574.821059	0.995087
575.175722	0.996494
575.530330	0.995160
575.884882	0.995368
576.239380	0.995161
576.593823	0.994916
576.948211	0.995763
577.302544	0.995044
577.656823	0.995271
578.011047	0.994486
578.365216	0.995492
578.719330	0.995684
579.073389	0.994655
579.427394	0.994947
579.781344	0.995536
580.135239	0.994718
580.489080	0.995264
580.842866	0.995964
581.196597	0.995256
581.550273	0.994726
581.903895	0.995102
582.257463	0.994791
582.610975	0.995480
582.964434	0.995044
583.317837	0.996472
583.671186	0.995265
584.024481	0.995184
584.377721	0.994955
584.730906	0.995663
585.084037	0.995564
585.437113	0.995843
585.790135	0.995051
586.143103	0.995170
586.496016	0.995225
586.848874	0.995551
587.201679	0.995841
587.554428	0.994751
587.907124	0.995545
588.259765	0.995811
588.612352	0.996125
588.964884	0.995866
589.317362	0.995551
589.669786	0.995638
590.022155	0.995015
590.374470	0.994881
590.726731	0.995498
591.078937	0.995484
591.431090	0.995664
591.783188	0.995324
592.135232	0.996067
592.487222	0.995810
592.839157	0.995270
593.191038	0.995522
593.542866	0.994926
593.894639	0.994889
594.246358	0.995545
594.598022	0.995287
594.949633	0.995622
595.301190	0.995565
595.652692	0.994605
596.004141	0.994890
596.355535	0.995107
596.706876	0.995820
597.058162	0.995139
597.409395	0.995574
597.760573	0.994287
598.111698	0.994998
598.462768	0.995521
598.813785	0.993924
599.164748	0.994881
599.515657	0.995417
599.866511	0.995337
600.217312	0.996369
600.568060	0.994828
600.918753	0.994551
601.269392	0.995286
601.619978	0.995560
601.970510	0.995275
602.320988	0.995398
602.671412	0.994816
603.021783	0.995483
603.372100	0.996116
603.722363	0.995881
604.072572	0.995314
604.422728	0.995250
604.772830	0.994573
605.122878	0.994525
605.472872	0.996114
605.822813	0.995359
606.172701	0.996022
606.522534	0.995686
606.872314	0.995847
607.222041	0.994971
607.571714	0.995686
607.921333	0.995453
608.270899	0.994768
608.620411	0.994805
608.969870	0.995945
609.319276	0.995307
609.668627	0.996268
610.017926	0.995383
610.367171	0.995500
610.716362	0.995218
611.065500	0.994620
611.414585	0.995123
611.763616	0.994483
612.112594	0.994669
612.461518	0.994837
612.810389	0.995059
613.159207	0.995672
613.507971	0.994422
613.856682	0.995627
614.205340	0.994847
614.553945	0.995326
614.902496	0.994765
615.250994	0.994810
615.599439	0.994928
615.947830	0.994867
616.296169	0.994841
616.644454	0.995910
616.992686	0.994682
617.340864	0.995619
617.688990	0.994984
618.037063	0.995431
618.385082	0.994200
618.733048	0.994290
619.080961	0.994442
619.428821	0.995564
619.776628	0.994989
620.124382	0.995521
620.472083	0.995654
620.819731	0.996890
621.167326	0.995792
621.514868	0.995415
621.862357	0.995086
622.209793	0.995027
622.557176	0.994850
622.904506	0.995068
623.251783	0.995187
623.599007	0.994910
623.946179	0.995005
624.293297	0.995735
624.640363	0.995612
624.987376	0.995206
625.334336	0.995404
625.681243	0.995258
626.028097	0.995601
626.374899	0.995485
626.721647	0.996055
627.068343	0.994818
627.414987	0.995877
627.761577	0.994443
628.108115	0.995179
628.454600	0.995926
628.801032	0.995612
629.147412	0.995636
629.493739	0.996302
629.840014	0.994967
630.186236	0.995127
630.532405	0.996266
630.878521	0.995113
631.224585	0.995373
631.570597	0.994889
631.916556	0.996088
632.262462	0.994366
632.608316	0.995367
632.954117	0.994886
633.299866	0.995572
633.645562	0.994348
633.991206	0.996246
634.336797	0.995254
634.682336	0.996408
635.027823	0.995381
635.373257	0.995842
635.718639	0.996368
636.063968	0.995485
636.409245	0.995269
636.754470	0.994841
637.099642	0.995478
637.444762	0.995913
637.789829	0.995276
638.134845	0.995392
638.479808	0.996013
638.824719	0.996206
639.169577	0.995298
639.514383	0.996636
639.859137	0.996020
640.203839	0.995420
640.548489	0.995630
640.893086	0.995359
641.237632	0.996340
641.582125	0.995720
641.926566	0.996594
642.270955	0.996084
642.615292	0.995840
642.959576	0.995717
643.303809	0.995902
643.647990	0.995355
643.992118	0.995860
644.336195	0.995766
644.680219	0.996047
645.024192	0.995727
645.368112	0.995357
645.711981	0.995688
646.055797	0.995897
646.399562	0.994888
646.743274	0.997019
647.086935	0.995589
647.430544	0.996094
647.774101	0.995324
648.117606	0.996331
648.461059	0.995258
648.804460	0.995315
649.147810	0.995103
649.491108	0.995832
649.834354	0.996302
650.177548	0.995440
650.520690	0.995633
650.863781	0.994759
651.206820	0.995611
651.549807	0.995760
651.892742	0.995594
652.235626	0.995873
652.578458	0.995883
652.921238	0.996282
653.263967	0.995616
653.606644	0.995006
653.949269	0.996483
654.291843	0.995272
654.634365	0.996147
654.976836	0.995280
655.319255	0.996847
655.661622	0.995740
656.003938	0.995622
656.346203	0.995262
656.688416	0.996450
657.030577	0.995980
657.372687	0.996712
657.714746	0.995599
658.056753	0.995396
658.398708	0.995883
658.740612	0.996924
659.082465	0.995306
659.424266	0.996366
659.766016	0.996051
660.107715	0.996875
660.449362	0.996328
660.790958	0.995825
661.132503	0.996399
661.473996	0.995072
661.815438	0.995949
662.156829	0.996372
662.498168	0.997020
662.839456	0.995898
663.180693	0.995542
663.521879	0.996483
663.863013	0.996676
664.204097	0.996847
664.545129	0.996025
664.886110	0.996560
665.227040	0.996223
665.567918	0.995632
665.908746	0.995604
666.249522	0.995057
666.590248	0.995759
666.930922	0.996164
667.271545	0.995963
667.612118	0.996325
667.952639	0.995446
668.293109	0.996113
668.633528	0.994921
668.973896	0.996042
669.314213	0.995867
669.654480	0.995982
669.994695	0.995647
670.334859	0.995355
670.674973	0.994770
671.015035	0.996073
671.355047	0.996373
671.695008	0.995752
672.034918	0.996027
672.374777	0.995628
672.714585	0.996284
673.054342	0.996209
673.394049	0.995323
673.733705	0.995725
674.073310	0.996592
674.412864	0.995913
674.752368	0.995220
675.091820	0.996774
675.431223	0.996118
675.770574	0.995601
676.109875	0.996065
676.449125	0.995629
676.788324	0.995503
677.127473	0.996060
677.466571	0.995375
677.805619	0.996101
678.144616	0.996655
678.483562	0.996827
678.822458	0.996748
679.161303	0.995894
679.500098	0.995668
679.838842	0.996605
680.177535	0.996444
680.516179	0.995377
680.854771	0.995628
681.193314	0.995594
681.531805	0.996690
681.870247	0.996586
682.208638	0.996473
682.546978	0.996113
682.885268	0.996306
683.223508	0.994954
683.561697	0.996379
683.899836	0.996314
684.237925	0.996381
684.575963	0.995968
684.913951	0.996186
685.251889	0.996104
685.589776	0.995902
685.927614	0.995878
686.265401	0.995859
686.603137	0.996514
686.940824	0.995555
687.278460	0.997124
687.616046	0.996380
687.953582	0.996156
688.291068	0.995642
688.628504	0.995639
688.965889	0.995808
689.303224	0.994859
689.640510	0.996726
689.977745	0.995448
690.314930	0.995989
690.652065	0.996055
690.989150	0.995569
691.326185	0.997023
691.663170	0.996384
692.000105	0.995495
692.336990	0.996275
692.673825	0.996353
693.010610	0.996118
693.347345	0.996336
693.684030	0.996154
694.020665	0.994722
694.357251	0.996627
694.693786	0.996860
695.030272	0.995998
695.366707	0.996165
695.703093	0.995559
696.039429	0.995414
696.375716	0.996417
696.711952	0.996338
697.048139	0.996406
697.384276	0.997088
697.720363	0.996893
698.056400	0.995099
698.392388	0.995491
698.728326	0.996481
699.064214	0.997904
699.400053	0.996660
699.735842	0.997620
700.071581	0.996592
700.407270	0.996683
700.742910	0.996237
701.078501	0.996249
701.414042	0.997100
701.749533	0.996004
702.084974	0.997575
702.420366	0.997565
702.755709	0.996522
703.091002	0.997850
703.426246	0.997387
703.761440	0.996747
704.096584	0.996535
704.431679	0.996363
704.766725	0.996171
705.101721	0.997523
705.436668	0.996745
705.771565	0.996628
706.106413	0.996193
706.441212	0.997316
706.775961	0.998001
707.110661	0.996315
707.445311	0.997081
707.779913	0.997446
708.114465	0.997510
708.448967	0.997829
708.783421	0.996645
709.117825	0.997239
709.452180	0.996822
709.786485	0.997155
710.120742	0.996145
710.454949	0.996269
710.789107	0.996600
711.123216	0.996226
711.457275	0.996176
711.791286	0.996763
712.125247	0.997656
712.459159	0.996687
712.793023	0.996524
713.126837	0.996761
713.460602	0.995417
713.794318	0.995617
714.127985	0.995747
714.461602	0.996466
714.795171	0.995429
715.128691	0.996238
715.462162	0.996691
715.795584	0.996317
716.128957	0.997207
716.462281	0.996638
716.795556	0.996954
717.128782	0.996954
717.461960	0.996931
717.795088	0.996657
718.128167	0.997703
718.461198	0.996553
718.794180	0.996709
719.127113	0.997284
719.459997	0.996397
719.792833	0.997486
720.125619	0.997589
720.458357	0.997174
720.791046	0.996837
721.123686	0.996670
721.456278	0.996750
721.788821	0.996974
722.121315	0.998477
722.453761	0.997330
722.786158	0.997313
723.118506	0.996748
723.450805	0.996420
723.783056	0.998038
724.115259	0.997415
724.447412	0.997405
724.779518	0.997100
725.111574	0.996921
725.443582	0.997489
725.775542	0.997390
726.107453	0.997356
726.439315	0.998188
726.771129	0.997755
727.102895	0.997048
727.434612	0.997412
727.766281	0.996341
728.097901	0.996871
728.429473	0.998341
728.760996	0.995830
729.092471	0.997135
729.423897	0.996217
729.755276	0.997147
730.086606	0.996556
730.417887	0.997413
730.749120	0.997526
731.080305	0.996717
731.411442	0.996799
731.742530	0.995826
732.073570	0.996593
732.404562	0.996535
732.735506	0.996340
733.066401	0.996150
733.397249	0.996203
733.728048	0.996460
734.058798	0.997691
734.389501	0.996418
734.720156	0.997707
735.050762	0.997317
735.381320	0.996719
735.711831	0.996415
736.042293	0.996430
736.372707	0.997497
736.703073	0.995930
737.033391	0.996464
737.363661	0.997779
737.693883	0.997760
738.024056	0.996041
738.354182	0.997075
738.684260	0.996642
739.014290	0.997418
739.344272	0.996427
739.674207	0.997281
740.004093	0.997071
740.333931	0.996969
740.663722	0.996842
740.993464	0.996737
741.323159	0.996429
741.652806	0.997674
741.982405	0.996956
742.311956	0.997790
742.641460	0.998056
742.970915	0.997187
743.300323	0.997113
743.629683	0.996371
743.958996	0.998513
744.288260	0.996081
744.617477	0.996417
744.946647	0.997416
745.275768	0.997428
745.604842	0.997136
745.933869	0.996938
746.262847	0.997795
746.591778	0.996322
746.920662	0.997293
747.249498	0.997995
747.578286	0.998805
747.907027	0.997098
748.235720	0.998456
748.564365	0.997166
748.892963	0.997402
749.221514	0.996900
749.550017	0.997067
749.878473	0.996888
750.206881	0.998997
750.535242	0.996906
750.863555	0.997128
751.191821	0.997200
751.520039	0.997034
751.848210	0.996372
752.176334	0.996955
752.504411	0.997823
752.832440	0.997687
753.160421	0.997732
753.488356	0.996891
753.816243	0.997623
754.144082	0.997262
754.471875	0.997373
754.799620	0.997571
755.127318	0.997173
755.454969	0.997386
755.782572	0.999140
756.110129	0.997516
756.437638	0.998958
756.765100	0.998106
757.092515	0.998297
757.419882	0.997870
757.747203	0.996509
758.074477	0.998312
758.401703	0.997532
758.728882	0.997561
759.056014	0.997953
759.383099	0.996899
759.710138	0.997438
760.037129	0.997292
760.364073	0.997748
760.690970	0.997598
761.017820	0.997499
761.344623	0.997788
761.671379	0.998365
761.998088	0.997299
762.324751	0.997849
762.651366	0.997061
762.977935	0.996783
763.304456	0.996926
763.630931	0.994165
763.957359	0.994058
764.283740	0.995028
764.610074	0.996127
764.936362	0.995974
765.262602	0.995945
765.588796	0.997217
765.914943	0.996478
766.241044	0.997783
766.567097	0.997049
766.893104	0.998207
767.219064	0.995995
767.544978	0.997308
767.870845	0.998316
768.196665	0.997136
768.522438	0.998031
768.848165	0.997839
769.173846	0.997511
769.499479	0.998501
769.825066	0.999342
770.150607	0.999170
770.476101	0.998630
770.801548	0.999341
771.126949	0.999783
771.452303	0.998253
771.777611	0.999577
772.102872	0.998453
772.428087	0.997638
772.753256	0.999344
773.078378	0.998681
773.403453	0.997735
773.728482	0.999451
774.053465	0.998665
774.378401	0.998615
774.703291	1.000023
775.028135	0.999988
775.352932	0.997005
775.677683	0.997944
776.002388	0.999408
776.327046	0.998131
776.651658	0.999742
776.976224	0.999941
777.300743	0.998832
777.625216	0.997479
777.949643	0.998934
778.274024	0.997665
778.598359	0.998788
778.922647	0.999277
779.246889	0.999895
779.571086	0.998870
779.895236	0.998574
780.219339	0.999043
780.543397	0.998157
780.867409	0.999264
781.191374	0.998749
781.515294	0.999695
781.839167	0.999407
782.162995	0.998879
782.486776	0.998946
782.810511	0.998845
783.134201	1.000289
783.457844	0.998724
783.781441	0.997948
784.104993	0.998279
784.428498	0.999240
784.751958	0.999840
785.075372	0.999471
785.398739	0.999138
785.722061	0.997930
786.045337	0.998313
786.368568	0.998576
786.691752	0.998918
787.014891	0.997907
787.337983	0.997408
787.661030	0.997554
787.984031	1.000055
788.306987	0.998855
788.629897	0.997464
788.952760	0.998371
789.275579	0.998093
789.598351	0.998181
789.921078	0.998533
790.243759	0.998976
790.566395	0.998034
790.888984	0.999145
791.211529	0.998362
791.534027	0.998403
791.856480	0.999486
792.178888	0.998140
792.501249	0.998096
792.823566	0.999915
793.145836	0.998724
793.468062	0.999443
793.790241	0.999359
794.112375	0.998136
794.434464	0.999733
794.756507	0.999136
795.078505	0.999643
795.400457	0.999153
795.722364	0.999149
796.044226	0.998964
796.366042	0.998312
796.687812	0.997644
797.009538	0.997788
797.331218	0.999616
797.652852	1.000027
797.974442	0.999091
798.295986	0.998743
798.617484	0.998312
798.938938	0.999672
799.260346	0.998705
799.581709	0.998504
799.903026	0.998978
800.224299	0.997972
800.545526	0.998513
800.866708	0.998216
801.187845	0.999119
801.508936	0.998970
801.829983	0.998332
802.150984	0.999362
802.471940	0.998779
802.792851	0.998646
803.113717	0.999501
803.434538	0.999767
803.755314	1.000440
804.076045	0.999181
804.396731	0.998776
804.717372	0.997533
805.037967	0.999352
805.358518	1.000036
805.679024	0.999265
805.999485	0.999104
806.319901	0.998774
806.640272	1.000557
806.960598	0.999475
807.280879	0.997944
807.601115	0.999999
807.921306	0.999766
808.241453	0.998987
808.561554	0.999730
808.881611	1.000240
809.201623	0.999188
809.521590	0.998420
809.841513	1.000004
810.161390	0.997873
810.481223	0.998020
810.801011	0.999787
811.120755	1.000316
811.440453	0.998914
811.760107	0.999688
812.079716	0.998862
812.399281	0.998760
812.718801	0.999463
813.038276	0.998856
813.357707	0.998802
813.677093	0.999397
813.996434	0.999636
814.315731	1.001165
814.634983	0.999298
814.954191	0.998871
815.273354	0.998810
815.592473	0.999210
815.911547	0.999883
816.230577	0.999483
816.549562	0.998760
816.868502	0.998101
817.187399	0.999290
817.506250	0.999402
817.825058	0.998554
818.143821	0.999187
818.462539	0.998561
818.781213	0.999446
819.099843	0.998879
819.418429	0.997672
819.736970	0.998869
820.055466	0.996768
820.373919	0.997582
820.692327	0.995286
821.010691	0.995507
821.329011	0.992592
821.647286	0.991982
821.965517	0.989749
822.283704	0.987054
822.601847	0.985839
822.919945	0.985402
823.237999	0.987714
823.556010	0.988451
823.873976	0.990262
824.191897	0.990872
824.509775	0.992945
824.827609	0.993230
825.145398	0.994494
825.463144	0.993621
825.780845	0.993206
826.098502	0.993466
826.416116	0.994248
826.733685	0.992590
827.051210	0.990744
827.368692	0.991592
827.686129	0.991565
828.003522	0.994079
828.320872	0.993738
828.638177	0.995579
828.955439	0.997044
829.272656	0.997102
829.589830	0.996769
829.906960	0.997999
830.224046	0.997125
830.541088	0.998186
830.858086	0.997175
831.175041	0.999009
831.491952	0.998507
831.808819	0.997456
832.125642	0.997547
832.442421	0.998696
832.759157	0.998852
833.075849	0.997211
833.392497	0.995614
833.709101	0.994708
834.025662	0.993475
834.342179	0.993965
834.658653	0.996485
834.975083	0.996881
835.291469	0.997307
835.607811	0.996219
835.924110	0.998556
836.240366	0.998130
836.556578	0.998819
836.872746	0.999769
837.188871	0.998136
837.504952	0.998566
837.820990	0.998649
838.136984	0.998333
838.452935	0.998788
838.768842	0.999756
839.084706	0.999637
839.400526	0.998890
839.716303	0.997337
840.032037	0.998131
840.347727	0.997081
840.663373	0.998051
840.978977	0.997753
841.294537	0.998260
841.610054	0.998833
841.925527	0.998793
842.240957	0.999074
842.556344	1.000341
842.871687	0.999930
843.186987	0.999698
843.502244	1.000539
843.817458	0.999062
844.132629	1.000063
844.447756	0.999842
844.762840	0.999836
845.077881	1.000488
845.392879	0.998464
845.707833	0.999961
846.022745	1.000429
846.337613	0.999920
846.652438	0.999705
846.967221	0.999628
847.281960	0.999861
847.596656	1.000374
847.911309	1.000912
848.225919	0.999549
848.540485	1.000362
848.855009	1.000927
849.169490	0.999649
849.483928	1.001116
849.798323	0.998659
850.112675	1.000483
850.426984	1.000276
850.741251	1.000287
851.055474	0.999697
851.369654	1.000090
851.683792	0.999350
851.997887	1.000120
852.311938	0.999964
852.625947	1.000023
852.939914	0.999250
853.253837	1.001297
853.567718	1.000595
853.881555	1.001058
854.195350	1.000622
854.509103	1.001714
854.822812	1.001186
855.136479	0.999465
855.450103	1.000934
855.763685	1.000249
856.077224	1.001072
856.390720	1.000360
856.704173	1.000789
857.017584	1.000379
857.330953	0.999901
857.644278	1.000499
857.957561	1.000511
858.270802	1.000660
858.584000	1.000396
858.897155	0.999225
859.210268	0.999465
859.523339	1.000423
859.836367	0.999323
860.149352	0.999841
860.462295	1.000341
860.775195	1.001136
861.088054	0.999842
861.400869	0.998636
861.713642	0.999478
862.026373	1.000019
862.339062	1.000552
862.651708	0.999739
862.964312	1.000275
863.276873	0.999622
863.589392	0.999781
863.901869	0.998705
864.214303	0.999841
864.526696	1.000311
864.839045	1.001192
865.151353	0.999688
865.463619	0.998981
865.775842	1.000282
866.088023	0.999924
866.400162	1.000023
866.712258	1.001336
867.024313	0.999829
867.336325	1.000456
867.648296	1.000419
867.960224	0.999764
868.272110	1.000674
868.583954	1.000226
868.895755	1.000579
869.207515	1.000028
869.519233	1.001347
869.830909	0.998643
870.142542	0.998811
870.454134	0.999508
870.765684	1.000035
871.077191	1.000405
871.388657	1.000180
871.700081	1.000238
872.011463	1.000324
872.322803	0.998547
872.634101	0.999491
872.945357	1.000225
873.256571	0.999372
873.567744	0.999892
873.878874	1.000144
874.189963	0.998908
874.501010	1.001400
874.812015	1.000132
875.122979	0.999927
875.433900	0.998974
875.744780	1.000259
876.055618	0.998376
876.366415	0.998712
876.677169	0.999218
876.987882	0.999544
877.298554	1.000011
877.609183	0.999353
877.919771	0.999674
878.230317	0.999441
878.540822	0.998545
878.851285	0.998373
879.161707	0.998361
879.472087	0.999736
879.782425	0.997486
880.092722	0.996464
880.402977	0.993651
880.713191	0.991505
881.023363	0.988809
881.333494	0.987377
881.643583	0.988297
881.953631	0.987399
882.263637	0.987122
882.573602	0.988312
882.883526	0.988254
883.193408	0.991344
883.503248	0.990975
883.813048	0.992608
884.122806	0.993652
884.432522	0.994462
884.742197	0.995895
885.051831	0.996282
885.361424	0.996753
885.670975	0.998577
885.980485	0.997774
886.289954	0.997159
886.599382	0.997218
886.908768	0.999074
887.218113	0.997986
887.527417	0.999267
887.836680	0.999459
888.145901	0.998855
888.455082	1.000963
888.764221	0.999298
889.073319	0.998799
889.382376	0.999269
889.691392	0.998520
890.000366	0.999666
890.309300	0.999656
890.618193	0.999811
890.927044	0.998839
891.235855	0.999220
891.544625	0.998440
891.853353	0.999051
892.162041	0.999006
892.470687	0.999206
892.779293	0.998386
893.087858	0.998019
893.396381	0.998884
893.704864	0.997129
894.013306	0.996503
894.321707	0.994764
894.630068	0.994964
894.938387	0.994263
895.246665	0.993140
895.554903	0.993924
895.863100	0.996245
896.171256	0.994924
896.479371	0.995860
896.787446	0.996561
897.095480	0.997927
897.403473	0.997987
897.711425	0.997239
898.019336	0.999503
898.327207	0.998666
898.635038	0.997104
898.942827	0.999420
899.250576	0.998452
899.558284	0.999285
899.865952	0.997891
900.173579	0.998295
900.481165	0.998598
900.788711	0.998452
901.096216	0.998854
901.403681	0.999349
901.711105	0.999691
902.018489	0.999789
902.325832	0.999398
902.633135	1.000165
902.940397	1.000197
903.247619	0.998521
903.554800	0.997599
903.861941	0.996303
904.169041	0.993687
904.476101	0.992974
904.783121	0.992469
905.090100	0.992836
905.397039	0.993863
905.703938	0.994753
906.010796	0.995879
906.317614	0.996322
906.624391	0.997909
906.931129	0.999276
907.237826	0.999082
907.544483	0.998189
907.851099	0.999221
908.157675	0.998284
908.464211	1.000189
908.770707	0.999538
909.077163	0.999699
909.383578	0.999648
909.689954	0.999469
909.996289	0.999854
910.302584	0.999184
910.608839	1.001241
910.915054	0.999883
911.221229	1.001506
911.527363	0.999491
911.833458	0.999741
912.139513	0.999889
912.445527	1.000203
912.751502	0.998651
913.057436	0.998974
913.363331	0.998939
913.669186	1.000818
913.975000	0.999685
914.280775	0.999348
914.586510	0.997109
914.892205	0.996485
915.197859	0.995651
915.503475	0.995312
915.809050	0.994379
916.114585	0.992332
916.420081	0.992994
916.725536	0.993189
917.030952	0.993592
917.336328	0.994029
917.641665	0.994351
917.946961	0.995599
918.252218	0.995916
918.557435	0.995741
918.862612	0.996684
919.167750	0.998297
919.472848	0.998141
919.777906	0.999834
920.082925	0.998794
920.387904	0.999289
920.692843	0.998553
920.997743	0.998394
921.302603	0.999434
921.607423	0.999597
921.912204	0.999252
922.216946	0.999856
922.521647	1.000039
922.826310	1.000101
923.130932	1.000507
923.435516	0.999972
923.740059	1.000059
924.044564	0.998164
924.349028	0.998520
924.653454	1.000887
924.957840	0.999096
925.262186	0.999516
925.566493	0.999687
925.870761	0.999729
926.174989	1.000368
926.479178	1.001382
926.783328	1.000841
927.087438	0.999397
927.391509	0.999989
927.695541	1.000454
927.999533	1.000607
928.303486	1.001253
928.607400	1.001036
928.911275	1.002015
929.215110	1.000778
929.518906	1.000987
929.822663	1.001923
930.126381	1.001948
930.430060	1.000938
930.733699	1.001362
931.037299	1.000001
931.340861	1.000622
931.644383	0.999755
931.947866	1.000099
932.251309	1.000407
932.554714	0.999780
932.858080	1.001405
933.161407	1.000181
933.464694	1.000634
933.767943	1.001532
934.071153	1.001461
934.374323	1.001683
934.677455	1.000719
934.980548	1.000520
935.283602	1.001484
935.586617	0.999821
935.889593	1.002227
936.192530	1.000951
936.495428	1.001526
936.798287	0.999437
937.101108	1.000528
937.403890	0.999010
937.706632	1.001442
938.009336	0.999959
938.312002	0.998620
938.614628	0.999864
938.917216	0.999513
939.219765	0.999345
939.522275	1.000623
939.824747	1.000396
940.127179	1.000229
940.429573	1.000800
940.731929	0.999347
941.034246	0.999494
941.336524	0.998520
941.638763	0.999597
941.940964	0.998785
942.243126	1.000069
942.545250	1.000748
942.847335	1.000933
943.149381	1.001688
943.451389	0.999550
943.753359	1.000536
944.055290	1.001680
944.357182	1.001332
944.659036	1.001226
944.960851	1.000556
945.262628	1.000887
945.564367	1.000887
945.866067	1.000931
946.167729	1.000869
946.469352	1.000048
946.770937	0.998835
947.072484	1.002244
947.373992	1.000727
947.675462	0.999595
947.976893	1.000653
948.278286	1.001576
948.579641	1.000996
948.880958	0.999725
949.182236	1.001261
949.483476	1.000785
949.784678	1.001835
950.085841	1.000535
950.386967	0.998752
950.688054	1.000898
950.989103	0.999716
951.290114	0.999897
951.591087	1.000224
951.892021	0.998471
952.192917	1.001455
952.493776	0.999503
952.794596	1.000808
953.095378	1.000145
953.396122	1.000640
953.696828	1.001808
953.997496	1.000782
954.298126	1.000856
954.598718	0.999154
954.899272	1.000561
955.199788	0.999984
955.500266	1.001045
955.800706	1.000857
956.101108	1.001382
956.401472	1.001237
956.701798	1.000634
957.002087	1.000690
957.302337	1.000528
957.602550	1.000880
957.902724	1.000981
958.202861	1.000986
958.502960	1.001409
958.803022	1.001339
959.103045	1.001785
959.403031	1.001305
959.702979	1.002715
960.002889	1.000224
960.302762	1.000830
960.602596	1.001659
960.902393	1.001648
961.202153	1.001543
961.501875	1.001426
961.801559	1.001814
962.101205	1.000620
962.400814	1.002338
962.700385	1.001816
962.999918	1.001542
963.299414	1.000176
963.598873	1.001586
963.898293	1.000919
964.197677	1.001296
964.497022	1.000705
964.796331	1.001593
965.095601	1.001473
965.394835	0.999400
965.694030	1.002793
965.993189	1.001760
966.292309	1.000471
966.591393	1.000151
966.890439	1.001438
967.189447	1.000925
967.488419	1.001496
967.787353	1.000239
968.086249	1.000997
968.385108	1.001036
968.683930	1.001534
968.982714	1.000833
969.281462	1.000301
969.580172	1.001567
969.878844	1.001428
970.177480	1.001003
970.476078	1.001722
970.774639	1.002490
971.073162	1.001029
971.371649	1.000381
971.670098	1.000686
971.968510	1.000728
972.266885	1.000486
972.565223	1.001026
972.863524	1.000443
973.161788	1.000426
973.460014	1.001496
973.758204	1.000636
974.056356	1.000608
974.354471	0.999789
974.652550	1.001117
974.950591	1.001198
975.248595	1.000147
975.546563	1.001091
975.844493	1.000823
976.142386	1.000801
976.440243	1.001440
976.738062	1.001495
977.035845	1.001732
977.333590	1.000942
977.631299	1.000648
977.928971	1.000923
978.226606	1.000583
978.524204	1.000691
978.821765	1.001523
979.119290	1.002078
979.416777	1.001394
979.714228	1.000928
980.011642	1.001788
980.309020	1.000382
980.606360	1.000154
980.903664	1.001126
981.200931	1.000440
981.498162	1.001812
981.795356	1.000507
982.092513	0.999507
982.389633	1.002072
982.686717	0.999857
982.983764	0.999869
983.280775	1.001332
983.577749	1.001304
983.874686	0.999872
984.171587	0.998886
984.468451	1.000211
984.765279	1.001221
985.062070	1.000216
985.358824	1.000021
985.655543	1.000391
985.952224	1.001007
986.248869	1.001639
986.545478	1.001876
986.842050	1.000775
987.138586	1.000592
987.435086	1.000868
987.731549	1.001945
988.027975	1.002762
988.324366	1.000856
988.620719	1.002004
988.917037	1.000756
989.213318	1.002940
989.509563	1.001717
989.805772	1.001445
990.101944	1.002545
990.398080	1.000952
990.694180	1.001544
990.990244	1.001098
991.286271	1.001108
991.582262	1.000939
991.878217	1.000511
992.174136	1.002242
992.470019	1.001063
992.765865	1.002862
993.061676	1.001877
993.357450	1.002612
993.653188	1.002571
993.948890	1.000757
994.244556	1.000289
994.540186	1.000005
994.835780	1.000643
995.131337	1.002984
995.426859	1.001050
995.722345	1.002668
996.017795	1.000687
996.313208	0.999958
996.608586	1.001351
996.903928	1.000437
997.199234	1.001329
997.494504	1.001678
997.789738	1.001335
998.084936	1.001789
998.380099	1.000388
998.675225	1.001154
998.970316	1.001093
999.265371	1.000914
999.560390	1.001115
999.855373	1.001827
1000.150320	1.001598
1000.445232	1.001610
1000.740108	1.000386
1001.034948	1.000871
1001.329752	1.002319
1001.624521	1.001316
1001.919254	1.001608
1002.213951	1.000518
1002.508613	1.001217
1002.803239	1.000986
1003.097829	1.000977
1003.392384	1.000952
1003.686903	1.002080
1003.981386	1.001722
1004.275834	1.001010
1004.570246	0.999878
1004.864623	1.001162
1005.158964	1.001949
1005.453270	1.000394
1005.747540	1.000797
1006.041775	1.000728
1006.335974	1.001253
1006.630138	1.002432
1006.924266	0.999209
1007.218359	0.999313
1007.512416	1.002627
1007.806438	1.001442
1008.100425	1.001235
1008.394376	1.001327
1008.688292	1.001109
1008.982172	1.000258
1009.276017	1.002033
1009.569827	1.002328
1009.863602	1.000087
1010.157341	1.002256
1010.451045	1.000989
1010.744714	1.003334
1011.038347	1.003072
1011.331945	1.000782
1011.625508	1.001705
1011.919036	1.001871
1012.212528	1.000599
1012.505986	1.000568
1012.799408	1.002072
1013.092795	1.001445
1013.386147	1.002138
1013.679464	1.001863
1013.972745	1.001435
1014.265992	1.001435
1014.559204	1.000951
1014.852380	1.001679
1015.145521	1.001556
1015.438628	1.001956
1015.731699	1.001020
1016.024736	1.002601
1016.317737	1.000319
1016.610703	1.001864
1016.903635	1.001460
1017.196531	1.000716
1017.489393	1.000946
1017.782219	1.001395
1018.075011	1.001388
1018.367768	1.000821
1018.660490	1.001179
1018.953177	1.001179
1019.245829	1.001179
