Dividing Wavelength (nm)	Counts (n)	Blue Motor Position (mm): 26.700000	Red Motor Position (mm): 0.000000	
326.493990	1.000339
326.888308	1.000339
327.282561	1.000339
327.676750	1.001428
328.070874	1.001732
328.464933	1.002037
328.858929	1.001825
329.252859	1.000959
329.646726	0.999807
330.040528	1.000655
330.434265	1.001417
330.827938	1.000392
331.221547	1.000495
331.615091	1.001968
332.008571	1.003542
332.401986	1.000272
332.795338	1.000430
333.188625	1.001342
333.581847	1.001430
333.975006	1.000545
334.368100	1.002020
334.761129	0.999845
335.154095	1.001172
335.546996	1.001625
335.939833	0.999733
336.332606	0.999796
336.725315	0.997939
337.117960	0.999617
337.510540	0.999093
337.903056	0.998826
338.295508	1.000079
338.687896	0.999674
339.080220	0.998603
339.472480	0.999951
339.864676	1.000104
340.256807	0.998796
340.648875	1.000981
341.040879	0.998337
341.432818	0.999389
341.824694	0.997805
342.216506	1.001141
342.608253	0.998988
342.999937	0.999370
343.391557	0.999478
343.783113	1.001210
344.174605	0.999537
344.566033	0.999593
344.957397	1.000863
345.348697	0.999912
345.739934	0.999387
346.131106	0.999970
346.522215	0.998253
346.913260	0.998974
347.304241	0.998221
347.695159	0.999897
348.086012	0.998207
348.476802	0.999766
348.867528	0.999466
349.258191	0.999721
349.648789	0.999039
350.039324	0.999429
350.429796	0.998402
350.820203	0.997930
351.210548	0.999599
351.600828	0.999854
351.991045	0.998798
352.381198	1.000599
352.771288	0.998970
353.161314	0.998220
353.551276	0.996905
353.941175	0.997522
354.331010	0.999912
354.720782	0.999039
355.110490	0.998532
355.500135	0.998854
355.889717	0.998147
356.279235	0.997736
356.668689	0.998680
357.058080	0.998325
357.447408	0.997765
357.836672	0.999126
358.225873	0.997630
358.615010	0.998536
359.004084	0.997840
359.393095	0.999440
359.782043	0.997008
360.170927	0.999955
360.559748	0.998443
360.948505	0.998721
361.337199	0.997790
361.725830	0.998244
362.114398	0.998810
362.502903	0.997076
362.891344	0.996952
363.279722	0.996819
363.668037	0.997596
364.056289	0.996687
364.444478	0.999009
364.832603	0.996625
365.220665	0.997624
365.608665	0.997323
365.996601	0.996492
366.384474	0.996904
366.772284	0.996678
367.160031	0.996407
367.547715	0.995785
367.935336	0.995566
368.322893	0.995418
368.710388	0.993419
369.097820	0.991101
369.485189	0.989097
369.872495	0.988212
370.259738	0.984368
370.646918	0.982180
371.034035	0.978733
371.421090	0.978036
371.808081	0.971509
372.195010	0.970276
372.581875	0.964825
372.968678	0.960301
373.355418	0.956558
373.742096	0.949116
374.128710	0.944482
374.515262	0.939584
374.901751	0.935598
375.288177	0.928880
375.674540	0.923471
376.060841	0.916645
376.447079	0.909700
376.833254	0.903038
377.219367	0.898139
377.605417	0.887283
377.991404	0.883577
378.377329	0.878396
378.763191	0.871684
379.148991	0.861571
379.534727	0.854992
379.920402	0.845978
380.306013	0.841882
380.691563	0.829549
381.077049	0.822855
381.462474	0.819107
381.847835	0.808011
382.233134	0.803484
382.618371	0.803773
383.003545	0.785614
383.388657	0.784541
383.773706	0.776331
384.158693	0.771479
384.543618	0.766757
384.928480	0.758309
385.313280	0.748144
385.698017	0.747147
386.082692	0.735641
386.467305	0.734114
386.851856	0.729342
387.236344	0.723670
387.620770	0.717538
388.005133	0.712356
388.389435	0.707206
388.773674	0.704701
389.157851	0.695925
389.541965	0.693963
389.926018	0.700780
390.310008	0.686560
390.693936	0.683928
391.077802	0.676364
391.461606	0.677855
391.845348	0.666798
392.229027	0.667027
392.612645	0.663892
392.996200	0.652076
393.379694	0.644601
393.763125	0.635113
394.146494	0.639102
394.529801	0.630342
394.913047	0.622308
395.296230	0.628035
395.679351	0.619718
396.062410	0.616427
396.445408	0.618679
396.828343	0.613930
397.211217	0.608984
397.594028	0.621679
397.976778	0.612025
398.359466	0.607964
398.742092	0.604010
399.124656	0.615280
399.507158	0.603703
399.889598	0.601178
400.271977	0.591889
400.654294	0.595861
401.036549	0.595279
401.418742	0.599739
401.800874	0.585260
402.182944	0.582152
402.564952	0.574040
402.946898	0.575104
403.328783	0.576544
403.710606	0.587584
404.092367	0.562344
404.474067	0.568331
404.855705	0.566803
405.237282	0.575229
405.618797	0.561548
406.000250	0.557413
406.381642	0.547837
406.762972	0.552508
407.144240	0.551007
407.525447	0.551169
407.906593	0.543396
408.287677	0.539501
408.668700	0.547358
409.049661	0.541681
409.430560	0.536608
409.811399	0.545509
410.192176	0.527664
410.572891	0.534123
410.953545	0.522506
411.334138	0.536312
411.714669	0.528602
412.095139	0.540257
412.475547	0.525076
412.855894	0.526434
413.236180	0.525743
413.616405	0.531194
413.996568	0.520947
414.376670	0.527836
414.756711	0.532560
415.136691	0.529273
415.516609	0.520461
415.896466	0.517865
416.276262	0.512512
416.655997	0.514766
417.035670	0.496451
417.415283	0.487885
417.794834	0.493204
418.174324	0.498475
418.553753	0.507100
418.933121	0.489419
419.312428	0.484383
419.691674	0.489325
420.070859	0.477723
420.449983	0.485949
420.829045	0.474738
421.208047	0.484008
421.586988	0.476928
421.965867	0.475883
422.344686	0.464351
422.723444	0.476783
423.102141	0.494102
423.480777	0.467001
423.859352	0.488122
424.237866	0.465086
424.616319	0.465403
424.994712	0.456593
425.373044	0.467440
425.751314	0.454702
426.129524	0.472231
426.507673	0.455102
426.885762	0.448428
427.263789	0.454289
427.641756	0.464221
428.019662	0.453965
428.397508	0.453693
428.775292	0.458409
429.153016	0.449950
429.530679	0.456120
429.908282	0.449024
430.285824	0.459618
430.663305	0.437648
431.040726	0.458973
431.418086	0.458844
431.795385	0.450715
432.172624	0.449941
432.549802	0.449791
432.926920	0.449036
433.303977	0.448925
433.680974	0.445955
434.057910	0.444613
434.434786	0.443925
434.811601	0.446644
435.188355	0.429168
435.565050	0.438626
435.941683	0.439601
436.318257	0.423337
436.694770	0.424838
437.071222	0.423148
437.447614	0.427531
437.823946	0.433896
438.200218	0.423800
438.576429	0.433228
438.952580	0.426728
439.328670	0.423575
439.704700	0.430050
440.080670	0.431686
440.456580	0.413572
440.832429	0.421468
441.208218	0.432973
441.583947	0.422508
441.959616	0.422482
442.335224	0.428688
442.710773	0.419449
443.086261	0.418913
443.461689	0.432844
443.837057	0.423719
444.212365	0.414920
444.587612	0.423012
444.962800	0.414176
445.337927	0.416261
445.712995	0.443319
446.088002	0.406868
446.462949	0.417984
446.837837	0.424631
447.212664	0.414396
447.587431	0.408382
447.962139	0.381432
448.336786	0.343339
448.711374	0.354826
449.085901	0.399745
449.460369	0.406022
449.834776	0.411187
450.209124	0.394286
450.583412	0.390478
450.957640	0.384728
451.331808	0.398654
451.705917	0.423545
452.079965	0.430838
452.453954	0.422853
452.827883	0.431731
453.201752	0.429918
453.575562	0.443748
453.949311	0.437179
454.323001	0.446161
454.696632	0.445947
455.070202	0.443928
455.443713	0.440340
455.817164	0.440194
456.190556	0.441341
456.563888	0.443553
456.937160	0.445145
457.310373	0.464600
457.683526	0.468831
458.056619	0.478752
458.429653	0.484579
458.802628	0.493002
459.175542	0.492903
459.548398	0.485474
459.921194	0.485139
460.293930	0.492259
460.666607	0.482633
461.039224	0.480455
461.411782	0.483691
461.784280	0.489579
462.156719	0.498502
462.529099	0.507991
462.901419	0.527297
463.273680	0.536043
463.645882	0.542481
464.018024	0.556106
464.390106	0.557300
464.762130	0.553973
465.134094	0.552173
465.505999	0.540696
465.877845	0.529742
466.249631	0.528480
466.621358	0.540930
466.993026	0.558919
467.364634	0.570117
467.736184	0.584734
468.107674	0.598146
468.479105	0.607574
468.850477	0.618371
469.221790	0.631338
469.593043	0.645089
469.964238	0.656969
470.335373	0.664611
470.706449	0.672392
471.077467	0.681093
471.448425	0.670378
471.819324	0.666883
472.190164	0.674420
472.560945	0.696734
472.931667	0.715751
473.302330	0.724706
473.672934	0.738107
474.043479	0.740248
474.413965	0.748665
474.784393	0.758393
475.154761	0.763301
475.525070	0.770375
475.895321	0.780255
476.265513	0.784797
476.635645	0.790375
477.005719	0.797549
477.375734	0.803112
477.745691	0.807966
478.115588	0.814935
478.485427	0.820020
478.855207	0.822175
479.224928	0.822278
479.594591	0.825374
479.964194	0.833661
480.333739	0.841072
480.703226	0.849108
481.072653	0.854076
481.442022	0.858670
481.811333	0.862771
482.180584	0.870184
482.549777	0.876680
482.918912	0.882278
483.287988	0.887360
483.657005	0.892273
484.025964	0.898559
484.394864	0.902860
484.763706	0.907831
485.132489	0.912898
485.501213	0.917525
485.869879	0.921154
486.238487	0.925933
486.607036	0.929362
486.975527	0.933977
487.343959	0.935952
487.712333	0.939133
488.080648	0.942718
488.448905	0.945765
488.817104	0.948594
489.185244	0.950772
489.553326	0.954448
489.921350	0.955214
490.289315	0.953638
490.657222	0.955231
491.025070	0.958697
491.392861	0.960514
491.760593	0.964282
492.128267	0.967457
492.495883	0.969508
492.863440	0.971681
493.230939	0.973547
493.598380	0.975551
493.965763	0.977149
494.333088	0.977568
494.700354	0.978961
495.067563	0.980481
495.434713	0.981702
495.801805	0.982982
496.168839	0.983526
496.535815	0.984051
496.902733	0.984889
497.269593	0.984908
497.636395	0.985917
498.003139	0.985951
498.369825	0.987494
498.736453	0.987526
499.103023	0.988320
499.469535	0.988097
499.835989	0.989504
500.202385	0.989855
500.568723	0.989194
500.935003	0.990261
501.301226	0.990934
501.667390	0.989990
502.033497	0.990853
502.399546	0.991158
502.765537	0.991125
503.131470	0.992391
503.497345	0.992797
503.863163	0.992257
504.228923	0.992227
504.594625	0.992236
504.960269	0.993044
505.325856	0.993916
505.691385	0.993594
506.056856	0.992711
506.422270	0.992771
506.787625	0.993675
507.152924	0.993603
507.518164	0.993314
507.883347	0.993255
508.248472	0.993480
508.613540	0.993207
508.978550	0.994314
509.343503	0.993796
509.708398	0.994315
510.073236	0.994354
510.438016	0.993635
510.802738	0.994076
511.167403	0.994234
511.532010	0.994547
511.896561	0.994425
512.261053	0.994680
512.625488	0.994162
512.989866	0.993872
513.354186	0.994170
513.718449	0.994842
514.082655	0.994322
514.446803	0.994377
514.810894	0.995649
515.174927	0.995415
515.538904	0.995643
515.902822	0.995033
516.266684	0.995070
516.630488	0.995324
516.994235	0.995411
517.357925	0.995265
517.721558	0.995115
518.085133	0.994361
518.448651	0.994947
518.812112	0.995196
519.175516	0.995430
519.538863	0.995294
519.902152	0.996089
520.265385	0.995095
520.628560	0.994979
520.991678	0.995314
521.354739	0.996352
521.717743	0.995402
522.080690	0.994833
522.443580	0.995409
522.806413	0.995349
523.169189	0.996178
523.531908	0.994601
523.894569	0.995299
524.257174	0.995351
524.619722	0.995561
524.982213	0.995058
525.344647	0.995231
525.707025	0.995382
526.069345	0.995150
526.431608	0.995664
526.793815	0.995843
527.155964	0.995667
527.518057	0.995839
527.880093	0.995713
528.242072	0.995413
528.603995	0.995588
528.965860	0.995814
529.327669	0.996228
529.689421	0.995501
530.051117	0.995982
530.412755	0.996227
530.774337	0.995887
531.135862	0.996180
531.497331	0.995867
531.858743	0.996291
532.220098	0.995157
532.581396	0.995906
532.942638	0.995477
533.303824	0.996544
533.664953	0.995867
534.026025	0.996567
534.387040	0.996077
534.747999	0.995463
535.108902	0.995265
535.469748	0.995985
535.830537	0.995718
536.191270	0.995457
536.551947	0.995413
536.912567	0.995678
537.273131	0.996851
537.633638	0.995360
537.994089	0.996442
538.354483	0.995909
538.714821	0.995727
539.075103	0.996570
539.435328	0.996176
539.795497	0.995859
540.155609	0.995937
540.515665	0.996557
540.875665	0.995482
541.235609	0.995535
541.595496	0.994805
541.955328	0.995807
542.315102	0.995864
542.674821	0.996050
543.034483	0.995890
543.394090	0.994651
543.753640	0.995954
544.113134	0.995846
544.472571	0.996295
544.831953	0.996324
545.191278	0.995635
545.550548	0.995192
545.909761	0.994925
546.268918	0.996899
546.628019	0.995963
546.987064	0.994928
547.346053	0.994737
547.704986	0.995239
548.063863	0.995451
548.422684	0.995746
548.781449	0.995622
549.140158	0.996283
549.498811	0.995288
549.857408	0.995059
550.215949	0.994661
550.574434	0.995488
550.932864	0.995875
551.291237	0.995269
551.649555	0.995140
552.007817	0.995747
552.366022	0.996019
552.724173	0.995857
553.082267	0.995082
553.440305	0.995189
553.798288	0.994462
554.156215	0.995655
554.514086	0.995614
554.871902	0.995684
555.229661	0.995078
555.587365	0.995425
555.945014	0.995677
556.302606	0.995386
556.660143	0.996233
557.017625	0.996195
557.375050	0.995242
557.732421	0.995428
558.089735	0.994692
558.446994	0.995080
558.804197	0.996244
559.161345	0.995401
559.518437	0.995893
559.875474	0.996374
560.232455	0.995594
560.589381	0.996074
560.946251	0.995412
561.303065	0.995381
561.659825	0.995730
562.016528	0.995830
562.373177	0.995674
562.729770	0.994953
563.086307	0.994861
563.442789	0.995846
563.799216	0.995122
564.155587	0.995385
564.511904	0.995844
564.868164	0.995101
565.224370	0.994686
565.580520	0.995654
565.936615	0.995659
566.292654	0.995066
566.648638	0.995605
567.004567	0.994895
567.360441	0.995976
567.716260	0.994793
568.072023	0.995084
568.427732	0.995392
568.783385	0.995415
569.138982	0.995811
569.494525	0.995150
569.850013	0.996061
570.205445	0.995205
570.560823	0.995425
570.916145	0.995399
571.271412	0.995835
571.626625	0.995738
571.981782	0.994776
572.336884	0.996207
572.691931	0.996079
573.046923	0.996430
573.401860	0.995182
573.756743	0.995879
574.111570	0.995344
574.466342	0.995801
574.821059	0.995466
575.175722	0.995354
575.530330	0.996002
575.884882	0.994853
576.239380	0.995522
576.593823	0.994606
576.948211	0.995675
577.302544	0.995230
577.656823	0.995897
578.011047	0.995157
578.365216	0.995494
578.719330	0.995351
579.073389	0.994265
579.427394	0.995055
579.781344	0.996032
580.135239	0.994661
580.489080	0.994829
580.842866	0.994779
581.196597	0.994898
581.550273	0.994887
581.903895	0.995611
582.257463	0.995093
582.610975	0.995009
582.964434	0.995307
583.317837	0.994662
583.671186	0.995462
584.024481	0.994786
584.377721	0.994913
584.730906	0.995751
585.084037	0.996731
585.437113	0.995874
585.790135	0.995522
586.143103	0.995446
586.496016	0.995116
586.848874	0.995347
587.201679	0.995320
587.554428	0.994942
587.907124	0.995658
588.259765	0.996008
588.612352	0.995629
588.964884	0.995634
589.317362	0.995616
589.669786	0.995143
590.022155	0.995120
590.374470	0.995502
590.726731	0.994648
591.078937	0.995496
591.431090	0.995688
591.783188	0.994988
592.135232	0.995695
592.487222	0.995421
592.839157	0.995059
593.191038	0.994891
593.542866	0.995537
593.894639	0.994505
594.246358	0.995668
594.598022	0.995278
594.949633	0.995325
595.301190	0.996188
595.652692	0.994205
596.004141	0.994962
596.355535	0.995600
596.706876	0.995343
597.058162	0.995007
597.409395	0.995782
597.760573	0.994460
598.111698	0.995696
598.462768	0.994473
598.813785	0.994504
599.164748	0.995119
599.515657	0.995560
599.866511	0.995437
600.217312	0.995622
600.568060	0.995531
600.918753	0.995435
601.269392	0.995337
601.619978	0.995316
601.970510	0.995602
602.320988	0.995620
602.671412	0.994943
603.021783	0.995387
603.372100	0.996082
603.722363	0.996079
604.072572	0.995267
604.422728	0.995034
604.772830	0.994911
605.122878	0.996283
605.472872	0.996053
605.822813	0.995664
606.172701	0.995552
606.522534	0.996197
606.872314	0.996336
607.222041	0.994708
607.571714	0.995564
607.921333	0.995433
608.270899	0.995152
608.620411	0.995173
608.969870	0.995486
609.319276	0.995338
609.668627	0.995546
610.017926	0.995111
610.367171	0.995064
610.716362	0.995083
611.065500	0.995466
611.414585	0.995517
611.763616	0.995120
612.112594	0.995455
612.461518	0.995374
612.810389	0.995325
613.159207	0.994941
613.507971	0.994897
613.856682	0.996447
614.205340	0.994652
614.553945	0.995002
614.902496	0.995021
615.250994	0.995598
615.599439	0.995340
615.947830	0.994816
616.296169	0.995104
616.644454	0.995648
616.992686	0.994533
617.340864	0.995231
617.688990	0.994331
618.037063	0.995033
618.385082	0.994462
618.733048	0.994983
619.080961	0.995576
619.428821	0.995622
619.776628	0.994550
620.124382	0.995406
620.472083	0.995683
620.819731	0.996275
621.167326	0.995068
621.514868	0.995430
621.862357	0.995688
622.209793	0.995504
622.557176	0.995043
622.904506	0.994716
623.251783	0.995794
623.599007	0.995302
623.946179	0.995130
624.293297	0.996389
624.640363	0.995933
624.987376	0.994978
625.334336	0.995251
625.681243	0.994634
626.028097	0.995356
626.374899	0.994967
626.721647	0.996222
627.068343	0.995190
627.414987	0.995519
627.761577	0.994613
628.108115	0.994606
628.454600	0.996013
628.801032	0.996104
629.147412	0.995880
629.493739	0.996266
629.840014	0.995051
630.186236	0.995229
630.532405	0.995003
630.878521	0.995953
631.224585	0.994829
631.570597	0.995087
631.916556	0.996108
632.262462	0.994054
632.608316	0.995659
632.954117	0.995006
633.299866	0.995529
633.645562	0.995333
633.991206	0.996293
634.336797	0.995079
634.682336	0.996012
635.027823	0.995225
635.373257	0.995439
635.718639	0.996234
636.063968	0.995683
636.409245	0.995084
636.754470	0.995333
637.099642	0.995528
637.444762	0.995904
637.789829	0.995765
638.134845	0.995488
638.479808	0.995564
638.824719	0.996008
639.169577	0.995970
639.514383	0.995337
639.859137	0.995690
640.203839	0.995298
640.548489	0.995536
640.893086	0.995273
641.237632	0.996302
641.582125	0.994959
641.926566	0.995850
642.270955	0.996844
642.615292	0.994807
642.959576	0.995825
643.303809	0.996285
643.647990	0.995581
643.992118	0.996304
644.336195	0.995040
644.680219	0.996112
645.024192	0.995309
645.368112	0.995196
645.711981	0.995137
646.055797	0.995555
646.399562	0.995412
646.743274	0.996115
647.086935	0.995496
647.430544	0.995764
647.774101	0.995859
648.117606	0.996058
648.461059	0.996592
648.804460	0.995616
649.147810	0.995401
649.491108	0.996398
649.834354	0.994897
650.177548	0.995941
650.520690	0.994563
650.863781	0.995232
651.206820	0.995905
651.549807	0.995197
651.892742	0.995073
652.235626	0.995602
652.578458	0.996278
652.921238	0.996184
653.263967	0.995939
653.606644	0.994998
653.949269	0.995652
654.291843	0.994915
654.634365	0.995723
654.976836	0.995226
655.319255	0.996719
655.661622	0.995718
656.003938	0.996173
656.346203	0.995271
656.688416	0.996065
657.030577	0.995890
657.372687	0.995090
657.714746	0.994482
658.056753	0.995888
658.398708	0.994911
658.740612	0.996047
659.082465	0.995639
659.424266	0.995517
659.766016	0.994984
660.107715	0.996247
660.449362	0.995415
660.790958	0.995599
661.132503	0.995372
661.473996	0.995103
661.815438	0.995674
662.156829	0.995625
662.498168	0.996498
662.839456	0.994962
663.180693	0.995834
663.521879	0.995998
663.863013	0.995791
664.204097	0.995173
664.545129	0.995317
664.886110	0.996183
665.227040	0.995671
665.567918	0.995420
665.908746	0.995404
666.249522	0.995494
666.590248	0.995713
666.930922	0.995363
667.271545	0.995373
667.612118	0.995738
667.952639	0.996186
668.293109	0.995863
668.633528	0.994969
668.973896	0.995767
669.314213	0.995871
669.654480	0.995768
669.994695	0.995045
670.334859	0.995528
670.674973	0.995560
671.015035	0.995092
671.355047	0.995273
671.695008	0.995444
672.034918	0.995085
672.374777	0.995739
672.714585	0.995842
673.054342	0.995709
673.394049	0.995949
673.733705	0.995952
674.073310	0.995998
674.412864	0.994971
674.752368	0.995132
675.091820	0.996310
675.431223	0.995651
675.770574	0.995413
676.109875	0.995616
676.449125	0.994909
676.788324	0.995190
677.127473	0.996301
677.466571	0.995798
677.805619	0.995912
678.144616	0.996066
678.483562	0.995347
678.822458	0.996476
679.161303	0.995345
679.500098	0.996246
679.838842	0.996363
680.177535	0.994997
680.516179	0.994447
680.854771	0.995214
681.193314	0.995085
681.531805	0.995488
681.870247	0.994952
682.208638	0.995377
682.546978	0.994967
682.885268	0.995193
683.223508	0.995080
683.561697	0.995374
683.899836	0.995412
684.237925	0.996132
684.575963	0.995040
684.913951	0.996538
685.251889	0.994901
685.589776	0.995252
685.927614	0.995714
686.265401	0.994981
686.603137	0.995070
686.940824	0.996104
687.278460	0.995051
687.616046	0.995251
687.953582	0.995624
688.291068	0.995204
688.628504	0.995024
688.965889	0.994980
689.303224	0.993947
689.640510	0.995327
689.977745	0.995107
690.314930	0.994756
690.652065	0.995315
690.989150	0.995551
691.326185	0.995141
691.663170	0.994675
692.000105	0.995544
692.336990	0.995568
692.673825	0.995155
693.010610	0.995030
693.347345	0.996418
693.684030	0.995713
694.020665	0.995078
694.357251	0.994807
694.693786	0.995268
695.030272	0.995149
695.366707	0.995192
695.703093	0.995146
696.039429	0.995126
696.375716	0.996385
696.711952	0.995076
697.048139	0.996125
697.384276	0.995143
697.720363	0.996113
698.056400	0.994705
698.392388	0.994896
698.728326	0.995288
699.064214	0.997408
699.400053	0.995481
699.735842	0.996913
700.071581	0.996063
700.407270	0.995194
700.742910	0.995815
701.078501	0.995759
701.414042	0.996534
701.749533	0.994411
702.084974	0.996765
702.420366	0.995934
702.755709	0.995277
703.091002	0.996785
703.426246	0.996916
703.761440	0.995610
704.096584	0.995328
704.431679	0.995267
704.766725	0.996626
705.101721	0.996621
705.436668	0.995664
705.771565	0.996123
706.106413	0.995135
706.441212	0.995780
706.775961	0.995785
707.110661	0.995542
707.445311	0.996315
707.779913	0.996586
708.114465	0.996925
708.448967	0.997205
708.783421	0.996801
709.117825	0.996225
709.452180	0.996215
709.786485	0.996183
710.120742	0.996306
710.454949	0.995076
710.789107	0.996006
711.123216	0.994830
711.457275	0.994366
711.791286	0.996325
712.125247	0.996613
712.459159	0.995393
712.793023	0.995961
713.126837	0.996037
713.460602	0.995383
713.794318	0.994690
714.127985	0.994889
714.461602	0.995694
714.795171	0.995270
715.128691	0.995688
715.462162	0.996360
715.795584	0.996028
716.128957	0.996477
716.462281	0.996456
716.795556	0.994899
717.128782	0.996704
717.461960	0.996220
717.795088	0.996359
718.128167	0.997323
718.461198	0.996062
718.794180	0.996497
719.127113	0.996390
719.459997	0.996221
719.792833	0.995719
720.125619	0.995279
720.458357	0.995386
720.791046	0.996833
721.123686	0.996293
721.456278	0.996660
721.788821	0.996202
722.121315	0.997180
722.453761	0.996272
722.786158	0.995713
723.118506	0.996342
723.450805	0.995772
723.783056	0.996622
724.115259	0.996232
724.447412	0.996654
724.779518	0.996021
725.111574	0.996657
725.443582	0.995723
725.775542	0.997168
726.107453	0.996271
726.439315	0.996998
726.771129	0.997016
727.102895	0.996288
727.434612	0.996830
727.766281	0.995841
728.097901	0.995934
728.429473	0.996625
728.760996	0.995468
729.092471	0.996575
729.423897	0.996280
729.755276	0.996676
730.086606	0.995347
730.417887	0.995990
730.749120	0.995987
731.080305	0.995374
731.411442	0.995697
731.742530	0.994884
732.073570	0.995560
732.404562	0.995797
732.735506	0.995911
733.066401	0.996055
733.397249	0.996045
733.728048	0.995448
734.058798	0.996204
734.389501	0.996712
734.720156	0.995941
735.050762	0.996976
735.381320	0.996166
735.711831	0.995829
736.042293	0.996339
736.372707	0.996512
736.703073	0.995322
737.033391	0.996308
737.363661	0.997137
737.693883	0.995850
738.024056	0.995880
738.354182	0.996252
738.684260	0.995772
739.014290	0.996284
739.344272	0.995099
739.674207	0.995920
740.004093	0.996515
740.333931	0.996258
740.663722	0.995566
740.993464	0.995873
741.323159	0.996142
741.652806	0.995673
741.982405	0.995553
742.311956	0.996188
742.641460	0.997005
742.970915	0.996477
743.300323	0.994891
743.629683	0.995831
743.958996	0.996345
744.288260	0.995534
744.617477	0.997105
744.946647	0.995906
745.275768	0.997004
745.604842	0.996525
745.933869	0.996594
746.262847	0.997295
746.591778	0.995196
746.920662	0.997296
747.249498	0.996844
747.578286	0.997047
747.907027	0.996125
748.235720	0.997743
748.564365	0.996807
748.892963	0.996755
749.221514	0.995818
749.550017	0.995861
749.878473	0.996473
750.206881	0.997933
750.535242	0.996168
750.863555	0.996430
751.191821	0.996013
751.520039	0.996669
751.848210	0.994378
752.176334	0.996675
752.504411	0.996514
752.832440	0.995825
753.160421	0.997243
753.488356	0.997975
753.816243	0.996340
754.144082	0.995966
754.471875	0.997432
754.799620	0.996628
755.127318	0.995997
755.454969	0.996804
755.782572	0.998018
756.110129	0.996276
756.437638	0.997046
756.765100	0.996983
757.092515	0.995562
757.419882	0.996400
757.747203	0.996612
758.074477	0.997492
758.401703	0.996854
758.728882	0.996777
759.056014	0.997194
759.383099	0.996955
759.710138	0.996201
760.037129	0.996259
760.364073	0.996255
760.690970	0.996196
761.017820	0.995822
761.344623	0.997403
761.671379	0.997921
761.998088	0.996907
762.324751	0.996146
762.651366	0.996131
762.977935	0.994553
763.304456	0.994508
763.630931	0.993205
763.957359	0.992570
764.283740	0.992960
764.610074	0.994239
764.936362	0.994170
765.262602	0.995405
765.588796	0.996299
765.914943	0.995941
766.241044	0.994979
766.567097	0.995682
766.893104	0.996852
767.219064	0.996105
767.544978	0.995930
767.870845	0.997230
768.196665	0.997269
768.522438	0.997357
768.848165	0.998519
769.173846	0.998399
769.499479	0.998396
769.825066	0.997889
770.150607	0.998371
770.476101	0.997962
770.801548	0.998690
771.126949	0.998876
771.452303	0.997850
771.777611	0.997619
772.102872	0.997245
772.428087	0.997137
772.753256	0.997610
773.078378	0.997969
773.403453	0.996825
773.728482	0.999489
774.053465	0.997316
774.378401	0.997991
774.703291	0.997532
775.028135	0.998646
775.352932	0.996852
775.677683	0.998638
776.002388	0.997967
776.327046	0.997786
776.651658	0.998977
776.976224	0.998070
777.300743	0.998512
777.625216	0.997333
777.949643	0.998576
778.274024	0.997364
778.598359	0.997911
778.922647	0.998339
779.246889	0.998968
779.571086	0.998301
779.895236	0.997792
780.219339	0.999128
780.543397	0.997708
780.867409	0.998675
781.191374	0.997888
781.515294	0.999193
781.839167	0.998969
782.162995	0.997920
782.486776	0.997650
782.810511	0.997294
783.134201	0.998134
783.457844	0.998504
783.781441	0.998479
784.104993	0.996840
784.428498	0.998321
784.751958	0.999216
785.075372	0.998379
785.398739	0.998084
785.722061	0.996726
786.045337	0.997867
786.368568	0.997912
786.691752	0.998204
787.014891	0.997265
787.337983	0.997251
787.661030	0.997282
787.984031	0.997980
788.306987	0.997919
788.629897	0.996443
788.952760	0.996920
789.275579	0.998019
789.598351	0.997334
789.921078	0.998507
790.243759	0.997799
790.566395	0.996344
790.888984	0.999693
791.211529	0.997827
791.534027	0.998364
791.856480	0.998641
792.178888	0.998285
792.501249	0.998173
792.823566	0.999375
793.145836	0.998914
793.468062	0.998911
793.790241	0.998853
794.112375	0.997094
794.434464	0.998955
794.756507	0.998508
795.078505	0.997036
795.400457	0.998781
795.722364	0.998532
796.044226	0.997499
796.366042	0.997950
796.687812	0.997200
797.009538	0.997845
797.331218	0.998527
797.652852	0.999234
797.974442	0.997360
798.295986	0.997482
798.617484	0.996509
798.938938	0.998771
799.260346	0.997806
799.581709	0.998151
799.903026	0.997834
800.224299	0.997197
800.545526	0.996961
800.866708	0.997366
801.187845	0.999250
801.508936	0.999464
801.829983	0.998033
802.150984	0.998776
802.471940	0.999801
802.792851	0.998599
803.113717	0.998973
803.434538	0.998561
803.755314	0.999441
804.076045	0.998737
804.396731	0.998432
804.717372	0.996929
805.037967	0.999964
805.358518	0.998298
805.679024	0.998455
805.999485	0.998524
806.319901	0.999001
806.640272	0.999440
806.960598	0.997734
807.280879	0.999473
807.601115	0.999013
807.921306	0.999179
808.241453	0.999052
808.561554	0.997620
808.881611	0.999767
809.201623	0.998299
809.521590	0.997961
809.841513	0.998675
810.161390	0.997254
810.481223	0.996798
810.801011	0.999372
811.120755	0.999028
811.440453	0.998714
811.760107	0.999140
812.079716	0.997941
812.399281	0.997951
812.718801	0.998359
813.038276	0.997629
813.357707	0.999089
813.677093	0.998870
813.996434	0.998944
814.315731	1.000211
814.634983	0.999035
814.954191	0.999579
815.273354	0.998529
815.592473	0.998419
815.911547	0.999613
816.230577	0.997861
816.549562	0.998452
816.868502	0.997110
817.187399	0.998592
817.506250	0.998545
817.825058	0.996664
818.143821	0.997897
818.462539	0.997250
818.781213	0.998433
819.099843	0.997739
819.418429	0.997479
819.736970	0.997181
820.055466	0.995489
820.373919	0.995167
820.692327	0.994997
821.010691	0.993795
821.329011	0.992214
821.647286	0.989481
821.965517	0.987167
822.283704	0.983960
822.601847	0.982586
822.919945	0.982579
823.237999	0.984558
823.556010	0.985564
823.873976	0.987348
824.191897	0.989575
824.509775	0.990723
824.827609	0.992376
825.145398	0.992492
825.463144	0.992294
825.780845	0.992416
826.098502	0.992639
826.416116	0.992604
826.733685	0.990994
827.051210	0.988582
827.368692	0.989238
827.686129	0.990571
828.003522	0.991761
828.320872	0.992502
828.638177	0.995035
828.955439	0.995530
829.272656	0.995336
829.589830	0.995733
829.906960	0.996417
830.224046	0.996360
830.541088	0.996664
830.858086	0.997708
831.175041	0.998389
831.491952	0.997578
831.808819	0.997201
832.125642	0.998014
832.442421	0.998393
832.759157	0.997301
833.075849	0.994931
833.392497	0.994370
833.709101	0.991993
834.025662	0.992593
834.342179	0.992893
834.658653	0.995425
834.975083	0.995714
835.291469	0.994910
835.607811	0.996233
835.924110	0.996533
836.240366	0.998452
836.556578	0.997591
836.872746	0.998320
837.188871	0.998533
837.504952	0.998117
837.820990	0.998827
838.136984	0.997782
838.452935	0.998618
838.768842	0.998726
839.084706	0.998705
839.400526	0.998178
839.716303	0.996922
840.032037	0.996463
840.347727	0.995952
840.663373	0.997254
840.978977	0.996833
841.294537	0.998190
841.610054	0.998367
841.925527	0.998824
842.240957	0.999493
842.556344	0.998595
842.871687	0.997989
843.186987	0.999150
843.502244	0.999399
843.817458	0.998852
844.132629	0.999120
844.447756	0.999328
844.762840	0.999164
845.077881	0.998909
845.392879	0.998577
845.707833	0.999933
846.022745	1.000290
846.337613	1.000649
846.652438	0.999301
846.967221	0.999489
847.281960	1.000888
847.596656	0.999653
847.911309	0.999706
848.225919	0.998624
848.540485	0.999574
848.855009	1.001240
849.169490	0.999526
849.483928	0.999232
849.798323	0.998503
850.112675	1.001098
850.426984	0.999971
850.741251	1.000205
851.055474	0.998813
851.369654	1.000196
851.683792	0.999393
851.997887	0.999253
852.311938	1.000194
852.625947	0.999098
852.939914	0.998328
853.253837	1.000115
853.567718	0.999889
853.881555	0.999436
854.195350	0.999256
854.509103	1.000303
854.822812	0.999661
855.136479	0.999851
855.450103	1.000049
855.763685	0.999988
856.077224	0.999403
856.390720	0.999692
856.704173	1.000630
857.017584	0.999509
857.330953	0.999610
857.644278	0.999661
857.957561	0.999689
858.270802	1.000105
858.584000	0.999072
858.897155	0.998637
859.210268	0.998863
859.523339	1.001014
859.836367	1.000375
860.149352	0.998916
860.462295	0.999201
860.775195	0.999560
861.088054	0.998874
861.400869	0.998977
861.713642	0.998450
862.026373	1.001075
862.339062	0.999949
862.651708	0.999155
862.964312	1.000386
863.276873	0.999458
863.589392	0.999604
863.901869	0.999142
864.214303	1.000161
864.526696	0.998827
864.839045	0.999317
865.151353	0.999451
865.463619	0.999565
865.775842	1.000007
866.088023	0.999961
866.400162	0.999684
866.712258	0.999967
867.024313	1.000186
867.336325	1.000596
867.648296	0.999483
867.960224	1.000290
868.272110	1.000126
868.583954	0.999167
868.895755	1.000089
869.207515	0.999248
869.519233	0.999617
869.830909	0.998021
870.142542	0.998702
870.454134	0.998833
870.765684	0.999326
871.077191	0.999964
871.388657	0.999877
871.700081	0.999910
872.011463	0.999275
872.322803	0.997970
872.634101	0.998133
872.945357	0.997854
873.256571	0.999132
873.567744	0.999574
873.878874	0.998560
874.189963	0.999137
874.501010	1.000743
874.812015	0.998106
875.122979	0.999128
875.433900	0.998814
875.744780	0.999147
876.055618	0.997607
876.366415	0.998102
876.677169	0.998105
876.987882	0.998346
877.298554	0.999313
877.609183	0.997094
877.919771	0.999059
878.230317	0.998656
878.540822	0.997769
878.851285	0.997600
879.161707	0.996887
879.472087	0.998417
879.782425	0.996086
880.092722	0.996047
880.402977	0.992633
880.713191	0.990308
881.023363	0.986806
881.333494	0.984979
881.643583	0.984437
881.953631	0.985461
882.263637	0.983474
882.573602	0.985808
882.883526	0.987260
883.193408	0.989288
883.503248	0.990691
883.813048	0.991182
884.122806	0.992066
884.432522	0.992214
884.742197	0.995252
885.051831	0.995330
885.361424	0.995396
885.670975	0.997228
885.980485	0.995811
886.289954	0.997256
886.599382	0.996032
886.908768	0.997653
887.218113	0.996441
887.527417	0.998481
887.836680	0.998407
888.145901	0.997637
888.455082	0.998996
888.764221	0.998459
889.073319	0.998439
889.382376	0.999210
889.691392	0.998534
890.000366	0.999438
890.309300	0.998579
890.618193	0.998812
890.927044	0.998365
891.235855	0.998388
891.544625	0.998621
891.853353	0.998868
892.162041	0.996902
892.470687	0.998401
892.779293	0.997927
893.087858	0.997446
893.396381	0.997872
893.704864	0.996120
894.013306	0.995469
894.321707	0.994330
894.630068	0.993241
894.938387	0.992691
895.246665	0.993441
895.554903	0.992784
895.863100	0.995017
896.171256	0.995477
896.479371	0.995839
896.787446	0.994772
897.095480	0.996412
897.403473	0.996937
897.711425	0.997252
898.019336	0.997795
898.327207	0.998284
898.635038	0.997831
898.942827	0.998223
899.250576	0.997563
899.558284	0.998139
899.865952	0.998192
900.173579	0.998681
900.481165	0.997449
900.788711	0.997972
901.096216	0.998288
901.403681	0.998372
901.711105	0.998235
902.018489	0.998731
902.325832	0.998746
902.633135	0.998897
902.940397	0.997490
903.247619	0.997804
903.554800	0.996394
903.861941	0.995031
904.169041	0.991986
904.476101	0.990587
904.783121	0.990141
905.090100	0.991557
905.397039	0.993076
905.703938	0.993409
906.010796	0.995498
906.317614	0.995387
906.624391	0.995748
906.931129	0.997331
907.237826	0.996641
907.544483	0.997020
907.851099	0.998516
908.157675	0.998307
908.464211	0.998950
908.770707	0.998340
909.077163	0.998443
909.383578	0.999666
909.689954	0.998548
909.996289	0.999987
910.302584	0.999475
910.608839	1.001458
910.915054	0.999446
911.221229	1.000564
911.527363	0.999632
911.833458	0.999912
912.139513	0.999105
912.445527	0.999898
912.751502	0.999460
913.057436	0.998916
913.363331	1.000211
913.669186	1.000242
913.975000	0.999498
914.280775	0.999101
914.586510	0.996678
914.892205	0.996651
915.197859	0.994886
915.503475	0.994452
915.809050	0.992670
916.114585	0.990350
916.420081	0.990346
916.725536	0.992346
917.030952	0.992954
917.336328	0.992915
917.641665	0.993640
917.946961	0.993918
918.252218	0.995268
918.557435	0.995449
918.862612	0.995248
919.167750	0.996488
919.472848	0.998536
919.777906	0.997750
920.082925	0.998868
920.387904	0.998548
920.692843	0.998342
920.997743	0.998024
921.302603	0.998409
921.607423	0.997663
921.912204	0.998769
922.216946	0.999392
922.521647	0.998939
922.826310	0.997883
923.130932	0.999086
923.435516	0.999860
923.740059	0.999025
924.044564	0.998860
924.349028	0.997449
924.653454	0.999366
924.957840	1.000061
925.262186	0.998581
925.566493	0.999657
925.870761	0.999642
926.174989	0.998933
926.479178	1.000000
926.783328	0.999422
927.087438	1.000466
927.391509	0.998081
927.695541	1.000061
927.999533	0.999993
928.303486	1.000273
928.607400	1.000116
928.911275	1.000061
929.215110	1.000550
929.518906	1.000595
929.822663	1.000663
930.126381	1.000800
930.430060	0.999694
930.733699	1.000813
931.037299	1.001081
931.340861	0.998720
931.644383	0.999401
931.947866	1.001109
932.251309	1.000338
932.554714	0.999288
932.858080	1.000200
933.161407	0.998847
933.464694	1.000203
933.767943	1.001018
934.071153	1.000241
934.374323	0.999856
934.677455	1.000011
934.980548	0.999756
935.283602	1.000597
935.586617	1.000019
935.889593	1.001632
936.192530	1.001256
936.495428	1.000541
936.798287	0.999800
937.101108	1.000295
937.403890	0.999405
937.706632	1.000829
938.009336	1.000210
938.312002	0.999445
938.614628	1.001218
938.917216	0.999111
939.219765	0.998619
939.522275	0.999253
939.824747	1.000107
940.127179	0.998745
940.429573	0.998854
940.731929	0.999349
941.034246	0.998435
941.336524	0.998579
941.638763	0.998965
941.940964	0.999266
942.243126	1.000029
942.545250	1.000992
942.847335	0.999271
943.149381	1.000320
943.451389	0.999419
943.753359	1.000453
944.055290	1.000759
944.357182	0.999398
944.659036	1.000068
944.960851	1.000481
945.262628	1.000344
945.564367	1.000486
945.866067	0.999848
946.167729	1.000285
946.469352	0.999951
946.770937	0.998624
947.072484	1.000759
947.373992	1.000488
947.675462	1.000607
947.976893	0.999931
948.278286	1.000829
948.579641	1.000488
948.880958	1.000204
949.182236	1.000340
949.483476	1.000515
949.784678	1.000779
950.085841	0.999876
950.386967	1.000159
950.688054	1.000325
950.989103	0.999590
951.290114	0.999895
951.591087	1.000749
951.892021	0.999927
952.192917	1.000429
952.493776	0.999994
952.794596	1.000645
953.095378	0.999434
953.396122	0.999359
953.696828	1.000741
953.997496	0.999940
954.298126	1.000659
954.598718	1.000001
954.899272	0.999996
955.199788	0.998812
955.500266	1.001768
955.800706	1.000940
956.101108	0.999336
956.401472	1.002102
956.701798	0.999423
957.002087	1.000394
957.302337	0.999184
957.602550	1.000050
957.902724	0.999824
958.202861	1.000066
958.502960	0.999465
958.803022	1.000527
959.103045	1.001119
959.403031	1.001304
959.702979	1.000130
960.002889	0.999829
960.302762	0.999026
960.602596	1.002305
960.902393	1.000586
961.202153	1.000960
961.501875	1.001497
961.801559	1.001158
962.101205	0.998958
962.400814	1.001589
962.700385	1.001287
962.999918	1.002112
963.299414	0.998826
963.598873	0.999955
963.898293	1.000741
964.197677	1.000105
964.497022	1.000578
964.796331	1.000835
965.095601	0.999990
965.394835	0.999475
965.694030	1.001499
965.993189	1.000828
966.292309	1.002014
966.591393	0.998882
966.890439	1.002217
967.189447	1.000607
967.488419	1.000415
967.787353	1.001388
968.086249	1.000848
968.385108	1.001384
968.683930	1.001113
968.982714	1.000507
969.281462	1.000889
969.580172	1.000748
969.878844	1.001557
970.177480	0.999988
970.476078	1.001825
970.774639	1.000980
971.073162	1.000468
971.371649	1.001055
971.670098	1.000425
971.968510	1.000983
972.266885	0.999445
972.565223	1.001275
972.863524	1.000313
973.161788	1.001238
973.460014	1.001572
973.758204	0.999892
974.056356	1.000127
974.354471	0.999939
974.652550	1.001572
974.950591	0.999911
975.248595	1.000631
975.546563	1.000655
975.844493	1.000671
976.142386	1.000965
976.440243	1.001439
976.738062	1.001124
977.035845	0.999394
977.333590	1.000902
977.631299	1.000376
977.928971	1.000833
978.226606	1.000832
978.524204	1.000391
978.821765	1.000890
979.119290	1.002286
979.416777	1.000674
979.714228	1.000561
980.011642	1.001378
980.309020	1.000165
980.606360	1.000390
980.903664	1.001688
981.200931	0.999592
981.498162	1.000280
981.795356	1.000846
982.092513	0.999583
982.389633	1.000461
982.686717	0.999520
982.983764	0.998991
983.280775	0.999658
983.577749	1.001921
983.874686	0.999255
984.171587	1.000386
984.468451	1.000847
984.765279	1.000795
985.062070	1.000231
985.358824	0.999711
985.655543	1.000801
985.952224	0.998824
986.248869	1.000580
986.545478	1.003071
986.842050	1.000630
987.138586	0.999777
987.435086	1.000560
987.731549	1.002279
988.027975	1.001866
988.324366	1.000426
988.620719	1.002001
988.917037	1.000126
989.213318	1.000925
989.509563	1.001236
989.805772	1.002292
990.101944	1.001529
990.398080	1.001202
990.694180	1.001868
990.990244	1.001157
991.286271	1.000550
991.582262	1.001006
991.878217	1.001077
992.174136	1.001355
992.470019	1.000998
992.765865	1.002631
993.061676	1.000732
993.357450	1.001345
993.653188	1.000950
993.948890	1.000417
994.244556	1.000033
994.540186	1.000651
994.835780	1.000242
995.131337	1.002120
995.426859	0.999946
995.722345	1.000963
996.017795	1.000385
996.313208	1.001214
996.608586	1.000428
996.903928	0.999946
997.199234	0.999959
997.494504	1.001734
997.789738	1.000881
998.084936	1.001077
998.380099	1.000943
998.675225	1.001361
998.970316	1.001926
999.265371	1.000999
999.560390	1.000669
999.855373	1.000924
1000.150320	1.001699
1000.445232	1.001877
1000.740108	0.999766
1001.034948	1.000862
1001.329752	1.000249
1001.624521	1.000390
1001.919254	1.000519
1002.213951	1.001686
1002.508613	1.000698
1002.803239	1.001466
1003.097829	1.001343
1003.392384	1.000986
1003.686903	1.002081
1003.981386	1.000351
1004.275834	1.001720
1004.570246	0.999300
1004.864623	1.002251
1005.158964	1.002228
1005.453270	1.000013
1005.747540	0.999770
1006.041775	1.001795
1006.335974	1.000236
1006.630138	1.000262
1006.924266	1.001096
1007.218359	0.999678
1007.512416	1.002264
1007.806438	1.001330
1008.100425	0.999818
1008.394376	1.001728
1008.688292	1.000436
1008.982172	1.000539
1009.276017	1.001836
1009.569827	1.002034
1009.863602	0.999878
1010.157341	1.002401
1010.451045	0.999416
1010.744714	1.002937
1011.038347	1.001149
1011.331945	1.000145
1011.625508	1.000123
1011.919036	1.001704
1012.212528	1.001453
1012.505986	0.999774
1012.799408	1.001925
1013.092795	1.002409
1013.386147	1.000823
1013.679464	1.002360
1013.972745	1.001328
1014.265992	1.001106
1014.559204	1.000355
1014.852380	1.001603
1015.145521	1.000554
1015.438628	1.000962
1015.731699	0.999824
1016.024736	1.001904
1016.317737	1.001468
1016.610703	1.002497
1016.903635	1.000595
1017.196531	1.000517
1017.489393	1.000506
1017.782219	1.000438
1018.075011	1.000866
1018.367768	0.999516
1018.660490	1.002108
1018.953177	1.002108
1019.245829	1.002108
