Dividing Wavelength (nm)	Counts (n)	Blue Motor Position (mm): 1.400000	Red Motor Position (mm): 0.000000	
326.493990	1.005497
326.888308	1.005497
327.282561	1.005497
327.676750	1.007685
328.070874	1.007057
328.464933	1.007801
328.858929	1.008337
329.252859	1.006584
329.646726	1.006713
330.040528	1.005440
330.434265	1.006933
330.827938	1.005488
331.221547	1.006401
331.615091	1.007783
332.008571	1.007804
332.401986	1.005564
332.795338	1.005720
333.188625	1.007061
333.581847	1.006457
333.975006	1.006640
334.368100	1.007526
334.761129	1.005362
335.154095	1.006489
335.546996	1.004670
335.939833	0.999764
336.332606	1.000579
336.725315	0.999409
337.117960	1.000937
337.510540	0.998640
337.903056	0.999671
338.295508	1.001200
338.687896	1.000162
339.080220	0.999510
339.472480	0.999487
339.864676	0.998850
340.256807	0.998641
340.648875	0.999456
341.040879	0.998680
341.432818	1.000080
341.824694	0.998344
342.216506	1.000834
342.608253	0.999702
342.999937	0.999618
343.391557	0.999014
343.783113	1.001157
344.174605	0.999799
344.566033	0.998710
344.957397	0.999924
345.348697	1.000048
345.739934	0.999480
346.131106	0.998570
346.522215	0.998680
346.913260	0.999079
347.304241	0.998756
347.695159	0.998016
348.086012	0.998522
348.476802	0.998975
348.867528	0.998558
349.258191	0.999888
349.648789	0.999979
350.039324	1.000587
350.429796	0.998812
350.820203	0.997749
351.210548	0.998548
351.600828	0.998771
351.991045	0.999583
352.381198	0.998934
352.771288	0.998453
353.161314	0.998662
353.551276	0.999398
353.941175	0.997582
354.331010	1.000252
354.720782	0.998158
355.110490	0.999570
355.500135	0.998840
355.889717	0.997837
356.279235	0.998088
356.668689	0.999580
357.058080	0.998931
357.447408	0.997954
357.836672	0.999423
358.225873	0.997871
358.615010	0.998861
359.004084	0.998028
359.393095	0.998837
359.782043	0.998408
360.170927	0.998854
360.559748	0.999184
360.948505	0.997813
361.337199	0.996511
361.725830	0.998421
362.114398	0.997470
362.502903	0.996617
362.891344	0.995913
363.279722	0.997276
363.668037	0.997671
364.056289	0.996879
364.444478	0.999208
364.832603	0.998313
365.220665	0.998574
365.608665	0.996309
365.996601	0.997752
366.384474	0.996190
366.772284	0.998025
367.160031	0.994377
367.547715	0.996885
367.935336	0.995128
368.322893	0.994184
368.710388	0.993162
369.097820	0.989708
369.485189	0.989204
369.872495	0.987122
370.259738	0.984983
370.646918	0.981284
371.034035	0.979914
371.421090	0.976511
371.808081	0.973115
372.195010	0.970092
372.581875	0.963280
372.968678	0.959774
373.355418	0.956641
373.742096	0.948867
374.128710	0.945321
374.515262	0.940509
374.901751	0.933688
375.288177	0.928169
375.674540	0.922740
376.060841	0.915949
376.447079	0.910397
376.833254	0.902983
377.219367	0.898259
377.605417	0.885576
377.991404	0.883581
378.377329	0.876776
378.763191	0.870699
379.148991	0.862279
379.534727	0.854624
379.920402	0.846062
380.306013	0.842133
380.691563	0.829480
381.077049	0.822676
381.462474	0.819132
381.847835	0.807945
382.233134	0.802473
382.618371	0.803211
383.003545	0.786544
383.388657	0.783350
383.773706	0.776041
384.158693	0.771017
384.543618	0.766744
384.928480	0.757686
385.313280	0.747147
385.698017	0.746634
386.082692	0.736015
386.467305	0.734477
386.851856	0.729263
387.236344	0.723541
387.620770	0.717915
388.005133	0.711545
388.389435	0.706999
388.773674	0.705036
389.157851	0.695826
389.541965	0.692906
389.926018	0.699976
390.310008	0.686618
390.693936	0.683688
391.077802	0.675898
391.461606	0.677452
391.845348	0.666563
392.229027	0.665842
392.612645	0.664383
392.996200	0.651269
393.379694	0.644253
393.763125	0.634310
394.146494	0.639680
394.529801	0.629051
394.913047	0.621862
395.296230	0.627635
395.679351	0.619055
396.062410	0.615679
396.445408	0.618310
396.828343	0.613824
397.211217	0.608419
397.594028	0.620800
397.976778	0.611111
398.359466	0.607522
398.742092	0.603223
399.124656	0.615291
399.507158	0.603507
399.889598	0.600042
400.271977	0.591614
400.654294	0.595823
401.036549	0.594460
401.418742	0.599211
401.800874	0.585014
402.182944	0.582096
402.564952	0.573163
402.946898	0.574862
403.328783	0.575566
403.710606	0.587644
404.092367	0.562296
404.474067	0.566965
404.855705	0.566172
405.237282	0.575204
405.618797	0.561766
406.000250	0.556648
406.381642	0.546548
406.762972	0.551775
407.144240	0.550547
407.525447	0.550356
407.906593	0.543711
408.287677	0.538880
408.668700	0.547250
409.049661	0.541018
409.430560	0.536384
409.811399	0.545234
410.192176	0.526298
410.572891	0.533763
410.953545	0.521869
411.334138	0.535293
411.714669	0.528302
412.095139	0.540047
412.475547	0.523923
412.855894	0.526460
413.236180	0.524519
413.616405	0.529954
413.996568	0.520345
414.376670	0.526500
414.756711	0.532490
415.136691	0.528213
415.516609	0.520146
415.896466	0.516465
416.276262	0.512276
416.655997	0.513932
417.035670	0.495370
417.415283	0.487387
417.794834	0.491867
418.174324	0.497539
418.553753	0.506500
418.933121	0.488548
419.312428	0.482532
419.691674	0.488749
420.070859	0.476473
420.449983	0.485186
420.829045	0.473491
421.208047	0.482993
421.586988	0.476370
421.965867	0.474775
422.344686	0.463549
422.723444	0.476304
423.102141	0.493187
423.480777	0.465699
423.859352	0.487706
424.237866	0.464457
424.616319	0.464866
424.994712	0.455580
425.373044	0.465790
425.751314	0.454638
426.129524	0.470960
426.507673	0.453946
426.885762	0.447134
427.263789	0.452301
427.641756	0.462841
428.019662	0.453138
428.397508	0.452831
428.775292	0.456399
429.153016	0.448743
429.530679	0.454685
429.908282	0.448227
430.285824	0.458247
430.663305	0.436365
431.040726	0.457573
431.418086	0.457414
431.795385	0.449337
432.172624	0.448527
432.549802	0.448650
432.926920	0.447806
433.303977	0.447240
433.680974	0.444410
434.057910	0.442705
434.434786	0.442146
434.811601	0.444729
435.188355	0.427589
435.565050	0.436247
435.941683	0.437761
436.318257	0.421896
436.694770	0.422793
437.071222	0.420994
437.447614	0.425128
437.823946	0.431260
438.200218	0.421132
438.576429	0.430595
438.952580	0.423375
439.328670	0.420253
439.704700	0.426924
440.080670	0.428465
440.456580	0.409048
440.832429	0.417381
441.208218	0.428521
441.583947	0.417469
441.959616	0.416660
442.335224	0.422138
442.710773	0.412976
443.086261	0.410957
443.461689	0.424995
443.837057	0.414876
444.212365	0.404208
444.587612	0.411939
444.962800	0.401590
445.337927	0.403290
445.712995	0.429651
446.088002	0.390977
446.462949	0.401554
446.837837	0.406814
447.212664	0.394909
447.587431	0.386464
447.962139	0.357292
448.336786	0.316392
448.711374	0.326633
449.085901	0.370813
449.460369	0.374868
449.834776	0.378908
450.209124	0.357997
450.583412	0.350724
450.957640	0.343445
451.331808	0.355236
451.705917	0.378688
452.079965	0.383009
452.453954	0.371163
452.827883	0.378063
453.201752	0.373087
453.575562	0.384269
453.949311	0.372501
454.323001	0.378818
454.696632	0.374603
455.070202	0.367355
455.443713	0.358952
455.817164	0.353656
456.190556	0.349918
456.563888	0.346486
456.937160	0.343994
457.310373	0.361375
457.683526	0.360329
458.056619	0.366365
458.429653	0.366343
458.802628	0.369964
459.175542	0.364434
459.548398	0.346653
459.921194	0.339199
460.293930	0.339499
460.666607	0.317170
461.039224	0.304930
461.411782	0.300596
461.784280	0.299918
462.156719	0.304237
462.529099	0.308292
462.901419	0.324546
463.273680	0.328829
463.645882	0.328217
464.018024	0.334465
464.390106	0.326974
464.762130	0.311676
465.134094	0.294642
465.505999	0.263420
465.877845	0.233818
466.249631	0.220764
466.621358	0.228285
466.993026	0.242358
467.364634	0.248690
467.736184	0.257363
468.107674	0.266085
468.479105	0.265140
468.850477	0.271726
469.221790	0.278854
469.593043	0.288855
469.964238	0.293807
470.335373	0.293194
470.706449	0.291387
471.077467	0.292283
471.448425	0.254027
471.819324	0.229529
472.190164	0.228768
472.560945	0.257917
472.931667	0.280211
473.302330	0.284345
473.672934	0.296327
474.043479	0.284130
474.413965	0.286290
474.784393	0.289760
475.154761	0.284567
475.525070	0.281914
475.895321	0.287569
476.265513	0.281783
476.635645	0.277104
477.005719	0.277179
477.375734	0.273484
477.745691	0.266690
478.115588	0.263045
478.485427	0.256712
478.855207	0.243366
479.224928	0.225858
479.594591	0.213820
479.964194	0.217603
480.333739	0.218678
480.703226	0.219972
481.072653	0.218532
481.442022	0.214007
481.811333	0.210746
482.180584	0.214452
482.549777	0.219746
482.918912	0.222919
483.287988	0.222464
483.657005	0.222129
484.025964	0.228588
484.394864	0.226066
484.763706	0.226840
485.132489	0.231616
485.501213	0.232302
485.869879	0.230690
486.238487	0.233777
486.607036	0.231924
486.975527	0.236325
487.343959	0.232575
487.712333	0.231342
488.080648	0.232918
488.448905	0.232095
488.817104	0.233211
489.185244	0.227763
489.553326	0.224533
489.921350	0.214504
490.289315	0.196666
490.657222	0.191714
491.025070	0.193105
491.392861	0.195057
491.760593	0.200619
492.128267	0.206516
492.495883	0.212151
492.863440	0.218636
493.230939	0.224693
493.598380	0.226303
493.965763	0.228242
494.333088	0.230873
494.700354	0.231981
495.067563	0.231242
495.434713	0.234425
495.801805	0.232325
496.168839	0.233924
496.535815	0.235044
496.902733	0.234954
497.269593	0.236723
497.636395	0.234166
498.003139	0.234594
498.369825	0.237788
498.736453	0.234512
499.103023	0.235885
499.469535	0.235003
499.835989	0.235495
500.202385	0.236413
500.568723	0.239328
500.935003	0.234455
501.301226	0.238702
501.667390	0.233208
502.033497	0.231200
502.399546	0.234131
502.765537	0.236130
503.131470	0.234649
503.497345	0.230883
503.863163	0.239622
504.228923	0.232331
504.594625	0.231478
504.960269	0.236650
505.325856	0.232151
505.691385	0.236339
506.056856	0.232882
506.422270	0.232556
506.787625	0.234905
507.152924	0.232497
507.518164	0.232670
507.883347	0.234417
508.248472	0.236313
508.613540	0.231082
508.978550	0.233863
509.343503	0.234225
509.708398	0.231945
510.073236	0.229394
510.438016	0.229151
510.802738	0.230209
511.167403	0.229101
511.532010	0.231340
511.896561	0.226770
512.261053	0.225296
512.625488	0.227421
512.989866	0.227866
513.354186	0.228163
513.718449	0.229980
514.082655	0.226522
514.446803	0.228786
514.810894	0.226497
515.174927	0.228958
515.538904	0.228447
515.902822	0.225104
516.266684	0.227539
516.630488	0.229008
516.994235	0.227755
517.357925	0.226564
517.721558	0.224702
518.085133	0.224181
518.448651	0.224509
518.812112	0.226525
519.175516	0.226271
519.538863	0.223804
519.902152	0.225768
520.265385	0.222388
520.628560	0.224025
520.991678	0.224438
521.354739	0.223308
521.717743	0.224492
522.080690	0.224960
522.443580	0.222429
522.806413	0.222919
523.169189	0.222881
523.531908	0.221399
523.894569	0.224929
524.257174	0.225019
524.619722	0.222428
524.982213	0.223560
525.344647	0.222862
525.707025	0.223457
526.069345	0.221605
526.431608	0.223499
526.793815	0.221228
527.155964	0.225409
527.518057	0.224166
527.880093	0.225423
528.242072	0.223793
528.603995	0.225851
528.965860	0.227575
529.327669	0.226456
529.689421	0.227392
530.051117	0.228170
530.412755	0.225903
530.774337	0.228099
531.135862	0.228721
531.497331	0.227714
531.858743	0.230648
532.220098	0.227356
532.581396	0.230174
532.942638	0.230375
533.303824	0.231417
533.664953	0.231267
534.026025	0.233278
534.387040	0.231202
534.747999	0.230701
535.108902	0.229668
535.469748	0.234608
535.830537	0.232791
536.191270	0.232931
536.551947	0.232539
536.912567	0.232563
537.273131	0.234076
537.633638	0.234432
537.994089	0.234709
538.354483	0.235992
538.714821	0.232849
539.075103	0.232594
539.435328	0.233518
539.795497	0.237184
540.155609	0.233739
540.515665	0.231799
540.875665	0.237569
541.235609	0.236132
541.595496	0.236334
541.955328	0.232940
542.315102	0.235473
542.674821	0.236482
543.034483	0.236711
543.394090	0.236090
543.753640	0.237827
544.113134	0.232947
544.472571	0.236693
544.831953	0.233411
545.191278	0.237462
545.550548	0.236702
545.909761	0.233495
546.268918	0.234446
546.628019	0.232779
546.987064	0.235688
547.346053	0.237198
547.704986	0.234780
548.063863	0.235175
548.422684	0.235576
548.781449	0.237248
549.140158	0.235152
549.498811	0.237947
549.857408	0.240916
550.215949	0.235639
550.574434	0.238860
550.932864	0.237101
551.291237	0.235192
551.649555	0.236760
552.007817	0.236534
552.366022	0.237721
552.724173	0.237782
553.082267	0.237874
553.440305	0.234934
553.798288	0.239011
554.156215	0.235785
554.514086	0.236379
554.871902	0.239971
555.229661	0.238683
555.587365	0.239491
555.945014	0.241989
556.302606	0.238774
556.660143	0.241533
557.017625	0.237989
557.375050	0.240166
557.732421	0.237226
558.089735	0.239196
558.446994	0.238954
558.804197	0.238581
559.161345	0.238104
559.518437	0.241682
559.875474	0.239955
560.232455	0.239149
560.589381	0.240276
560.946251	0.240343
561.303065	0.237797
561.659825	0.239108
562.016528	0.240897
562.373177	0.243550
562.729770	0.240757
563.086307	0.242865
563.442789	0.240701
563.799216	0.243556
564.155587	0.242532
564.511904	0.243602
564.868164	0.243453
565.224370	0.242912
565.580520	0.245303
565.936615	0.245047
566.292654	0.248028
566.648638	0.244925
567.004567	0.246077
567.360441	0.246665
567.716260	0.248445
568.072023	0.246446
568.427732	0.247228
568.783385	0.249562
569.138982	0.247818
569.494525	0.247271
569.850013	0.250057
570.205445	0.248458
570.560823	0.251046
570.916145	0.253059
571.271412	0.251402
571.626625	0.253154
571.981782	0.253696
572.336884	0.254319
572.691931	0.254159
573.046923	0.255483
573.401860	0.256593
573.756743	0.258087
574.111570	0.256674
574.466342	0.257971
574.821059	0.256877
575.175722	0.259531
575.530330	0.259310
575.884882	0.259515
576.239380	0.261468
576.593823	0.261907
576.948211	0.261506
577.302544	0.264590
577.656823	0.264612
578.011047	0.264134
578.365216	0.265454
578.719330	0.267188
579.073389	0.266587
579.427394	0.268100
579.781344	0.269289
580.135239	0.270310
580.489080	0.270283
580.842866	0.273147
581.196597	0.272878
581.550273	0.271769
581.903895	0.272622
582.257463	0.270895
582.610975	0.274167
582.964434	0.273642
583.317837	0.275942
583.671186	0.276341
584.024481	0.276351
584.377721	0.278701
584.730906	0.279781
585.084037	0.279045
585.437113	0.280848
585.790135	0.280017
586.143103	0.283082
586.496016	0.284199
586.848874	0.281669
587.201679	0.282274
587.554428	0.285928
587.907124	0.284532
588.259765	0.285635
588.612352	0.285635
588.964884	0.289673
589.317362	0.289007
589.669786	0.288847
590.022155	0.287092
590.374470	0.286791
590.726731	0.289076
591.078937	0.294005
591.431090	0.290398
591.783188	0.294354
592.135232	0.294932
592.487222	0.294625
592.839157	0.292963
593.191038	0.295115
593.542866	0.297269
593.894639	0.300102
594.246358	0.298955
594.598022	0.298199
594.949633	0.301894
595.301190	0.302597
595.652692	0.301518
596.004141	0.297554
596.355535	0.305794
596.706876	0.306587
597.058162	0.308996
597.409395	0.306085
597.760573	0.303844
598.111698	0.307021
598.462768	0.307294
598.813785	0.308930
599.164748	0.310213
599.515657	0.310498
599.866511	0.314099
600.217312	0.308738
600.568060	0.314066
600.918753	0.310905
601.269392	0.311474
601.619978	0.315267
601.970510	0.312833
602.320988	0.312634
602.671412	0.310635
603.021783	0.312847
603.372100	0.314142
603.722363	0.314125
604.072572	0.314879
604.422728	0.314800
604.772830	0.316788
605.122878	0.316584
605.472872	0.317118
605.822813	0.315457
606.172701	0.317841
606.522534	0.315029
606.872314	0.315529
607.222041	0.316564
607.571714	0.314134
607.921333	0.315786
608.270899	0.315355
608.620411	0.312370
608.969870	0.316524
609.319276	0.316587
609.668627	0.315872
610.017926	0.314744
610.367171	0.312984
610.716362	0.313453
611.065500	0.313350
611.414585	0.312828
611.763616	0.313026
612.112594	0.313880
612.461518	0.313272
612.810389	0.310937
613.159207	0.313313
613.507971	0.314702
613.856682	0.310890
614.205340	0.311857
614.553945	0.309420
614.902496	0.313283
615.250994	0.311077
615.599439	0.311724
615.947830	0.311133
616.296169	0.312356
616.644454	0.311914
616.992686	0.311869
617.340864	0.309635
617.688990	0.313084
618.037063	0.310093
618.385082	0.311707
618.733048	0.308429
619.080961	0.310953
619.428821	0.310376
619.776628	0.310474
620.124382	0.312458
620.472083	0.312696
620.819731	0.311632
621.167326	0.315460
621.514868	0.315379
621.862357	0.320051
622.209793	0.318758
622.557176	0.321496
622.904506	0.322353
623.251783	0.325062
623.599007	0.327113
623.946179	0.326843
624.293297	0.328917
624.640363	0.332943
624.987376	0.333306
625.334336	0.335455
625.681243	0.337887
626.028097	0.338291
626.374899	0.339705
626.721647	0.340009
627.068343	0.343016
627.414987	0.344079
627.761577	0.346569
628.108115	0.344446
628.454600	0.349737
628.801032	0.347372
629.147412	0.349436
629.493739	0.349838
629.840014	0.353046
630.186236	0.350141
630.532405	0.355758
630.878521	0.353104
631.224585	0.355635
631.570597	0.359026
631.916556	0.357321
632.262462	0.357222
632.608316	0.359587
632.954117	0.360487
633.299866	0.361526
633.645562	0.361770
633.991206	0.366007
634.336797	0.368341
634.682336	0.371376
635.027823	0.373038
635.373257	0.373505
635.718639	0.377307
636.063968	0.376083
636.409245	0.382140
636.754470	0.382626
637.099642	0.385284
637.444762	0.388765
637.789829	0.387312
638.134845	0.391319
638.479808	0.391742
638.824719	0.391709
639.169577	0.396370
639.514383	0.394875
639.859137	0.399320
640.203839	0.398643
640.548489	0.399355
640.893086	0.400890
641.237632	0.401964
641.582125	0.401207
641.926566	0.403035
642.270955	0.402628
642.615292	0.402703
642.959576	0.401913
643.303809	0.403113
643.647990	0.402070
643.992118	0.402822
644.336195	0.406089
644.680219	0.404519
645.024192	0.405271
645.368112	0.398691
645.711981	0.397982
646.055797	0.392822
646.399562	0.395594
646.743274	0.388252
647.086935	0.384914
647.430544	0.385116
647.774101	0.384219
648.117606	0.383764
648.461059	0.384502
648.804460	0.386991
649.147810	0.391641
649.491108	0.393647
649.834354	0.394972
650.177548	0.400402
650.520690	0.405988
650.863781	0.406809
651.206820	0.406140
651.549807	0.411058
651.892742	0.415172
652.235626	0.414610
652.578458	0.415126
652.921238	0.421632
653.263967	0.419317
653.606644	0.422931
653.949269	0.423636
654.291843	0.426855
654.634365	0.423885
654.976836	0.426871
655.319255	0.427296
655.661622	0.428871
656.003938	0.428475
656.346203	0.431897
656.688416	0.429911
657.030577	0.432591
657.372687	0.435129
657.714746	0.436135
658.056753	0.432618
658.398708	0.436325
658.740612	0.438133
659.082465	0.433712
659.424266	0.434466
659.766016	0.434127
660.107715	0.436916
660.449362	0.435973
660.790958	0.436282
661.132503	0.437334
661.473996	0.433839
661.815438	0.435394
662.156829	0.436016
662.498168	0.436284
662.839456	0.437565
663.180693	0.435507
663.521879	0.435303
663.863013	0.436455
664.204097	0.434856
664.545129	0.431500
664.886110	0.432222
665.227040	0.429684
665.567918	0.432618
665.908746	0.429795
666.249522	0.429510
666.590248	0.430836
666.930922	0.428085
667.271545	0.427855
667.612118	0.427892
667.952639	0.429711
668.293109	0.428249
668.633528	0.430476
668.973896	0.430464
669.314213	0.431574
669.654480	0.432953
669.994695	0.432662
670.334859	0.433472
670.674973	0.434522
671.015035	0.434251
671.355047	0.434229
671.695008	0.435066
672.034918	0.436863
672.374777	0.436460
672.714585	0.437783
673.054342	0.437483
673.394049	0.437574
673.733705	0.435506
674.073310	0.436711
674.412864	0.439481
674.752368	0.440450
675.091820	0.440851
675.431223	0.445387
675.770574	0.444225
676.109875	0.447794
676.449125	0.447131
676.788324	0.449712
677.127473	0.454983
677.466571	0.455045
677.805619	0.456712
678.144616	0.457781
678.483562	0.459646
678.822458	0.462508
679.161303	0.462701
679.500098	0.463659
679.838842	0.465265
680.177535	0.464807
680.516179	0.463125
680.854771	0.462261
681.193314	0.455621
681.531805	0.447246
681.870247	0.435529
682.208638	0.428193
682.546978	0.427175
682.885268	0.428313
683.223508	0.434876
683.561697	0.439155
683.899836	0.440778
684.237925	0.444138
684.575963	0.447153
684.913951	0.450499
685.251889	0.446102
685.589776	0.448809
685.927614	0.450381
686.265401	0.444910
686.603137	0.446130
686.940824	0.440107
687.278460	0.439073
687.616046	0.437305
687.953582	0.432941
688.291068	0.433927
688.628504	0.429068
688.965889	0.431854
689.303224	0.435538
689.640510	0.439781
689.977745	0.445386
690.314930	0.453563
690.652065	0.457961
690.989150	0.465228
691.326185	0.472514
691.663170	0.477351
692.000105	0.484125
692.336990	0.491137
692.673825	0.493669
693.010610	0.500405
693.347345	0.506920
693.684030	0.507022
694.020665	0.511855
694.357251	0.521245
694.693786	0.520509
695.030272	0.523901
695.366707	0.528311
695.703093	0.532774
696.039429	0.529503
696.375716	0.531505
696.711952	0.534247
697.048139	0.536516
697.384276	0.538174
697.720363	0.537078
698.056400	0.535312
698.392388	0.541326
698.728326	0.544073
699.064214	0.546488
699.400053	0.547439
699.735842	0.551212
700.071581	0.553894
700.407270	0.556822
700.742910	0.559230
701.078501	0.566163
701.414042	0.566536
701.749533	0.569593
702.084974	0.578436
702.420366	0.570708
702.755709	0.578715
703.091002	0.586552
703.426246	0.579630
703.761440	0.585352
704.096584	0.590558
704.431679	0.587776
704.766725	0.589440
705.101721	0.591018
705.436668	0.587465
705.771565	0.594169
706.106413	0.590667
706.441212	0.586347
706.775961	0.585806
707.110661	0.587595
707.445311	0.584192
707.779913	0.581416
708.114465	0.579475
708.448967	0.576702
708.783421	0.568655
709.117825	0.563358
709.452180	0.562102
709.786485	0.557533
710.120742	0.546798
710.454949	0.548190
710.789107	0.540682
711.123216	0.531095
711.457275	0.532825
711.791286	0.524127
712.125247	0.523213
712.459159	0.534253
712.793023	0.525632
713.126837	0.530360
713.460602	0.530919
713.794318	0.539695
714.127985	0.539028
714.461602	0.549222
714.795171	0.552252
715.128691	0.560132
715.462162	0.568449
715.795584	0.574106
716.128957	0.576441
716.462281	0.582771
716.795556	0.586836
717.128782	0.591749
717.461960	0.601240
717.795088	0.599843
718.128167	0.606511
718.461198	0.615007
718.794180	0.615310
719.127113	0.618742
719.459997	0.621427
719.792833	0.627662
720.125619	0.629036
720.458357	0.635249
720.791046	0.634457
721.123686	0.637415
721.456278	0.644883
721.788821	0.642318
722.121315	0.647211
722.453761	0.650966
722.786158	0.649250
723.118506	0.644580
723.450805	0.651788
723.783056	0.650037
724.115259	0.646480
724.447412	0.646659
724.779518	0.647188
725.111574	0.646676
725.443582	0.642129
725.775542	0.643665
726.107453	0.636925
726.439315	0.636203
726.771129	0.634435
727.102895	0.627445
727.434612	0.620616
727.766281	0.618652
728.097901	0.617631
728.429473	0.617060
728.760996	0.615769
729.092471	0.616844
729.423897	0.619861
729.755276	0.618870
730.086606	0.618560
730.417887	0.613571
730.749120	0.603971
731.080305	0.595027
731.411442	0.590310
731.742530	0.594812
732.073570	0.595272
732.404562	0.586883
732.735506	0.588351
733.066401	0.592749
733.397249	0.601619
733.728048	0.613834
734.058798	0.626435
734.389501	0.637821
734.720156	0.647890
735.050762	0.655161
735.381320	0.655857
735.711831	0.664548
736.042293	0.670057
736.372707	0.665597
736.703073	0.670963
737.033391	0.673053
737.363661	0.669579
737.693883	0.665206
738.024056	0.663913
738.354182	0.664989
738.684260	0.653426
739.014290	0.649670
739.344272	0.650418
739.674207	0.643666
740.004093	0.643581
740.333931	0.644437
740.663722	0.643632
740.993464	0.643492
741.323159	0.648400
741.652806	0.653073
741.982405	0.658328
742.311956	0.662868
742.641460	0.665095
742.970915	0.668163
743.300323	0.675890
743.629683	0.682364
743.958996	0.684968
744.288260	0.688251
744.617477	0.695878
744.946647	0.696665
745.275768	0.702769
745.604842	0.700983
745.933869	0.711685
746.262847	0.713319
746.591778	0.705881
746.920662	0.712411
747.249498	0.719695
747.578286	0.709901
747.907027	0.706511
748.235720	0.706203
748.564365	0.702229
748.892963	0.701366
749.221514	0.705699
749.550017	0.708196
749.878473	0.710093
750.206881	0.716583
750.535242	0.716950
750.863555	0.715310
751.191821	0.717109
751.520039	0.720830
751.848210	0.724975
752.176334	0.718852
752.504411	0.717773
752.832440	0.725279
753.160421	0.729857
753.488356	0.726725
753.816243	0.724967
754.144082	0.733875
754.471875	0.737261
754.799620	0.732658
755.127318	0.734470
755.454969	0.734819
755.782572	0.734923
756.110129	0.738823
756.437638	0.741178
756.765100	0.737550
757.092515	0.735323
757.419882	0.733779
757.747203	0.739155
758.074477	0.739882
758.401703	0.736312
758.728882	0.731895
759.056014	0.730314
759.383099	0.729727
759.710138	0.729890
760.037129	0.726560
760.364073	0.720282
760.690970	0.722496
761.017820	0.727504
761.344623	0.723814
761.671379	0.716146
761.998088	0.703237
762.324751	0.680255
762.651366	0.637220
762.977935	0.569636
763.304456	0.517957
763.630931	0.508064
763.957359	0.547526
764.283740	0.592343
764.610074	0.619681
764.936362	0.651755
765.262602	0.679056
765.588796	0.700091
765.914943	0.717360
766.241044	0.736339
766.567097	0.742571
766.893104	0.752917
767.219064	0.758713
767.544978	0.765964
767.870845	0.779594
768.196665	0.782448
768.522438	0.781424
768.848165	0.783238
769.173846	0.792460
769.499479	0.795743
769.825066	0.799993
770.150607	0.805094
770.476101	0.800484
770.801548	0.802475
771.126949	0.813657
771.452303	0.818319
771.777611	0.815482
772.102872	0.814638
772.428087	0.821408
772.753256	0.824370
773.078378	0.825406
773.403453	0.834005
773.728482	0.838602
774.053465	0.832561
774.378401	0.836521
774.703291	0.844917
775.028135	0.844734
775.352932	0.845085
775.677683	0.849837
776.002388	0.850622
776.327046	0.849528
776.651658	0.853296
776.976224	0.856258
777.300743	0.855862
777.625216	0.858011
777.949643	0.860611
778.274024	0.858243
778.598359	0.861959
778.922647	0.859595
779.246889	0.861818
779.571086	0.864381
779.895236	0.867138
780.219339	0.865094
780.543397	0.859790
780.867409	0.859791
781.191374	0.861152
781.515294	0.862313
781.839167	0.862574
782.162995	0.865518
782.486776	0.861781
782.810511	0.863354
783.134201	0.866865
783.457844	0.864980
783.781441	0.867870
784.104993	0.873728
784.428498	0.873978
784.751958	0.870341
785.075372	0.872128
785.398739	0.876039
785.722061	0.871005
786.045337	0.868355
786.368568	0.871555
786.691752	0.874169
787.014891	0.860452
787.337983	0.851348
787.661030	0.844457
787.984031	0.826480
788.306987	0.812820
788.629897	0.814671
788.952760	0.819849
789.275579	0.822801
789.598351	0.839686
789.921078	0.852920
790.243759	0.853868
790.566395	0.859763
790.888984	0.867280
791.211529	0.871413
791.534027	0.874252
791.856480	0.877259
792.178888	0.881010
792.501249	0.885222
792.823566	0.887306
793.145836	0.886123
793.468062	0.887572
793.790241	0.888711
794.112375	0.886165
794.434464	0.882386
794.756507	0.881557
795.078505	0.880157
795.400457	0.873838
795.722364	0.863121
796.044226	0.856782
796.366042	0.855054
796.687812	0.857241
797.009538	0.853520
797.331218	0.858319
797.652852	0.862318
797.974442	0.866582
798.295986	0.867259
798.617484	0.868840
798.938938	0.874019
799.260346	0.878162
799.581709	0.878930
799.903026	0.883529
800.224299	0.884438
800.545526	0.886352
800.866708	0.892011
801.187845	0.895209
801.508936	0.894443
801.829983	0.892181
802.150984	0.896406
802.471940	0.900991
802.792851	0.900339
803.113717	0.902758
803.434538	0.899246
803.755314	0.902030
804.076045	0.903165
804.396731	0.902848
804.717372	0.902030
805.037967	0.905450
805.358518	0.902953
805.679024	0.899516
805.999485	0.900760
806.319901	0.899392
806.640272	0.902524
806.960598	0.900943
807.280879	0.896862
807.601115	0.894910
807.921306	0.898985
808.241453	0.900042
808.561554	0.897490
808.881611	0.897279
809.201623	0.899069
809.521590	0.899212
809.841513	0.900302
810.161390	0.898506
810.481223	0.900928
810.801011	0.904636
811.120755	0.906679
811.440453	0.905049
811.760107	0.904665
812.079716	0.905065
812.399281	0.907466
812.718801	0.910425
813.038276	0.911319
813.357707	0.910369
813.677093	0.908366
813.996434	0.909146
814.315731	0.912664
814.634983	0.913263
814.954191	0.912558
815.273354	0.907918
815.592473	0.904358
815.911547	0.905331
816.230577	0.901993
816.549562	0.898141
816.868502	0.898926
817.187399	0.896570
817.506250	0.891027
817.825058	0.892797
818.143821	0.888714
818.462539	0.883960
818.781213	0.875861
819.099843	0.865165
819.418429	0.847961
819.736970	0.830402
820.055466	0.810910
820.373919	0.784367
820.692327	0.751440
821.010691	0.715201
821.329011	0.634152
821.647286	0.517549
821.965517	0.402429
822.283704	0.359205
822.601847	0.360225
822.919945	0.396151
823.237999	0.430641
823.556010	0.478879
823.873976	0.535136
824.191897	0.587079
824.509775	0.630626
824.827609	0.677077
825.145398	0.700460
825.463144	0.701452
825.780845	0.684489
826.098502	0.666425
826.416116	0.620480
826.733685	0.575017
827.051210	0.565443
827.368692	0.581629
827.686129	0.618506
828.003522	0.674022
828.320872	0.721994
828.638177	0.766426
828.955439	0.800402
829.272656	0.821970
829.589830	0.840421
829.906960	0.856263
830.224046	0.868400
830.541088	0.879464
830.858086	0.883844
831.175041	0.890787
831.491952	0.889625
831.808819	0.886549
832.125642	0.877211
832.442421	0.865838
832.759157	0.841799
833.075849	0.793025
833.392497	0.728211
833.709101	0.686938
834.025662	0.697717
834.342179	0.729386
834.658653	0.769527
834.975083	0.806459
835.291469	0.833853
835.607811	0.856796
835.924110	0.874097
836.240366	0.890353
836.556578	0.903736
836.872746	0.911612
837.188871	0.918137
837.504952	0.923852
837.820990	0.926944
838.136984	0.930629
838.452935	0.933088
838.768842	0.934325
839.084706	0.927671
839.400526	0.902250
839.716303	0.859310
840.032037	0.838415
840.347727	0.842267
840.663373	0.860225
840.978977	0.882780
841.294537	0.906291
841.610054	0.921754
841.925527	0.929744
842.240957	0.936197
842.556344	0.944096
842.871687	0.949738
843.186987	0.954314
843.502244	0.955067
843.817458	0.956268
844.132629	0.959861
844.447756	0.964203
844.762840	0.965530
845.077881	0.965907
845.392879	0.964318
845.707833	0.966952
846.022745	0.969201
846.337613	0.968817
846.652438	0.969778
846.967221	0.969997
847.281960	0.970375
847.596656	0.972328
847.911309	0.972711
848.225919	0.970980
848.540485	0.973882
848.855009	0.975175
849.169490	0.974162
849.483928	0.972688
849.798323	0.973212
850.112675	0.975084
850.426984	0.974521
850.741251	0.975807
851.055474	0.974944
851.369654	0.973284
851.683792	0.972363
851.997887	0.974362
852.311938	0.976511
852.625947	0.973547
852.939914	0.971955
853.253837	0.975142
853.567718	0.975550
853.881555	0.974740
854.195350	0.973934
854.509103	0.975490
854.822812	0.975039
855.136479	0.974511
855.450103	0.973305
855.763685	0.972539
856.077224	0.975235
856.390720	0.976029
856.704173	0.974303
857.017584	0.973728
857.330953	0.972311
857.644278	0.971040
857.957561	0.972276
858.270802	0.973760
858.584000	0.972195
858.897155	0.971607
859.210268	0.970429
859.523339	0.974609
859.836367	0.975357
860.149352	0.974480
860.462295	0.974621
860.775195	0.975484
861.088054	0.972481
861.400869	0.975642
861.713642	0.974570
862.026373	0.977480
862.339062	0.975874
862.651708	0.973792
862.964312	0.973834
863.276873	0.974356
863.589392	0.972020
863.901869	0.970345
864.214303	0.969865
864.526696	0.967586
864.839045	0.967166
865.151353	0.966400
865.463619	0.966319
865.775842	0.967180
866.088023	0.967810
866.400162	0.967318
866.712258	0.966912
867.024313	0.967851
867.336325	0.970032
867.648296	0.969160
867.960224	0.966098
868.272110	0.967350
868.583954	0.969153
868.895755	0.969768
869.207515	0.965876
869.519233	0.964757
869.830909	0.964303
870.142542	0.965378
870.454134	0.965913
870.765684	0.964118
871.077191	0.964058
871.388657	0.962521
871.700081	0.963437
872.011463	0.963142
872.322803	0.961955
872.634101	0.959902
872.945357	0.957966
873.256571	0.956488
873.567744	0.957045
873.878874	0.957904
874.189963	0.957494
874.501010	0.958369
874.812015	0.954411
875.122979	0.954938
875.433900	0.956837
875.744780	0.957959
876.055618	0.954770
876.366415	0.953696
876.677169	0.954208
876.987882	0.954463
877.298554	0.955393
877.609183	0.951247
877.919771	0.948348
878.230317	0.946968
878.540822	0.944188
878.851285	0.938140
879.161707	0.930007
879.472087	0.917347
879.782425	0.900154
880.092722	0.864429
880.402977	0.812061
880.713191	0.747614
881.023363	0.685941
881.333494	0.650814
881.643583	0.623925
881.953631	0.624044
882.263637	0.652884
882.573602	0.692089
882.883526	0.719202
883.193408	0.745072
883.503248	0.768260
883.813048	0.795069
884.122806	0.826178
884.432522	0.850001
884.742197	0.871850
885.051831	0.881922
885.361424	0.893200
885.670975	0.905746
885.980485	0.915791
886.289954	0.921109
886.599382	0.925570
886.908768	0.931300
887.218113	0.937134
887.527417	0.942219
887.836680	0.945155
888.145901	0.946959
888.455082	0.950964
888.764221	0.953366
889.073319	0.957313
889.382376	0.957513
889.691392	0.956002
890.000366	0.957073
890.309300	0.956850
890.618193	0.957479
890.927044	0.955623
891.235855	0.955042
891.544625	0.957207
891.853353	0.956635
892.162041	0.951692
892.470687	0.946543
892.779293	0.941357
893.087858	0.936051
893.396381	0.928991
893.704864	0.914355
894.013306	0.890061
894.321707	0.863042
894.630068	0.848078
894.938387	0.841360
895.246665	0.843996
895.554903	0.856051
895.863100	0.871043
896.171256	0.887553
896.479371	0.907760
896.787446	0.921003
897.095480	0.927717
897.403473	0.930083
897.711425	0.934787
898.019336	0.942594
898.327207	0.947666
898.635038	0.946534
898.942827	0.948820
899.250576	0.951346
899.558284	0.957557
899.865952	0.957015
900.173579	0.958924
900.481165	0.959428
900.788711	0.962171
901.096216	0.965303
901.403681	0.966767
901.711105	0.965439
902.018489	0.967491
902.325832	0.965916
902.633135	0.964935
902.940397	0.960021
903.247619	0.944950
903.554800	0.920691
903.861941	0.879294
904.169041	0.841496
904.476101	0.822852
904.783121	0.824265
905.090100	0.840657
905.397039	0.862590
905.703938	0.886234
906.010796	0.906286
906.317614	0.924766
906.624391	0.937040
906.931129	0.947698
907.237826	0.954646
907.544483	0.962384
907.851099	0.967770
908.157675	0.971216
908.464211	0.974865
908.770707	0.976281
909.077163	0.978658
909.383578	0.979674
909.689954	0.980004
909.996289	0.980228
910.302584	0.981772
910.608839	0.983537
910.915054	0.983719
911.221229	0.983508
911.527363	0.981480
911.833458	0.982370
912.139513	0.982139
912.445527	0.981620
912.751502	0.978799
913.057436	0.976042
913.363331	0.974895
913.669186	0.972190
913.975000	0.965231
914.280775	0.958690
914.586510	0.951789
914.892205	0.938047
915.197859	0.914163
915.503475	0.886801
915.809050	0.866019
916.114585	0.860526
916.420081	0.857625
916.725536	0.855179
917.030952	0.862494
917.336328	0.876315
917.641665	0.891348
917.946961	0.908524
918.252218	0.919976
918.557435	0.928246
918.862612	0.937396
919.167750	0.944014
919.472848	0.950352
919.777906	0.957213
920.082925	0.962013
920.387904	0.965658
920.692843	0.966219
920.997743	0.967786
921.302603	0.971846
921.607423	0.973524
921.912204	0.976466
922.216946	0.977785
922.521647	0.976917
922.826310	0.978850
923.130932	0.981632
923.435516	0.984310
923.740059	0.984284
924.044564	0.983495
924.349028	0.984478
924.653454	0.987335
924.957840	0.988542
925.262186	0.988745
925.566493	0.988991
925.870761	0.990148
926.174989	0.990601
926.479178	0.992942
926.783328	0.992816
927.087438	0.993276
927.391509	0.992358
927.695541	0.993727
927.999533	0.994321
928.303486	0.995024
928.607400	0.995147
928.911275	0.996371
929.215110	0.996280
929.518906	0.995114
929.822663	0.997534
930.126381	0.997736
930.430060	0.995206
930.733699	0.996604
931.037299	0.996090
931.340861	0.995094
931.644383	0.994930
931.947866	0.995004
932.251309	0.996075
932.554714	0.995184
932.858080	0.995452
933.161407	0.994482
933.464694	0.996841
933.767943	0.996182
934.071153	0.996323
934.374323	0.997889
934.677455	0.996163
934.980548	0.996508
935.283602	0.997260
935.586617	0.995885
935.889593	0.998334
936.192530	0.996957
936.495428	0.996171
936.798287	0.995629
937.101108	0.995733
937.403890	0.993368
937.706632	0.995175
938.009336	0.991791
938.312002	0.990736
938.614628	0.989619
938.917216	0.987356
939.219765	0.988192
939.522275	0.987544
939.824747	0.987785
940.127179	0.988903
940.429573	0.989716
940.731929	0.989679
941.034246	0.990226
941.336524	0.988713
941.638763	0.991219
941.940964	0.990916
942.243126	0.991772
942.545250	0.992980
942.847335	0.992008
943.149381	0.994491
943.451389	0.992945
943.753359	0.994250
944.055290	0.995629
944.357182	0.994164
944.659036	0.995752
944.960851	0.995014
945.262628	0.995235
945.564367	0.995685
945.866067	0.995111
946.167729	0.994611
946.469352	0.995185
946.770937	0.993430
947.072484	0.995513
947.373992	0.994794
947.675462	0.994186
947.976893	0.995310
948.278286	0.997632
948.579641	0.996870
948.880958	0.995464
949.182236	0.996208
949.483476	0.996643
949.784678	0.996546
950.085841	0.995914
950.386967	0.997050
950.688054	0.996284
950.989103	0.993639
951.290114	0.995136
951.591087	0.994509
951.892021	0.993521
952.192917	0.994833
952.493776	0.993883
952.794596	0.993955
953.095378	0.993170
953.396122	0.993518
953.696828	0.994518
953.997496	0.995350
954.298126	0.996472
954.598718	0.995593
954.899272	0.996358
955.199788	0.994523
955.500266	0.998859
955.800706	0.997428
956.101108	0.997974
956.401472	0.999422
956.701798	0.998579
957.002087	0.999798
957.302337	0.999023
957.602550	0.999589
957.902724	1.000281
958.202861	0.999280
958.502960	0.999743
958.803022	1.002275
959.103045	1.000806
959.403031	1.001812
959.702979	1.001857
960.002889	1.001627
960.302762	1.000295
960.602596	1.001751
960.902393	1.002316
961.202153	1.001314
961.501875	1.003022
961.801559	1.002800
962.101205	1.001504
962.400814	1.003279
962.700385	1.002634
962.999918	1.002790
963.299414	1.000602
963.598873	1.003257
963.898293	1.001428
964.197677	1.002469
964.497022	1.002448
964.796331	1.002978
965.095601	1.002842
965.394835	1.002386
965.694030	1.002928
965.993189	1.001595
966.292309	1.002822
966.591393	1.001611
966.890439	1.003286
967.189447	1.001752
967.488419	1.003286
967.787353	1.002549
968.086249	1.002036
968.385108	1.002974
968.683930	1.003686
968.982714	1.002979
969.281462	1.001080
969.580172	1.002411
969.878844	1.002994
970.177480	1.001944
970.476078	1.003352
970.774639	1.003021
971.073162	1.001092
971.371649	1.002608
971.670098	1.001759
971.968510	1.002610
972.266885	1.001123
972.565223	1.001975
972.863524	1.000907
973.161788	1.001472
973.460014	1.004682
973.758204	1.001904
974.056356	1.002403
974.354471	1.000577
974.652550	1.002845
974.950591	1.002803
975.248595	1.001890
975.546563	1.002745
975.844493	1.003119
976.142386	1.002714
976.440243	1.001891
976.738062	1.002635
977.035845	1.001801
977.333590	1.003117
977.631299	1.002725
977.928971	1.003127
978.226606	1.002370
978.524204	1.002950
978.821765	1.002442
979.119290	1.004218
979.416777	1.001746
979.714228	1.002409
980.011642	1.002775
980.309020	1.001367
980.606360	1.001888
980.903664	1.002528
981.200931	1.000852
981.498162	1.001908
981.795356	1.001445
982.092513	1.000150
982.389633	0.999227
982.686717	0.996674
982.983764	0.996766
983.280775	0.995479
983.577749	0.997875
983.874686	0.996832
984.171587	0.996176
984.468451	0.999387
984.765279	1.000335
985.062070	1.001291
985.358824	1.000475
985.655543	1.002046
985.952224	1.002102
986.248869	1.002035
986.545478	1.003885
986.842050	1.002926
987.138586	1.002776
987.435086	1.002867
987.731549	1.004026
988.027975	1.004883
988.324366	1.002929
988.620719	1.003674
988.917037	1.003910
989.213318	1.004114
989.509563	1.004597
989.805772	1.004739
990.101944	1.004920
990.398080	1.004203
990.694180	1.003987
990.990244	1.004044
991.286271	1.003461
991.582262	1.004861
991.878217	1.004009
992.174136	1.004609
992.470019	1.005372
992.765865	1.005282
993.061676	1.004798
993.357450	1.005033
993.653188	1.004654
993.948890	1.003200
994.244556	1.003886
994.540186	1.003002
994.835780	1.002403
995.131337	1.004312
995.426859	1.003536
995.722345	1.002054
996.017795	1.001971
996.313208	1.002586
996.608586	1.001357
996.903928	1.002528
997.199234	1.003573
997.494504	1.003488
997.789738	1.002003
998.084936	1.003378
998.380099	1.002348
998.675225	1.004251
998.970316	1.003404
999.265371	1.003873
999.560390	1.003690
999.855373	1.003819
1000.150320	1.004943
1000.445232	1.004205
1000.740108	1.004083
1001.034948	1.004217
1001.329752	1.004645
1001.624521	1.003890
1001.919254	1.003502
1002.213951	1.004934
1002.508613	1.003914
1002.803239	1.004180
1003.097829	1.004187
1003.392384	1.004780
1003.686903	1.004417
1003.981386	1.004887
1004.275834	1.005242
1004.570246	1.003839
1004.864623	1.004235
1005.158964	1.004709
1005.453270	1.004607
1005.747540	1.004391
1006.041775	1.004870
1006.335974	1.004553
1006.630138	1.005828
1006.924266	1.003313
1007.218359	1.003840
1007.512416	1.006098
1007.806438	1.003984
1008.100425	1.005570
1008.394376	1.005312
1008.688292	1.004166
1008.982172	1.003531
1009.276017	1.005375
1009.569827	1.006116
1009.863602	1.004157
1010.157341	1.005165
1010.451045	1.004120
1010.744714	1.004774
1011.038347	1.004767
1011.331945	1.004409
1011.625508	1.004253
1011.919036	1.005460
1012.212528	1.004639
1012.505986	1.005102
1012.799408	1.004980
1013.092795	1.004123
1013.386147	1.004304
1013.679464	1.006187
1013.972745	1.005058
1014.265992	1.004140
1014.559204	1.004685
1014.852380	1.004648
1015.145521	1.004667
1015.438628	1.005465
1015.731699	1.004219
1016.024736	1.005899
1016.317737	1.004949
1016.610703	1.005558
1016.903635	1.005003
1017.196531	1.003213
1017.489393	1.004240
1017.782219	1.004506
1018.075011	1.005340
1018.367768	1.004881
1018.660490	1.005520
1018.953177	1.005520
1019.245829	1.005520
