Dividing Wavelength (nm)	Counts (n)	Blue Motor Position (mm): 6.900000	Red Motor Position (mm): 0.000000	
326.493990	1.004839
326.888308	1.004839
327.282561	1.004839
327.676750	1.005272
328.070874	1.006193
328.464933	1.006444
328.858929	1.007297
329.252859	1.005804
329.646726	1.005148
330.040528	1.005319
330.434265	1.005339
330.827938	1.004314
331.221547	1.006861
331.615091	1.005301
332.008571	1.007015
332.401986	1.004206
332.795338	1.004771
333.188625	1.005342
333.581847	1.004854
333.975006	1.004337
334.368100	1.005957
334.761129	1.005117
335.154095	1.004325
335.546996	1.003307
335.939833	0.998089
336.332606	0.998373
336.725315	0.997385
337.117960	0.999797
337.510540	0.996752
337.903056	0.999346
338.295508	0.998366
338.687896	0.999787
339.080220	0.998021
339.472480	0.996769
339.864676	0.999147
340.256807	0.997755
340.648875	0.998739
341.040879	0.998037
341.432818	0.999608
341.824694	0.997750
342.216506	0.999265
342.608253	0.998606
342.999937	0.998485
343.391557	0.997895
343.783113	0.999196
344.174605	0.999166
344.566033	0.996576
344.957397	0.999347
345.348697	0.998348
345.739934	0.998444
346.131106	0.998596
346.522215	0.997458
346.913260	0.998553
347.304241	0.997819
347.695159	0.998962
348.086012	0.997922
348.476802	0.997748
348.867528	0.997040
349.258191	0.999202
349.648789	0.999214
350.039324	0.999285
350.429796	0.997673
350.820203	0.997141
351.210548	0.998761
351.600828	0.998643
351.991045	0.998056
352.381198	0.998258
352.771288	0.997905
353.161314	0.998251
353.551276	0.997123
353.941175	0.997180
354.331010	0.998522
354.720782	0.997730
355.110490	0.998235
355.500135	0.998290
355.889717	0.996847
356.279235	0.996046
356.668689	0.998044
357.058080	0.996515
357.447408	0.996978
357.836672	0.998286
358.225873	0.998278
358.615010	0.996609
359.004084	0.995806
359.393095	0.997743
359.782043	0.996849
360.170927	0.997153
360.559748	0.996958
360.948505	0.996803
361.337199	0.997034
361.725830	0.997649
362.114398	0.997162
362.502903	0.995890
362.891344	0.994947
363.279722	0.996694
363.668037	0.997849
364.056289	0.995908
364.444478	0.997989
364.832603	0.996717
365.220665	0.997101
365.608665	0.996353
365.996601	0.996055
366.384474	0.994779
366.772284	0.996333
367.160031	0.994574
367.547715	0.994381
367.935336	0.994306
368.322893	0.993779
368.710388	0.991724
369.097820	0.991401
369.485189	0.988353
369.872495	0.986200
370.259738	0.984816
370.646918	0.980743
371.034035	0.978633
371.421090	0.975962
371.808081	0.971563
372.195010	0.968446
372.581875	0.963735
372.968678	0.957848
373.355418	0.955240
373.742096	0.947166
374.128710	0.943285
374.515262	0.937811
374.901751	0.932857
375.288177	0.928627
375.674540	0.921728
376.060841	0.915806
376.447079	0.908199
376.833254	0.901109
377.219367	0.897205
377.605417	0.886035
377.991404	0.882246
378.377329	0.875190
378.763191	0.870001
379.148991	0.861459
379.534727	0.853493
379.920402	0.844405
380.306013	0.841302
380.691563	0.828741
381.077049	0.821530
381.462474	0.818264
381.847835	0.806267
382.233134	0.801955
382.618371	0.802532
383.003545	0.785981
383.388657	0.783585
383.773706	0.775349
384.158693	0.770841
384.543618	0.766049
384.928480	0.756529
385.313280	0.747444
385.698017	0.747147
386.082692	0.735573
386.467305	0.733535
386.851856	0.728050
387.236344	0.723386
387.620770	0.716959
388.005133	0.711785
388.389435	0.704913
388.773674	0.703697
389.157851	0.695966
389.541965	0.693031
389.926018	0.699746
390.310008	0.685969
390.693936	0.682599
391.077802	0.675242
391.461606	0.676479
391.845348	0.665806
392.229027	0.664852
392.612645	0.663302
392.996200	0.650950
393.379694	0.643465
393.763125	0.633598
394.146494	0.638356
394.529801	0.629146
394.913047	0.621111
395.296230	0.626652
395.679351	0.618491
396.062410	0.616049
396.445408	0.617733
396.828343	0.613012
397.211217	0.608349
397.594028	0.620373
397.976778	0.610311
398.359466	0.607664
398.742092	0.602948
399.124656	0.614969
399.507158	0.602279
399.889598	0.600085
400.271977	0.591292
400.654294	0.594611
401.036549	0.593893
401.418742	0.598377
401.800874	0.584437
402.182944	0.580754
402.564952	0.573089
402.946898	0.574311
403.328783	0.575002
403.710606	0.586834
404.092367	0.561405
404.474067	0.566117
404.855705	0.565162
405.237282	0.573926
405.618797	0.560330
406.000250	0.556248
406.381642	0.545921
406.762972	0.550829
407.144240	0.549733
407.525447	0.549739
407.906593	0.542940
408.287677	0.538222
408.668700	0.546902
409.049661	0.541028
409.430560	0.535448
409.811399	0.544181
410.192176	0.526395
410.572891	0.532825
410.953545	0.521410
411.334138	0.534875
411.714669	0.527112
412.095139	0.539682
412.475547	0.523342
412.855894	0.525820
413.236180	0.524554
413.616405	0.529727
413.996568	0.520711
414.376670	0.526377
414.756711	0.531337
415.136691	0.527922
415.516609	0.518894
415.896466	0.516588
416.276262	0.512065
416.655997	0.513546
417.035670	0.494980
417.415283	0.486776
417.794834	0.491531
418.174324	0.497119
418.553753	0.506264
418.933121	0.488340
419.312428	0.482472
419.691674	0.488179
420.070859	0.476246
420.449983	0.484307
420.829045	0.473678
421.208047	0.482309
421.586988	0.475762
421.965867	0.474395
422.344686	0.463124
422.723444	0.475573
423.102141	0.492533
423.480777	0.465448
423.859352	0.486091
424.237866	0.463093
424.616319	0.464176
424.994712	0.455254
425.373044	0.465457
425.751314	0.453530
426.129524	0.470189
426.507673	0.453471
426.885762	0.447459
427.263789	0.452892
427.641756	0.462001
428.019662	0.452390
428.397508	0.452086
428.775292	0.456150
429.153016	0.447880
429.530679	0.454245
429.908282	0.447479
430.285824	0.457683
430.663305	0.436004
431.040726	0.456907
431.418086	0.456960
431.795385	0.448902
432.172624	0.448103
432.549802	0.447826
432.926920	0.447031
433.303977	0.446897
433.680974	0.443665
434.057910	0.442400
434.434786	0.441179
434.811601	0.443955
435.188355	0.427016
435.565050	0.436052
435.941683	0.437243
436.318257	0.420902
436.694770	0.422463
437.071222	0.420257
437.447614	0.424781
437.823946	0.431779
438.200218	0.420312
438.576429	0.430237
438.952580	0.423280
439.328670	0.419762
439.704700	0.426501
440.080670	0.427972
440.456580	0.409234
440.832429	0.416677
441.208218	0.427952
441.583947	0.416698
441.959616	0.416105
442.335224	0.422125
442.710773	0.412401
443.086261	0.410805
443.461689	0.424467
443.837057	0.414026
444.212365	0.404855
444.587612	0.411493
444.962800	0.401222
445.337927	0.402854
445.712995	0.429072
446.088002	0.390517
446.462949	0.401330
446.837837	0.406128
447.212664	0.394922
447.587431	0.386561
447.962139	0.356886
448.336786	0.315879
448.711374	0.326218
449.085901	0.370952
449.460369	0.374895
449.834776	0.377905
450.209124	0.357353
450.583412	0.350019
450.957640	0.343411
451.331808	0.354861
451.705917	0.378110
452.079965	0.382592
452.453954	0.371041
452.827883	0.378184
453.201752	0.372183
453.575562	0.383783
453.949311	0.372525
454.323001	0.378437
454.696632	0.374446
455.070202	0.366816
455.443713	0.358938
455.817164	0.353245
456.190556	0.349412
456.563888	0.346235
456.937160	0.343917
457.310373	0.360640
457.683526	0.359683
458.056619	0.365496
458.429653	0.365773
458.802628	0.369631
459.175542	0.363963
459.548398	0.346323
459.921194	0.338724
460.293930	0.338997
460.666607	0.316601
461.039224	0.305032
461.411782	0.300213
461.784280	0.299474
462.156719	0.303751
462.529099	0.307821
462.901419	0.324341
463.273680	0.328377
463.645882	0.328026
464.018024	0.334213
464.390106	0.326486
464.762130	0.311453
465.134094	0.294177
465.505999	0.263175
465.877845	0.233630
466.249631	0.220395
466.621358	0.228050
466.993026	0.242011
467.364634	0.248122
467.736184	0.257009
468.107674	0.265577
468.479105	0.264807
468.850477	0.271700
469.221790	0.278552
469.593043	0.288544
469.964238	0.293255
470.335373	0.293100
470.706449	0.290851
471.077467	0.291647
471.448425	0.253692
471.819324	0.229313
472.190164	0.228627
472.560945	0.257593
472.931667	0.280352
473.302330	0.284400
473.672934	0.295888
474.043479	0.284092
474.413965	0.285639
474.784393	0.289399
475.154761	0.284306
475.525070	0.281225
475.895321	0.287223
476.265513	0.281730
476.635645	0.276579
477.005719	0.276758
477.375734	0.273272
477.745691	0.266472
478.115588	0.262938
478.485427	0.256629
478.855207	0.243235
479.224928	0.225425
479.594591	0.213652
479.964194	0.217281
480.333739	0.218206
480.703226	0.219812
481.072653	0.218092
481.442022	0.213975
481.811333	0.210546
482.180584	0.213951
482.549777	0.219467
482.918912	0.222565
483.287988	0.222189
483.657005	0.222234
484.025964	0.228456
484.394864	0.225689
484.763706	0.226393
485.132489	0.231389
485.501213	0.232153
485.869879	0.230455
486.238487	0.233699
486.607036	0.231423
486.975527	0.236284
487.343959	0.231923
487.712333	0.231360
488.080648	0.232485
488.448905	0.231796
488.817104	0.232873
489.185244	0.227506
489.553326	0.224288
489.921350	0.214264
490.289315	0.196508
490.657222	0.191505
491.025070	0.192883
491.392861	0.194958
491.760593	0.200795
492.128267	0.206324
492.495883	0.211721
492.863440	0.218239
493.230939	0.224551
493.598380	0.226179
493.965763	0.228213
494.333088	0.230221
494.700354	0.231887
495.067563	0.230893
495.434713	0.234279
495.801805	0.232058
496.168839	0.233563
496.535815	0.234915
496.902733	0.234795
497.269593	0.236414
497.636395	0.234087
498.003139	0.234488
498.369825	0.237577
498.736453	0.233873
499.103023	0.235638
499.469535	0.234914
499.835989	0.235254
500.202385	0.236052
500.568723	0.239158
500.935003	0.234517
501.301226	0.238791
501.667390	0.232936
502.033497	0.230977
502.399546	0.233897
502.765537	0.235955
503.131470	0.234596
503.497345	0.230658
503.863163	0.239303
504.228923	0.232385
504.594625	0.231072
504.960269	0.236373
505.325856	0.231746
505.691385	0.235909
506.056856	0.232798
506.422270	0.232262
506.787625	0.234729
507.152924	0.232270
507.518164	0.232612
507.883347	0.234066
508.248472	0.235902
508.613540	0.230864
508.978550	0.233338
509.343503	0.233923
509.708398	0.231493
510.073236	0.229354
510.438016	0.228733
510.802738	0.229782
511.167403	0.229073
511.532010	0.231223
511.896561	0.226275
512.261053	0.225126
512.625488	0.227218
512.989866	0.227570
513.354186	0.227539
513.718449	0.230083
514.082655	0.225949
514.446803	0.228185
514.810894	0.226144
515.174927	0.228637
515.538904	0.228445
515.902822	0.225064
516.266684	0.227333
516.630488	0.228600
516.994235	0.227393
517.357925	0.226310
517.721558	0.224572
518.085133	0.224116
518.448651	0.223874
518.812112	0.226495
519.175516	0.225682
519.538863	0.223707
519.902152	0.225274
520.265385	0.222131
520.628560	0.223971
520.991678	0.224191
521.354739	0.223028
521.717743	0.224506
522.080690	0.224655
522.443580	0.222168
522.806413	0.223043
523.169189	0.222389
523.531908	0.221066
523.894569	0.224829
524.257174	0.224694
524.619722	0.222212
524.982213	0.223561
525.344647	0.222292
525.707025	0.223133
526.069345	0.221436
526.431608	0.223372
526.793815	0.221089
527.155964	0.225260
527.518057	0.223957
527.880093	0.225256
528.242072	0.223541
528.603995	0.225617
528.965860	0.227420
529.327669	0.226433
529.689421	0.227002
530.051117	0.228016
530.412755	0.225731
530.774337	0.227904
531.135862	0.228620
531.497331	0.227862
531.858743	0.230791
532.220098	0.227123
532.581396	0.229737
532.942638	0.230494
533.303824	0.231155
533.664953	0.231022
534.026025	0.232857
534.387040	0.230946
534.747999	0.230576
535.108902	0.229376
535.469748	0.234814
535.830537	0.232384
536.191270	0.232888
536.551947	0.232290
536.912567	0.232093
537.273131	0.233922
537.633638	0.234490
537.994089	0.234890
538.354483	0.235853
538.714821	0.232548
539.075103	0.232376
539.435328	0.233236
539.795497	0.236976
540.155609	0.233737
540.515665	0.231790
540.875665	0.237307
541.235609	0.236147
541.595496	0.235861
541.955328	0.232784
542.315102	0.235273
542.674821	0.236275
543.034483	0.236502
543.394090	0.236137
543.753640	0.237748
544.113134	0.232841
544.472571	0.236399
544.831953	0.233140
545.191278	0.237733
545.550548	0.236738
545.909761	0.233386
546.268918	0.234426
546.628019	0.232435
546.987064	0.235318
547.346053	0.236916
547.704986	0.234917
548.063863	0.234930
548.422684	0.235299
548.781449	0.237144
549.140158	0.235082
549.498811	0.237562
549.857408	0.240448
550.215949	0.235204
550.574434	0.238532
550.932864	0.236813
551.291237	0.235232
551.649555	0.237034
552.007817	0.236145
552.366022	0.237073
552.724173	0.237681
553.082267	0.237756
553.440305	0.234771
553.798288	0.238938
554.156215	0.235583
554.514086	0.236353
554.871902	0.239650
555.229661	0.238535
555.587365	0.239527
555.945014	0.241779
556.302606	0.238769
556.660143	0.241548
557.017625	0.237697
557.375050	0.240212
557.732421	0.237148
558.089735	0.239024
558.446994	0.239004
558.804197	0.238297
559.161345	0.238564
559.518437	0.241440
559.875474	0.239677
560.232455	0.239258
560.589381	0.240229
560.946251	0.240479
561.303065	0.237849
561.659825	0.239240
562.016528	0.240790
562.373177	0.243552
562.729770	0.240792
563.086307	0.242601
563.442789	0.240714
563.799216	0.243276
564.155587	0.242369
564.511904	0.243362
564.868164	0.243301
565.224370	0.243191
565.580520	0.245042
565.936615	0.245027
566.292654	0.248023
566.648638	0.244900
567.004567	0.245810
567.360441	0.246627
567.716260	0.248246
568.072023	0.246231
568.427732	0.247043
568.783385	0.249319
569.138982	0.247397
569.494525	0.247198
569.850013	0.250053
570.205445	0.248393
570.560823	0.251057
570.916145	0.252788
571.271412	0.251316
571.626625	0.252920
571.981782	0.253134
572.336884	0.254007
572.691931	0.253915
573.046923	0.255464
573.401860	0.256479
573.756743	0.258011
574.111570	0.256805
574.466342	0.257463
574.821059	0.256517
575.175722	0.259764
575.530330	0.259457
575.884882	0.259459
576.239380	0.261113
576.593823	0.261916
576.948211	0.261617
577.302544	0.264630
577.656823	0.264185
578.011047	0.264189
578.365216	0.264891
578.719330	0.267131
579.073389	0.266526
579.427394	0.268175
579.781344	0.268885
580.135239	0.270051
580.489080	0.269895
580.842866	0.272725
581.196597	0.273148
581.550273	0.271456
581.903895	0.272601
582.257463	0.270430
582.610975	0.273996
582.964434	0.273187
583.317837	0.275763
583.671186	0.276301
584.024481	0.276251
584.377721	0.278523
584.730906	0.279597
585.084037	0.278589
585.437113	0.280677
585.790135	0.280167
586.143103	0.283101
586.496016	0.283770
586.848874	0.281679
587.201679	0.281870
587.554428	0.285457
587.907124	0.284685
588.259765	0.285016
588.612352	0.285477
588.964884	0.289451
589.317362	0.288960
589.669786	0.288683
590.022155	0.287399
590.374470	0.286830
590.726731	0.288494
591.078937	0.293894
591.431090	0.290010
591.783188	0.293909
592.135232	0.294621
592.487222	0.294455
592.839157	0.292664
593.191038	0.295004
593.542866	0.296887
593.894639	0.300161
594.246358	0.298411
594.598022	0.297915
594.949633	0.301574
595.301190	0.302199
595.652692	0.301388
596.004141	0.297527
596.355535	0.305701
596.706876	0.306250
597.058162	0.308522
597.409395	0.305710
597.760573	0.303560
598.111698	0.307207
598.462768	0.307411
598.813785	0.308351
599.164748	0.309630
599.515657	0.309747
599.866511	0.313601
600.217312	0.309109
600.568060	0.314272
600.918753	0.310553
601.269392	0.311525
601.619978	0.314802
601.970510	0.312416
602.320988	0.312051
602.671412	0.310279
603.021783	0.312577
603.372100	0.314015
603.722363	0.313855
604.072572	0.314298
604.422728	0.314393
604.772830	0.316686
605.122878	0.316368
605.472872	0.316571
605.822813	0.315275
606.172701	0.318157
606.522534	0.314861
606.872314	0.315253
607.222041	0.316404
607.571714	0.314012
607.921333	0.315568
608.270899	0.315498
608.620411	0.312225
608.969870	0.316059
609.319276	0.315965
609.668627	0.316106
610.017926	0.315130
610.367171	0.313013
610.716362	0.313798
611.065500	0.313892
611.414585	0.312739
611.763616	0.313156
612.112594	0.313761
612.461518	0.312921
612.810389	0.310752
613.159207	0.313265
613.507971	0.314959
613.856682	0.311065
614.205340	0.311766
614.553945	0.309473
614.902496	0.312734
615.250994	0.310705
615.599439	0.311561
615.947830	0.311305
616.296169	0.312138
616.644454	0.311877
616.992686	0.311500
617.340864	0.309330
617.688990	0.312832
618.037063	0.309944
618.385082	0.311364
618.733048	0.308536
619.080961	0.310454
619.428821	0.310281
619.776628	0.310078
620.124382	0.312008
620.472083	0.312523
620.819731	0.311639
621.167326	0.315568
621.514868	0.315121
621.862357	0.319651
622.209793	0.318796
622.557176	0.321549
622.904506	0.322455
623.251783	0.325074
623.599007	0.327087
623.946179	0.326527
624.293297	0.328737
624.640363	0.332367
624.987376	0.333165
625.334336	0.335625
625.681243	0.338050
626.028097	0.338538
626.374899	0.339187
626.721647	0.339805
627.068343	0.342773
627.414987	0.344047
627.761577	0.345735
628.108115	0.344578
628.454600	0.349583
628.801032	0.347162
629.147412	0.349037
629.493739	0.349495
629.840014	0.352875
630.186236	0.349914
630.532405	0.355969
630.878521	0.352915
631.224585	0.355258
631.570597	0.358758
631.916556	0.357198
632.262462	0.357173
632.608316	0.359438
632.954117	0.360579
633.299866	0.361174
633.645562	0.361525
633.991206	0.365751
634.336797	0.368297
634.682336	0.371536
635.027823	0.372579
635.373257	0.372994
635.718639	0.377113
636.063968	0.376344
636.409245	0.382010
636.754470	0.382288
637.099642	0.384767
637.444762	0.388396
637.789829	0.387588
638.134845	0.390737
638.479808	0.391936
638.824719	0.391584
639.169577	0.395959
639.514383	0.394745
639.859137	0.399191
640.203839	0.398913
640.548489	0.399763
640.893086	0.400146
641.237632	0.402172
641.582125	0.400703
641.926566	0.403120
642.270955	0.402406
642.615292	0.402081
642.959576	0.402151
643.303809	0.402473
643.647990	0.402042
643.992118	0.402996
644.336195	0.405690
644.680219	0.404455
645.024192	0.405496
645.368112	0.398618
645.711981	0.397054
646.055797	0.392886
646.399562	0.395472
646.743274	0.388061
647.086935	0.384558
647.430544	0.385337
647.774101	0.383469
648.117606	0.383191
648.461059	0.384081
648.804460	0.386737
649.147810	0.391625
649.491108	0.393504
649.834354	0.395276
650.177548	0.400634
650.520690	0.405618
650.863781	0.406879
651.206820	0.405578
651.549807	0.411002
651.892742	0.414992
652.235626	0.415074
652.578458	0.415207
652.921238	0.421933
653.263967	0.419396
653.606644	0.423049
653.949269	0.423312
654.291843	0.426616
654.634365	0.423827
654.976836	0.426553
655.319255	0.427244
655.661622	0.428746
656.003938	0.428736
656.346203	0.431688
656.688416	0.429824
657.030577	0.432562
657.372687	0.435007
657.714746	0.435784
658.056753	0.432766
658.398708	0.436625
658.740612	0.438259
659.082465	0.433723
659.424266	0.434145
659.766016	0.434104
660.107715	0.436615
660.449362	0.435481
660.790958	0.435682
661.132503	0.437603
661.473996	0.434222
661.815438	0.435304
662.156829	0.435612
662.498168	0.436163
662.839456	0.437775
663.180693	0.435325
663.521879	0.435354
663.863013	0.435931
664.204097	0.434092
664.545129	0.431668
664.886110	0.432177
665.227040	0.429061
665.567918	0.431994
665.908746	0.429658
666.249522	0.429524
666.590248	0.430491
666.930922	0.428349
667.271545	0.427550
667.612118	0.427458
667.952639	0.429503
668.293109	0.428369
668.633528	0.430871
668.973896	0.430670
669.314213	0.430861
669.654480	0.432895
669.994695	0.432638
670.334859	0.433987
670.674973	0.434500
671.015035	0.434359
671.355047	0.434271
671.695008	0.434902
672.034918	0.437314
672.374777	0.436854
672.714585	0.437569
673.054342	0.437654
673.394049	0.437719
673.733705	0.435928
674.073310	0.436569
674.412864	0.439738
674.752368	0.440501
675.091820	0.440785
675.431223	0.444590
675.770574	0.444595
676.109875	0.447392
676.449125	0.447675
676.788324	0.449836
677.127473	0.455442
677.466571	0.455367
677.805619	0.457068
678.144616	0.458028
678.483562	0.460318
678.822458	0.462581
679.161303	0.462611
679.500098	0.463422
679.838842	0.465764
680.177535	0.464952
680.516179	0.463062
680.854771	0.462887
681.193314	0.456181
681.531805	0.447437
681.870247	0.436045
682.208638	0.427958
682.546978	0.427550
682.885268	0.429165
683.223508	0.435479
683.561697	0.439724
683.899836	0.442361
684.237925	0.445543
684.575963	0.448146
684.913951	0.451517
685.251889	0.446704
685.589776	0.449170
685.927614	0.451427
686.265401	0.445443
686.603137	0.447430
686.940824	0.441191
687.278460	0.440069
687.616046	0.438741
687.953582	0.434342
688.291068	0.435680
688.628504	0.431323
688.965889	0.433531
689.303224	0.437380
689.640510	0.441403
689.977745	0.447131
690.314930	0.454828
690.652065	0.459774
690.989150	0.467219
691.326185	0.474064
691.663170	0.478430
692.000105	0.485362
692.336990	0.492759
692.673825	0.494801
693.010610	0.502240
693.347345	0.507767
693.684030	0.509438
694.020665	0.513813
694.357251	0.522615
694.693786	0.522659
695.030272	0.525840
695.366707	0.530572
695.703093	0.533768
696.039429	0.531149
696.375716	0.533598
696.711952	0.535770
697.048139	0.537875
697.384276	0.540557
697.720363	0.539350
698.056400	0.537831
698.392388	0.543468
698.728326	0.545994
699.064214	0.549387
699.400053	0.549439
699.735842	0.553544
700.071581	0.556695
700.407270	0.559663
700.742910	0.562408
701.078501	0.568716
701.414042	0.568868
701.749533	0.571997
702.084974	0.581116
702.420366	0.574111
702.755709	0.580933
703.091002	0.588862
703.426246	0.582875
703.761440	0.587706
704.096584	0.593009
704.431679	0.590217
704.766725	0.592159
705.101721	0.594063
705.436668	0.590291
705.771565	0.596531
706.106413	0.593238
706.441212	0.588990
706.775961	0.588997
707.110661	0.590419
707.445311	0.587756
707.779913	0.585113
708.114465	0.583705
708.448967	0.581085
708.783421	0.572505
709.117825	0.567862
709.452180	0.566982
709.786485	0.561685
710.120742	0.551555
710.454949	0.553313
710.789107	0.545522
711.123216	0.535935
711.457275	0.537990
711.791286	0.530854
712.125247	0.529772
712.459159	0.540086
712.793023	0.531727
713.126837	0.537130
713.460602	0.537479
713.794318	0.545356
714.127985	0.544475
714.461602	0.555211
714.795171	0.557658
715.128691	0.566492
715.462162	0.573852
715.795584	0.579357
716.128957	0.582223
716.462281	0.588932
716.795556	0.592795
717.128782	0.597674
717.461960	0.606813
717.795088	0.605866
718.128167	0.612348
718.461198	0.619692
718.794180	0.620826
719.127113	0.623811
719.459997	0.626540
719.792833	0.633119
720.125619	0.634476
720.458357	0.640516
720.791046	0.639566
721.123686	0.643886
721.456278	0.650560
721.788821	0.648333
722.121315	0.653352
722.453761	0.656686
722.786158	0.654652
723.118506	0.650312
723.450805	0.657811
723.783056	0.655807
724.115259	0.652489
724.447412	0.652476
724.779518	0.653418
725.111574	0.652238
725.443582	0.648349
725.775542	0.650885
726.107453	0.642820
726.439315	0.643700
726.771129	0.641756
727.102895	0.635146
727.434612	0.628461
727.766281	0.626337
728.097901	0.625854
728.429473	0.625316
728.760996	0.623418
729.092471	0.624239
729.423897	0.627401
729.755276	0.627354
730.086606	0.627378
730.417887	0.621862
730.749120	0.612967
731.080305	0.604630
731.411442	0.600242
731.742530	0.604302
732.073570	0.603970
732.404562	0.597984
732.735506	0.597980
733.066401	0.603311
733.397249	0.611856
733.728048	0.623387
734.058798	0.635915
734.389501	0.647388
734.720156	0.656237
735.050762	0.664716
735.381320	0.664949
735.711831	0.673134
736.042293	0.678274
736.372707	0.675359
736.703073	0.679615
737.033391	0.681362
737.363661	0.678822
737.693883	0.674541
738.024056	0.672916
738.354182	0.673602
738.684260	0.664130
739.014290	0.660294
739.344272	0.660433
739.674207	0.654187
740.004093	0.653362
740.333931	0.654897
740.663722	0.654549
740.993464	0.655787
741.323159	0.658711
741.652806	0.664493
741.982405	0.668322
742.311956	0.673936
742.641460	0.675692
742.970915	0.679241
743.300323	0.685787
743.629683	0.691926
743.958996	0.695217
744.288260	0.698323
744.617477	0.704936
744.946647	0.706268
745.275768	0.712547
745.604842	0.711981
745.933869	0.721385
746.262847	0.722575
746.591778	0.717134
746.920662	0.722393
747.249498	0.728705
747.578286	0.721384
747.907027	0.716920
748.235720	0.716024
748.564365	0.712955
748.892963	0.713181
749.221514	0.716063
749.550017	0.719945
749.878473	0.721383
750.206881	0.727454
750.535242	0.727499
750.863555	0.726695
751.191821	0.728187
751.520039	0.731773
751.848210	0.735134
752.176334	0.730347
752.504411	0.729075
752.832440	0.736211
753.160421	0.740378
753.488356	0.739279
753.816243	0.736733
754.144082	0.744571
754.471875	0.747900
754.799620	0.744976
755.127318	0.745163
755.454969	0.746511
755.782572	0.745703
756.110129	0.749192
756.437638	0.752789
756.765100	0.750119
757.092515	0.747338
757.419882	0.746260
757.747203	0.751742
758.074477	0.752258
758.401703	0.748570
758.728882	0.745265
759.056014	0.742192
759.383099	0.742483
759.710138	0.742709
760.037129	0.739060
760.364073	0.734538
760.690970	0.736300
761.017820	0.739300
761.344623	0.737360
761.671379	0.730140
761.998088	0.718772
762.324751	0.696348
762.651366	0.654671
762.977935	0.589962
763.304456	0.542059
763.630931	0.533487
763.957359	0.570591
764.283740	0.612617
764.610074	0.639947
764.936362	0.670509
765.262602	0.696738
765.588796	0.716638
765.914943	0.732551
766.241044	0.749830
766.567097	0.756980
766.893104	0.766518
767.219064	0.771559
767.544978	0.777501
767.870845	0.790762
768.196665	0.793987
768.522438	0.793893
768.848165	0.794475
769.173846	0.804182
769.499479	0.807840
769.825066	0.811655
770.150607	0.815492
770.476101	0.811253
770.801548	0.813350
771.126949	0.823836
771.452303	0.828072
771.777611	0.826391
772.102872	0.824531
772.428087	0.830915
772.753256	0.834961
773.078378	0.836723
773.403453	0.844413
773.728482	0.849345
774.053465	0.842929
774.378401	0.845921
774.703291	0.853874
775.028135	0.854025
775.352932	0.853927
775.677683	0.858157
776.002388	0.858904
776.327046	0.858717
776.651658	0.862997
776.976224	0.866055
777.300743	0.864469
777.625216	0.866627
777.949643	0.869343
778.274024	0.867006
778.598359	0.870430
778.922647	0.868124
779.246889	0.869410
779.571086	0.872310
779.895236	0.876433
780.219339	0.873747
780.543397	0.870179
780.867409	0.869359
781.191374	0.871350
781.515294	0.872005
781.839167	0.871667
782.162995	0.872919
782.486776	0.871275
782.810511	0.872417
783.134201	0.876559
783.457844	0.875112
783.781441	0.876949
784.104993	0.881503
784.428498	0.882003
784.751958	0.880350
785.075372	0.880906
785.398739	0.884576
785.722061	0.879747
786.045337	0.877160
786.368568	0.880128
786.691752	0.883084
787.014891	0.870873
787.337983	0.861578
787.661030	0.854068
787.984031	0.838424
788.306987	0.827390
788.629897	0.826658
788.952760	0.832769
789.275579	0.836389
789.598351	0.851327
789.921078	0.863240
790.243759	0.865801
790.566395	0.870818
790.888984	0.877275
791.211529	0.882131
791.534027	0.885122
791.856480	0.886335
792.178888	0.890143
792.501249	0.892717
792.823566	0.896082
793.145836	0.894949
793.468062	0.896370
793.790241	0.897954
794.112375	0.895018
794.434464	0.891833
794.756507	0.890588
795.078505	0.889701
795.400457	0.884631
795.722364	0.873782
796.044226	0.868385
796.366042	0.865880
796.687812	0.869110
797.009538	0.865306
797.331218	0.869471
797.652852	0.874001
797.974442	0.877000
798.295986	0.878315
798.617484	0.879335
798.938938	0.884658
799.260346	0.888104
799.581709	0.890178
799.903026	0.893274
800.224299	0.893880
800.545526	0.895466
800.866708	0.900442
801.187845	0.903787
801.508936	0.904457
801.829983	0.900666
802.150984	0.905846
802.471940	0.909240
802.792851	0.909356
803.113717	0.909720
803.434538	0.907638
803.755314	0.910276
804.076045	0.910904
804.396731	0.911237
804.717372	0.910127
805.037967	0.913861
805.358518	0.911205
805.679024	0.907211
805.999485	0.908837
806.319901	0.907512
806.640272	0.909939
806.960598	0.908282
807.280879	0.904971
807.601115	0.905169
807.921306	0.909313
808.241453	0.907991
808.561554	0.906423
808.881611	0.906829
809.201623	0.907877
809.521590	0.909120
809.841513	0.909636
810.161390	0.907695
810.481223	0.909754
810.801011	0.913789
811.120755	0.916251
811.440453	0.913721
811.760107	0.914196
812.079716	0.913106
812.399281	0.915592
812.718801	0.917908
813.038276	0.918729
813.357707	0.919849
813.677093	0.918177
813.996434	0.919231
814.315731	0.922206
814.634983	0.921864
814.954191	0.920024
815.273354	0.916909
815.592473	0.915504
815.911547	0.913939
816.230577	0.912305
816.549562	0.909715
816.868502	0.908741
817.187399	0.907810
817.506250	0.902379
817.825058	0.904351
818.143821	0.899839
818.462539	0.896981
818.781213	0.888785
819.099843	0.880147
819.418429	0.863616
819.736970	0.848890
820.055466	0.830019
820.373919	0.807580
820.692327	0.777901
821.010691	0.744816
821.329011	0.668960
821.647286	0.557568
821.965517	0.448233
822.283704	0.405993
822.601847	0.408986
822.919945	0.448582
823.237999	0.486783
823.556010	0.531005
823.873976	0.584791
824.191897	0.633100
824.509775	0.673552
824.827609	0.714738
825.145398	0.735657
825.463144	0.737342
825.780845	0.721123
826.098502	0.702989
826.416116	0.660861
826.733685	0.618247
827.051210	0.610988
827.368692	0.625565
827.686129	0.662389
828.003522	0.712372
828.320872	0.756874
828.638177	0.797029
828.955439	0.825145
829.272656	0.844727
829.589830	0.860302
829.906960	0.874274
830.224046	0.885166
830.541088	0.895721
830.858086	0.899558
831.175041	0.905240
831.491952	0.903595
831.808819	0.901057
832.125642	0.893222
832.442421	0.882224
832.759157	0.860980
833.075849	0.817490
833.392497	0.758087
833.709101	0.721824
834.025662	0.732294
834.342179	0.763193
834.658653	0.798568
834.975083	0.831525
835.291469	0.856628
835.607811	0.875385
835.924110	0.890360
836.240366	0.904884
836.556578	0.918116
836.872746	0.923038
837.188871	0.929431
837.504952	0.934252
837.820990	0.936741
838.136984	0.939508
838.452935	0.942722
838.768842	0.943225
839.084706	0.937490
839.400526	0.913807
839.716303	0.876034
840.032037	0.856544
840.347727	0.861006
840.663373	0.878979
840.978977	0.898027
841.294537	0.918997
841.610054	0.931882
841.925527	0.938219
842.240957	0.944612
842.556344	0.951237
842.871687	0.957863
843.186987	0.959390
843.502244	0.960828
843.817458	0.961517
844.132629	0.966108
844.447756	0.968109
844.762840	0.969719
845.077881	0.969208
845.392879	0.968774
845.707833	0.970803
846.022745	0.973508
846.337613	0.973375
846.652438	0.974137
846.967221	0.974567
847.281960	0.973746
847.596656	0.976215
847.911309	0.975491
848.225919	0.975596
848.540485	0.977472
848.855009	0.977721
849.169490	0.976320
849.483928	0.977149
849.798323	0.976244
850.112675	0.978959
850.426984	0.977376
850.741251	0.978902
851.055474	0.978893
851.369654	0.977401
851.683792	0.976832
851.997887	0.976971
852.311938	0.979329
852.625947	0.977094
852.939914	0.976644
853.253837	0.978120
853.567718	0.977696
853.881555	0.978709
854.195350	0.978286
854.509103	0.977981
854.822812	0.979404
855.136479	0.978818
855.450103	0.977938
855.763685	0.977844
856.077224	0.979345
856.390720	0.978446
856.704173	0.978537
857.017584	0.976611
857.330953	0.976065
857.644278	0.976071
857.957561	0.976720
858.270802	0.978221
858.584000	0.976885
858.897155	0.976746
859.210268	0.976077
859.523339	0.977866
859.836367	0.979700
860.149352	0.978795
860.462295	0.979253
860.775195	0.978390
861.088054	0.976607
861.400869	0.978680
861.713642	0.978349
862.026373	0.979438
862.339062	0.978904
862.651708	0.976478
862.964312	0.977854
863.276873	0.978491
863.589392	0.977664
863.901869	0.975370
864.214303	0.974017
864.526696	0.972816
864.839045	0.973131
865.151353	0.972240
865.463619	0.971910
865.775842	0.972609
866.088023	0.974552
866.400162	0.972562
866.712258	0.972958
867.024313	0.973549
867.336325	0.974127
867.648296	0.972830
867.960224	0.972129
868.272110	0.972150
868.583954	0.975029
868.895755	0.975310
869.207515	0.972590
869.519233	0.971447
869.830909	0.970139
870.142542	0.972606
870.454134	0.971682
870.765684	0.969836
871.077191	0.969233
871.388657	0.969374
871.700081	0.970121
872.011463	0.970336
872.322803	0.968916
872.634101	0.967083
872.945357	0.964851
873.256571	0.964011
873.567744	0.964861
873.878874	0.965632
874.189963	0.965136
874.501010	0.966544
874.812015	0.961157
875.122979	0.963635
875.433900	0.966223
875.744780	0.966367
876.055618	0.962926
876.366415	0.962121
876.677169	0.960968
876.987882	0.963802
877.298554	0.964195
877.609183	0.961261
877.919771	0.959051
878.230317	0.957942
878.540822	0.954976
878.851285	0.951887
879.161707	0.945338
879.472087	0.936537
879.782425	0.920519
880.092722	0.891585
880.402977	0.843426
880.713191	0.785033
881.023363	0.727070
881.333494	0.693735
881.643583	0.669511
881.953631	0.671144
882.263637	0.701123
882.573602	0.738801
882.883526	0.763649
883.193408	0.786876
883.503248	0.807873
883.813048	0.833505
884.122806	0.859675
884.432522	0.879764
884.742197	0.896950
885.051831	0.905817
885.361424	0.915412
885.670975	0.926632
885.980485	0.932680
886.289954	0.937685
886.599382	0.941392
886.908768	0.945676
887.218113	0.949439
887.527417	0.953091
887.836680	0.957046
888.145901	0.958486
888.455082	0.961991
888.764221	0.964565
889.073319	0.966265
889.382376	0.967167
889.691392	0.965567
890.000366	0.966406
890.309300	0.966965
890.618193	0.966674
890.927044	0.964379
891.235855	0.965575
891.544625	0.965595
891.853353	0.964288
892.162041	0.962150
892.470687	0.958512
892.779293	0.953087
893.087858	0.948108
893.396381	0.941668
893.704864	0.930215
894.013306	0.909782
894.321707	0.886895
894.630068	0.875095
894.938387	0.871438
895.246665	0.873713
895.554903	0.885061
895.863100	0.898045
896.171256	0.912545
896.479371	0.928693
896.787446	0.937949
897.095480	0.943773
897.403473	0.945520
897.711425	0.949794
898.019336	0.955832
898.327207	0.959050
898.635038	0.958648
898.942827	0.960626
899.250576	0.961182
899.558284	0.965781
899.865952	0.966281
900.173579	0.968140
900.481165	0.969626
900.788711	0.969910
901.096216	0.972523
901.403681	0.974042
901.711105	0.973716
902.018489	0.974487
902.325832	0.973726
902.633135	0.972331
902.940397	0.968641
903.247619	0.958070
903.554800	0.936891
903.861941	0.901509
904.169041	0.869306
904.476101	0.855335
904.783121	0.855580
905.090100	0.871167
905.397039	0.891376
905.703938	0.909568
906.010796	0.927273
906.317614	0.941055
906.624391	0.951784
906.931129	0.959887
907.237826	0.966095
907.544483	0.970282
907.851099	0.974634
908.157675	0.977085
908.464211	0.979703
908.770707	0.981508
909.077163	0.983267
909.383578	0.983667
909.689954	0.983844
909.996289	0.984721
910.302584	0.986609
910.608839	0.987513
910.915054	0.987883
911.221229	0.987134
911.527363	0.984957
911.833458	0.985966
912.139513	0.986050
912.445527	0.985417
912.751502	0.984015
913.057436	0.980371
913.363331	0.980800
913.669186	0.978129
913.975000	0.973013
914.280775	0.967753
914.586510	0.961444
914.892205	0.950143
915.197859	0.931712
915.503475	0.909282
915.809050	0.891974
916.114585	0.885841
916.420081	0.884431
916.725536	0.883542
917.030952	0.889917
917.336328	0.901070
917.641665	0.914068
917.946961	0.927894
918.252218	0.936794
918.557435	0.944908
918.862612	0.951372
919.167750	0.956335
919.472848	0.961160
919.777906	0.966817
920.082925	0.970552
920.387904	0.973104
920.692843	0.973858
920.997743	0.974927
921.302603	0.977744
921.607423	0.978883
921.912204	0.981485
922.216946	0.982773
922.521647	0.983850
922.826310	0.983755
923.130932	0.986114
923.435516	0.987203
923.740059	0.987802
924.044564	0.988026
924.349028	0.988217
924.653454	0.988796
924.957840	0.990002
925.262186	0.991778
925.566493	0.990753
925.870761	0.992679
926.174989	0.991478
926.479178	0.994514
926.783328	0.993162
927.087438	0.993392
927.391509	0.994316
927.695541	0.994785
927.999533	0.995124
928.303486	0.995504
928.607400	0.996469
928.911275	0.996547
929.215110	0.996401
929.518906	0.996676
929.822663	0.997288
930.126381	0.996660
930.430060	0.995979
930.733699	0.996339
931.037299	0.996521
931.340861	0.997196
931.644383	0.994740
931.947866	0.994981
932.251309	0.996086
932.554714	0.995057
932.858080	0.996189
933.161407	0.994933
933.464694	0.997067
933.767943	0.997155
934.071153	0.997317
934.374323	0.998470
934.677455	0.996483
934.980548	0.996941
935.283602	0.998828
935.586617	0.996212
935.889593	0.998395
936.192530	0.997737
936.495428	0.996854
936.798287	0.997320
937.101108	0.994889
937.403890	0.996021
937.706632	0.995617
938.009336	0.993623
938.312002	0.992253
938.614628	0.992031
938.917216	0.989528
939.219765	0.990369
939.522275	0.990384
939.824747	0.990469
940.127179	0.991230
940.429573	0.991786
940.731929	0.990452
941.034246	0.992379
941.336524	0.991674
941.638763	0.992399
941.940964	0.993292
942.243126	0.993016
942.545250	0.994154
942.847335	0.993351
943.149381	0.994953
943.451389	0.995072
943.753359	0.996010
944.055290	0.996593
944.357182	0.996551
944.659036	0.996740
944.960851	0.996627
945.262628	0.996429
945.564367	0.995302
945.866067	0.995099
946.167729	0.996773
946.469352	0.995773
946.770937	0.993680
947.072484	0.996347
947.373992	0.995928
947.675462	0.995518
947.976893	0.996986
948.278286	0.997764
948.579641	0.997121
948.880958	0.996726
949.182236	0.995994
949.483476	0.996991
949.784678	0.997162
950.085841	0.996889
950.386967	0.996510
950.688054	0.996305
950.989103	0.995635
951.290114	0.995271
951.591087	0.995449
951.892021	0.994662
952.192917	0.994919
952.493776	0.994992
952.794596	0.995048
953.095378	0.994185
953.396122	0.994259
953.696828	0.994879
953.997496	0.996537
954.298126	0.996669
954.598718	0.996718
954.899272	0.997169
955.199788	0.996098
955.500266	0.997574
955.800706	0.998360
956.101108	0.999130
956.401472	1.000385
956.701798	0.997940
957.002087	0.999806
957.302337	0.999850
957.602550	1.000525
957.902724	0.999124
958.202861	0.999913
958.502960	0.999875
958.803022	1.000287
959.103045	0.999497
959.403031	1.001899
959.702979	1.001596
960.002889	1.000413
960.302762	0.998242
960.602596	1.002052
960.902393	1.001757
961.202153	1.001575
961.501875	1.001762
961.801559	1.001978
962.101205	1.000952
962.400814	1.001799
962.700385	1.002425
962.999918	1.002373
963.299414	1.001075
963.598873	1.002214
963.898293	1.001508
964.197677	1.001460
964.497022	1.001436
964.796331	1.001176
965.095601	1.003023
965.394835	1.001637
965.694030	1.002841
965.993189	1.001065
966.292309	1.001845
966.591393	0.999797
966.890439	1.002314
967.189447	1.001792
967.488419	1.000813
967.787353	1.001664
968.086249	1.002231
968.385108	1.002977
968.683930	1.003219
968.982714	1.002000
969.281462	1.001362
969.580172	1.002225
969.878844	1.001937
970.177480	1.001615
970.476078	1.002702
970.774639	1.001536
971.073162	1.002458
971.371649	1.000871
971.670098	1.001144
971.968510	1.000916
972.266885	1.000812
972.565223	1.001560
972.863524	1.000243
973.161788	1.001282
973.460014	1.001709
973.758204	1.001574
974.056356	1.001862
974.354471	1.001507
974.652550	1.002760
974.950591	1.000272
975.248595	1.001764
975.546563	1.001823
975.844493	1.002826
976.142386	1.000406
976.440243	1.002299
976.738062	1.002346
977.035845	1.001212
977.333590	1.002348
977.631299	1.001711
977.928971	1.002195
978.226606	1.001251
978.524204	1.000691
978.821765	1.002368
979.119290	1.003223
979.416777	1.002103
979.714228	1.003151
980.011642	1.002989
980.309020	1.002790
980.606360	1.001757
980.903664	1.001180
981.200931	1.000265
981.498162	1.000873
981.795356	1.001168
982.092513	1.000592
982.389633	0.999783
982.686717	0.997290
982.983764	0.997595
983.280775	0.997603
983.577749	0.997381
983.874686	0.997403
984.171587	0.997503
984.468451	0.999541
984.765279	0.999924
985.062070	1.000991
985.358824	1.001714
985.655543	1.001067
985.952224	1.001977
986.248869	1.000509
986.545478	1.003374
986.842050	1.002397
987.138586	1.002249
987.435086	1.002581
987.731549	1.004129
988.027975	1.004472
988.324366	1.002113
988.620719	1.002716
988.917037	1.001707
989.213318	1.003131
989.509563	1.002926
989.805772	1.002495
990.101944	1.004625
990.398080	1.002751
990.694180	1.004137
990.990244	1.002979
991.286271	1.002465
991.582262	1.004260
991.878217	1.003006
992.174136	1.004443
992.470019	1.003168
992.765865	1.004794
993.061676	1.003278
993.357450	1.004153
993.653188	1.004669
993.948890	1.002005
994.244556	1.003356
994.540186	1.002042
994.835780	1.002676
995.131337	1.004746
995.426859	1.001887
995.722345	1.001401
996.017795	1.001009
996.313208	1.002226
996.608586	1.001993
996.903928	1.002919
997.199234	1.001656
997.494504	1.002097
997.789738	1.001634
998.084936	1.002103
998.380099	1.001224
998.675225	1.003753
998.970316	1.003512
999.265371	1.003387
999.560390	1.002938
999.855373	1.003240
1000.150320	1.004014
1000.445232	1.002499
1000.740108	1.003051
1001.034948	1.003185
1001.329752	1.003803
1001.624521	1.004003
1001.919254	1.003010
1002.213951	1.003245
1002.508613	1.002515
1002.803239	1.004228
1003.097829	1.003866
1003.392384	1.002728
1003.686903	1.003255
1003.981386	1.004313
1004.275834	1.004966
1004.570246	1.001175
1004.864623	1.003468
1005.158964	1.003850
1005.453270	1.003121
1005.747540	1.003203
1006.041775	1.004159
1006.335974	1.003562
1006.630138	1.003678
1006.924266	1.002565
1007.218359	1.002377
1007.512416	1.004565
1007.806438	1.004212
1008.100425	1.003469
1008.394376	1.004698
1008.688292	1.002927
1008.982172	1.003207
1009.276017	1.003900
1009.569827	1.004320
1009.863602	1.001830
1010.157341	1.003792
1010.451045	1.002694
1010.744714	1.004851
1011.038347	1.004167
1011.331945	1.002721
1011.625508	1.004787
1011.919036	1.003857
1012.212528	1.004216
1012.505986	1.003170
1012.799408	1.003807
1013.092795	1.003858
1013.386147	1.003332
1013.679464	1.004522
1013.972745	1.002873
1014.265992	1.003199
1014.559204	1.003859
1014.852380	1.004246
1015.145521	1.003489
1015.438628	1.004914
1015.731699	1.003412
1016.024736	1.004618
1016.317737	1.003991
1016.610703	1.003309
1016.903635	1.003799
1017.196531	1.003776
1017.489393	1.002529
1017.782219	1.002846
1018.075011	1.003951
1018.367768	1.002584
1018.660490	1.003489
1018.953177	1.003489
1019.245829	1.003489
