Dividing Wavelength (nm)	Counts (n)	Blue Motor Position (mm): 13.700000	Red Motor Position (mm): 0.000000	
326.493990	1.003340
326.888308	1.003340
327.282561	1.003340
327.676750	1.003172
328.070874	1.004318
328.464933	1.004563
328.858929	1.003995
329.252859	1.003778
329.646726	1.002154
330.040528	1.003075
330.434265	1.003139
330.827938	1.003432
331.221547	1.003874
331.615091	1.004621
332.008571	1.003819
332.401986	1.002601
332.795338	1.002540
333.188625	1.003841
333.581847	1.002520
333.975006	1.003172
334.368100	1.003556
334.761129	1.002010
335.154095	1.002956
335.546996	1.002346
335.939833	0.998689
336.332606	0.999620
336.725315	0.998119
337.117960	1.000464
337.510540	0.997844
337.903056	0.999163
338.295508	0.999493
338.687896	0.999346
339.080220	0.999593
339.472480	0.998605
339.864676	0.999663
340.256807	0.998405
340.648875	0.999165
341.040879	0.999506
341.432818	0.999127
341.824694	0.998880
342.216506	0.999519
342.608253	0.998253
342.999937	0.998755
343.391557	0.998035
343.783113	1.000061
344.174605	0.999380
344.566033	0.999534
344.957397	0.999722
345.348697	0.999631
345.739934	0.999033
346.131106	0.998832
346.522215	0.998488
346.913260	0.998168
347.304241	0.998750
347.695159	0.998749
348.086012	0.998809
348.476802	0.999542
348.867528	0.997540
349.258191	1.000251
349.648789	0.999037
350.039324	0.999770
350.429796	0.997807
350.820203	0.997986
351.210548	0.998213
351.600828	0.998375
351.991045	0.998758
352.381198	0.998215
352.771288	0.998913
353.161314	0.998693
353.551276	0.998688
353.941175	0.996763
354.331010	0.999302
354.720782	0.997919
355.110490	0.999002
355.500135	0.998710
355.889717	0.997367
356.279235	0.997011
356.668689	0.999137
357.058080	0.998711
357.447408	0.997821
357.836672	0.997785
358.225873	0.998521
358.615010	0.997929
359.004084	0.996712
359.393095	0.998152
359.782043	0.998155
360.170927	0.998195
360.559748	0.998711
360.948505	0.996321
361.337199	0.997121
361.725830	0.997557
362.114398	0.997136
362.502903	0.997171
362.891344	0.996625
363.279722	0.996685
363.668037	0.997721
364.056289	0.997820
364.444478	0.997360
364.832603	0.997570
365.220665	0.997754
365.608665	0.996991
365.996601	0.996198
366.384474	0.995513
366.772284	0.997231
367.160031	0.995189
367.547715	0.996041
367.935336	0.994666
368.322893	0.993675
368.710388	0.991539
369.097820	0.990039
369.485189	0.987392
369.872495	0.987246
370.259738	0.984501
370.646918	0.982109
371.034035	0.980191
371.421090	0.976448
371.808081	0.970588
372.195010	0.969524
372.581875	0.963255
372.968678	0.958273
373.355418	0.956166
373.742096	0.947780
374.128710	0.943200
374.515262	0.939567
374.901751	0.933775
375.288177	0.929056
375.674540	0.921812
376.060841	0.916462
376.447079	0.909007
376.833254	0.902676
377.219367	0.897682
377.605417	0.886209
377.991404	0.883175
378.377329	0.876984
378.763191	0.869995
379.148991	0.861715
379.534727	0.853921
379.920402	0.845814
380.306013	0.842495
380.691563	0.829421
381.077049	0.821841
381.462474	0.818282
381.847835	0.806140
382.233134	0.802943
382.618371	0.801123
383.003545	0.784814
383.388657	0.783350
383.773706	0.776254
384.158693	0.771592
384.543618	0.766786
384.928480	0.758013
385.313280	0.748283
385.698017	0.746907
386.082692	0.735766
386.467305	0.733416
386.851856	0.728628
387.236344	0.722906
387.620770	0.717205
388.005133	0.711118
388.389435	0.706509
388.773674	0.703736
389.157851	0.695556
389.541965	0.692714
389.926018	0.699661
390.310008	0.686098
390.693936	0.683729
391.077802	0.675427
391.461606	0.676830
391.845348	0.666156
392.229027	0.666462
392.612645	0.663633
392.996200	0.650733
393.379694	0.644199
393.763125	0.634271
394.146494	0.639296
394.529801	0.628996
394.913047	0.621566
395.296230	0.627319
395.679351	0.618624
396.062410	0.615075
396.445408	0.618033
396.828343	0.613293
397.211217	0.608530
397.594028	0.620491
397.976778	0.611085
398.359466	0.607489
398.742092	0.603056
399.124656	0.614815
399.507158	0.602735
399.889598	0.600510
400.271977	0.592059
400.654294	0.594787
401.036549	0.594521
401.418742	0.598247
401.800874	0.584322
402.182944	0.581603
402.564952	0.573319
402.946898	0.574814
403.328783	0.575333
403.710606	0.587239
404.092367	0.562248
404.474067	0.567086
404.855705	0.565646
405.237282	0.575021
405.618797	0.560796
406.000250	0.556700
406.381642	0.546416
406.762972	0.551759
407.144240	0.550266
407.525447	0.549617
407.906593	0.543311
408.287677	0.538418
408.668700	0.546846
409.049661	0.541037
409.430560	0.535889
409.811399	0.544168
410.192176	0.526446
410.572891	0.533664
410.953545	0.522104
411.334138	0.535278
411.714669	0.527682
412.095139	0.539351
412.475547	0.523994
412.855894	0.526256
413.236180	0.524425
413.616405	0.529951
413.996568	0.520664
414.376670	0.526751
414.756711	0.531572
415.136691	0.527921
415.516609	0.519171
415.896466	0.515888
416.276262	0.512344
416.655997	0.513623
417.035670	0.495634
417.415283	0.487292
417.794834	0.491746
418.174324	0.497173
418.553753	0.506448
418.933121	0.488510
419.312428	0.482181
419.691674	0.487919
420.070859	0.476282
420.449983	0.484626
420.829045	0.473592
421.208047	0.482178
421.586988	0.475690
421.965867	0.475055
422.344686	0.463499
422.723444	0.475752
423.102141	0.493204
423.480777	0.465585
423.859352	0.485858
424.237866	0.463702
424.616319	0.464698
424.994712	0.455440
425.373044	0.465978
425.751314	0.453722
426.129524	0.470521
426.507673	0.454053
426.885762	0.447603
427.263789	0.452748
427.641756	0.462748
428.019662	0.452513
428.397508	0.452044
428.775292	0.456209
429.153016	0.448836
429.530679	0.454790
429.908282	0.447397
430.285824	0.458334
430.663305	0.436061
431.040726	0.457820
431.418086	0.457043
431.795385	0.449353
432.172624	0.448241
432.549802	0.448487
432.926920	0.447600
433.303977	0.446827
433.680974	0.443806
434.057910	0.442374
434.434786	0.441952
434.811601	0.445002
435.188355	0.427490
435.565050	0.436206
435.941683	0.437510
436.318257	0.421288
436.694770	0.422248
437.071222	0.420621
437.447614	0.424970
437.823946	0.431430
438.200218	0.420676
438.576429	0.430394
438.952580	0.423634
439.328670	0.420351
439.704700	0.426580
440.080670	0.427063
440.456580	0.409609
440.832429	0.416759
441.208218	0.428161
441.583947	0.416993
441.959616	0.416834
442.335224	0.422233
442.710773	0.412658
443.086261	0.411003
443.461689	0.424669
443.837057	0.414666
444.212365	0.404343
444.587612	0.411513
444.962800	0.401386
445.337927	0.403283
445.712995	0.429476
446.088002	0.390686
446.462949	0.401267
446.837837	0.406952
447.212664	0.394955
447.587431	0.386857
447.962139	0.356618
448.336786	0.315778
448.711374	0.326484
449.085901	0.370947
449.460369	0.375117
449.834776	0.378503
450.209124	0.357875
450.583412	0.350385
450.957640	0.343161
451.331808	0.355261
451.705917	0.378286
452.079965	0.383150
452.453954	0.371293
452.827883	0.377661
453.201752	0.372533
453.575562	0.383929
453.949311	0.373107
454.323001	0.378781
454.696632	0.374799
455.070202	0.367057
455.443713	0.358935
455.817164	0.353638
456.190556	0.349418
456.563888	0.346402
456.937160	0.343786
457.310373	0.361242
457.683526	0.360303
458.056619	0.365712
458.429653	0.366412
458.802628	0.369893
459.175542	0.363766
459.548398	0.346314
459.921194	0.339583
460.293930	0.339042
460.666607	0.316966
461.039224	0.304772
461.411782	0.300512
461.784280	0.299853
462.156719	0.304155
462.529099	0.308262
462.901419	0.324887
463.273680	0.328563
463.645882	0.328082
464.018024	0.334167
464.390106	0.327333
464.762130	0.311426
465.134094	0.294646
465.505999	0.263736
465.877845	0.233826
466.249631	0.220615
466.621358	0.228186
466.993026	0.241853
467.364634	0.248322
467.736184	0.257056
468.107674	0.265879
468.479105	0.265030
468.850477	0.271549
469.221790	0.278825
469.593043	0.288793
469.964238	0.293524
470.335373	0.293196
470.706449	0.291543
471.077467	0.291845
471.448425	0.254201
471.819324	0.229391
472.190164	0.228954
472.560945	0.257563
472.931667	0.280282
473.302330	0.284481
473.672934	0.296158
474.043479	0.284274
474.413965	0.286362
474.784393	0.289673
475.154761	0.284394
475.525070	0.281773
475.895321	0.287322
476.265513	0.281526
476.635645	0.277079
477.005719	0.276806
477.375734	0.273523
477.745691	0.266707
478.115588	0.263045
478.485427	0.256703
478.855207	0.243384
479.224928	0.225984
479.594591	0.214033
479.964194	0.217504
480.333739	0.218677
480.703226	0.220109
481.072653	0.218482
481.442022	0.214283
481.811333	0.210805
482.180584	0.214180
482.549777	0.219541
482.918912	0.223100
483.287988	0.222825
483.657005	0.222303
484.025964	0.228634
484.394864	0.225988
484.763706	0.226749
485.132489	0.231822
485.501213	0.232716
485.869879	0.230944
486.238487	0.234033
486.607036	0.232178
486.975527	0.236660
487.343959	0.232570
487.712333	0.231434
488.080648	0.232670
488.448905	0.231970
488.817104	0.233289
489.185244	0.227844
489.553326	0.224754
489.921350	0.214668
490.289315	0.197029
490.657222	0.191898
491.025070	0.193473
491.392861	0.195119
491.760593	0.200771
492.128267	0.206929
492.495883	0.212102
492.863440	0.218310
493.230939	0.224888
493.598380	0.226614
493.965763	0.228570
494.333088	0.230489
494.700354	0.232188
495.067563	0.231221
495.434713	0.234664
495.801805	0.232490
496.168839	0.233956
496.535815	0.235719
496.902733	0.235344
497.269593	0.236817
497.636395	0.234264
498.003139	0.234589
498.369825	0.238077
498.736453	0.234139
499.103023	0.235851
499.469535	0.235250
499.835989	0.235581
500.202385	0.236384
500.568723	0.239692
500.935003	0.234720
501.301226	0.239181
501.667390	0.233160
502.033497	0.231560
502.399546	0.234293
502.765537	0.236363
503.131470	0.234672
503.497345	0.231300
503.863163	0.239662
504.228923	0.232609
504.594625	0.231309
504.960269	0.236781
505.325856	0.232076
505.691385	0.236437
506.056856	0.233359
506.422270	0.232779
506.787625	0.234946
507.152924	0.232677
507.518164	0.233115
507.883347	0.234769
508.248472	0.236386
508.613540	0.231651
508.978550	0.234082
509.343503	0.234544
509.708398	0.232373
510.073236	0.229693
510.438016	0.229529
510.802738	0.230511
511.167403	0.229700
511.532010	0.231706
511.896561	0.227081
512.261053	0.225727
512.625488	0.228146
512.989866	0.228407
513.354186	0.228539
513.718449	0.230691
514.082655	0.226867
514.446803	0.229097
514.810894	0.226868
515.174927	0.229554
515.538904	0.229109
515.902822	0.226051
516.266684	0.228154
516.630488	0.229398
516.994235	0.228481
517.357925	0.227428
517.721558	0.225154
518.085133	0.225147
518.448651	0.224958
518.812112	0.227178
519.175516	0.226979
519.538863	0.224645
519.902152	0.226496
520.265385	0.223095
520.628560	0.224983
520.991678	0.225541
521.354739	0.224212
521.717743	0.225669
522.080690	0.225714
522.443580	0.223244
522.806413	0.224125
523.169189	0.223487
523.531908	0.222650
523.894569	0.226020
524.257174	0.225861
524.619722	0.223843
524.982213	0.224996
525.344647	0.223617
525.707025	0.224694
526.069345	0.222782
526.431608	0.224626
526.793815	0.222656
527.155964	0.226798
527.518057	0.225585
527.880093	0.226718
528.242072	0.225187
528.603995	0.227479
528.965860	0.229043
529.327669	0.227982
529.689421	0.228763
530.051117	0.229762
530.412755	0.227460
530.774337	0.229487
531.135862	0.230210
531.497331	0.229589
531.858743	0.232496
532.220098	0.229074
532.581396	0.231739
532.942638	0.232404
533.303824	0.233390
533.664953	0.232978
534.026025	0.235172
534.387040	0.232765
534.747999	0.232714
535.108902	0.231577
535.469748	0.236724
535.830537	0.234671
536.191270	0.234836
536.551947	0.234445
536.912567	0.234220
537.273131	0.236326
537.633638	0.236682
537.994089	0.236919
538.354483	0.237918
538.714821	0.234970
539.075103	0.234779
539.435328	0.235484
539.795497	0.239550
540.155609	0.236044
540.515665	0.234107
540.875665	0.239981
541.235609	0.238547
541.595496	0.238662
541.955328	0.235004
542.315102	0.237699
542.674821	0.238989
543.034483	0.239163
543.394090	0.238845
543.753640	0.240485
544.113134	0.235754
544.472571	0.239092
544.831953	0.235938
545.191278	0.240090
545.550548	0.239474
545.909761	0.236337
546.268918	0.236963
546.628019	0.235389
546.987064	0.238309
547.346053	0.239966
547.704986	0.237866
548.063863	0.238092
548.422684	0.238661
548.781449	0.240265
549.140158	0.238103
549.498811	0.240727
549.857408	0.244072
550.215949	0.238638
550.574434	0.241815
550.932864	0.240134
551.291237	0.238643
551.649555	0.240414
552.007817	0.240338
552.366022	0.240936
552.724173	0.241167
553.082267	0.241500
553.440305	0.238356
553.798288	0.242941
554.156215	0.239830
554.514086	0.240267
554.871902	0.243591
555.229661	0.242683
555.587365	0.243410
555.945014	0.246039
556.302606	0.243139
556.660143	0.246095
557.017625	0.242665
557.375050	0.244952
557.732421	0.242003
558.089735	0.244145
558.446994	0.244208
558.804197	0.243394
559.161345	0.243408
559.518437	0.246940
559.875474	0.245462
560.232455	0.244958
560.589381	0.246091
560.946251	0.246524
561.303065	0.244035
561.659825	0.245692
562.016528	0.247405
562.373177	0.250131
562.729770	0.247824
563.086307	0.249729
563.442789	0.248054
563.799216	0.251011
564.155587	0.250425
564.511904	0.251738
564.868164	0.251689
565.224370	0.251875
565.580520	0.254182
565.936615	0.253763
566.292654	0.257153
566.648638	0.254537
567.004567	0.255865
567.360441	0.256573
567.716260	0.259060
568.072023	0.256785
568.427732	0.258437
568.783385	0.260798
569.138982	0.259458
569.494525	0.259474
569.850013	0.262512
570.205445	0.261595
570.560823	0.264336
570.916145	0.266731
571.271412	0.265598
571.626625	0.267549
571.981782	0.268071
572.336884	0.269566
572.691931	0.269347
573.046923	0.272044
573.401860	0.273289
573.756743	0.275732
574.111570	0.275074
574.466342	0.276107
574.821059	0.275662
575.175722	0.279094
575.530330	0.279376
575.884882	0.280041
576.239380	0.282746
576.593823	0.283592
576.948211	0.284022
577.302544	0.287275
577.656823	0.288268
578.011047	0.288667
578.365216	0.290172
578.719330	0.292712
579.073389	0.293378
579.427394	0.295225
579.781344	0.296863
580.135239	0.298719
580.489080	0.299617
580.842866	0.303628
581.196597	0.304755
581.550273	0.304038
581.903895	0.306237
582.257463	0.304917
582.610975	0.309761
582.964434	0.310000
583.317837	0.313547
583.671186	0.314470
584.024481	0.315527
584.377721	0.319137
584.730906	0.321054
585.084037	0.321670
585.437113	0.324305
585.790135	0.324825
586.143103	0.329053
586.496016	0.331258
586.848874	0.330645
587.201679	0.332148
587.554428	0.336853
587.907124	0.337269
588.259765	0.338757
588.612352	0.341361
588.964884	0.345856
589.317362	0.346951
589.669786	0.348700
590.022155	0.347579
590.374470	0.349118
590.726731	0.352477
591.078937	0.358849
591.431090	0.357123
591.783188	0.361710
592.135232	0.364362
592.487222	0.364961
592.839157	0.365739
593.191038	0.368860
593.542866	0.371951
593.894639	0.376904
594.246358	0.376920
594.598022	0.378311
594.949633	0.383387
595.301190	0.385641
595.652692	0.386248
596.004141	0.384913
596.355535	0.393810
596.706876	0.395826
597.058162	0.400175
597.409395	0.399020
597.760573	0.399050
598.111698	0.403943
598.462768	0.406444
598.813785	0.408794
599.164748	0.412654
599.515657	0.414090
599.866511	0.420790
600.217312	0.417029
600.568060	0.424339
600.918753	0.422634
601.269392	0.425816
601.619978	0.430890
601.970510	0.430648
602.320988	0.432544
602.671412	0.433365
603.021783	0.437281
603.372100	0.440249
603.722363	0.443362
604.072572	0.445309
604.422728	0.447286
604.772830	0.451419
605.122878	0.453316
605.472872	0.455759
605.822813	0.456749
606.172701	0.461103
606.522534	0.461240
606.872314	0.463851
607.222041	0.467023
607.571714	0.467455
607.921333	0.471590
608.270899	0.474167
608.620411	0.473072
608.969870	0.479361
609.319276	0.481876
609.668627	0.484510
610.017926	0.485750
610.367171	0.487535
610.716362	0.490192
611.065500	0.493458
611.414585	0.495582
611.763616	0.497290
612.112594	0.501149
612.461518	0.502925
612.810389	0.503504
613.159207	0.508116
613.507971	0.512004
613.856682	0.512341
614.205340	0.514816
614.553945	0.515998
614.902496	0.521245
615.250994	0.522494
615.599439	0.525153
615.947830	0.527889
616.296169	0.531797
616.644454	0.533724
616.992686	0.536170
617.340864	0.537995
617.688990	0.542926
618.037063	0.542765
618.385082	0.547018
618.733048	0.548034
619.080961	0.551918
619.428821	0.554667
619.776628	0.557419
620.124382	0.561115
620.472083	0.565138
620.819731	0.566682
621.167326	0.572027
621.514868	0.574337
621.862357	0.579249
622.209793	0.581173
622.557176	0.585636
622.904506	0.589178
623.251783	0.592944
623.599007	0.597797
623.946179	0.598770
624.293297	0.604419
624.640363	0.608459
624.987376	0.611574
625.334336	0.615117
625.681243	0.619633
626.028097	0.622350
626.374899	0.625521
626.721647	0.629403
627.068343	0.632891
627.414987	0.635878
627.761577	0.639260
628.108115	0.640664
628.454600	0.646861
628.801032	0.648905
629.147412	0.651256
629.493739	0.655213
629.840014	0.658399
630.186236	0.660266
630.532405	0.665324
630.878521	0.666447
631.224585	0.669842
631.570597	0.674085
631.916556	0.676670
632.262462	0.677641
632.608316	0.682593
632.954117	0.684868
633.299866	0.687393
633.645562	0.690455
633.991206	0.695069
634.336797	0.698537
634.682336	0.702878
635.027823	0.706256
635.373257	0.708329
635.718639	0.713121
636.063968	0.714295
636.409245	0.719342
636.754470	0.722426
637.099642	0.725304
637.444762	0.730122
637.789829	0.731501
638.134845	0.735646
638.479808	0.738455
638.824719	0.740473
639.169577	0.743585
639.514383	0.746765
639.859137	0.750418
640.203839	0.751374
640.548489	0.755094
640.893086	0.756817
641.237632	0.759766
641.582125	0.760625
641.926566	0.764973
642.270955	0.766160
642.615292	0.768694
642.959576	0.770845
643.303809	0.773600
643.647990	0.775252
643.992118	0.777613
644.336195	0.779743
644.680219	0.782315
645.024192	0.783230
645.368112	0.783029
645.711981	0.784655
646.055797	0.784794
646.399562	0.786751
646.743274	0.787626
647.086935	0.786623
647.430544	0.789086
647.774101	0.790753
648.117606	0.792064
648.461059	0.794862
648.804460	0.798023
649.147810	0.799958
649.491108	0.803029
649.834354	0.805660
650.177548	0.809656
650.520690	0.814122
650.863781	0.815700
651.206820	0.817500
651.549807	0.821399
651.892742	0.825091
652.235626	0.826624
652.578458	0.828225
652.921238	0.833013
653.263967	0.833193
653.606644	0.835374
653.949269	0.837905
654.291843	0.839658
654.634365	0.841632
654.976836	0.843348
655.319255	0.845278
655.661622	0.847731
656.003938	0.849262
656.346203	0.850689
656.688416	0.854128
657.030577	0.854888
657.372687	0.857312
657.714746	0.859082
658.056753	0.859155
658.398708	0.862392
658.740612	0.864505
659.082465	0.865257
659.424266	0.866076
659.766016	0.867550
660.107715	0.870733
660.449362	0.870358
660.790958	0.872969
661.132503	0.875013
661.473996	0.875198
661.815438	0.877576
662.156829	0.878752
662.498168	0.879965
662.839456	0.880571
663.180693	0.882590
663.521879	0.882639
663.863013	0.885356
664.204097	0.886093
664.545129	0.886282
664.886110	0.887918
665.227040	0.888566
665.567918	0.889381
665.908746	0.889912
666.249522	0.891282
666.590248	0.892810
666.930922	0.893534
667.271545	0.894875
667.612118	0.895610
667.952639	0.897963
668.293109	0.898886
668.633528	0.899110
668.973896	0.901214
669.314213	0.902899
669.654480	0.904251
669.994695	0.903900
670.334859	0.906655
670.674973	0.907680
671.015035	0.908459
671.355047	0.909786
671.695008	0.911305
672.034918	0.912316
672.374777	0.913042
672.714585	0.913768
673.054342	0.915343
673.394049	0.915294
673.733705	0.916598
674.073310	0.917649
674.412864	0.918940
674.752368	0.919924
675.091820	0.921961
675.431223	0.923593
675.770574	0.923449
676.109875	0.925734
676.449125	0.926851
676.788324	0.928098
677.127473	0.930766
677.466571	0.931411
677.805619	0.932732
678.144616	0.933477
678.483562	0.935217
678.822458	0.935864
679.161303	0.936654
679.500098	0.937575
679.838842	0.938736
680.177535	0.939191
680.516179	0.938618
680.854771	0.940257
681.193314	0.940148
681.531805	0.939481
681.870247	0.937665
682.208638	0.937359
682.546978	0.937669
682.885268	0.938894
683.223508	0.940685
683.561697	0.941932
683.899836	0.943169
684.237925	0.943146
684.575963	0.944744
684.913951	0.945244
685.251889	0.944890
685.589776	0.945089
685.927614	0.946436
686.265401	0.945560
686.603137	0.946365
686.940824	0.946730
687.278460	0.947157
687.616046	0.946128
687.953582	0.945322
688.291068	0.946026
688.628504	0.946581
688.965889	0.945808
689.303224	0.946122
689.640510	0.949181
689.977745	0.949639
690.314930	0.950924
690.652065	0.953181
690.989150	0.954193
691.326185	0.956466
691.663170	0.957797
692.000105	0.958588
692.336990	0.959500
692.673825	0.960993
693.010610	0.961079
693.347345	0.962709
693.684030	0.964095
694.020665	0.964117
694.357251	0.965493
694.693786	0.967076
695.030272	0.966350
695.366707	0.967120
695.703093	0.967514
696.039429	0.967367
696.375716	0.969877
696.711952	0.969103
697.048139	0.969723
697.384276	0.969512
697.720363	0.969957
698.056400	0.969331
698.392388	0.969099
698.728326	0.972305
699.064214	0.972569
699.400053	0.971711
699.735842	0.973112
700.071581	0.973715
700.407270	0.974462
700.742910	0.974440
701.078501	0.974776
701.414042	0.976272
701.749533	0.974361
702.084974	0.976822
702.420366	0.976736
702.755709	0.976706
703.091002	0.978270
703.426246	0.978068
703.761440	0.977735
704.096584	0.978833
704.431679	0.979304
704.766725	0.979952
705.101721	0.980157
705.436668	0.979617
705.771565	0.979639
706.106413	0.978644
706.441212	0.980631
706.775961	0.980745
707.110661	0.980330
707.445311	0.980969
707.779913	0.981910
708.114465	0.981559
708.448967	0.981988
708.783421	0.981146
709.117825	0.980229
709.452180	0.981346
709.786485	0.980997
710.120742	0.979490
710.454949	0.979665
710.789107	0.978875
711.123216	0.977946
711.457275	0.977422
711.791286	0.978019
712.125247	0.979280
712.459159	0.978256
712.793023	0.978345
713.126837	0.979470
713.460602	0.978908
713.794318	0.978812
714.127985	0.979356
714.461602	0.980257
714.795171	0.980819
715.128691	0.981913
715.462162	0.982313
715.795584	0.982717
716.128957	0.984320
716.462281	0.983681
716.795556	0.983531
717.128782	0.985487
717.461960	0.984837
717.795088	0.985129
718.128167	0.986034
718.461198	0.986108
718.794180	0.985922
719.127113	0.986514
719.459997	0.985462
719.792833	0.985710
720.125619	0.986045
720.458357	0.987329
720.791046	0.987645
721.123686	0.987527
721.456278	0.987351
721.788821	0.987964
722.121315	0.988618
722.453761	0.988679
722.786158	0.986864
723.118506	0.988042
723.450805	0.987174
723.783056	0.989163
724.115259	0.988149
724.447412	0.988640
724.779518	0.987642
725.111574	0.987375
725.443582	0.988638
725.775542	0.989240
726.107453	0.989391
726.439315	0.988653
726.771129	0.987942
727.102895	0.988981
727.434612	0.987747
727.766281	0.988242
728.097901	0.986579
728.429473	0.988397
728.760996	0.986802
729.092471	0.987350
729.423897	0.989214
729.755276	0.987715
730.086606	0.987701
730.417887	0.988688
730.749120	0.987857
731.080305	0.987999
731.411442	0.986936
731.742530	0.986740
732.073570	0.987717
732.404562	0.988212
732.735506	0.987233
733.066401	0.986877
733.397249	0.988652
733.728048	0.987979
734.058798	0.988769
734.389501	0.990196
734.720156	0.989467
735.050762	0.991230
735.381320	0.989817
735.711831	0.989577
736.042293	0.990287
736.372707	0.991379
736.703073	0.989985
737.033391	0.991017
737.363661	0.990734
737.693883	0.991191
738.024056	0.989614
738.354182	0.990691
738.684260	0.990540
739.014290	0.990384
739.344272	0.990048
739.674207	0.990270
740.004093	0.988783
740.333931	0.989990
740.663722	0.989431
740.993464	0.990329
741.323159	0.988852
741.652806	0.990050
741.982405	0.990961
742.311956	0.990662
742.641460	0.990508
742.970915	0.990583
743.300323	0.989289
743.629683	0.990855
743.958996	0.991635
744.288260	0.991377
744.617477	0.991484
744.946647	0.991230
745.275768	0.992047
745.604842	0.990914
745.933869	0.990836
746.262847	0.992608
746.591778	0.990925
746.920662	0.991884
747.249498	0.992599
747.578286	0.993190
747.907027	0.992795
748.235720	0.991762
748.564365	0.992221
748.892963	0.991270
749.221514	0.992275
749.550017	0.991853
749.878473	0.992491
750.206881	0.992795
750.535242	0.991872
750.863555	0.991688
751.191821	0.992335
751.520039	0.992523
751.848210	0.991028
752.176334	0.992005
752.504411	0.992117
752.832440	0.991137
753.160421	0.993140
753.488356	0.993039
753.816243	0.991799
754.144082	0.991591
754.471875	0.993609
754.799620	0.992926
755.127318	0.994025
755.454969	0.993034
755.782572	0.993544
756.110129	0.991747
756.437638	0.993517
756.765100	0.992935
757.092515	0.993065
757.419882	0.993088
757.747203	0.991522
758.074477	0.994125
758.401703	0.992762
758.728882	0.993121
759.056014	0.992868
759.383099	0.993194
759.710138	0.992873
760.037129	0.992709
760.364073	0.992553
760.690970	0.992415
761.017820	0.991639
761.344623	0.993018
761.671379	0.992250
761.998088	0.992437
762.324751	0.992174
762.651366	0.990966
762.977935	0.989475
763.304456	0.987491
763.630931	0.984982
763.957359	0.985325
764.283740	0.986995
764.610074	0.988117
764.936362	0.989285
765.262602	0.990744
765.588796	0.992062
765.914943	0.991762
766.241044	0.992153
766.567097	0.992838
766.893104	0.993915
767.219064	0.992893
767.544978	0.992993
767.870845	0.993538
768.196665	0.994053
768.522438	0.994522
768.848165	0.993846
769.173846	0.994352
769.499479	0.995776
769.825066	0.996312
770.150607	0.996246
770.476101	0.995121
770.801548	0.995526
771.126949	0.995544
771.452303	0.995706
771.777611	0.995105
772.102872	0.994682
772.428087	0.995194
772.753256	0.996669
773.078378	0.995594
773.403453	0.994797
773.728482	0.996999
774.053465	0.994769
774.378401	0.996277
774.703291	0.996779
775.028135	0.997856
775.352932	0.995992
775.677683	0.996043
776.002388	0.996548
776.327046	0.995453
776.651658	0.996718
776.976224	0.996010
777.300743	0.995229
777.625216	0.995650
777.949643	0.997160
778.274024	0.996539
778.598359	0.995934
778.922647	0.997081
779.246889	0.996736
779.571086	0.996071
779.895236	0.995513
780.219339	0.997472
780.543397	0.995194
780.867409	0.996402
781.191374	0.996444
781.515294	0.996489
781.839167	0.996397
782.162995	0.995797
782.486776	0.995465
782.810511	0.995820
783.134201	0.997277
783.457844	0.997508
783.781441	0.996130
784.104993	0.994751
784.428498	0.996739
784.751958	0.998345
785.075372	0.996957
785.398739	0.996233
785.722061	0.996271
786.045337	0.996368
786.368568	0.995845
786.691752	0.996376
787.014891	0.996786
787.337983	0.995108
787.661030	0.995661
787.984031	0.995627
788.306987	0.995417
788.629897	0.994033
788.952760	0.994989
789.275579	0.994820
789.598351	0.994480
789.921078	0.996819
790.243759	0.996289
790.566395	0.995829
790.888984	0.995851
791.211529	0.996427
791.534027	0.996100
791.856480	0.996015
792.178888	0.994874
792.501249	0.996366
792.823566	0.997725
793.145836	0.996446
793.468062	0.996596
793.790241	0.997851
794.112375	0.995594
794.434464	0.996954
794.756507	0.996179
795.078505	0.996463
795.400457	0.995734
795.722364	0.995862
796.044226	0.996315
796.366042	0.994152
796.687812	0.995118
797.009538	0.994444
797.331218	0.997113
797.652852	0.996298
797.974442	0.995468
798.295986	0.996367
798.617484	0.995620
798.938938	0.996160
799.260346	0.996036
799.581709	0.996018
799.903026	0.996827
800.224299	0.996418
800.545526	0.996474
800.866708	0.996018
801.187845	0.996803
801.508936	0.996263
801.829983	0.996234
802.150984	0.996511
802.471940	0.996995
802.792851	0.996505
803.113717	0.997915
803.434538	0.996959
803.755314	0.997871
804.076045	0.996928
804.396731	0.996529
804.717372	0.996420
805.037967	0.997448
805.358518	0.996933
805.679024	0.996340
805.999485	0.997138
806.319901	0.997814
806.640272	0.997657
806.960598	0.996105
807.280879	0.996132
807.601115	0.997091
807.921306	0.997864
808.241453	0.995438
808.561554	0.996899
808.881611	0.996698
809.201623	0.997070
809.521590	0.996613
809.841513	0.996901
810.161390	0.996075
810.481223	0.995696
810.801011	0.997504
811.120755	0.998071
811.440453	0.996964
811.760107	0.997777
812.079716	0.996297
812.399281	0.996941
812.718801	0.996784
813.038276	0.996637
813.357707	0.997666
813.677093	0.997686
813.996434	0.996947
814.315731	0.997707
814.634983	0.997240
814.954191	0.998446
815.273354	0.996511
815.592473	0.997158
815.911547	0.997701
816.230577	0.995873
816.549562	0.996667
816.868502	0.995642
817.187399	0.997933
817.506250	0.996849
817.825058	0.994633
818.143821	0.995821
818.462539	0.995862
818.781213	0.996111
819.099843	0.996143
819.418429	0.994524
819.736970	0.994367
820.055466	0.992835
820.373919	0.992015
820.692327	0.989301
821.010691	0.988807
821.329011	0.985228
821.647286	0.980882
821.965517	0.976541
822.283704	0.971285
822.601847	0.969400
822.919945	0.970352
823.237999	0.972871
823.556010	0.974580
823.873976	0.978146
824.191897	0.980328
824.509775	0.983352
824.827609	0.984305
825.145398	0.986046
825.463144	0.985572
825.780845	0.985628
826.098502	0.985957
826.416116	0.985172
826.733685	0.982229
827.051210	0.978121
827.368692	0.980665
827.686129	0.980768
828.003522	0.984947
828.320872	0.987010
828.638177	0.988754
828.955439	0.991646
829.272656	0.991263
829.589830	0.992779
829.906960	0.993566
830.224046	0.993280
830.541088	0.993219
830.858086	0.994123
831.175041	0.996053
831.491952	0.995221
831.808819	0.994898
832.125642	0.995262
832.442421	0.995087
832.759157	0.993831
833.075849	0.990943
833.392497	0.988133
833.709101	0.986539
834.025662	0.985910
834.342179	0.987402
834.658653	0.988455
834.975083	0.991599
835.291469	0.991496
835.607811	0.993390
835.924110	0.994699
836.240366	0.995422
836.556578	0.995059
836.872746	0.997257
837.188871	0.996535
837.504952	0.996486
837.820990	0.997443
838.136984	0.996636
838.452935	0.996781
838.768842	0.998107
839.084706	0.997065
839.400526	0.996865
839.716303	0.993701
840.032037	0.993482
840.347727	0.992402
840.663373	0.993308
840.978977	0.994105
841.294537	0.996307
841.610054	0.996673
841.925527	0.996556
842.240957	0.997451
842.556344	0.997368
842.871687	0.997485
843.186987	0.997460
843.502244	0.998089
843.817458	0.997487
844.132629	0.998476
844.447756	0.999075
844.762840	0.999467
845.077881	0.999623
845.392879	0.997750
845.707833	0.998627
846.022745	0.999208
846.337613	0.999238
846.652438	0.998292
846.967221	0.999568
847.281960	0.999211
847.596656	0.999217
847.911309	0.999280
848.225919	0.999025
848.540485	1.000362
848.855009	1.000247
849.169490	0.998989
849.483928	0.999575
849.798323	0.998170
850.112675	1.000460
850.426984	1.000502
850.741251	1.000069
851.055474	0.999689
851.369654	0.998525
851.683792	0.999538
851.997887	0.998766
852.311938	0.998982
852.625947	0.998945
852.939914	0.997930
853.253837	1.001305
853.567718	0.999512
853.881555	0.998205
854.195350	0.999944
854.509103	0.998796
854.822812	0.999958
855.136479	0.998241
855.450103	0.999359
855.763685	0.999332
856.077224	0.998655
856.390720	0.999516
856.704173	1.000302
857.017584	0.999923
857.330953	0.998968
857.644278	0.999703
857.957561	1.000643
858.270802	0.999121
858.584000	0.998528
858.897155	0.998902
859.210268	0.999204
859.523339	1.000221
859.836367	0.999821
860.149352	0.998227
860.462295	0.998364
860.775195	1.000070
861.088054	0.998217
861.400869	0.998581
861.713642	0.997984
862.026373	0.999260
862.339062	0.999019
862.651708	0.999888
862.964312	0.999123
863.276873	0.999503
863.589392	0.998614
863.901869	0.997930
864.214303	0.999072
864.526696	0.998977
864.839045	0.998135
865.151353	0.999696
865.463619	0.997718
865.775842	0.999007
866.088023	1.000010
866.400162	0.999258
866.712258	0.999116
867.024313	0.999087
867.336325	0.999727
867.648296	0.999598
867.960224	0.997999
868.272110	0.999437
868.583954	0.998114
868.895755	0.999036
869.207515	0.998148
869.519233	1.000602
869.830909	0.997740
870.142542	0.997581
870.454134	0.998680
870.765684	0.997820
871.077191	0.998285
871.388657	0.999750
871.700081	0.998221
872.011463	0.999707
872.322803	0.997604
872.634101	0.997372
872.945357	0.997906
873.256571	0.996762
873.567744	0.998161
873.878874	0.997896
874.189963	0.997733
874.501010	0.998998
874.812015	0.997365
875.122979	0.998014
875.433900	0.997155
875.744780	0.998557
876.055618	0.996752
876.366415	0.996382
876.677169	0.996598
876.987882	0.997727
877.298554	0.998098
877.609183	0.997436
877.919771	0.997119
878.230317	0.997171
878.540822	0.996329
878.851285	0.995599
879.161707	0.995129
879.472087	0.995958
879.782425	0.992765
880.092722	0.991769
880.402977	0.987176
880.713191	0.981701
881.023363	0.976806
881.333494	0.973717
881.643583	0.974438
881.953631	0.973455
882.263637	0.973667
882.573602	0.975343
882.883526	0.977296
883.193408	0.980280
883.503248	0.981654
883.813048	0.983327
884.122806	0.986666
884.432522	0.987984
884.742197	0.990022
885.051831	0.990379
885.361424	0.991450
885.670975	0.993717
885.980485	0.993197
886.289954	0.993951
886.599382	0.994481
886.908768	0.994666
887.218113	0.994079
887.527417	0.996471
887.836680	0.997209
888.145901	0.997162
888.455082	0.997578
888.764221	0.996694
889.073319	0.995975
889.382376	0.998057
889.691392	0.996640
890.000366	0.998124
890.309300	0.997822
890.618193	0.997384
890.927044	0.996872
891.235855	0.996421
891.544625	0.996466
891.853353	0.997018
892.162041	0.996222
892.470687	0.997085
892.779293	0.995817
893.087858	0.993951
893.396381	0.994547
893.704864	0.993925
894.013306	0.992507
894.321707	0.989665
894.630068	0.987639
894.938387	0.986079
895.246665	0.986722
895.554903	0.987745
895.863100	0.989396
896.171256	0.989658
896.479371	0.991702
896.787446	0.993483
897.095480	0.992829
897.403473	0.994149
897.711425	0.994942
898.019336	0.995623
898.327207	0.996255
898.635038	0.995659
898.942827	0.997441
899.250576	0.996263
899.558284	0.997625
899.865952	0.996217
900.173579	0.997878
900.481165	0.996796
900.788711	0.996889
901.096216	0.997180
901.403681	0.996802
901.711105	0.997193
902.018489	0.997215
902.325832	0.997360
902.633135	0.997299
902.940397	0.996586
903.247619	0.996378
903.554800	0.993857
903.861941	0.989452
904.169041	0.985998
904.476101	0.984377
904.783121	0.982970
905.090100	0.985780
905.397039	0.986534
905.703938	0.990145
906.010796	0.991783
906.317614	0.992660
906.624391	0.994733
906.931129	0.995005
907.237826	0.996679
907.544483	0.996632
907.851099	0.996965
908.157675	0.997140
908.464211	0.998493
908.770707	0.997338
909.077163	0.998363
909.383578	0.998418
909.689954	0.999105
909.996289	0.999226
910.302584	0.999423
910.608839	0.999841
910.915054	0.998169
911.221229	1.000129
911.527363	0.997905
911.833458	0.998962
912.139513	0.998102
912.445527	0.998983
912.751502	0.998676
913.057436	0.997372
913.363331	0.998288
913.669186	0.998396
913.975000	0.997743
914.280775	0.997193
914.586510	0.995525
914.892205	0.992859
915.197859	0.991422
915.503475	0.989752
915.809050	0.987393
916.114585	0.984162
916.420081	0.982957
916.725536	0.983718
917.030952	0.985519
917.336328	0.986914
917.641665	0.987725
917.946961	0.989247
918.252218	0.991267
918.557435	0.992220
918.862612	0.994122
919.167750	0.994594
919.472848	0.994850
919.777906	0.996375
920.082925	0.996592
920.387904	0.996141
920.692843	0.996913
920.997743	0.997124
921.302603	0.998176
921.607423	0.996682
921.912204	0.997912
922.216946	0.998807
922.521647	0.998739
922.826310	0.997762
923.130932	0.998789
923.435516	0.999724
923.740059	0.998996
924.044564	0.998787
924.349028	0.998022
924.653454	0.999779
924.957840	0.998110
925.262186	0.999005
925.566493	0.998890
925.870761	0.998905
926.174989	0.998647
926.479178	1.000631
926.783328	1.000163
927.087438	1.000137
927.391509	0.999478
927.695541	1.000270
927.999533	1.000465
928.303486	1.000686
928.607400	1.000975
928.911275	1.001629
929.215110	1.000958
929.518906	1.000667
929.822663	1.001291
930.126381	1.001462
930.430060	0.999409
930.733699	1.000932
931.037299	1.000610
931.340861	1.000689
931.644383	0.999106
931.947866	1.000316
932.251309	1.000630
932.554714	0.999227
932.858080	1.001203
933.161407	1.000107
933.464694	1.000591
933.767943	0.999945
934.071153	1.000844
934.374323	1.000895
934.677455	0.999849
934.980548	1.000945
935.283602	1.000823
935.586617	1.001013
935.889593	1.000803
936.192530	1.000199
936.495428	0.999887
936.798287	0.999262
937.101108	1.000159
937.403890	1.001311
937.706632	1.001270
938.009336	1.000183
938.312002	0.999550
938.614628	1.000637
938.917216	0.997897
939.219765	0.998549
939.522275	1.000105
939.824747	0.999296
940.127179	0.999378
940.429573	1.000379
940.731929	0.999182
941.034246	0.998888
941.336524	0.999350
941.638763	0.999678
941.940964	0.998713
942.243126	0.999704
942.545250	1.000149
942.847335	0.999355
943.149381	0.999744
943.451389	0.999993
943.753359	0.999726
944.055290	1.000472
944.357182	0.999866
944.659036	0.999516
944.960851	1.001402
945.262628	0.999706
945.564367	1.000481
945.866067	0.999201
946.167729	0.999542
946.469352	1.000426
946.770937	0.998177
947.072484	1.000394
947.373992	0.999828
947.675462	0.999803
947.976893	0.999768
948.278286	1.002280
948.579641	1.001227
948.880958	1.000659
949.182236	1.000418
949.483476	1.000758
949.784678	1.000143
950.085841	0.999847
950.386967	0.999980
950.688054	1.000151
950.989103	0.999345
951.290114	0.998862
951.591087	1.000301
951.892021	0.999206
952.192917	0.999491
952.493776	0.999674
952.794596	0.999788
953.095378	0.999774
953.396122	0.999831
953.696828	0.998637
953.997496	1.001275
954.298126	1.001306
954.598718	0.999450
954.899272	1.000746
955.199788	0.999325
955.500266	1.001954
955.800706	1.000785
956.101108	1.000595
956.401472	1.002624
956.701798	1.002068
957.002087	1.000776
957.302337	1.001453
957.602550	1.001339
957.902724	1.001943
958.202861	1.000129
958.502960	1.000598
958.803022	1.001006
959.103045	1.000926
959.403031	1.002111
959.702979	1.001095
960.002889	1.001824
960.302762	1.000539
960.602596	1.003028
960.902393	1.001337
961.202153	1.001857
961.501875	1.001921
961.801559	1.001794
962.101205	1.001158
962.400814	1.002228
962.700385	1.002034
962.999918	1.000298
963.299414	1.001645
963.598873	1.001407
963.898293	1.002111
964.197677	1.000229
964.497022	1.001160
964.796331	1.002354
965.095601	1.003123
965.394835	1.001294
965.694030	1.003600
965.993189	1.001795
966.292309	1.002633
966.591393	0.999469
966.890439	1.001811
967.189447	1.001014
967.488419	1.000115
967.787353	1.001253
968.086249	1.001091
968.385108	1.001116
968.683930	1.002004
968.982714	1.001276
969.281462	1.001172
969.580172	1.001080
969.878844	1.002759
970.177480	1.002461
970.476078	1.002213
970.774639	1.000638
971.073162	1.000564
971.371649	1.000937
971.670098	1.000616
971.968510	1.001614
972.266885	1.001324
972.565223	1.000704
972.863524	1.000568
973.161788	1.001575
973.460014	1.002501
973.758204	1.000828
974.056356	1.001628
974.354471	1.001448
974.652550	1.002185
974.950591	1.001806
975.248595	1.000337
975.546563	1.001524
975.844493	1.002053
976.142386	1.000431
976.440243	1.002895
976.738062	1.002316
977.035845	1.000759
977.333590	1.001437
977.631299	1.001495
977.928971	1.002116
978.226606	1.001031
978.524204	1.000656
978.821765	1.002000
979.119290	1.001258
979.416777	1.002257
979.714228	1.002308
980.011642	1.002805
980.309020	1.001568
980.606360	1.001339
980.903664	1.001890
981.200931	1.000783
981.498162	1.001107
981.795356	1.002007
982.092513	1.001461
982.389633	1.001488
982.686717	0.999139
982.983764	1.000572
983.280775	1.001022
983.577749	1.001644
983.874686	1.000288
984.171587	1.000168
984.468451	1.002075
984.765279	1.002420
985.062070	1.002352
985.358824	1.001465
985.655543	1.001238
985.952224	1.002138
986.248869	1.001023
986.545478	1.004369
986.842050	1.001389
987.138586	1.001917
987.435086	1.001152
987.731549	1.001968
988.027975	1.003283
988.324366	1.001569
988.620719	1.002114
988.917037	1.001430
989.213318	1.002609
989.509563	1.002173
989.805772	1.002587
990.101944	1.002927
990.398080	1.001780
990.694180	1.003742
990.990244	1.000953
991.286271	1.001221
991.582262	1.002158
991.878217	1.002444
992.174136	1.002684
992.470019	1.001636
992.765865	1.003817
993.061676	1.002512
993.357450	1.001922
993.653188	1.002861
993.948890	1.002845
994.244556	1.001826
994.540186	1.002615
994.835780	1.002402
995.131337	1.002960
995.426859	1.001444
995.722345	1.002091
996.017795	1.002437
996.313208	1.001764
996.608586	1.001020
996.903928	1.002618
997.199234	1.001154
997.494504	1.002408
997.789738	1.000705
998.084936	1.001876
998.380099	1.001338
998.675225	1.002871
998.970316	1.002573
999.265371	1.002876
999.560390	1.001495
999.855373	1.002052
1000.150320	1.002999
1000.445232	1.002061
1000.740108	1.002189
1001.034948	1.001139
1001.329752	1.003284
1001.624521	1.002322
1001.919254	1.001932
1002.213951	1.002253
1002.508613	1.001890
1002.803239	1.002002
1003.097829	1.003161
1003.392384	1.002297
1003.686903	1.001846
1003.981386	1.002358
1004.275834	1.003735
1004.570246	1.001759
1004.864623	1.002916
1005.158964	1.002001
1005.453270	1.001938
1005.747540	1.002151
1006.041775	1.003313
1006.335974	1.002694
1006.630138	1.002794
1006.924266	1.000808
1007.218359	1.000879
1007.512416	1.003631
1007.806438	1.001813
1008.100425	1.002239
1008.394376	1.003414
1008.688292	1.001842
1008.982172	1.002156
1009.276017	1.002501
1009.569827	1.004294
1009.863602	1.000326
1010.157341	1.002420
1010.451045	1.002305
1010.744714	1.002787
1011.038347	1.003652
1011.331945	1.000978
1011.625508	1.001977
1011.919036	1.002787
1012.212528	1.002142
1012.505986	1.002646
1012.799408	1.002989
1013.092795	1.002245
1013.386147	1.002108
1013.679464	1.002776
1013.972745	1.002503
1014.265992	1.002379
1014.559204	1.001887
1014.852380	1.002304
1015.145521	1.003014
1015.438628	1.001993
1015.731699	1.001966
1016.024736	1.003078
1016.317737	1.003307
1016.610703	1.002373
1016.903635	1.001907
1017.196531	1.001083
1017.489393	1.001927
1017.782219	1.002363
1018.075011	1.002008
1018.367768	1.001911
1018.660490	1.002226
1018.953177	1.002226
1019.245829	1.002226
