Dividing Wavelength (nm)	Counts (n)	Blue Motor Position (mm): 6.000000	Red Motor Position (mm): 0.000000	
326.493990	1.006085
326.888308	1.006085
327.282561	1.006085
327.676750	1.005989
328.070874	1.005850
328.464933	1.005814
328.858929	1.006032
329.252859	1.005214
329.646726	1.005067
330.040528	1.006450
330.434265	1.005099
330.827938	1.004940
331.221547	1.004848
331.615091	1.005321
332.008571	1.005877
332.401986	1.004507
332.795338	1.003854
333.188625	1.006407
333.581847	1.006324
333.975006	1.005748
334.368100	1.005165
334.761129	1.003688
335.154095	1.005422
335.546996	1.003469
335.939833	0.998407
336.332606	0.999655
336.725315	0.997364
337.117960	0.999732
337.510540	0.998820
337.903056	0.999565
338.295508	0.999933
338.687896	0.998529
339.080220	0.998599
339.472480	0.998362
339.864676	0.999181
340.256807	0.997938
340.648875	0.998785
341.040879	0.998523
341.432818	0.999892
341.824694	0.998511
342.216506	0.999194
342.608253	0.998475
342.999937	0.998527
343.391557	0.998742
343.783113	1.000676
344.174605	0.999805
344.566033	0.998730
344.957397	0.999501
345.348697	0.999747
345.739934	0.998844
346.131106	0.997709
346.522215	0.997827
346.913260	0.998331
347.304241	0.997787
347.695159	0.999168
348.086012	0.998703
348.476802	0.998706
348.867528	0.997571
349.258191	0.998564
349.648789	0.998906
350.039324	0.999978
350.429796	0.997304
350.820203	0.997273
351.210548	0.998364
351.600828	0.997955
351.991045	0.998977
352.381198	0.998153
352.771288	0.997932
353.161314	0.998035
353.551276	0.997753
353.941175	0.996529
354.331010	0.997557
354.720782	0.997638
355.110490	0.997303
355.500135	0.997949
355.889717	0.996995
356.279235	0.997101
356.668689	0.998115
357.058080	0.997899
357.447408	0.997080
357.836672	0.997113
358.225873	0.997955
358.615010	0.997282
359.004084	0.995888
359.393095	0.998109
359.782043	0.997201
360.170927	0.996905
360.559748	0.998557
360.948505	0.997161
361.337199	0.996189
361.725830	0.997570
362.114398	0.996968
362.502903	0.995368
362.891344	0.995445
363.279722	0.996949
363.668037	0.997652
364.056289	0.995450
364.444478	0.997962
364.832603	0.995376
365.220665	0.997131
365.608665	0.995779
365.996601	0.996814
366.384474	0.995408
366.772284	0.995727
367.160031	0.994022
367.547715	0.994835
367.935336	0.994000
368.322893	0.993602
368.710388	0.991463
369.097820	0.991314
369.485189	0.987922
369.872495	0.987164
370.259738	0.984452
370.646918	0.980629
371.034035	0.978682
371.421090	0.975533
371.808081	0.970936
372.195010	0.968241
372.581875	0.963526
372.968678	0.959220
373.355418	0.955079
373.742096	0.947929
374.128710	0.942902
374.515262	0.938347
374.901751	0.933989
375.288177	0.927334
375.674540	0.921820
376.060841	0.914512
376.447079	0.908973
376.833254	0.901679
377.219367	0.896923
377.605417	0.885341
377.991404	0.882646
378.377329	0.875423
378.763191	0.870065
379.148991	0.861263
379.534727	0.852670
379.920402	0.844413
380.306013	0.841491
380.691563	0.829497
381.077049	0.822525
381.462474	0.819155
381.847835	0.806500
382.233134	0.801955
382.618371	0.801706
383.003545	0.785027
383.388657	0.782778
383.773706	0.774659
384.158693	0.771070
384.543618	0.765239
384.928480	0.757131
385.313280	0.745988
385.698017	0.746689
386.082692	0.734755
386.467305	0.733751
386.851856	0.727768
387.236344	0.722550
387.620770	0.716815
388.005133	0.711519
388.389435	0.705808
388.773674	0.702879
389.157851	0.695925
389.541965	0.692223
389.926018	0.699206
390.310008	0.684996
390.693936	0.683323
391.077802	0.675161
391.461606	0.676321
391.845348	0.665607
392.229027	0.665018
392.612645	0.663862
392.996200	0.650989
393.379694	0.643325
393.763125	0.634241
394.146494	0.637744
394.529801	0.629450
394.913047	0.621226
395.296230	0.627086
395.679351	0.618238
396.062410	0.615388
396.445408	0.618110
396.828343	0.613492
397.211217	0.607988
397.594028	0.620228
397.976778	0.610789
398.359466	0.607119
398.742092	0.602759
399.124656	0.615121
399.507158	0.603551
399.889598	0.599811
400.271977	0.591478
400.654294	0.594460
401.036549	0.594144
401.418742	0.598251
401.800874	0.584330
402.182944	0.581349
402.564952	0.573019
402.946898	0.574850
403.328783	0.575818
403.710606	0.586916
404.092367	0.561448
404.474067	0.567015
404.855705	0.564726
405.237282	0.574285
405.618797	0.560508
406.000250	0.556342
406.381642	0.546760
406.762972	0.552025
407.144240	0.549496
407.525447	0.549745
407.906593	0.542181
408.287677	0.538169
408.668700	0.546710
409.049661	0.540361
409.430560	0.536061
409.811399	0.544087
410.192176	0.525982
410.572891	0.533334
410.953545	0.521364
411.334138	0.535625
411.714669	0.526995
412.095139	0.539493
412.475547	0.523481
412.855894	0.525612
413.236180	0.524650
413.616405	0.529500
413.996568	0.520159
414.376670	0.526368
414.756711	0.531794
415.136691	0.528268
415.516609	0.519373
415.896466	0.516009
416.276262	0.512212
416.655997	0.513264
417.035670	0.495149
417.415283	0.487021
417.794834	0.492444
418.174324	0.497453
418.553753	0.506282
418.933121	0.488146
419.312428	0.482333
419.691674	0.487668
420.070859	0.476280
420.449983	0.484350
420.829045	0.473415
421.208047	0.482079
421.586988	0.475417
421.965867	0.474235
422.344686	0.462801
422.723444	0.475608
423.102141	0.492830
423.480777	0.465254
423.859352	0.486147
424.237866	0.463619
424.616319	0.464430
424.994712	0.454832
425.373044	0.465623
425.751314	0.453721
426.129524	0.470783
426.507673	0.453840
426.885762	0.447051
427.263789	0.453088
427.641756	0.462524
428.019662	0.452688
428.397508	0.452289
428.775292	0.456297
429.153016	0.448372
429.530679	0.454492
429.908282	0.448098
430.285824	0.457925
430.663305	0.436232
431.040726	0.457198
431.418086	0.457426
431.795385	0.448890
432.172624	0.447704
432.549802	0.448145
432.926920	0.447512
433.303977	0.446831
433.680974	0.443580
434.057910	0.442396
434.434786	0.441208
434.811601	0.444461
435.188355	0.427044
435.565050	0.436315
435.941683	0.437681
436.318257	0.421184
436.694770	0.422177
437.071222	0.420305
437.447614	0.424896
437.823946	0.430983
438.200218	0.420676
438.576429	0.429925
438.952580	0.423048
439.328670	0.419857
439.704700	0.426683
440.080670	0.427723
440.456580	0.409104
440.832429	0.416917
441.208218	0.428068
441.583947	0.416946
441.959616	0.416556
442.335224	0.421939
442.710773	0.412466
443.086261	0.410764
443.461689	0.424151
443.837057	0.414012
444.212365	0.404329
444.587612	0.411623
444.962800	0.401526
445.337927	0.403356
445.712995	0.428745
446.088002	0.390921
446.462949	0.401376
446.837837	0.406420
447.212664	0.394991
447.587431	0.386763
447.962139	0.356768
448.336786	0.315720
448.711374	0.325987
449.085901	0.370973
449.460369	0.374723
449.834776	0.378279
450.209124	0.357558
450.583412	0.350288
450.957640	0.343198
451.331808	0.355094
451.705917	0.377993
452.079965	0.382431
452.453954	0.371261
452.827883	0.377566
453.201752	0.372479
453.575562	0.384294
453.949311	0.372311
454.323001	0.378434
454.696632	0.374848
455.070202	0.367019
455.443713	0.359128
455.817164	0.353290
456.190556	0.349314
456.563888	0.346461
456.937160	0.343586
457.310373	0.361385
457.683526	0.359656
458.056619	0.365691
458.429653	0.365684
458.802628	0.369753
459.175542	0.363803
459.548398	0.346549
459.921194	0.339002
460.293930	0.338978
460.666607	0.316624
461.039224	0.304683
461.411782	0.300227
461.784280	0.299680
462.156719	0.303740
462.529099	0.308109
462.901419	0.324039
463.273680	0.328523
463.645882	0.327710
464.018024	0.334159
464.390106	0.326949
464.762130	0.311215
465.134094	0.294159
465.505999	0.263376
465.877845	0.233765
466.249631	0.220566
466.621358	0.227878
466.993026	0.241753
467.364634	0.248350
467.736184	0.256887
468.107674	0.265689
468.479105	0.264998
468.850477	0.271175
469.221790	0.278341
469.593043	0.288804
469.964238	0.293618
470.335373	0.292732
470.706449	0.291155
471.077467	0.291846
471.448425	0.253693
471.819324	0.229284
472.190164	0.228586
472.560945	0.257547
472.931667	0.280063
473.302330	0.283792
473.672934	0.295969
474.043479	0.284063
474.413965	0.286259
474.784393	0.289224
475.154761	0.284264
475.525070	0.281406
475.895321	0.287228
476.265513	0.281497
476.635645	0.276866
477.005719	0.276612
477.375734	0.273241
477.745691	0.266205
478.115588	0.262657
478.485427	0.256327
478.855207	0.243102
479.224928	0.225554
479.594591	0.213741
479.964194	0.216973
480.333739	0.218363
480.703226	0.219705
481.072653	0.218146
481.442022	0.213840
481.811333	0.210611
482.180584	0.214051
482.549777	0.219364
482.918912	0.222755
483.287988	0.222329
483.657005	0.221915
484.025964	0.228427
484.394864	0.225576
484.763706	0.226359
485.132489	0.231377
485.501213	0.232198
485.869879	0.230460
486.238487	0.233580
486.607036	0.231734
486.975527	0.236359
487.343959	0.232229
487.712333	0.231094
488.080648	0.232662
488.448905	0.231785
488.817104	0.232932
489.185244	0.227347
489.553326	0.224384
489.921350	0.214222
490.289315	0.196568
490.657222	0.191592
491.025070	0.193035
491.392861	0.194893
491.760593	0.200547
492.128267	0.206286
492.495883	0.211731
492.863440	0.218306
493.230939	0.224626
493.598380	0.226018
493.965763	0.228064
494.333088	0.230317
494.700354	0.232042
495.067563	0.230650
495.434713	0.234300
495.801805	0.232099
496.168839	0.233616
496.535815	0.235163
496.902733	0.234944
497.269593	0.236509
497.636395	0.234149
498.003139	0.234488
498.369825	0.237558
498.736453	0.234124
499.103023	0.235663
499.469535	0.235041
499.835989	0.235272
500.202385	0.236054
500.568723	0.239360
500.935003	0.234309
501.301226	0.238536
501.667390	0.232885
502.033497	0.231015
502.399546	0.233861
502.765537	0.235827
503.131470	0.234357
503.497345	0.230684
503.863163	0.239208
504.228923	0.232359
504.594625	0.230723
504.960269	0.236476
505.325856	0.232062
505.691385	0.236022
506.056856	0.232758
506.422270	0.232388
506.787625	0.234664
507.152924	0.232356
507.518164	0.232426
507.883347	0.234350
508.248472	0.235995
508.613540	0.230953
508.978550	0.233348
509.343503	0.233791
509.708398	0.231722
510.073236	0.229351
510.438016	0.228722
510.802738	0.230071
511.167403	0.229000
511.532010	0.231349
511.896561	0.226304
512.261053	0.225061
512.625488	0.227196
512.989866	0.227486
513.354186	0.227823
513.718449	0.229908
514.082655	0.226027
514.446803	0.228026
514.810894	0.226003
515.174927	0.228989
515.538904	0.228074
515.902822	0.225081
516.266684	0.227552
516.630488	0.228791
516.994235	0.227573
517.357925	0.226383
517.721558	0.224574
518.085133	0.224031
518.448651	0.223971
518.812112	0.226371
519.175516	0.225791
519.538863	0.223756
519.902152	0.225493
520.265385	0.221988
520.628560	0.223842
520.991678	0.224140
521.354739	0.223195
521.717743	0.224058
522.080690	0.224486
522.443580	0.221997
522.806413	0.222904
523.169189	0.222279
523.531908	0.221103
523.894569	0.224717
524.257174	0.224645
524.619722	0.222152
524.982213	0.223413
525.344647	0.222229
525.707025	0.223315
526.069345	0.221548
526.431608	0.223214
526.793815	0.221142
527.155964	0.225196
527.518057	0.224236
527.880093	0.225068
528.242072	0.223599
528.603995	0.225631
528.965860	0.227559
529.327669	0.226190
529.689421	0.226881
530.051117	0.227944
530.412755	0.225751
530.774337	0.227987
531.135862	0.228254
531.497331	0.227910
531.858743	0.230539
532.220098	0.227112
532.581396	0.229809
532.942638	0.230258
533.303824	0.231329
533.664953	0.230894
534.026025	0.232879
534.387040	0.230684
534.747999	0.230710
535.108902	0.229412
535.469748	0.234586
535.830537	0.232362
536.191270	0.232808
536.551947	0.232313
536.912567	0.232283
537.273131	0.233850
537.633638	0.234430
537.994089	0.234727
538.354483	0.235838
538.714821	0.232519
539.075103	0.232409
539.435328	0.233361
539.795497	0.237061
540.155609	0.233566
540.515665	0.231652
540.875665	0.237298
541.235609	0.236083
541.595496	0.235720
541.955328	0.232425
542.315102	0.235347
542.674821	0.236333
543.034483	0.236557
543.394090	0.235983
543.753640	0.238051
544.113134	0.232817
544.472571	0.236471
544.831953	0.232847
545.191278	0.237338
545.550548	0.236558
545.909761	0.233423
546.268918	0.234141
546.628019	0.232520
546.987064	0.235075
547.346053	0.237089
547.704986	0.234857
548.063863	0.234855
548.422684	0.235566
548.781449	0.237141
549.140158	0.234910
549.498811	0.237459
549.857408	0.240649
550.215949	0.235357
550.574434	0.238510
550.932864	0.236602
551.291237	0.235187
551.649555	0.236711
552.007817	0.236209
552.366022	0.237147
552.724173	0.237486
553.082267	0.237651
553.440305	0.234332
553.798288	0.239063
554.156215	0.235620
554.514086	0.236247
554.871902	0.239360
555.229661	0.238457
555.587365	0.239153
555.945014	0.241843
556.302606	0.238838
556.660143	0.241437
557.017625	0.237869
557.375050	0.240002
557.732421	0.237007
558.089735	0.238874
558.446994	0.238921
558.804197	0.238143
559.161345	0.237851
559.518437	0.241381
559.875474	0.239510
560.232455	0.238839
560.589381	0.240092
560.946251	0.240215
561.303065	0.237568
561.659825	0.239126
562.016528	0.240729
562.373177	0.243281
562.729770	0.240686
563.086307	0.242682
563.442789	0.240682
563.799216	0.243004
564.155587	0.242124
564.511904	0.243412
564.868164	0.243227
565.224370	0.243173
565.580520	0.245005
565.936615	0.245069
566.292654	0.247743
566.648638	0.244716
567.004567	0.245713
567.360441	0.246411
567.716260	0.248413
568.072023	0.245925
568.427732	0.246708
568.783385	0.249468
569.138982	0.247370
569.494525	0.247180
569.850013	0.250155
570.205445	0.248264
570.560823	0.250700
570.916145	0.253012
571.271412	0.251106
571.626625	0.252835
571.981782	0.253176
572.336884	0.254094
572.691931	0.253697
573.046923	0.255076
573.401860	0.256254
573.756743	0.258221
574.111570	0.256700
574.466342	0.257555
574.821059	0.256470
575.175722	0.259371
575.530330	0.258917
575.884882	0.259031
576.239380	0.260935
576.593823	0.261911
576.948211	0.261454
577.302544	0.264325
577.656823	0.264216
578.011047	0.263985
578.365216	0.265044
578.719330	0.267006
579.073389	0.266633
579.427394	0.267758
579.781344	0.268740
580.135239	0.270466
580.489080	0.270034
580.842866	0.273153
581.196597	0.272936
581.550273	0.271288
581.903895	0.272635
582.257463	0.270541
582.610975	0.273899
582.964434	0.273416
583.317837	0.275797
583.671186	0.276431
584.024481	0.275818
584.377721	0.278689
584.730906	0.279103
585.084037	0.278841
585.437113	0.280644
585.790135	0.279943
586.143103	0.282937
586.496016	0.283832
586.848874	0.281300
587.201679	0.281791
587.554428	0.285405
587.907124	0.284120
588.259765	0.285046
588.612352	0.285758
588.964884	0.289231
589.317362	0.288912
589.669786	0.288817
590.022155	0.286931
590.374470	0.286814
590.726731	0.288607
591.078937	0.293647
591.431090	0.290002
591.783188	0.293980
592.135232	0.294830
592.487222	0.294426
592.839157	0.292908
593.191038	0.294718
593.542866	0.296753
593.894639	0.300248
594.246358	0.298687
594.598022	0.298261
594.949633	0.301559
595.301190	0.302519
595.652692	0.301450
596.004141	0.297542
596.355535	0.305523
596.706876	0.306181
597.058162	0.308553
597.409395	0.305750
597.760573	0.303594
598.111698	0.306696
598.462768	0.307382
598.813785	0.308280
599.164748	0.309733
599.515657	0.310381
599.866511	0.313774
600.217312	0.309167
600.568060	0.314251
600.918753	0.310414
601.269392	0.311610
601.619978	0.314431
601.970510	0.312286
602.320988	0.312182
602.671412	0.310223
603.021783	0.312995
603.372100	0.313866
603.722363	0.313716
604.072572	0.314818
604.422728	0.314062
604.772830	0.316580
605.122878	0.315861
605.472872	0.316610
605.822813	0.315162
606.172701	0.317817
606.522534	0.314997
606.872314	0.315277
607.222041	0.315966
607.571714	0.313935
607.921333	0.315773
608.270899	0.315557
608.620411	0.312080
608.969870	0.315920
609.319276	0.316010
609.668627	0.315965
610.017926	0.314265
610.367171	0.312909
610.716362	0.313679
611.065500	0.313854
611.414585	0.312881
611.763616	0.312894
612.112594	0.313724
612.461518	0.313089
612.810389	0.310896
613.159207	0.312853
613.507971	0.314799
613.856682	0.310864
614.205340	0.311959
614.553945	0.309261
614.902496	0.313078
615.250994	0.310895
615.599439	0.311547
615.947830	0.310946
616.296169	0.311873
616.644454	0.312010
616.992686	0.311411
617.340864	0.309953
617.688990	0.312759
618.037063	0.309538
618.385082	0.311302
618.733048	0.308470
619.080961	0.310727
619.428821	0.310089
619.776628	0.309828
620.124382	0.311891
620.472083	0.312477
620.819731	0.311417
621.167326	0.315806
621.514868	0.315000
621.862357	0.319726
622.209793	0.318906
622.557176	0.321368
622.904506	0.322320
623.251783	0.324838
623.599007	0.327152
623.946179	0.325965
624.293297	0.328673
624.640363	0.332745
624.987376	0.333211
625.334336	0.335002
625.681243	0.337960
626.028097	0.338604
626.374899	0.339281
626.721647	0.340181
627.068343	0.342560
627.414987	0.344149
627.761577	0.345949
628.108115	0.344279
628.454600	0.349451
628.801032	0.347088
629.147412	0.348828
629.493739	0.349722
629.840014	0.352444
630.186236	0.349735
630.532405	0.355785
630.878521	0.352788
631.224585	0.354887
631.570597	0.358800
631.916556	0.357409
632.262462	0.357093
632.608316	0.359535
632.954117	0.360252
633.299866	0.360968
633.645562	0.361628
633.991206	0.365567
634.336797	0.368484
634.682336	0.371415
635.027823	0.372748
635.373257	0.373315
635.718639	0.377158
636.063968	0.376214
636.409245	0.381511
636.754470	0.382167
637.099642	0.384753
637.444762	0.388241
637.789829	0.387164
638.134845	0.390983
638.479808	0.391918
638.824719	0.391235
639.169577	0.395558
639.514383	0.394349
639.859137	0.398829
640.203839	0.398618
640.548489	0.399335
640.893086	0.400160
641.237632	0.401804
641.582125	0.400649
641.926566	0.403106
642.270955	0.401958
642.615292	0.402724
642.959576	0.401556
643.303809	0.402176
643.647990	0.402303
643.992118	0.402780
644.336195	0.405410
644.680219	0.403821
645.024192	0.404931
645.368112	0.398981
645.711981	0.397373
646.055797	0.392737
646.399562	0.395164
646.743274	0.388003
647.086935	0.384728
647.430544	0.384948
647.774101	0.383643
648.117606	0.383682
648.461059	0.384019
648.804460	0.386334
649.147810	0.391763
649.491108	0.393086
649.834354	0.394761
650.177548	0.400543
650.520690	0.405561
650.863781	0.406545
651.206820	0.405703
651.549807	0.410319
651.892742	0.414781
652.235626	0.413814
652.578458	0.415166
652.921238	0.421774
653.263967	0.419153
653.606644	0.422743
653.949269	0.423140
654.291843	0.426688
654.634365	0.423691
654.976836	0.426686
655.319255	0.427220
655.661622	0.428358
656.003938	0.428328
656.346203	0.431122
656.688416	0.429403
657.030577	0.432176
657.372687	0.434812
657.714746	0.435542
658.056753	0.432697
658.398708	0.436227
658.740612	0.437634
659.082465	0.433289
659.424266	0.434542
659.766016	0.433832
660.107715	0.436670
660.449362	0.435320
660.790958	0.435888
661.132503	0.437294
661.473996	0.434054
661.815438	0.435052
662.156829	0.435231
662.498168	0.436028
662.839456	0.437012
663.180693	0.435544
663.521879	0.434487
663.863013	0.435869
664.204097	0.434443
664.545129	0.431091
664.886110	0.431913
665.227040	0.429416
665.567918	0.431559
665.908746	0.429432
666.249522	0.429253
666.590248	0.430218
666.930922	0.427831
667.271545	0.427143
667.612118	0.427563
667.952639	0.429118
668.293109	0.426986
668.633528	0.430618
668.973896	0.430605
669.314213	0.430737
669.654480	0.432507
669.994695	0.432670
670.334859	0.433473
670.674973	0.434244
671.015035	0.433578
671.355047	0.433734
671.695008	0.434754
672.034918	0.436449
672.374777	0.435682
672.714585	0.437104
673.054342	0.437089
673.394049	0.437033
673.733705	0.435213
674.073310	0.436600
674.412864	0.439232
674.752368	0.439798
675.091820	0.440125
675.431223	0.444567
675.770574	0.443643
676.109875	0.447024
676.449125	0.446781
676.788324	0.449485
677.127473	0.454643
677.466571	0.454480
677.805619	0.456550
678.144616	0.457450
678.483562	0.459295
678.822458	0.462020
679.161303	0.462319
679.500098	0.462889
679.838842	0.464694
680.177535	0.464285
680.516179	0.462535
680.854771	0.462030
681.193314	0.455315
681.531805	0.446704
681.870247	0.434858
682.208638	0.427554
682.546978	0.426808
682.885268	0.428396
683.223508	0.434146
683.561697	0.438191
683.899836	0.440894
684.237925	0.444253
684.575963	0.447166
684.913951	0.449853
685.251889	0.446113
685.589776	0.447589
685.927614	0.450286
686.265401	0.444264
686.603137	0.445405
686.940824	0.440050
687.278460	0.438312
687.616046	0.437261
687.953582	0.432156
688.291068	0.433819
688.628504	0.429059
688.965889	0.432195
689.303224	0.435345
689.640510	0.439648
689.977745	0.444996
690.314930	0.453080
690.652065	0.457819
690.989150	0.465133
691.326185	0.472115
691.663170	0.477049
692.000105	0.484027
692.336990	0.490345
692.673825	0.493579
693.010610	0.499708
693.347345	0.506163
693.684030	0.507378
694.020665	0.512227
694.357251	0.520553
694.693786	0.520479
695.030272	0.523542
695.366707	0.528508
695.703093	0.531771
696.039429	0.529174
696.375716	0.531744
696.711952	0.534356
697.048139	0.535609
697.384276	0.537711
697.720363	0.536371
698.056400	0.534845
698.392388	0.540779
698.728326	0.543025
699.064214	0.546525
699.400053	0.547044
699.735842	0.551562
700.071581	0.553457
700.407270	0.556697
700.742910	0.559867
701.078501	0.565348
701.414042	0.566076
701.749533	0.568845
702.084974	0.578662
702.420366	0.570330
702.755709	0.578203
703.091002	0.585750
703.426246	0.578877
703.761440	0.584978
704.096584	0.589424
704.431679	0.587135
704.766725	0.589620
705.101721	0.591206
705.436668	0.586798
705.771565	0.593598
706.106413	0.589881
706.441212	0.586335
706.775961	0.584948
707.110661	0.587017
707.445311	0.583988
707.779913	0.581585
708.114465	0.579699
708.448967	0.576743
708.783421	0.568638
709.117825	0.562958
709.452180	0.563151
709.786485	0.556917
710.120742	0.546241
710.454949	0.548419
710.789107	0.540149
711.123216	0.531219
711.457275	0.532642
711.791286	0.524670
712.125247	0.523828
712.459159	0.533361
712.793023	0.525426
713.126837	0.530414
713.460602	0.531415
713.794318	0.539568
714.127985	0.538668
714.461602	0.549188
714.795171	0.552448
715.128691	0.560094
715.462162	0.567122
715.795584	0.573667
716.128957	0.575920
716.462281	0.583124
716.795556	0.586707
717.128782	0.591863
717.461960	0.601624
717.795088	0.600015
718.128167	0.605918
718.461198	0.614172
718.794180	0.615188
719.127113	0.617494
719.459997	0.621063
719.792833	0.627446
720.125619	0.628327
720.458357	0.634697
720.791046	0.635029
721.123686	0.637501
721.456278	0.645428
721.788821	0.642101
722.121315	0.647697
722.453761	0.650894
722.786158	0.647786
723.118506	0.645143
723.450805	0.652276
723.783056	0.649507
724.115259	0.646388
724.447412	0.646256
724.779518	0.647013
725.111574	0.645218
725.443582	0.641238
725.775542	0.643828
726.107453	0.636014
726.439315	0.636125
726.771129	0.634346
727.102895	0.627086
727.434612	0.620607
727.766281	0.619070
728.097901	0.617721
728.429473	0.616857
728.760996	0.616138
729.092471	0.616064
729.423897	0.619545
729.755276	0.618409
730.086606	0.618358
730.417887	0.614353
730.749120	0.603823
731.080305	0.595360
731.411442	0.591324
731.742530	0.595151
732.073570	0.595500
732.404562	0.587378
732.735506	0.588785
733.066401	0.593391
733.397249	0.602599
733.728048	0.614798
734.058798	0.627137
734.389501	0.637661
734.720156	0.648137
735.050762	0.655383
735.381320	0.656556
735.711831	0.664496
736.042293	0.670052
736.372707	0.666856
736.703073	0.670414
737.033391	0.672944
737.363661	0.670648
737.693883	0.665940
738.024056	0.664164
738.354182	0.664627
738.684260	0.654289
739.014290	0.650776
739.344272	0.650993
739.674207	0.644274
740.004093	0.643842
740.333931	0.644135
740.663722	0.643736
740.993464	0.645233
741.323159	0.647852
741.652806	0.653270
741.982405	0.658217
742.311956	0.663704
742.641460	0.665213
742.970915	0.668778
743.300323	0.675968
743.629683	0.682710
743.958996	0.684649
744.288260	0.688529
744.617477	0.695077
744.946647	0.696294
745.275768	0.702889
745.604842	0.702054
745.933869	0.712199
746.262847	0.713708
746.591778	0.705571
746.920662	0.712902
747.249498	0.719813
747.578286	0.710960
747.907027	0.706161
748.235720	0.707198
748.564365	0.702337
748.892963	0.701337
749.221514	0.705067
749.550017	0.709207
749.878473	0.710271
750.206881	0.717275
750.535242	0.717336
750.863555	0.716214
751.191821	0.717663
751.520039	0.721159
751.848210	0.725376
752.176334	0.718870
752.504411	0.717984
752.832440	0.725852
753.160421	0.729957
753.488356	0.727537
753.816243	0.725883
754.144082	0.733830
754.471875	0.737695
754.799620	0.733391
755.127318	0.733302
755.454969	0.734331
755.782572	0.734528
756.110129	0.738608
756.437638	0.741401
756.765100	0.738635
757.092515	0.735757
757.419882	0.735166
757.747203	0.739619
758.074477	0.740306
758.401703	0.736662
758.728882	0.731624
759.056014	0.730599
759.383099	0.729896
759.710138	0.731035
760.037129	0.726779
760.364073	0.721044
760.690970	0.723671
761.017820	0.728014
761.344623	0.724075
761.671379	0.715872
761.998088	0.704286
762.324751	0.680681
762.651366	0.638325
762.977935	0.571144
763.304456	0.519596
763.630931	0.509837
763.957359	0.548729
764.283740	0.592928
764.610074	0.620967
764.936362	0.652139
765.262602	0.679305
765.588796	0.701599
765.914943	0.717765
766.241044	0.736505
766.567097	0.742771
766.893104	0.754294
767.219064	0.759973
767.544978	0.766263
767.870845	0.780535
768.196665	0.782615
768.522438	0.782256
768.848165	0.782852
769.173846	0.792604
769.499479	0.795868
769.825066	0.800236
770.150607	0.805033
770.476101	0.800907
770.801548	0.803310
771.126949	0.813988
771.452303	0.817447
771.777611	0.816614
772.102872	0.815063
772.428087	0.820057
772.753256	0.824946
773.078378	0.826252
773.403453	0.834612
773.728482	0.838445
774.053465	0.832683
774.378401	0.835815
774.703291	0.844521
775.028135	0.844768
775.352932	0.844532
775.677683	0.850632
776.002388	0.849916
776.327046	0.849287
776.651658	0.853373
776.976224	0.857269
777.300743	0.855270
777.625216	0.858895
777.949643	0.861497
778.274024	0.860336
778.598359	0.861611
778.922647	0.859637
779.246889	0.861942
779.571086	0.865538
779.895236	0.866626
780.219339	0.864429
780.543397	0.860617
780.867409	0.859800
781.191374	0.860882
781.515294	0.862786
781.839167	0.862529
782.162995	0.864232
782.486776	0.862290
782.810511	0.862537
783.134201	0.867541
783.457844	0.866558
783.781441	0.868402
784.104993	0.873696
784.428498	0.873502
784.751958	0.870669
785.075372	0.871315
785.398739	0.875571
785.722061	0.871215
786.045337	0.868299
786.368568	0.872540
786.691752	0.873973
787.014891	0.860409
787.337983	0.851468
787.661030	0.844885
787.984031	0.827054
788.306987	0.814482
788.629897	0.813972
788.952760	0.820821
789.275579	0.823004
789.598351	0.840409
789.921078	0.852556
790.243759	0.855101
790.566395	0.860019
790.888984	0.867267
791.211529	0.872386
791.534027	0.874125
791.856480	0.878075
792.178888	0.882674
792.501249	0.884400
792.823566	0.886339
793.145836	0.886901
793.468062	0.887540
793.790241	0.888811
794.112375	0.886188
794.434464	0.882675
794.756507	0.881983
795.078505	0.880397
795.400457	0.875708
795.722364	0.863174
796.044226	0.856953
796.366042	0.854321
796.687812	0.857912
797.009538	0.853301
797.331218	0.858748
797.652852	0.862642
797.974442	0.867117
798.295986	0.868202
798.617484	0.869311
798.938938	0.874386
799.260346	0.878528
799.581709	0.880229
799.903026	0.882448
800.224299	0.884141
800.545526	0.886244
800.866708	0.890570
801.187845	0.895639
801.508936	0.894999
801.829983	0.892415
802.150984	0.896768
802.471940	0.901443
802.792851	0.900582
803.113717	0.902293
803.434538	0.900101
803.755314	0.902196
804.076045	0.903848
804.396731	0.903013
804.717372	0.901466
805.037967	0.905556
805.358518	0.904001
805.679024	0.898567
805.999485	0.900647
806.319901	0.899741
806.640272	0.902278
806.960598	0.900492
807.280879	0.897421
807.601115	0.895538
807.921306	0.899545
808.241453	0.899717
808.561554	0.897940
808.881611	0.897618
809.201623	0.898945
809.521590	0.899175
809.841513	0.901837
810.161390	0.898346
810.481223	0.901830
810.801011	0.905006
811.120755	0.907510
811.440453	0.904998
811.760107	0.905285
812.079716	0.904905
812.399281	0.907187
812.718801	0.910438
813.038276	0.910878
813.357707	0.910672
813.677093	0.908904
813.996434	0.910891
814.315731	0.913062
814.634983	0.913741
814.954191	0.912470
815.273354	0.907914
815.592473	0.905073
815.911547	0.905330
816.230577	0.903160
816.549562	0.899279
816.868502	0.898144
817.187399	0.896997
817.506250	0.891942
817.825058	0.892306
818.143821	0.889610
818.462539	0.885175
818.781213	0.876461
819.099843	0.866528
819.418429	0.848674
819.736970	0.831865
820.055466	0.812677
820.373919	0.786347
820.692327	0.753820
821.010691	0.718095
821.329011	0.638504
821.647286	0.521454
821.965517	0.408268
822.283704	0.364829
822.601847	0.365738
822.919945	0.402231
823.237999	0.437237
823.556010	0.485104
823.873976	0.541219
824.191897	0.592738
824.509775	0.635301
824.827609	0.680457
825.145398	0.703392
825.463144	0.706123
825.780845	0.688229
826.098502	0.669970
826.416116	0.624642
826.733685	0.579300
827.051210	0.570371
827.368692	0.586381
827.686129	0.623392
828.003522	0.678790
828.320872	0.726031
828.638177	0.769461
828.955439	0.803366
829.272656	0.824405
829.589830	0.840726
829.906960	0.859039
830.224046	0.868985
830.541088	0.880030
830.858086	0.884809
831.175041	0.890726
831.491952	0.890626
831.808819	0.886909
832.125642	0.879226
832.442421	0.866574
832.759157	0.843420
833.075849	0.796104
833.392497	0.731802
833.709101	0.691269
834.025662	0.701355
834.342179	0.733763
834.658653	0.772621
834.975083	0.809086
835.291469	0.836297
835.607811	0.858400
835.924110	0.875319
836.240366	0.892171
836.556578	0.904715
836.872746	0.912514
837.188871	0.919127
837.504952	0.924153
837.820990	0.926946
838.136984	0.930265
838.452935	0.934587
838.768842	0.935462
839.084706	0.928633
839.400526	0.903565
839.716303	0.861861
840.032037	0.838422
840.347727	0.843568
840.663373	0.861167
840.978977	0.883316
841.294537	0.906102
841.610054	0.922577
841.925527	0.929999
842.240957	0.936512
842.556344	0.945232
842.871687	0.949453
843.186987	0.953532
843.502244	0.953811
843.817458	0.955124
844.132629	0.959820
844.447756	0.965056
844.762840	0.964864
845.077881	0.965536
845.392879	0.963950
845.707833	0.966651
846.022745	0.968869
846.337613	0.969153
846.652438	0.969038
846.967221	0.969938
847.281960	0.970470
847.596656	0.971422
847.911309	0.971134
848.225919	0.972217
848.540485	0.973409
848.855009	0.974120
849.169490	0.972928
849.483928	0.973565
849.798323	0.971896
850.112675	0.975307
850.426984	0.975564
850.741251	0.974413
851.055474	0.975617
851.369654	0.973447
851.683792	0.972651
851.997887	0.973949
852.311938	0.975946
852.625947	0.972905
852.939914	0.972190
853.253837	0.974633
853.567718	0.974147
853.881555	0.973917
854.195350	0.973549
854.509103	0.974251
854.822812	0.975121
855.136479	0.976076
855.450103	0.972575
855.763685	0.972346
856.077224	0.973923
856.390720	0.975286
856.704173	0.974750
857.017584	0.972996
857.330953	0.972758
857.644278	0.972007
857.957561	0.972004
858.270802	0.973633
858.584000	0.973351
858.897155	0.970804
859.210268	0.970933
859.523339	0.973304
859.836367	0.976241
860.149352	0.974446
860.462295	0.974238
860.775195	0.974261
861.088054	0.971939
861.400869	0.975346
861.713642	0.974317
862.026373	0.976082
862.339062	0.976176
862.651708	0.973302
862.964312	0.972613
863.276873	0.973350
863.589392	0.972214
863.901869	0.970164
864.214303	0.969559
864.526696	0.968706
864.839045	0.968031
865.151353	0.966352
865.463619	0.965835
865.775842	0.966179
866.088023	0.968017
866.400162	0.967270
866.712258	0.966889
867.024313	0.966599
867.336325	0.969970
867.648296	0.967933
867.960224	0.966584
868.272110	0.967455
868.583954	0.969849
868.895755	0.969889
869.207515	0.966626
869.519233	0.964857
869.830909	0.964349
870.142542	0.966223
870.454134	0.965580
870.765684	0.964488
871.077191	0.964287
871.388657	0.962194
871.700081	0.962395
872.011463	0.963760
872.322803	0.963614
872.634101	0.960876
872.945357	0.958250
873.256571	0.955981
873.567744	0.958390
873.878874	0.958248
874.189963	0.957357
874.501010	0.958526
874.812015	0.954187
875.122979	0.954378
875.433900	0.956954
875.744780	0.960346
876.055618	0.956132
876.366415	0.954186
876.677169	0.954216
876.987882	0.954678
877.298554	0.956481
877.609183	0.952026
877.919771	0.949126
878.230317	0.947928
878.540822	0.943750
878.851285	0.939329
879.161707	0.930605
879.472087	0.920585
879.782425	0.902267
880.092722	0.867997
880.402977	0.814511
880.713191	0.751898
881.023363	0.690524
881.333494	0.656647
881.643583	0.629699
881.953631	0.629579
882.263637	0.657901
882.573602	0.698902
882.883526	0.724565
883.193408	0.750024
883.503248	0.772100
883.813048	0.800497
884.122806	0.830278
884.432522	0.853519
884.742197	0.873241
885.051831	0.885206
885.361424	0.895676
885.670975	0.907584
885.980485	0.917021
886.289954	0.923261
886.599382	0.927416
886.908768	0.933677
887.218113	0.939224
887.527417	0.942509
887.836680	0.946739
888.145901	0.947290
888.455082	0.951711
888.764221	0.955656
889.073319	0.957526
889.382376	0.958122
889.691392	0.956912
890.000366	0.958252
890.309300	0.957453
890.618193	0.957436
890.927044	0.956427
891.235855	0.954956
891.544625	0.956847
891.853353	0.957687
892.162041	0.953091
892.470687	0.947155
892.779293	0.942222
893.087858	0.937560
893.396381	0.928779
893.704864	0.916503
894.013306	0.892331
894.321707	0.865883
894.630068	0.850604
894.938387	0.845336
895.246665	0.847437
895.554903	0.860484
895.863100	0.873113
896.171256	0.890890
896.479371	0.910468
896.787446	0.923117
897.095480	0.929514
897.403473	0.932043
897.711425	0.936821
898.019336	0.943797
898.327207	0.948236
898.635038	0.948697
898.942827	0.949843
899.250576	0.952901
899.558284	0.957784
899.865952	0.958278
900.173579	0.959961
900.481165	0.960054
900.788711	0.963137
901.096216	0.965385
901.403681	0.966630
901.711105	0.965125
902.018489	0.967145
902.325832	0.965646
902.633135	0.964956
902.940397	0.960007
903.247619	0.947360
903.554800	0.922468
903.861941	0.881408
904.169041	0.843482
904.476101	0.826572
904.783121	0.827699
905.090100	0.842923
905.397039	0.867123
905.703938	0.888981
906.010796	0.909197
906.317614	0.925875
906.624391	0.938534
906.931129	0.947540
907.237826	0.955745
907.544483	0.962237
907.851099	0.968529
908.157675	0.972064
908.464211	0.974512
908.770707	0.975598
909.077163	0.978266
909.383578	0.980067
909.689954	0.979580
909.996289	0.980331
910.302584	0.981633
910.608839	0.984277
910.915054	0.983997
911.221229	0.983481
911.527363	0.981383
911.833458	0.981501
912.139513	0.982187
912.445527	0.980644
912.751502	0.980685
913.057436	0.976013
913.363331	0.975229
913.669186	0.971480
913.975000	0.966553
914.280775	0.959536
914.586510	0.951680
914.892205	0.939127
915.197859	0.916299
915.503475	0.889180
915.809050	0.868898
916.114585	0.863018
916.420081	0.859758
916.725536	0.857437
917.030952	0.865869
917.336328	0.878698
917.641665	0.894251
917.946961	0.909990
918.252218	0.921360
918.557435	0.931560
918.862612	0.939073
919.167750	0.945973
919.472848	0.950606
919.777906	0.957021
920.082925	0.962584
920.387904	0.966046
920.692843	0.967698
920.997743	0.967840
921.302603	0.971341
921.607423	0.972944
921.912204	0.975810
922.216946	0.977936
922.521647	0.977278
922.826310	0.978399
923.130932	0.981129
923.435516	0.983051
923.740059	0.984953
924.044564	0.983550
924.349028	0.985087
924.653454	0.986981
924.957840	0.987974
925.262186	0.989215
925.566493	0.988046
925.870761	0.988332
926.174989	0.990392
926.479178	0.991883
926.783328	0.992434
927.087438	0.992926
927.391509	0.992529
927.695541	0.993095
927.999533	0.994900
928.303486	0.994822
928.607400	0.995317
928.911275	0.994816
929.215110	0.994933
929.518906	0.994871
929.822663	0.995585
930.126381	0.995395
930.430060	0.994315
930.733699	0.994950
931.037299	0.994900
931.340861	0.995673
931.644383	0.993177
931.947866	0.994433
932.251309	0.995016
932.554714	0.994593
932.858080	0.995416
933.161407	0.994681
933.464694	0.996263
933.767943	0.995226
934.071153	0.996915
934.374323	0.996899
934.677455	0.996757
934.980548	0.995984
935.283602	0.997334
935.586617	0.995467
935.889593	0.998510
936.192530	0.996944
936.495428	0.995755
936.798287	0.994694
937.101108	0.994484
937.403890	0.993227
937.706632	0.993634
938.009336	0.991297
938.312002	0.989440
938.614628	0.989192
938.917216	0.987257
939.219765	0.986479
939.522275	0.987386
939.824747	0.987922
940.127179	0.988016
940.429573	0.989776
940.731929	0.988213
941.034246	0.989318
941.336524	0.989117
941.638763	0.990400
941.940964	0.989722
942.243126	0.990906
942.545250	0.993638
942.847335	0.991585
943.149381	0.992768
943.451389	0.992016
943.753359	0.993739
944.055290	0.994537
944.357182	0.995200
944.659036	0.995302
944.960851	0.995196
945.262628	0.995151
945.564367	0.994729
945.866067	0.994059
946.167729	0.994879
946.469352	0.994935
946.770937	0.992001
947.072484	0.994731
947.373992	0.995051
947.675462	0.994302
947.976893	0.995685
948.278286	0.996401
948.579641	0.996156
948.880958	0.995469
949.182236	0.996451
949.483476	0.997545
949.784678	0.996217
950.085841	0.995297
950.386967	0.995711
950.688054	0.996285
950.989103	0.994170
951.290114	0.993713
951.591087	0.994393
951.892021	0.992782
952.192917	0.993414
952.493776	0.992888
952.794596	0.992737
953.095378	0.991755
953.396122	0.992269
953.696828	0.992497
953.997496	0.994436
954.298126	0.995556
954.598718	0.994934
954.899272	0.994071
955.199788	0.994299
955.500266	0.996100
955.800706	0.996191
956.101108	0.996595
956.401472	0.999142
956.701798	0.997294
957.002087	0.998265
957.302337	0.998591
957.602550	0.999545
957.902724	0.998857
958.202861	0.999296
958.502960	0.998659
958.803022	1.000718
959.103045	1.000047
959.403031	1.001188
959.702979	1.002085
960.002889	1.000340
960.302762	1.000176
960.602596	1.001678
960.902393	1.001175
961.202153	1.002218
961.501875	1.001489
961.801559	1.000288
962.101205	1.000966
962.400814	1.002204
962.700385	1.001692
962.999918	1.002156
963.299414	1.001500
963.598873	1.001870
963.898293	1.001615
964.197677	1.001582
964.497022	1.002303
964.796331	1.002084
965.095601	1.002384
965.394835	1.001665
965.694030	1.002466
965.993189	1.001328
966.292309	1.002137
966.591393	1.000482
966.890439	1.003601
967.189447	1.001970
967.488419	1.001174
967.787353	1.003019
968.086249	1.003457
968.385108	1.001708
968.683930	1.003432
968.982714	1.001879
969.281462	1.002419
969.580172	1.001093
969.878844	1.001924
970.177480	1.002449
970.476078	1.001886
970.774639	1.001807
971.073162	1.000032
971.371649	1.001163
971.670098	1.000115
971.968510	1.001707
972.266885	1.000086
972.565223	1.001243
972.863524	1.000781
973.161788	1.001165
973.460014	1.002044
973.758204	1.000256
974.056356	1.000464
974.354471	1.001174
974.652550	1.001533
974.950591	1.000968
975.248595	0.999555
975.546563	1.002584
975.844493	1.003058
976.142386	1.000263
976.440243	1.001421
976.738062	1.001274
977.035845	1.000841
977.333590	1.002293
977.631299	1.000988
977.928971	1.000230
978.226606	1.001430
978.524204	1.001125
978.821765	1.001844
979.119290	1.002461
979.416777	1.002447
979.714228	1.000387
980.011642	1.002050
980.309020	1.001998
980.606360	1.001292
980.903664	1.001418
981.200931	1.000837
981.498162	1.001400
981.795356	1.000338
982.092513	0.998646
982.389633	0.998767
982.686717	0.996792
982.983764	0.995375
983.280775	0.995266
983.577749	0.996069
983.874686	0.995653
984.171587	0.996383
984.468451	0.998292
984.765279	0.999961
985.062070	0.999322
985.358824	1.001199
985.655543	1.001339
985.952224	1.001006
986.248869	1.002253
986.545478	1.002726
986.842050	1.001950
987.138586	1.002049
987.435086	1.001519
987.731549	1.003832
988.027975	1.003082
988.324366	1.002351
988.620719	1.003741
988.917037	1.001588
989.213318	1.003665
989.509563	1.004525
989.805772	1.003023
990.101944	1.003271
990.398080	1.002741
990.694180	1.003786
990.990244	1.003114
991.286271	1.003189
991.582262	1.003611
991.878217	1.002860
992.174136	1.003095
992.470019	1.003178
992.765865	1.004392
993.061676	1.004841
993.357450	1.002876
993.653188	1.003965
993.948890	1.002667
994.244556	1.001829
994.540186	1.002647
994.835780	1.002169
995.131337	1.002935
995.426859	1.002954
995.722345	1.002174
996.017795	1.000621
996.313208	1.000581
996.608586	1.000831
996.903928	1.000804
997.199234	1.002258
997.494504	1.001928
997.789738	1.000150
998.084936	1.003117
998.380099	1.001593
998.675225	1.003105
998.970316	1.002637
999.265371	1.002071
999.560390	1.003218
999.855373	1.002555
1000.150320	1.002892
1000.445232	1.003356
1000.740108	1.002475
1001.034948	1.002931
1001.329752	1.003672
1001.624521	1.003042
1001.919254	1.003374
1002.213951	1.003102
1002.508613	1.002723
1002.803239	1.003452
1003.097829	1.003931
1003.392384	1.004068
1003.686903	1.002960
1003.981386	1.001996
1004.275834	1.004695
1004.570246	1.002613
1004.864623	1.004047
1005.158964	1.002840
1005.453270	1.003430
1005.747540	1.003144
1006.041775	1.003871
1006.335974	1.003802
1006.630138	1.003820
1006.924266	1.002305
1007.218359	1.002134
1007.512416	1.004874
1007.806438	1.003190
1008.100425	1.004526
1008.394376	1.004443
1008.688292	1.003738
1008.982172	1.003996
1009.276017	1.004646
1009.569827	1.004941
1009.863602	1.002280
1010.157341	1.004589
1010.451045	1.003149
1010.744714	1.004550
1011.038347	1.004464
1011.331945	1.003339
1011.625508	1.003664
1011.919036	1.003166
1012.212528	1.005101
1012.505986	1.003076
1012.799408	1.003467
1013.092795	1.004358
1013.386147	1.003742
1013.679464	1.005111
1013.972745	1.003497
1014.265992	1.002963
1014.559204	1.003167
1014.852380	1.003996
1015.145521	1.003489
1015.438628	1.003907
1015.731699	1.003466
1016.024736	1.004842
1016.317737	1.003997
1016.610703	1.004586
1016.903635	1.004702
1017.196531	1.003803
1017.489393	1.003500
1017.782219	1.002842
1018.075011	1.003329
1018.367768	1.003647
1018.660490	1.003936
1018.953177	1.003936
1019.245829	1.003936
