Dividing Wavelength (nm)	Counts (n)	Blue Motor Position (mm): 39.000000	Red Motor Position (mm): 0.000000	
326.493990	0.998582
326.888308	0.998582
327.282561	0.998582
327.676750	1.000548
328.070874	0.999794
328.464933	1.000471
328.858929	1.001709
329.252859	0.999759
329.646726	0.999120
330.040528	0.999820
330.434265	1.000013
330.827938	0.998984
331.221547	0.999271
331.615091	1.000989
332.008571	1.000929
332.401986	0.999653
332.795338	0.999314
333.188625	1.000163
333.581847	0.999416
333.975006	0.999565
334.368100	0.999787
334.761129	0.999078
335.154095	1.000107
335.546996	0.999622
335.939833	0.999440
336.332606	1.000170
336.725315	0.998277
337.117960	1.000645
337.510540	0.998935
337.903056	0.999605
338.295508	1.000887
338.687896	1.000552
339.080220	1.000598
339.472480	0.999374
339.864676	1.000843
340.256807	0.998616
340.648875	1.000466
341.040879	0.999336
341.432818	1.000448
341.824694	0.999377
342.216506	1.000037
342.608253	0.999852
342.999937	0.999096
343.391557	0.998911
343.783113	1.000607
344.174605	0.999082
344.566033	0.999008
344.957397	0.999467
345.348697	1.000082
345.739934	0.999827
346.131106	0.998789
346.522215	0.998451
346.913260	0.999867
347.304241	0.997920
347.695159	0.998842
348.086012	0.998998
348.476802	0.998435
348.867528	0.998033
349.258191	0.999233
349.648789	1.000269
350.039324	0.999485
350.429796	0.999252
350.820203	0.997845
351.210548	1.000734
351.600828	0.998799
351.991045	0.998871
352.381198	0.999406
352.771288	0.999516
353.161314	0.998847
353.551276	0.998336
353.941175	0.997385
354.331010	0.999526
354.720782	0.998465
355.110490	0.998625
355.500135	1.000061
355.889717	0.998698
356.279235	0.998664
356.668689	0.999078
357.058080	0.997724
357.447408	0.998533
357.836672	0.997663
358.225873	0.997811
358.615010	0.998006
359.004084	0.996668
359.393095	0.998920
359.782043	0.998805
360.170927	0.998951
360.559748	0.998544
360.948505	0.997414
361.337199	0.997594
361.725830	0.999207
362.114398	0.997726
362.502903	0.996770
362.891344	0.997734
363.279722	0.997595
363.668037	0.999659
364.056289	0.996852
364.444478	0.998405
364.832603	0.997060
365.220665	0.996917
365.608665	0.998539
365.996601	0.997251
366.384474	0.996880
366.772284	0.997276
367.160031	0.995457
367.547715	0.996943
367.935336	0.995805
368.322893	0.993621
368.710388	0.993588
369.097820	0.991953
369.485189	0.988716
369.872495	0.987746
370.259738	0.985282
370.646918	0.983311
371.034035	0.980036
371.421090	0.978111
371.808081	0.972787
372.195010	0.970534
372.581875	0.966111
372.968678	0.960503
373.355418	0.958102
373.742096	0.950139
374.128710	0.945190
374.515262	0.940997
374.901751	0.934711
375.288177	0.930305
375.674540	0.923967
376.060841	0.917297
376.447079	0.910767
376.833254	0.904239
377.219367	0.898688
377.605417	0.887316
377.991404	0.884270
378.377329	0.878946
378.763191	0.872672
379.148991	0.863729
379.534727	0.855336
379.920402	0.848770
380.306013	0.844031
380.691563	0.831151
381.077049	0.825008
381.462474	0.820086
381.847835	0.808943
382.233134	0.804456
382.618371	0.805649
383.003545	0.788315
383.388657	0.785840
383.773706	0.779186
384.158693	0.773897
384.543618	0.769427
384.928480	0.760103
385.313280	0.751078
385.698017	0.750025
386.082692	0.737534
386.467305	0.736650
386.851856	0.731570
387.236344	0.726399
387.620770	0.719785
388.005133	0.715303
388.389435	0.709484
388.773674	0.707193
389.157851	0.699422
389.541965	0.696920
389.926018	0.704069
390.310008	0.690861
390.693936	0.689089
391.077802	0.681605
391.461606	0.684538
391.845348	0.674769
392.229027	0.675900
392.612645	0.677095
392.996200	0.665613
393.379694	0.661450
393.763125	0.655120
394.146494	0.661983
394.529801	0.657348
394.913047	0.653224
395.296230	0.662095
395.679351	0.659474
396.062410	0.661116
396.445408	0.667474
396.828343	0.668571
397.211217	0.669137
397.594028	0.685226
397.976778	0.683389
398.359466	0.686570
398.742092	0.688755
399.124656	0.705276
399.507158	0.701020
399.889598	0.706882
400.271977	0.707181
400.654294	0.717771
401.036549	0.725368
401.418742	0.736303
401.800874	0.734469
402.182944	0.740279
402.564952	0.743976
402.946898	0.753089
403.328783	0.763087
403.710606	0.778017
404.092367	0.773420
404.474067	0.784720
404.855705	0.792451
405.237282	0.805118
405.618797	0.807413
406.000250	0.814398
406.381642	0.818458
406.762972	0.829659
407.144240	0.837623
407.525447	0.844291
407.906593	0.850301
408.287677	0.857650
408.668700	0.868453
409.049661	0.874297
409.430560	0.880105
409.811399	0.889853
410.192176	0.892741
410.572891	0.902009
410.953545	0.905234
411.334138	0.914084
411.714669	0.919035
412.095139	0.927528
412.475547	0.930859
412.855894	0.936001
413.236180	0.940895
413.616405	0.946381
413.996568	0.949946
414.376670	0.954888
414.756711	0.959019
415.136691	0.963078
415.516609	0.965149
415.896466	0.969012
416.276262	0.970948
416.655997	0.975184
417.035670	0.976315
417.415283	0.978176
417.794834	0.980723
418.174324	0.983806
418.553753	0.984690
418.933121	0.985879
419.312428	0.988858
419.691674	0.989849
420.070859	0.990469
420.449983	0.992196
420.829045	0.991775
421.208047	0.994581
421.586988	0.993569
421.965867	0.994153
422.344686	0.994945
422.723444	0.995683
423.102141	0.996667
423.480777	0.995882
423.859352	0.996884
424.237866	0.997097
424.616319	0.998018
424.994712	0.998469
425.373044	0.998806
425.751314	0.998632
426.129524	0.999417
426.507673	0.997666
426.885762	0.998775
427.263789	0.999610
427.641756	0.998957
428.019662	0.999281
428.397508	0.999345
428.775292	0.998521
429.153016	0.999385
429.530679	0.999532
429.908282	0.999444
430.285824	0.999023
430.663305	0.999257
431.040726	0.999893
431.418086	0.998901
431.795385	1.000502
432.172624	1.000506
432.549802	0.999273
432.926920	0.999250
433.303977	0.999395
433.680974	1.000406
434.057910	1.000015
434.434786	0.999095
434.811601	1.000220
435.188355	1.000430
435.565050	0.999571
435.941683	0.999503
436.318257	0.999304
436.694770	1.000072
437.071222	1.000528
437.447614	0.999791
437.823946	0.999017
438.200218	0.999988
438.576429	0.998529
438.952580	0.999561
439.328670	0.998943
439.704700	0.999158
440.080670	0.999763
440.456580	0.999568
440.832429	0.999835
441.208218	0.999993
441.583947	1.000187
441.959616	0.998843
442.335224	1.000394
442.710773	1.000125
443.086261	1.000115
443.461689	0.999738
443.837057	0.999023
444.212365	1.000476
444.587612	1.001051
444.962800	0.999377
445.337927	1.000224
445.712995	0.999837
446.088002	1.000284
446.462949	0.999756
446.837837	1.001260
447.212664	1.000293
447.587431	1.000141
447.962139	0.999993
448.336786	0.999394
448.711374	0.999116
449.085901	1.000429
449.460369	1.000789
449.834776	1.000217
450.209124	1.000138
450.583412	1.000162
450.957640	0.999880
451.331808	1.000576
451.705917	0.999562
452.079965	0.999281
452.453954	1.000564
452.827883	1.000464
453.201752	1.000939
453.575562	0.999773
453.949311	1.000552
454.323001	0.999512
454.696632	0.999547
455.070202	0.999437
455.443713	0.999683
455.817164	0.999460
456.190556	1.000538
456.563888	1.000428
456.937160	1.000146
457.310373	0.999050
457.683526	1.000318
458.056619	1.000116
458.429653	0.999591
458.802628	0.999613
459.175542	0.999969
459.548398	0.999505
459.921194	1.000292
460.293930	1.001039
460.666607	0.999891
461.039224	0.999979
461.411782	0.999565
461.784280	0.999561
462.156719	1.000242
462.529099	1.000079
462.901419	0.999797
463.273680	0.999397
463.645882	0.998932
464.018024	0.999816
464.390106	0.999312
464.762130	0.999661
465.134094	0.999584
465.505999	0.999806
465.877845	0.999152
466.249631	0.999533
466.621358	0.998339
466.993026	1.000058
467.364634	0.999618
467.736184	0.999749
468.107674	0.999715
468.479105	0.999334
468.850477	1.000256
469.221790	0.999999
469.593043	0.999419
469.964238	0.999299
470.335373	0.999482
470.706449	0.999605
471.077467	0.999501
471.448425	1.000011
471.819324	0.999729
472.190164	0.998808
472.560945	0.999477
472.931667	0.999551
473.302330	0.999674
473.672934	0.999721
474.043479	0.999511
474.413965	0.999821
474.784393	0.999338
475.154761	0.999253
475.525070	0.999865
475.895321	0.999877
476.265513	0.999780
476.635645	0.999975
477.005719	0.999776
477.375734	0.999632
477.745691	0.998757
478.115588	0.999055
478.485427	0.999034
478.855207	0.999526
479.224928	0.999456
479.594591	0.999927
479.964194	0.999169
480.333739	0.999557
480.703226	0.998674
481.072653	0.999090
481.442022	0.999768
481.811333	0.999949
482.180584	0.999205
482.549777	0.999330
482.918912	1.000018
483.287988	0.999890
483.657005	0.999550
484.025964	0.999506
484.394864	0.999756
484.763706	0.999277
485.132489	0.999566
485.501213	0.999433
485.869879	0.999005
486.238487	0.998963
486.607036	0.999915
486.975527	0.999336
487.343959	0.998565
487.712333	0.999541
488.080648	0.999963
488.448905	0.999871
488.817104	0.999195
489.185244	0.999372
489.553326	0.999402
489.921350	0.999831
490.289315	0.999772
490.657222	0.999059
491.025070	0.999886
491.392861	0.999262
491.760593	0.999429
492.128267	0.999656
492.495883	0.998670
492.863440	0.999676
493.230939	0.999558
493.598380	0.999843
493.965763	0.999824
494.333088	0.999020
494.700354	0.998883
495.067563	0.999147
495.434713	0.999919
495.801805	0.999045
496.168839	0.999680
496.535815	0.999677
496.902733	0.999357
497.269593	0.998964
497.636395	0.998348
498.003139	0.999253
498.369825	1.000190
498.736453	0.999450
499.103023	0.999723
499.469535	1.000081
499.835989	0.998898
500.202385	0.998954
500.568723	0.999573
500.935003	1.000113
501.301226	0.999432
501.667390	0.999621
502.033497	0.999126
502.399546	0.999828
502.765537	0.999048
503.131470	0.999307
503.497345	0.999551
503.863163	0.999673
504.228923	0.999275
504.594625	0.999390
504.960269	0.999605
505.325856	0.999932
505.691385	0.999548
506.056856	1.000233
506.422270	0.999386
506.787625	0.999063
507.152924	1.000100
507.518164	0.999474
507.883347	0.999215
508.248472	0.999609
508.613540	0.998998
508.978550	0.999616
509.343503	0.999538
509.708398	1.000102
510.073236	0.999694
510.438016	0.999161
510.802738	0.999070
511.167403	0.999191
511.532010	0.999989
511.896561	0.999517
512.261053	0.999868
512.625488	0.999217
512.989866	0.999084
513.354186	0.998735
513.718449	1.000111
514.082655	0.999364
514.446803	0.999406
514.810894	0.999786
515.174927	0.999871
515.538904	0.999691
515.902822	0.999852
516.266684	0.999775
516.630488	1.000195
516.994235	0.999312
517.357925	1.000013
517.721558	0.999254
518.085133	0.999205
518.448651	0.999402
518.812112	1.000461
519.175516	0.999386
519.538863	0.999048
519.902152	0.999606
520.265385	0.999606
520.628560	0.999014
520.991678	0.999353
521.354739	0.999653
521.717743	0.999755
522.080690	0.998938
522.443580	0.999434
522.806413	0.999633
523.169189	0.999843
523.531908	0.999571
523.894569	0.999959
524.257174	0.999209
524.619722	0.999909
524.982213	0.999755
525.344647	0.999512
525.707025	0.999068
526.069345	0.998515
526.431608	0.999439
526.793815	0.999432
527.155964	1.000246
527.518057	0.999854
527.880093	1.000139
528.242072	0.999813
528.603995	0.999517
528.965860	1.000043
529.327669	0.999902
529.689421	0.998919
530.051117	0.999888
530.412755	0.999097
530.774337	0.999534
531.135862	0.999837
531.497331	0.999678
531.858743	1.000194
532.220098	0.999752
532.581396	0.999739
532.942638	0.999382
533.303824	1.000561
533.664953	0.999147
534.026025	1.000348
534.387040	0.999666
534.747999	0.998956
535.108902	0.999310
535.469748	0.999998
535.830537	1.000194
536.191270	0.999244
536.551947	0.999498
536.912567	0.999341
537.273131	0.999801
537.633638	0.999526
537.994089	1.000370
538.354483	0.999662
538.714821	0.999330
539.075103	0.999967
539.435328	0.999542
539.795497	1.000070
540.155609	0.999226
540.515665	0.999720
540.875665	0.999503
541.235609	0.999413
541.595496	0.998837
541.955328	0.999612
542.315102	1.000034
542.674821	0.999924
543.034483	0.999798
543.394090	0.999192
543.753640	0.999599
544.113134	0.999308
544.472571	0.999841
544.831953	0.999641
545.191278	1.000189
545.550548	0.999468
545.909761	0.999249
546.268918	1.000257
546.628019	1.000218
546.987064	0.999463
547.346053	0.999351
547.704986	0.999452
548.063863	0.999659
548.422684	0.999857
548.781449	0.999987
549.140158	1.000049
549.498811	0.999496
549.857408	0.999749
550.215949	0.998284
550.574434	0.999263
550.932864	0.999680
551.291237	0.999572
551.649555	1.000207
552.007817	1.000102
552.366022	1.000377
552.724173	1.000295
553.082267	1.000099
553.440305	0.999359
553.798288	0.999377
554.156215	0.999912
554.514086	0.999409
554.871902	0.999996
555.229661	0.998942
555.587365	0.999611
555.945014	1.000544
556.302606	0.999470
556.660143	0.999775
557.017625	0.999418
557.375050	0.999338
557.732421	0.999704
558.089735	0.998659
558.446994	0.999151
558.804197	0.999720
559.161345	0.999493
559.518437	0.999425
559.875474	0.999908
560.232455	0.999330
560.589381	0.999750
560.946251	0.999423
561.303065	0.999948
561.659825	0.999072
562.016528	0.999920
562.373177	0.999808
562.729770	0.999360
563.086307	0.998758
563.442789	1.000152
563.799216	0.999470
564.155587	1.000043
564.511904	1.000248
564.868164	0.999946
565.224370	0.999192
565.580520	0.999791
565.936615	0.999787
566.292654	0.999854
566.648638	1.000284
567.004567	0.999131
567.360441	0.999884
567.716260	0.999774
568.072023	0.999120
568.427732	0.999634
568.783385	0.999511
569.138982	0.999928
569.494525	0.999662
569.850013	1.000275
570.205445	0.999583
570.560823	0.999727
570.916145	0.999392
571.271412	0.999961
571.626625	0.999492
571.981782	0.999433
572.336884	0.999683
572.691931	0.999958
573.046923	1.000806
573.401860	0.999041
573.756743	1.000051
574.111570	0.999523
574.466342	1.000852
574.821059	0.999502
575.175722	0.999802
575.530330	0.999437
575.884882	0.999499
576.239380	0.999867
576.593823	0.999585
576.948211	1.000104
577.302544	0.999555
577.656823	0.999600
578.011047	0.999767
578.365216	1.000123
578.719330	0.999922
579.073389	0.998729
579.427394	0.999103
579.781344	1.000232
580.135239	0.998718
580.489080	0.999625
580.842866	1.000108
581.196597	0.999334
581.550273	0.999992
581.903895	0.999966
582.257463	0.999608
582.610975	0.999475
582.964434	0.999763
583.317837	1.000761
583.671186	1.000222
584.024481	0.999470
584.377721	0.999177
584.730906	1.000235
585.084037	1.000390
585.437113	1.000531
585.790135	0.999432
586.143103	0.999634
586.496016	0.999590
586.848874	1.000439
587.201679	0.999417
587.554428	0.999487
587.907124	1.000280
588.259765	0.999702
588.612352	1.000268
588.964884	0.999664
589.317362	0.999971
589.669786	0.999358
590.022155	0.999046
590.374470	0.999881
590.726731	0.998888
591.078937	1.000040
591.431090	1.000272
591.783188	0.999290
592.135232	1.000361
592.487222	1.000314
592.839157	0.999394
593.191038	1.000093
593.542866	1.000002
593.894639	0.999885
594.246358	1.000217
594.598022	1.000211
594.949633	0.999952
595.301190	0.999966
595.652692	0.999448
596.004141	0.999449
596.355535	0.999614
596.706876	0.999887
597.058162	0.999627
597.409395	0.999599
597.760573	0.999887
598.111698	0.999349
598.462768	0.998916
598.813785	0.998626
599.164748	0.999718
599.515657	0.999514
599.866511	1.000302
600.217312	1.000214
600.568060	0.999600
600.918753	0.999683
601.269392	0.999483
601.619978	0.999813
601.970510	0.999889
602.320988	0.999775
602.671412	0.999083
603.021783	1.000273
603.372100	1.000837
603.722363	1.000371
604.072572	0.999406
604.422728	0.999531
604.772830	0.999539
605.122878	0.999220
605.472872	1.000538
605.822813	1.000057
606.172701	0.999888
606.522534	1.000004
606.872314	1.000480
607.222041	1.000019
607.571714	0.999863
607.921333	1.000229
608.270899	0.999866
608.620411	0.999646
608.969870	1.000260
609.319276	0.999752
609.668627	0.999882
610.017926	1.000201
610.367171	0.999776
610.716362	1.000180
611.065500	0.999325
611.414585	0.999109
611.763616	0.999023
612.112594	0.999412
612.461518	0.999030
612.810389	1.000178
613.159207	1.000512
613.507971	1.000125
613.856682	1.000258
614.205340	0.999063
614.553945	1.000259
614.902496	0.999495
615.250994	1.000204
615.599439	1.000197
615.947830	0.998961
616.296169	1.000316
616.644454	0.999822
616.992686	0.999751
617.340864	1.000349
617.688990	0.999489
618.037063	1.000117
618.385082	0.999150
618.733048	0.999243
619.080961	0.999311
619.428821	0.999934
619.776628	0.998924
620.124382	1.000077
620.472083	1.000227
620.819731	1.000688
621.167326	1.000311
621.514868	1.000374
621.862357	0.999666
622.209793	1.000060
622.557176	0.999532
622.904506	0.999033
623.251783	0.999548
623.599007	1.000029
623.946179	0.998831
624.293297	1.000188
624.640363	1.000432
624.987376	0.999429
625.334336	0.999179
625.681243	0.999548
626.028097	1.000368
626.374899	0.999295
626.721647	1.000282
627.068343	1.000022
627.414987	0.999616
627.761577	0.999464
628.108115	0.999332
628.454600	1.000266
628.801032	1.000092
629.147412	1.000109
629.493739	1.000521
629.840014	0.998899
630.186236	0.999743
630.532405	0.999777
630.878521	0.999511
631.224585	0.999671
631.570597	0.999246
631.916556	0.999621
632.262462	0.998743
632.608316	1.000287
632.954117	0.999488
633.299866	1.000130
633.645562	0.999582
633.991206	0.999762
634.336797	0.999629
634.682336	1.001375
635.027823	0.999816
635.373257	0.998968
635.718639	1.000825
636.063968	0.999823
636.409245	0.999988
636.754470	0.999986
637.099642	0.999925
637.444762	0.999253
637.789829	0.999279
638.134845	0.999286
638.479808	1.000043
638.824719	1.000091
639.169577	0.999658
639.514383	1.000341
639.859137	1.000132
640.203839	0.999224
640.548489	0.999981
640.893086	0.998985
641.237632	0.999448
641.582125	0.998942
641.926566	1.000406
642.270955	0.999819
642.615292	0.998770
642.959576	0.999638
643.303809	1.001218
643.647990	0.999748
643.992118	0.999534
644.336195	0.999599
644.680219	0.999894
645.024192	0.999859
645.368112	0.999458
645.711981	0.999517
646.055797	0.999733
646.399562	0.999267
646.743274	0.999709
647.086935	0.999449
647.430544	0.999648
647.774101	0.998641
648.117606	1.000020
648.461059	0.999310
648.804460	0.999570
649.147810	0.999575
649.491108	0.999562
649.834354	0.999431
650.177548	0.999416
650.520690	0.999240
650.863781	0.998366
651.206820	0.999925
651.549807	1.000178
651.892742	0.999937
652.235626	0.999192
652.578458	1.000028
652.921238	1.000497
653.263967	0.999933
653.606644	0.998963
653.949269	0.999428
654.291843	0.998342
654.634365	1.000942
654.976836	0.998990
655.319255	1.000589
655.661622	0.999565
656.003938	0.999674
656.346203	0.998718
656.688416	1.001522
657.030577	0.999557
657.372687	0.999867
657.714746	0.998495
658.056753	0.999608
658.398708	0.999098
658.740612	0.999951
659.082465	0.999300
659.424266	1.000232
659.766016	0.998988
660.107715	0.999655
660.449362	0.999403
660.790958	0.999102
661.132503	0.999204
661.473996	0.999235
661.815438	1.000497
662.156829	0.999484
662.498168	1.000315
662.839456	0.998612
663.180693	0.999738
663.521879	0.999266
663.863013	0.999618
664.204097	0.998655
664.545129	0.999286
664.886110	0.999334
665.227040	0.999077
665.567918	0.999390
665.908746	0.998827
666.249522	0.998870
666.590248	0.998824
666.930922	0.998692
667.271545	0.999140
667.612118	0.998915
667.952639	0.999517
668.293109	0.998388
668.633528	0.999493
668.973896	0.999325
669.314213	0.998717
669.654480	0.999800
669.994695	0.998077
670.334859	0.999768
670.674973	0.999356
671.015035	0.999207
671.355047	1.000212
671.695008	0.998299
672.034918	0.998644
672.374777	0.999209
672.714585	0.999380
673.054342	1.000112
673.394049	0.998526
673.733705	0.998992
674.073310	0.999882
674.412864	0.998339
674.752368	0.998421
675.091820	0.999625
675.431223	0.999105
675.770574	0.998419
676.109875	1.000188
676.449125	0.998899
676.788324	0.998950
677.127473	0.999687
677.466571	0.999868
677.805619	0.998972
678.144616	0.999467
678.483562	0.999768
678.822458	1.000107
679.161303	0.999362
679.500098	0.999823
679.838842	1.000496
680.177535	0.997882
680.516179	0.999165
680.854771	0.997900
681.193314	0.999517
681.531805	0.998281
681.870247	0.999188
682.208638	0.999230
682.546978	0.998249
682.885268	0.997780
683.223508	0.998061
683.561697	0.998836
683.899836	0.998598
684.237925	0.998596
684.575963	0.998821
684.913951	0.998608
685.251889	0.998502
685.589776	0.998896
685.927614	0.998836
686.265401	0.998106
686.603137	0.998836
686.940824	0.998747
687.278460	0.999945
687.616046	0.998994
687.953582	0.998646
688.291068	0.999031
688.628504	0.998683
688.965889	0.998719
689.303224	0.996903
689.640510	0.998120
689.977745	0.998386
690.314930	0.998915
690.652065	0.998851
690.989150	0.998795
691.326185	0.998798
691.663170	0.997746
692.000105	0.999593
692.336990	0.998672
692.673825	0.999051
693.010610	0.998550
693.347345	0.999194
693.684030	0.998717
694.020665	0.998815
694.357251	0.998581
694.693786	0.998923
695.030272	0.997729
695.366707	0.998493
695.703093	0.998372
696.039429	0.998462
696.375716	0.998788
696.711952	0.999293
697.048139	0.998692
697.384276	0.998246
697.720363	0.998803
698.056400	0.997470
698.392388	0.998379
698.728326	0.998493
699.064214	0.999330
699.400053	0.998942
699.735842	0.999410
700.071581	0.999051
700.407270	0.998826
700.742910	0.999085
701.078501	0.998656
701.414042	0.999559
701.749533	0.998062
702.084974	0.998604
702.420366	0.999272
702.755709	0.998594
703.091002	0.998388
703.426246	0.998309
703.761440	0.998339
704.096584	0.997598
704.431679	0.997764
704.766725	0.998770
705.101721	0.998699
705.436668	0.998904
705.771565	0.998225
706.106413	0.997445
706.441212	0.997806
706.775961	0.997637
707.110661	0.997537
707.445311	0.998728
707.779913	0.998673
708.114465	0.999384
708.448967	0.998933
708.783421	0.999411
709.117825	0.998348
709.452180	0.999239
709.786485	0.998666
710.120742	0.997583
710.454949	0.998339
710.789107	0.997785
711.123216	0.997565
711.457275	0.997330
711.791286	0.999272
712.125247	0.999222
712.459159	0.998014
712.793023	0.997881
713.126837	0.997773
713.460602	0.997556
713.794318	0.997542
714.127985	0.997759
714.461602	0.998888
714.795171	0.998138
715.128691	0.997846
715.462162	0.998692
715.795584	0.999154
716.128957	0.998660
716.462281	0.999050
716.795556	0.997214
717.128782	0.999624
717.461960	0.998512
717.795088	0.997819
718.128167	0.999220
718.461198	0.999303
718.794180	0.999070
719.127113	0.998438
719.459997	0.998045
719.792833	0.997970
720.125619	0.997846
720.458357	0.999029
720.791046	0.999416
721.123686	0.998691
721.456278	0.998177
721.788821	0.997683
722.121315	0.999094
722.453761	0.998712
722.786158	0.998073
723.118506	0.998463
723.450805	0.998020
723.783056	0.998968
724.115259	0.998064
724.447412	0.999232
724.779518	0.998381
725.111574	0.997407
725.443582	0.998332
725.775542	0.998986
726.107453	0.999135
726.439315	0.998676
726.771129	0.999023
727.102895	0.998397
727.434612	0.998359
727.766281	0.997949
728.097901	0.997970
728.429473	0.999136
728.760996	0.997304
729.092471	0.997368
729.423897	0.998830
729.755276	0.998151
730.086606	0.997882
730.417887	0.998409
730.749120	0.999038
731.080305	0.997977
731.411442	0.997434
731.742530	0.998308
732.073570	0.997806
732.404562	0.998058
732.735506	0.998773
733.066401	0.997788
733.397249	0.998242
733.728048	0.997590
734.058798	0.998257
734.389501	0.998830
734.720156	0.998704
735.050762	0.998510
735.381320	0.998115
735.711831	0.998489
736.042293	0.998087
736.372707	0.998348
736.703073	0.997805
737.033391	0.997765
737.363661	0.998705
737.693883	0.998868
738.024056	0.997632
738.354182	0.998147
738.684260	0.998251
739.014290	0.998220
739.344272	0.998180
739.674207	0.998725
740.004093	0.998463
740.333931	0.998261
740.663722	0.998289
740.993464	0.998780
741.323159	0.997583
741.652806	0.998522
741.982405	0.998809
742.311956	0.998312
742.641460	0.998386
742.970915	0.997799
743.300323	0.997871
743.629683	0.998044
743.958996	0.998859
744.288260	0.997445
744.617477	0.997801
744.946647	0.998704
745.275768	0.998983
745.604842	0.997626
745.933869	0.999061
746.262847	0.998876
746.591778	0.997519
746.920662	0.998785
747.249498	0.998967
747.578286	0.998676
747.907027	0.998242
748.235720	0.997955
748.564365	0.998498
748.892963	0.997323
749.221514	0.998641
749.550017	0.997312
749.878473	0.998176
750.206881	0.999202
750.535242	0.998216
750.863555	0.998284
751.191821	0.997517
751.520039	0.998475
751.848210	0.997018
752.176334	0.997912
752.504411	0.997489
752.832440	0.997810
753.160421	0.998060
753.488356	0.998722
753.816243	0.998056
754.144082	0.998458
754.471875	0.997716
754.799620	0.998599
755.127318	0.998420
755.454969	0.997647
755.782572	0.999481
756.110129	0.998417
756.437638	0.998800
756.765100	0.998424
757.092515	0.997064
757.419882	0.998578
757.747203	0.997550
758.074477	0.998155
758.401703	0.998341
758.728882	0.998849
759.056014	0.997836
759.383099	0.998787
759.710138	0.997176
760.037129	0.998172
760.364073	0.998330
760.690970	0.998818
761.017820	0.997171
761.344623	0.998431
761.671379	0.998923
761.998088	0.997892
762.324751	0.998335
762.651366	0.997435
762.977935	0.995990
763.304456	0.997380
763.630931	0.996054
763.957359	0.995791
764.283740	0.996878
764.610074	0.997178
764.936362	0.997476
765.262602	0.997928
765.588796	0.998456
765.914943	0.998332
766.241044	0.997700
766.567097	0.997960
766.893104	0.999031
767.219064	0.997265
767.544978	0.998392
767.870845	0.998973
768.196665	0.998620
768.522438	0.997609
768.848165	0.998580
769.173846	0.999762
769.499479	0.999411
769.825066	0.998846
770.150607	0.999383
770.476101	0.999222
770.801548	0.998619
771.126949	0.999350
771.452303	0.998302
771.777611	0.998980
772.102872	0.997714
772.428087	0.997173
772.753256	0.999096
773.078378	0.998143
773.403453	0.997916
773.728482	0.999891
774.053465	0.998003
774.378401	0.999192
774.703291	0.998890
775.028135	0.999775
775.352932	0.998214
775.677683	0.999166
776.002388	0.997399
776.327046	0.997759
776.651658	1.000353
776.976224	0.998389
777.300743	0.998234
777.625216	0.998855
777.949643	0.998800
778.274024	0.998178
778.598359	0.999510
778.922647	0.998373
779.246889	0.998834
779.571086	0.998448
779.895236	0.999033
780.219339	0.999113
780.543397	0.998068
780.867409	0.999090
781.191374	0.998817
781.515294	0.999065
781.839167	0.998885
782.162995	0.998501
782.486776	0.997272
782.810511	0.999003
783.134201	0.999593
783.457844	0.999164
783.781441	0.998248
784.104993	0.997775
784.428498	0.998349
784.751958	0.999330
785.075372	0.999810
785.398739	0.998260
785.722061	0.997834
786.045337	0.999192
786.368568	0.998803
786.691752	0.998789
787.014891	0.998678
787.337983	0.997719
787.661030	0.997871
787.984031	0.999987
788.306987	0.998992
788.629897	0.996883
788.952760	0.998397
789.275579	0.999296
789.598351	0.998699
789.921078	0.999195
790.243759	0.997716
790.566395	0.997654
790.888984	0.999590
791.211529	0.998488
791.534027	0.998735
791.856480	0.998760
792.178888	0.998335
792.501249	0.998648
792.823566	1.000621
793.145836	0.998785
793.468062	0.998763
793.790241	0.999970
794.112375	0.997577
794.434464	0.998472
794.756507	0.998589
795.078505	0.999218
795.400457	0.999384
795.722364	0.997985
796.044226	0.998892
796.366042	0.998217
796.687812	0.998028
797.009538	0.998078
797.331218	0.999952
797.652852	0.998774
797.974442	0.998360
798.295986	0.998541
798.617484	0.998735
798.938938	0.999356
799.260346	0.998000
799.581709	0.998437
799.903026	0.999151
800.224299	0.997834
800.545526	0.998237
800.866708	0.997764
801.187845	0.998986
801.508936	0.998590
801.829983	0.998121
802.150984	0.998732
802.471940	0.999248
802.792851	0.999350
803.113717	0.999438
803.434538	0.998709
803.755314	0.999240
804.076045	0.999522
804.396731	0.997643
804.717372	0.997803
805.037967	0.999302
805.358518	0.999532
805.679024	0.998115
805.999485	0.998768
806.319901	0.999750
806.640272	0.999939
806.960598	0.998448
807.280879	0.998162
807.601115	0.999444
807.921306	1.000019
808.241453	0.998215
808.561554	0.999227
808.881611	0.998888
809.201623	0.998335
809.521590	0.998347
809.841513	0.999477
810.161390	0.997433
810.481223	0.998622
810.801011	0.999014
811.120755	0.999942
811.440453	0.998310
811.760107	0.999206
812.079716	0.999114
812.399281	0.999311
812.718801	0.999253
813.038276	0.998922
813.357707	0.999100
813.677093	0.998892
813.996434	0.998164
814.315731	1.000427
814.634983	0.998978
814.954191	1.000104
815.273354	0.997835
815.592473	0.997718
815.911547	0.999264
816.230577	0.998554
816.549562	0.998763
816.868502	0.998197
817.187399	0.999235
817.506250	0.998757
817.825058	0.997092
818.143821	0.998448
818.462539	0.999343
818.781213	0.998233
819.099843	0.998394
819.418429	0.999008
819.736970	0.997823
820.055466	0.996618
820.373919	0.997212
820.692327	0.997451
821.010691	0.996249
821.329011	0.994854
821.647286	0.993676
821.965517	0.992722
822.283704	0.991133
822.601847	0.991262
822.919945	0.991526
823.237999	0.992348
823.556010	0.993039
823.873976	0.993592
824.191897	0.995233
824.509775	0.995382
824.827609	0.995145
825.145398	0.995583
825.463144	0.995625
825.780845	0.994872
826.098502	0.995413
826.416116	0.995865
826.733685	0.994364
827.051210	0.993349
827.368692	0.994185
827.686129	0.993772
828.003522	0.996140
828.320872	0.995214
828.638177	0.997125
828.955439	0.997924
829.272656	0.997811
829.589830	0.997915
829.906960	0.998886
830.224046	0.998069
830.541088	0.998451
830.858086	0.997813
831.175041	0.998898
831.491952	0.999294
831.808819	0.998330
832.125642	0.998664
832.442421	0.998761
832.759157	0.998492
833.075849	0.996707
833.392497	0.996241
833.709101	0.994785
834.025662	0.996547
834.342179	0.996053
834.658653	0.998181
834.975083	0.998015
835.291469	0.998616
835.607811	0.997959
835.924110	0.997163
836.240366	0.998614
836.556578	0.999178
836.872746	0.999082
837.188871	0.998324
837.504952	0.998212
837.820990	0.999390
838.136984	0.998258
838.452935	0.998611
838.768842	0.999066
839.084706	0.998740
839.400526	0.998782
839.716303	0.997063
840.032037	0.998738
840.347727	0.998463
840.663373	0.998091
840.978977	0.997191
841.294537	0.999312
841.610054	0.997617
841.925527	0.999562
842.240957	0.998799
842.556344	0.998399
842.871687	0.998897
843.186987	0.999662
843.502244	0.999126
843.817458	0.998472
844.132629	0.998900
844.447756	0.999331
844.762840	0.998756
845.077881	1.000004
845.392879	0.998074
845.707833	0.998429
846.022745	0.999635
846.337613	0.999683
846.652438	0.997776
846.967221	0.999408
847.281960	0.999275
847.596656	0.999936
847.911309	0.999119
848.225919	0.998961
848.540485	0.999180
848.855009	1.000368
849.169490	0.999044
849.483928	0.999682
849.798323	0.998338
850.112675	0.999826
850.426984	0.999409
850.741251	0.998804
851.055474	0.999695
851.369654	0.998680
851.683792	0.998526
851.997887	0.999948
852.311938	0.999268
852.625947	0.999497
852.939914	0.998066
853.253837	1.000889
853.567718	1.000887
853.881555	0.999503
854.195350	0.999913
854.509103	0.999795
854.822812	1.000007
855.136479	0.998801
855.450103	0.998964
855.763685	0.998637
856.077224	0.998863
856.390720	0.998877
856.704173	1.000014
857.017584	0.999819
857.330953	0.999277
857.644278	0.999298
857.957561	1.000063
858.270802	1.000340
858.584000	0.999396
858.897155	0.997504
859.210268	1.000156
859.523339	0.999779
859.836367	0.999546
860.149352	0.998480
860.462295	0.998620
860.775195	0.999219
861.088054	0.998595
861.400869	0.999110
861.713642	0.998409
862.026373	0.999665
862.339062	0.999317
862.651708	0.999257
862.964312	0.999330
863.276873	0.998546
863.589392	0.998277
863.901869	0.999369
864.214303	1.000033
864.526696	0.999467
864.839045	0.999540
865.151353	0.998940
865.463619	0.998624
865.775842	1.000281
866.088023	0.999602
866.400162	0.999288
866.712258	1.000475
867.024313	1.000207
867.336325	1.000906
867.648296	1.000058
867.960224	0.999027
868.272110	0.999222
868.583954	0.998946
868.895755	0.999384
869.207515	0.997880
869.519233	1.000180
869.830909	0.999180
870.142542	0.998061
870.454134	0.999926
870.765684	0.998712
871.077191	0.999455
871.388657	0.998985
871.700081	1.000154
872.011463	1.000721
872.322803	0.999675
872.634101	0.997878
872.945357	0.998654
873.256571	0.998971
873.567744	0.999395
873.878874	0.998429
874.189963	0.999214
874.501010	1.000516
874.812015	0.998782
875.122979	0.999281
875.433900	0.999081
875.744780	0.999213
876.055618	0.997974
876.366415	0.998218
876.677169	0.999133
876.987882	0.998707
877.298554	0.999845
877.609183	0.999707
877.919771	0.998743
878.230317	0.999470
878.540822	0.997826
878.851285	0.997475
879.161707	0.997816
879.472087	0.999341
879.782425	0.997365
880.092722	0.996759
880.402977	0.995239
880.713191	0.994477
881.023363	0.992131
881.333494	0.991332
881.643583	0.993461
881.953631	0.992918
882.263637	0.992343
882.573602	0.993385
882.883526	0.992973
883.193408	0.994221
883.503248	0.994864
883.813048	0.993493
884.122806	0.996380
884.432522	0.996432
884.742197	0.998341
885.051831	0.996119
885.361424	0.997080
885.670975	0.998244
885.980485	0.997173
886.289954	0.998011
886.599382	0.997684
886.908768	0.999228
887.218113	0.999354
887.527417	0.997766
887.836680	0.999325
888.145901	0.999594
888.455082	0.999216
888.764221	0.999267
889.073319	0.998371
889.382376	0.998852
889.691392	0.998431
890.000366	0.998970
890.309300	0.997952
890.618193	0.998721
890.927044	0.997622
891.235855	0.998399
891.544625	0.998375
891.853353	0.999036
892.162041	0.998049
892.470687	0.999279
892.779293	0.997705
893.087858	0.997221
893.396381	0.998371
893.704864	0.998089
894.013306	0.997491
894.321707	0.997017
894.630068	0.994926
894.938387	0.996192
895.246665	0.995629
895.554903	0.995662
895.863100	0.996545
896.171256	0.996673
896.479371	0.997290
896.787446	0.998130
897.095480	0.997551
897.403473	0.997499
897.711425	0.998076
898.019336	0.998150
898.327207	0.998710
898.635038	0.997752
898.942827	0.999770
899.250576	0.998216
899.558284	0.999685
899.865952	0.997759
900.173579	0.998469
900.481165	0.999295
900.788711	0.998726
901.096216	0.998361
901.403681	0.998573
901.711105	0.998100
902.018489	0.999176
902.325832	0.998689
902.633135	0.998656
902.940397	0.998911
903.247619	0.998068
903.554800	0.997792
903.861941	0.997536
904.169041	0.995564
904.476101	0.995389
904.783121	0.994990
905.090100	0.995606
905.397039	0.995709
905.703938	0.997662
906.010796	0.997329
906.317614	0.997382
906.624391	0.998696
906.931129	0.999577
907.237826	0.998978
907.544483	0.999078
907.851099	0.998886
908.157675	0.999074
908.464211	0.998977
908.770707	0.998490
909.077163	0.999449
909.383578	0.998941
909.689954	0.998344
909.996289	0.999407
910.302584	0.999748
910.608839	1.000926
910.915054	0.999055
911.221229	0.999842
911.527363	0.997962
911.833458	0.999871
912.139513	0.998689
912.445527	0.999383
912.751502	0.999437
913.057436	0.999059
913.363331	0.999309
913.669186	0.999220
913.975000	0.999477
914.280775	0.999132
914.586510	0.997707
914.892205	0.996780
915.197859	0.996726
915.503475	0.995664
915.809050	0.996374
916.114585	0.994839
916.420081	0.995504
916.725536	0.996693
917.030952	0.996483
917.336328	0.995702
917.641665	0.994956
917.946961	0.996828
918.252218	0.996013
918.557435	0.997272
918.862612	0.998038
919.167750	0.998679
919.472848	0.999535
919.777906	0.998776
920.082925	0.999769
920.387904	0.999097
920.692843	0.997944
920.997743	0.998528
921.302603	0.999362
921.607423	0.998510
921.912204	0.999183
922.216946	0.999120
922.521647	0.998121
922.826310	0.998927
923.130932	0.999907
923.435516	1.000100
923.740059	0.999533
924.044564	0.999673
924.349028	0.998573
924.653454	1.000104
924.957840	0.999827
925.262186	0.999424
925.566493	0.997888
925.870761	0.999445
926.174989	0.998260
926.479178	0.999222
926.783328	1.000144
927.087438	0.998822
927.391509	0.998979
927.695541	0.999725
927.999533	1.000736
928.303486	0.999417
928.607400	0.998536
928.911275	1.000083
929.215110	1.000649
929.518906	1.000592
929.822663	1.000946
930.126381	1.000058
930.430060	0.999548
930.733699	1.000622
931.037299	0.999941
931.340861	0.999644
931.644383	0.998572
931.947866	0.999505
932.251309	0.999048
932.554714	0.999444
932.858080	1.001101
933.161407	0.998532
933.464694	0.999111
933.767943	0.999888
934.071153	0.999390
934.374323	1.000270
934.677455	0.998809
934.980548	0.998913
935.283602	0.999814
935.586617	0.999588
935.889593	1.000729
936.192530	1.000408
936.495428	0.999705
936.798287	0.998362
937.101108	0.999629
937.403890	0.999936
937.706632	1.001386
938.009336	1.000121
938.312002	0.999291
938.614628	0.999622
938.917216	0.998686
939.219765	0.999553
939.522275	0.999985
939.824747	0.999265
940.127179	1.000124
940.429573	1.000229
940.731929	0.998882
941.034246	0.998718
941.336524	0.998799
941.638763	0.998645
941.940964	0.998700
942.243126	0.998285
942.545250	0.999796
942.847335	0.999000
943.149381	1.000173
943.451389	0.998399
943.753359	0.999349
944.055290	1.000436
944.357182	0.999647
944.659036	0.999421
944.960851	1.000629
945.262628	1.000506
945.564367	1.000072
945.866067	0.998683
946.167729	0.999366
946.469352	0.999735
946.770937	0.998430
947.072484	0.999284
947.373992	0.998983
947.675462	0.999163
947.976893	0.999730
948.278286	0.999823
948.579641	1.000574
948.880958	0.999444
949.182236	0.999684
949.483476	0.999913
949.784678	0.999984
950.085841	0.998810
950.386967	0.998690
950.688054	0.999461
950.989103	0.998344
951.290114	0.998869
951.591087	1.000124
951.892021	0.998939
952.192917	0.999856
952.493776	0.999496
952.794596	0.999370
953.095378	0.999363
953.396122	0.998897
953.696828	1.000133
953.997496	0.999673
954.298126	1.000763
954.598718	0.998573
954.899272	0.999280
955.199788	0.998564
955.500266	0.999936
955.800706	0.998941
956.101108	0.999233
956.401472	1.001327
956.701798	0.997995
957.002087	1.000234
957.302337	0.999440
957.602550	0.999595
957.902724	0.999031
958.202861	0.999372
958.502960	0.998125
958.803022	1.001014
959.103045	0.999012
959.403031	1.000235
959.702979	1.000123
960.002889	0.999161
960.302762	0.999263
960.602596	1.000741
960.902393	1.000033
961.202153	1.000319
961.501875	1.000171
961.801559	1.000096
962.101205	0.998719
962.400814	0.999832
962.700385	1.000406
962.999918	0.998800
963.299414	0.999269
963.598873	0.999079
963.898293	1.000239
964.197677	0.999650
964.497022	0.999495
964.796331	1.001061
965.095601	1.000220
965.394835	1.000056
965.694030	1.000412
965.993189	0.998587
966.292309	1.000962
966.591393	0.998362
966.890439	1.000658
967.189447	0.998993
967.488419	0.999689
967.787353	0.999183
968.086249	0.998613
968.385108	0.999386
968.683930	1.000109
968.982714	0.999532
969.281462	0.999058
969.580172	1.000267
969.878844	0.999710
970.177480	0.999539
970.476078	1.001027
970.774639	1.000755
971.073162	0.999838
971.371649	0.999707
971.670098	0.999610
971.968510	0.999264
972.266885	0.999559
972.565223	0.999825
972.863524	0.998301
973.161788	0.998674
973.460014	1.000009
973.758204	0.998394
974.056356	0.999794
974.354471	0.998763
974.652550	0.999575
974.950591	1.000561
975.248595	0.998371
975.546563	0.999993
975.844493	1.000867
976.142386	0.997702
976.440243	0.999778
976.738062	1.000034
977.035845	0.999021
977.333590	1.000608
977.631299	0.999101
977.928971	1.000171
978.226606	0.999698
978.524204	0.999232
978.821765	1.001093
979.119290	1.001051
979.416777	0.999944
979.714228	1.000354
980.011642	1.000548
980.309020	0.999845
980.606360	0.998614
980.903664	0.999771
981.200931	0.998527
981.498162	0.999170
981.795356	0.999530
982.092513	0.999739
982.389633	1.001069
982.686717	0.998679
982.983764	1.000176
983.280775	0.998513
983.577749	1.000803
983.874686	0.999049
984.171587	0.998034
984.468451	0.999066
984.765279	0.999385
985.062070	0.999939
985.358824	1.000318
985.655543	1.000258
985.952224	0.999852
986.248869	0.998404
986.545478	1.000892
986.842050	0.998739
987.138586	0.997876
987.435086	0.998844
987.731549	0.999914
988.027975	1.000479
988.324366	0.999376
988.620719	1.000320
988.917037	0.999102
989.213318	1.000429
989.509563	0.998890
989.805772	1.001163
990.101944	1.000364
990.398080	1.000331
990.694180	1.001300
990.990244	0.999176
991.286271	1.000246
991.582262	0.999694
991.878217	0.999601
992.174136	0.999992
992.470019	0.999392
992.765865	1.000548
993.061676	0.999055
993.357450	0.999535
993.653188	1.001082
993.948890	0.999589
994.244556	0.998846
994.540186	0.999678
994.835780	0.998685
995.131337	1.000323
995.426859	0.999338
995.722345	0.999576
996.017795	0.999909
996.313208	1.000010
996.608586	1.000470
996.903928	1.000292
997.199234	0.999487
997.494504	1.000299
997.789738	0.999029
998.084936	0.999000
998.380099	1.000181
998.675225	0.999921
998.970316	1.000589
999.265371	0.999800
999.560390	0.998984
999.855373	0.999618
1000.150320	0.999158
1000.445232	1.000052
1000.740108	0.999018
1001.034948	0.999435
1001.329752	1.000683
1001.624521	0.998988
1001.919254	0.999825
1002.213951	0.999820
1002.508613	0.998279
1002.803239	0.999960
1003.097829	0.999324
1003.392384	1.001380
1003.686903	0.999464
1003.981386	0.999222
1004.275834	1.000949
1004.570246	0.998789
1004.864623	1.000780
1005.158964	1.000124
1005.453270	0.999582
1005.747540	0.999577
1006.041775	1.000293
1006.335974	0.999556
1006.630138	0.999744
1006.924266	0.999291
1007.218359	0.998561
1007.512416	1.000608
1007.806438	0.999096
1008.100425	0.999894
1008.394376	1.001471
1008.688292	0.999219
1008.982172	0.999614
1009.276017	1.001530
1009.569827	1.000676
1009.863602	0.999160
1010.157341	1.000656
1010.451045	0.999445
1010.744714	1.001887
1011.038347	1.000263
1011.331945	0.999404
1011.625508	0.999621
1011.919036	1.000528
1012.212528	0.999554
1012.505986	0.999212
1012.799408	1.000038
1013.092795	0.999587
1013.386147	0.999379
1013.679464	1.000507
1013.972745	1.000495
1014.265992	0.999300
1014.559204	0.999374
1014.852380	0.999581
1015.145521	0.999529
1015.438628	1.000432
1015.731699	0.999578
1016.024736	0.999863
1016.317737	1.000372
1016.610703	1.000175
1016.903635	0.999379
1017.196531	0.999632
1017.489393	1.000193
1017.782219	0.997981
1018.075011	0.999766
1018.367768	0.999321
1018.660490	1.000696
1018.953177	1.000696
1019.245829	1.000696
