Dividing Wavelength (nm)	Counts (n)	Blue Motor Position (mm): 43.300000	Red Motor Position (mm): 0.000000	
326.493990	0.998444
326.888308	0.998444
327.282561	0.998444
327.676750	1.000724
328.070874	1.000745
328.464933	1.001385
328.858929	1.000773
329.252859	1.000445
329.646726	0.999904
330.040528	1.000795
330.434265	1.001355
330.827938	1.000048
331.221547	0.999693
331.615091	1.000251
332.008571	1.000163
332.401986	0.999231
332.795338	0.999339
333.188625	0.999728
333.581847	0.999956
333.975006	0.999664
334.368100	1.000667
334.761129	0.999233
335.154095	1.000992
335.546996	0.999752
335.939833	0.998941
336.332606	0.999322
336.725315	0.999041
337.117960	1.001032
337.510540	0.999008
337.903056	0.999116
338.295508	1.000772
338.687896	1.000055
339.080220	0.999909
339.472480	0.999607
339.864676	1.000495
340.256807	0.999250
340.648875	1.000459
341.040879	0.999382
341.432818	0.999887
341.824694	0.999720
342.216506	1.000894
342.608253	1.000533
342.999937	0.999220
343.391557	0.999316
343.783113	1.001236
344.174605	1.000373
344.566033	0.998898
344.957397	1.000186
345.348697	1.000306
345.739934	0.999675
346.131106	0.999087
346.522215	0.999224
346.913260	1.000717
347.304241	0.999232
347.695159	1.000373
348.086012	0.999078
348.476802	1.000193
348.867528	0.998191
349.258191	1.000639
349.648789	0.998833
350.039324	1.000352
350.429796	0.998082
350.820203	0.998950
351.210548	1.000814
351.600828	1.000139
351.991045	0.999566
352.381198	1.001371
352.771288	0.999055
353.161314	1.000186
353.551276	0.999363
353.941175	0.998489
354.331010	1.000452
354.720782	1.000590
355.110490	0.998824
355.500135	0.998883
355.889717	0.998674
356.279235	0.999085
356.668689	1.000616
357.058080	0.999394
357.447408	0.998644
357.836672	0.999558
358.225873	0.998985
358.615010	0.998491
359.004084	0.996638
359.393095	1.000904
359.782043	0.998486
360.170927	0.999932
360.559748	0.999854
360.948505	1.000196
361.337199	0.998190
361.725830	0.999109
362.114398	1.000089
362.502903	0.999364
362.891344	0.998458
363.279722	0.999459
363.668037	0.999208
364.056289	0.999555
364.444478	1.001152
364.832603	1.000215
365.220665	0.998270
365.608665	0.998816
365.996601	0.998872
366.384474	0.997327
366.772284	0.999243
367.160031	0.996997
367.547715	0.997675
367.935336	0.998259
368.322893	0.995948
368.710388	0.994163
369.097820	0.992702
369.485189	0.991904
369.872495	0.990219
370.259738	0.987144
370.646918	0.984133
371.034035	0.982582
371.421090	0.979710
371.808081	0.974864
372.195010	0.973260
372.581875	0.967222
372.968678	0.963077
373.355418	0.959495
373.742096	0.951822
374.128710	0.947368
374.515262	0.942510
374.901751	0.937697
375.288177	0.932064
375.674540	0.925975
376.060841	0.919610
376.447079	0.914325
376.833254	0.906172
377.219367	0.901633
377.605417	0.890154
377.991404	0.888901
378.377329	0.882322
378.763191	0.876112
379.148991	0.868323
379.534727	0.862443
379.920402	0.856407
380.306013	0.853367
380.691563	0.844153
381.077049	0.839267
381.462474	0.838313
381.847835	0.831184
382.233134	0.829783
382.618371	0.832606
383.003545	0.820326
383.388657	0.822920
383.773706	0.820424
384.158693	0.820693
384.543618	0.821281
384.928480	0.817197
385.313280	0.815853
385.698017	0.819233
386.082692	0.815691
386.467305	0.820452
386.851856	0.822148
387.236344	0.823709
387.620770	0.826774
388.005133	0.829701
388.389435	0.831753
388.773674	0.837474
389.157851	0.840247
389.541965	0.845190
389.926018	0.855521
390.310008	0.855719
390.693936	0.861574
391.077802	0.863967
391.461606	0.871231
391.845348	0.875289
392.229027	0.881068
392.612645	0.887631
392.996200	0.890171
393.379694	0.893937
393.763125	0.898233
394.146494	0.906346
394.529801	0.910025
394.913047	0.915188
395.296230	0.922479
395.679351	0.927148
396.062410	0.932485
396.445408	0.938240
396.828343	0.944060
397.211217	0.947634
397.594028	0.953942
397.976778	0.958319
398.359466	0.961398
398.742092	0.965121
399.124656	0.968595
399.507158	0.971521
399.889598	0.975267
400.271977	0.977713
400.654294	0.979363
401.036549	0.981993
401.418742	0.984890
401.800874	0.985768
402.182944	0.986784
402.564952	0.988042
402.946898	0.990820
403.328783	0.992372
403.710606	0.993144
404.092367	0.993686
404.474067	0.995387
404.855705	0.996245
405.237282	0.995265
405.618797	0.995589
406.000250	0.996234
406.381642	0.996744
406.762972	0.997807
407.144240	0.998176
407.525447	0.996221
407.906593	0.997521
408.287677	0.998002
408.668700	0.998279
409.049661	0.998236
409.430560	0.997662
409.811399	0.999077
410.192176	0.998041
410.572891	0.999685
410.953545	0.998565
411.334138	0.999937
411.714669	0.999018
412.095139	0.999863
412.475547	0.998970
412.855894	0.999846
413.236180	0.999181
413.616405	0.999312
413.996568	0.999874
414.376670	0.999360
414.756711	0.999335
415.136691	0.999469
415.516609	0.998775
415.896466	0.999217
416.276262	0.998825
416.655997	0.999701
417.035670	0.999238
417.415283	0.998964
417.794834	0.999461
418.174324	0.999825
418.553753	1.000076
418.933121	0.999640
419.312428	1.000460
419.691674	1.000116
420.070859	0.999996
420.449983	0.999802
420.829045	0.999663
421.208047	0.999597
421.586988	0.998426
421.965867	0.997758
422.344686	0.999244
422.723444	0.998525
423.102141	0.999338
423.480777	0.998376
423.859352	0.999533
424.237866	0.999790
424.616319	0.999957
424.994712	0.999681
425.373044	0.999980
425.751314	1.000026
426.129524	1.000451
426.507673	0.998900
426.885762	0.999620
427.263789	0.999281
427.641756	0.999905
428.019662	0.999180
428.397508	1.000530
428.775292	0.999461
429.153016	0.999291
429.530679	0.999284
429.908282	0.999712
430.285824	1.000030
430.663305	0.999569
431.040726	1.000460
431.418086	1.000199
431.795385	1.000240
432.172624	1.001129
432.549802	0.999909
432.926920	1.000329
433.303977	0.999819
433.680974	0.999554
434.057910	0.999860
434.434786	0.999675
434.811601	1.000210
435.188355	1.000376
435.565050	0.999622
435.941683	0.999321
436.318257	0.998519
436.694770	1.000321
437.071222	1.000266
437.447614	0.999592
437.823946	0.999728
438.200218	0.999829
438.576429	0.999513
438.952580	0.999677
439.328670	0.998922
439.704700	0.999112
440.080670	1.000071
440.456580	0.999326
440.832429	0.999916
441.208218	0.999513
441.583947	0.999983
441.959616	0.999043
442.335224	1.000361
442.710773	0.999772
443.086261	0.999978
443.461689	0.999270
443.837057	0.999884
444.212365	1.000272
444.587612	1.000588
444.962800	0.999466
445.337927	1.000341
445.712995	0.999635
446.088002	0.999844
446.462949	1.000099
446.837837	1.000664
447.212664	0.999525
447.587431	1.000310
447.962139	0.999405
448.336786	0.998900
448.711374	0.999469
449.085901	1.000389
449.460369	1.000208
449.834776	0.999390
450.209124	0.999849
450.583412	0.999637
450.957640	0.999713
451.331808	1.000253
451.705917	0.999371
452.079965	0.999803
452.453954	1.000596
452.827883	1.000319
453.201752	1.000514
453.575562	0.999246
453.949311	1.000364
454.323001	0.999753
454.696632	0.999967
455.070202	1.000099
455.443713	0.999122
455.817164	0.999272
456.190556	0.999593
456.563888	1.000764
456.937160	1.000021
457.310373	0.999460
457.683526	0.999689
458.056619	1.000321
458.429653	0.999761
458.802628	0.999354
459.175542	1.000025
459.548398	0.999882
459.921194	1.000399
460.293930	1.000162
460.666607	1.000218
461.039224	0.999577
461.411782	1.000218
461.784280	0.999794
462.156719	1.001275
462.529099	1.000092
462.901419	0.999688
463.273680	0.998901
463.645882	0.999551
464.018024	1.000987
464.390106	0.999896
464.762130	0.999845
465.134094	0.999244
465.505999	1.000053
465.877845	0.999158
466.249631	0.999648
466.621358	0.998774
466.993026	0.999537
467.364634	1.000091
467.736184	0.999827
468.107674	0.999608
468.479105	1.000073
468.850477	1.000443
469.221790	0.999713
469.593043	1.000108
469.964238	0.999862
470.335373	0.998806
470.706449	0.999705
471.077467	0.999121
471.448425	1.000492
471.819324	1.000093
472.190164	0.999599
472.560945	1.000038
472.931667	0.999525
473.302330	1.000540
473.672934	1.000345
474.043479	0.999806
474.413965	0.999966
474.784393	1.000497
475.154761	0.999535
475.525070	1.000404
475.895321	1.000321
476.265513	1.000585
476.635645	1.000481
477.005719	0.999423
477.375734	0.999702
477.745691	0.999434
478.115588	0.999273
478.485427	1.000013
478.855207	0.999948
479.224928	0.999769
479.594591	0.999936
479.964194	0.999871
480.333739	0.999531
480.703226	0.999164
481.072653	0.999646
481.442022	1.000697
481.811333	1.000050
482.180584	0.999582
482.549777	1.000247
482.918912	1.000108
483.287988	0.999635
483.657005	0.999667
484.025964	1.000124
484.394864	0.999353
484.763706	0.999720
485.132489	0.999805
485.501213	0.999683
485.869879	0.999743
486.238487	0.999031
486.607036	1.000373
486.975527	1.000163
487.343959	0.998919
487.712333	0.999778
488.080648	1.000194
488.448905	0.999855
488.817104	0.999713
489.185244	1.000134
489.553326	0.999528
489.921350	0.999785
490.289315	0.999435
490.657222	0.999109
491.025070	1.000013
491.392861	0.999376
491.760593	1.000739
492.128267	0.999666
492.495883	0.998737
492.863440	0.999794
493.230939	0.999593
493.598380	1.000614
493.965763	0.999648
494.333088	0.998754
494.700354	0.998962
495.067563	0.999462
495.434713	0.999753
495.801805	0.999333
496.168839	1.000025
496.535815	1.000344
496.902733	0.999174
497.269593	0.999169
497.636395	0.999134
498.003139	0.999945
498.369825	1.000183
498.736453	0.999930
499.103023	0.999585
499.469535	0.999558
499.835989	0.999444
500.202385	0.998859
500.568723	0.999440
500.935003	0.999394
501.301226	1.000142
501.667390	0.999614
502.033497	0.999382
502.399546	0.999372
502.765537	0.999756
503.131470	1.000248
503.497345	0.999351
503.863163	1.000271
504.228923	0.999259
504.594625	0.999403
504.960269	0.999826
505.325856	1.000532
505.691385	0.999348
506.056856	0.999425
506.422270	0.999851
506.787625	1.000342
507.152924	1.000178
507.518164	0.999585
507.883347	0.999393
508.248472	0.999625
508.613540	0.999540
508.978550	0.999971
509.343503	0.999929
509.708398	1.000655
510.073236	1.000296
510.438016	0.999791
510.802738	1.000453
511.167403	0.999688
511.532010	1.000057
511.896561	0.999408
512.261053	0.999688
512.625488	1.000043
512.989866	1.000064
513.354186	0.999930
513.718449	0.999722
514.082655	0.998985
514.446803	0.999222
514.810894	1.000380
515.174927	1.000025
515.538904	1.000094
515.902822	0.999586
516.266684	1.000176
516.630488	1.000185
516.994235	1.000489
517.357925	1.000913
517.721558	1.000111
518.085133	0.999415
518.448651	0.999689
518.812112	1.000347
519.175516	0.999960
519.538863	0.999554
519.902152	1.000024
520.265385	0.999843
520.628560	0.999013
520.991678	0.999484
521.354739	1.000114
521.717743	0.999673
522.080690	0.999780
522.443580	0.999579
522.806413	0.998795
523.169189	1.000293
523.531908	0.999260
523.894569	0.999925
524.257174	0.999895
524.619722	0.999080
524.982213	0.999983
525.344647	0.999676
525.707025	0.999558
526.069345	0.999982
526.431608	1.000297
526.793815	0.999730
527.155964	1.000683
527.518057	0.999720
527.880093	0.999630
528.242072	0.999903
528.603995	0.999246
528.965860	1.000065
529.327669	0.999834
529.689421	0.998950
530.051117	0.999797
530.412755	0.999786
530.774337	0.999579
531.135862	1.000353
531.497331	0.999444
531.858743	1.000356
532.220098	0.999704
532.581396	1.000340
532.942638	1.000304
533.303824	1.000601
533.664953	0.999809
534.026025	1.000890
534.387040	0.999484
534.747999	0.999537
535.108902	0.999403
535.469748	1.001078
535.830537	1.000323
536.191270	0.999910
536.551947	0.999791
536.912567	0.999771
537.273131	1.000528
537.633638	1.000121
537.994089	1.000413
538.354483	1.000265
538.714821	1.000131
539.075103	0.999670
539.435328	1.000104
539.795497	0.999883
540.155609	1.000132
540.515665	1.000289
540.875665	0.999601
541.235609	1.000314
541.595496	0.999615
541.955328	0.999518
542.315102	0.999923
542.674821	1.000082
543.034483	1.000180
543.394090	0.999740
543.753640	1.000097
544.113134	0.999939
544.472571	1.000228
544.831953	1.000056
545.191278	1.000214
545.550548	0.998895
545.909761	0.999598
546.268918	1.000480
546.628019	1.000229
546.987064	0.999471
547.346053	0.999083
547.704986	0.999532
548.063863	1.000316
548.422684	1.000381
548.781449	0.999950
549.140158	1.000410
549.498811	1.000071
549.857408	0.999134
550.215949	0.999203
550.574434	0.999919
550.932864	1.000184
551.291237	0.999715
551.649555	1.000615
552.007817	1.000103
552.366022	1.000402
552.724173	1.000482
553.082267	0.999948
553.440305	0.999796
553.798288	0.999110
554.156215	0.999307
554.514086	1.000490
554.871902	0.999689
555.229661	0.999210
555.587365	0.999721
555.945014	0.999987
556.302606	0.999630
556.660143	0.999869
557.017625	1.000245
557.375050	0.999559
557.732421	1.000124
558.089735	0.999800
558.446994	0.999699
558.804197	1.000158
559.161345	0.999432
559.518437	0.999747
559.875474	1.000299
560.232455	1.000304
560.589381	1.000492
560.946251	0.999696
561.303065	0.999893
561.659825	0.999478
562.016528	0.999727
562.373177	0.999366
562.729770	0.999406
563.086307	0.998802
563.442789	1.000200
563.799216	0.999117
564.155587	0.999878
564.511904	1.000433
564.868164	0.999049
565.224370	0.999400
565.580520	0.999503
565.936615	0.999876
566.292654	0.999759
566.648638	1.000234
567.004567	1.000184
567.360441	0.999922
567.716260	1.000035
568.072023	0.999016
568.427732	1.000005
568.783385	0.999717
569.138982	0.999560
569.494525	0.999602
569.850013	1.000597
570.205445	0.999877
570.560823	0.999954
570.916145	0.998939
571.271412	0.999814
571.626625	1.000279
571.981782	0.999736
572.336884	0.999816
572.691931	1.000331
573.046923	0.999757
573.401860	0.999385
573.756743	0.999516
574.111570	0.999418
574.466342	1.000689
574.821059	0.999468
575.175722	0.999803
575.530330	1.000112
575.884882	0.998857
576.239380	1.000053
576.593823	0.999495
576.948211	0.999734
577.302544	0.999713
577.656823	0.999716
578.011047	0.998868
578.365216	0.999777
578.719330	1.000102
579.073389	0.999098
579.427394	0.999561
579.781344	1.000265
580.135239	0.999487
580.489080	0.999825
580.842866	0.999300
581.196597	0.999531
581.550273	0.999723
581.903895	1.000026
582.257463	0.999372
582.610975	0.999338
582.964434	0.999721
583.317837	0.999939
583.671186	1.000236
584.024481	0.999537
584.377721	0.998991
584.730906	1.000135
585.084037	1.000377
585.437113	0.999597
585.790135	0.999783
586.143103	0.999901
586.496016	0.999437
586.848874	0.999626
587.201679	0.999322
587.554428	0.999771
587.907124	0.999945
588.259765	0.999460
588.612352	1.000402
588.964884	1.000145
589.317362	0.999955
589.669786	0.999730
590.022155	0.999395
590.374470	1.000206
590.726731	0.999646
591.078937	0.999860
591.431090	0.999482
591.783188	0.999107
592.135232	1.000192
592.487222	1.000147
592.839157	1.000012
593.191038	0.999718
593.542866	0.999735
593.894639	0.998906
594.246358	1.000484
594.598022	0.999747
594.949633	1.000001
595.301190	0.999208
595.652692	0.999340
596.004141	0.999129
596.355535	0.999376
596.706876	0.999671
597.058162	0.998809
597.409395	0.998999
597.760573	0.999240
598.111698	0.999882
598.462768	0.998984
598.813785	0.999452
599.164748	0.999440
599.515657	0.999078
599.866511	0.999113
600.217312	0.999976
600.568060	0.999102
600.918753	0.999633
601.269392	0.999785
601.619978	0.999559
601.970510	0.999354
602.320988	0.998807
602.671412	0.999011
603.021783	0.999453
603.372100	0.999692
603.722363	0.999613
604.072572	0.999501
604.422728	0.998912
604.772830	0.999659
605.122878	0.999829
605.472872	0.999915
605.822813	0.999450
606.172701	0.999722
606.522534	0.999953
606.872314	0.999991
607.222041	0.999513
607.571714	0.999499
607.921333	0.999321
608.270899	0.999394
608.620411	0.999271
608.969870	1.000795
609.319276	0.999416
609.668627	1.000917
610.017926	0.999196
610.367171	0.999530
610.716362	0.999333
611.065500	0.999359
611.414585	0.999712
611.763616	0.998426
612.112594	0.999550
612.461518	0.999113
612.810389	0.999898
613.159207	0.999772
613.507971	0.998673
613.856682	1.000010
614.205340	0.998677
614.553945	0.999207
614.902496	0.999354
615.250994	0.999879
615.599439	1.000183
615.947830	0.999026
616.296169	0.999316
616.644454	0.999874
616.992686	0.999270
617.340864	1.000208
617.688990	0.999081
618.037063	0.999918
618.385082	0.998400
618.733048	0.998704
619.080961	0.999392
619.428821	0.999943
619.776628	0.998344
620.124382	0.999953
620.472083	0.999756
620.819731	1.000717
621.167326	0.999112
621.514868	0.999816
621.862357	0.999243
622.209793	0.999672
622.557176	0.998369
622.904506	0.999528
623.251783	0.999335
623.599007	0.999446
623.946179	0.998253
624.293297	1.000070
624.640363	1.000185
624.987376	0.998952
625.334336	0.998886
625.681243	0.998926
626.028097	0.999896
626.374899	0.999625
626.721647	1.000196
627.068343	0.999716
627.414987	0.999941
627.761577	0.998966
628.108115	0.998963
628.454600	0.999685
628.801032	0.999062
629.147412	0.999355
629.493739	0.999676
629.840014	0.999345
630.186236	0.998793
630.532405	1.000159
630.878521	0.998733
631.224585	0.999526
631.570597	0.998753
631.916556	0.999277
632.262462	0.998495
632.608316	1.000214
632.954117	0.998879
633.299866	0.998778
633.645562	0.998427
633.991206	0.999476
634.336797	0.998817
634.682336	0.999762
635.027823	0.999682
635.373257	0.999277
635.718639	0.999682
636.063968	0.999414
636.409245	0.998148
636.754470	0.999074
637.099642	0.999410
637.444762	0.999594
637.789829	0.999266
638.134845	0.998953
638.479808	0.999580
638.824719	0.999862
639.169577	0.999413
639.514383	0.999190
639.859137	0.999216
640.203839	0.999138
640.548489	0.998863
640.893086	0.998238
641.237632	1.000047
641.582125	0.999413
641.926566	1.000366
642.270955	0.999444
642.615292	0.998455
642.959576	0.999485
643.303809	0.999356
643.647990	0.999594
643.992118	1.000466
644.336195	0.998282
644.680219	0.999216
645.024192	0.998903
645.368112	0.998953
645.711981	0.998645
646.055797	0.999417
646.399562	0.998286
646.743274	0.999418
647.086935	0.998792
647.430544	0.998837
647.774101	0.998514
648.117606	0.999855
648.461059	0.999345
648.804460	0.999509
649.147810	0.999506
649.491108	0.998956
649.834354	0.999246
650.177548	0.999126
650.520690	0.999067
650.863781	0.998623
651.206820	0.998616
651.549807	0.999423
651.892742	0.999511
652.235626	0.999053
652.578458	0.999490
652.921238	0.999956
653.263967	0.999239
653.606644	0.998985
653.949269	1.000130
654.291843	0.998618
654.634365	0.998948
654.976836	0.999640
655.319255	1.000992
655.661622	1.000014
656.003938	0.998700
656.346203	0.998899
656.688416	0.999471
657.030577	0.998819
657.372687	0.999191
657.714746	0.999462
658.056753	0.998489
658.398708	0.998850
658.740612	0.999898
659.082465	0.999581
659.424266	0.999101
659.766016	0.998957
660.107715	0.999657
660.449362	0.998781
660.790958	0.998370
661.132503	0.999264
661.473996	0.998212
661.815438	0.999380
662.156829	0.999299
662.498168	0.999074
662.839456	0.998493
663.180693	1.000510
663.521879	0.999348
663.863013	0.999807
664.204097	0.998566
664.545129	0.999954
664.886110	0.999368
665.227040	0.998666
665.567918	0.999466
665.908746	0.998161
666.249522	0.998130
666.590248	0.999330
666.930922	0.998998
667.271545	0.998813
667.612118	0.999672
667.952639	0.999776
668.293109	0.998691
668.633528	0.998868
668.973896	0.999452
669.314213	0.998543
669.654480	0.999564
669.994695	0.998354
670.334859	0.999365
670.674973	0.998305
671.015035	0.999382
671.355047	0.999732
671.695008	0.998265
672.034918	0.999090
672.374777	0.998615
672.714585	0.998701
673.054342	0.999169
673.394049	0.999173
673.733705	0.998994
674.073310	0.999478
674.412864	0.999120
674.752368	0.999190
675.091820	1.000139
675.431223	0.999333
675.770574	0.998725
676.109875	0.998734
676.449125	0.998690
676.788324	0.999166
677.127473	0.999683
677.466571	0.999559
677.805619	0.998812
678.144616	0.998986
678.483562	0.999224
678.822458	0.999685
679.161303	0.999001
679.500098	0.998886
679.838842	0.999130
680.177535	0.998621
680.516179	0.998741
680.854771	0.999193
681.193314	0.998864
681.531805	0.998543
681.870247	0.999159
682.208638	0.999130
682.546978	0.998708
682.885268	0.998151
683.223508	0.998682
683.561697	0.998605
683.899836	0.999342
684.237925	0.998569
684.575963	0.999237
684.913951	0.999495
685.251889	0.999185
685.589776	0.998404
685.927614	0.998971
686.265401	0.999303
686.603137	0.998032
686.940824	0.997926
687.278460	0.999529
687.616046	0.998555
687.953582	0.998732
688.291068	0.998932
688.628504	0.999039
688.965889	0.998801
689.303224	0.997620
689.640510	0.999062
689.977745	0.998270
690.314930	0.998903
690.652065	0.998058
690.989150	0.998551
691.326185	0.998786
691.663170	0.999335
692.000105	0.999267
692.336990	0.998986
692.673825	0.998708
693.010610	0.997708
693.347345	0.998395
693.684030	0.999081
694.020665	0.998785
694.357251	0.998404
694.693786	0.998602
695.030272	0.998199
695.366707	0.998415
695.703093	0.998563
696.039429	0.998736
696.375716	0.998701
696.711952	0.998222
697.048139	0.998917
697.384276	0.998694
697.720363	0.998774
698.056400	0.997932
698.392388	0.997206
698.728326	0.998769
699.064214	0.999815
699.400053	0.998443
699.735842	0.999092
700.071581	0.998052
700.407270	0.998501
700.742910	0.999414
701.078501	0.998027
701.414042	0.998606
701.749533	0.998244
702.084974	0.999092
702.420366	0.998731
702.755709	0.997924
703.091002	0.999116
703.426246	0.999562
703.761440	0.998390
704.096584	0.998122
704.431679	0.998140
704.766725	0.997854
705.101721	0.999307
705.436668	0.998823
705.771565	0.998703
706.106413	0.998466
706.441212	0.998766
706.775961	0.999143
707.110661	0.998683
707.445311	0.999190
707.779913	0.999950
708.114465	0.999269
708.448967	0.998963
708.783421	0.999085
709.117825	0.998765
709.452180	0.998969
709.786485	0.999070
710.120742	0.999017
710.454949	0.998288
710.789107	0.998462
711.123216	0.997812
711.457275	0.997092
711.791286	0.998280
712.125247	0.999746
712.459159	0.998098
712.793023	0.997870
713.126837	0.998912
713.460602	0.998473
713.794318	0.997986
714.127985	0.997789
714.461602	0.998205
714.795171	0.998504
715.128691	0.998910
715.462162	0.999375
715.795584	0.998555
716.128957	0.999361
716.462281	0.998062
716.795556	0.998240
717.128782	0.998175
717.461960	0.998072
717.795088	0.998373
718.128167	0.999142
718.461198	0.998363
718.794180	0.999033
719.127113	0.998330
719.459997	0.997917
719.792833	0.998458
720.125619	0.998022
720.458357	0.999126
720.791046	0.999064
721.123686	0.998726
721.456278	0.998711
721.788821	0.998224
722.121315	0.998351
722.453761	0.998817
722.786158	0.998600
723.118506	0.999011
723.450805	0.998427
723.783056	0.998913
724.115259	0.998307
724.447412	0.999296
724.779518	0.999073
725.111574	0.997583
725.443582	0.998464
725.775542	0.998791
726.107453	0.999021
726.439315	0.998904
726.771129	0.999598
727.102895	0.997836
727.434612	0.998297
727.766281	0.999283
728.097901	0.998737
728.429473	0.999096
728.760996	0.997467
729.092471	0.998179
729.423897	0.999754
729.755276	0.998395
730.086606	0.997652
730.417887	0.999513
730.749120	0.998708
731.080305	0.998280
731.411442	0.997745
731.742530	0.997697
732.073570	0.997780
732.404562	0.998243
732.735506	0.998415
733.066401	0.998000
733.397249	0.998304
733.728048	0.998522
734.058798	0.999308
734.389501	0.999356
734.720156	0.998243
735.050762	0.999810
735.381320	0.998874
735.711831	0.998013
736.042293	0.998165
736.372707	0.999818
736.703073	0.997234
737.033391	0.997901
737.363661	0.999049
737.693883	0.998643
738.024056	0.997502
738.354182	0.999170
738.684260	0.998986
739.014290	0.998157
739.344272	0.998519
739.674207	0.998171
740.004093	0.998944
740.333931	0.997956
740.663722	0.997902
740.993464	0.998365
741.323159	0.998801
741.652806	0.998509
741.982405	0.998438
742.311956	0.998469
742.641460	0.998857
742.970915	0.997922
743.300323	0.997719
743.629683	0.997817
743.958996	0.998914
744.288260	0.998132
744.617477	0.998326
744.946647	0.998493
745.275768	1.000014
745.604842	0.997850
745.933869	0.998432
746.262847	0.999201
746.591778	0.997851
746.920662	0.999443
747.249498	0.998765
747.578286	0.999987
747.907027	0.998719
748.235720	0.999155
748.564365	0.998869
748.892963	0.997564
749.221514	0.999663
749.550017	0.998063
749.878473	0.998974
750.206881	0.999444
750.535242	0.998622
750.863555	0.997207
751.191821	0.998798
751.520039	0.998668
751.848210	0.996987
752.176334	0.997674
752.504411	0.998051
752.832440	0.998893
753.160421	0.998880
753.488356	0.998712
753.816243	0.998549
754.144082	0.998794
754.471875	0.999012
754.799620	0.998324
755.127318	0.998674
755.454969	0.998360
755.782572	1.000179
756.110129	0.999143
756.437638	0.999638
756.765100	0.999482
757.092515	0.998083
757.419882	0.998037
757.747203	0.998832
758.074477	1.000658
758.401703	0.998811
758.728882	0.999015
759.056014	0.999092
759.383099	0.998541
759.710138	0.997812
760.037129	0.998556
760.364073	0.999472
760.690970	0.998944
761.017820	0.998529
761.344623	0.999117
761.671379	0.999670
761.998088	0.999218
762.324751	0.998595
762.651366	0.998477
762.977935	0.998228
763.304456	0.998164
763.630931	0.997351
763.957359	0.997064
764.283740	0.997416
764.610074	0.997736
764.936362	0.997619
765.262602	0.999167
765.588796	0.999087
765.914943	0.998400
766.241044	0.998194
766.567097	0.998162
766.893104	0.999234
767.219064	0.998313
767.544978	0.998902
767.870845	0.999152
768.196665	0.998499
768.522438	0.999115
768.848165	0.998859
769.173846	0.999372
769.499479	1.000619
769.825066	0.999611
770.150607	1.000301
770.476101	0.998578
770.801548	0.999060
771.126949	1.000343
771.452303	0.998885
771.777611	0.998464
772.102872	0.999037
772.428087	0.999224
772.753256	0.998699
773.078378	0.998882
773.403453	0.998092
773.728482	0.999893
774.053465	0.999297
774.378401	0.998717
774.703291	1.000090
775.028135	0.999891
775.352932	0.997686
775.677683	0.999328
776.002388	0.999879
776.327046	0.999229
776.651658	0.998977
776.976224	0.999198
777.300743	0.999153
777.625216	0.999424
777.949643	0.999670
778.274024	0.998347
778.598359	0.999324
778.922647	0.999803
779.246889	0.998973
779.571086	0.998511
779.895236	0.999081
780.219339	0.999001
780.543397	0.998232
780.867409	0.999566
781.191374	0.998522
781.515294	1.000073
781.839167	0.999274
782.162995	0.998386
782.486776	0.998166
782.810511	0.999382
783.134201	0.999125
783.457844	0.999641
783.781441	0.999657
784.104993	0.997780
784.428498	0.998983
784.751958	0.999388
785.075372	0.999744
785.398739	0.998642
785.722061	0.998597
786.045337	0.998557
786.368568	0.999148
786.691752	0.998820
787.014891	0.998767
787.337983	0.997833
787.661030	0.998997
787.984031	0.998783
788.306987	0.999209
788.629897	0.997895
788.952760	0.999435
789.275579	0.999987
789.598351	0.998914
789.921078	0.999294
790.243759	0.999122
790.566395	0.998365
790.888984	0.999518
791.211529	0.999285
791.534027	0.999127
791.856480	0.999588
792.178888	0.999337
792.501249	0.998875
792.823566	1.000649
793.145836	0.998881
793.468062	0.999684
793.790241	0.999915
794.112375	0.997693
794.434464	0.999669
794.756507	0.999541
795.078505	0.998336
795.400457	0.999751
795.722364	0.998985
796.044226	0.999552
796.366042	0.998317
796.687812	0.997131
797.009538	0.999044
797.331218	0.999938
797.652852	0.999961
797.974442	0.998407
798.295986	1.000512
798.617484	0.998556
798.938938	0.998578
799.260346	0.998504
799.581709	0.999484
799.903026	1.000171
800.224299	0.999312
800.545526	0.998154
800.866708	0.999300
801.187845	0.999471
801.508936	0.999500
801.829983	0.999236
802.150984	0.999783
802.471940	0.999130
802.792851	0.998691
803.113717	0.999980
803.434538	0.999729
803.755314	0.999921
804.076045	1.000456
804.396731	0.998562
804.717372	0.998139
805.037967	0.999251
805.358518	1.000567
805.679024	0.998472
805.999485	0.998803
806.319901	1.000086
806.640272	1.000305
806.960598	0.998837
807.280879	0.998634
807.601115	0.999428
807.921306	0.999532
808.241453	0.998526
808.561554	0.999146
808.881611	0.999183
809.201623	0.999253
809.521590	0.998771
809.841513	0.999351
810.161390	0.997429
810.481223	0.998061
810.801011	0.998865
811.120755	1.000837
811.440453	0.998802
811.760107	0.998726
812.079716	0.998659
812.399281	0.999311
812.718801	0.999715
813.038276	0.999165
813.357707	0.998341
813.677093	1.000315
813.996434	0.999256
814.315731	1.000340
814.634983	0.999924
814.954191	1.000302
815.273354	0.999205
815.592473	0.998516
815.911547	0.999950
816.230577	0.998810
816.549562	0.999653
816.868502	0.998061
817.187399	0.999235
817.506250	0.999958
817.825058	0.998153
818.143821	0.998399
818.462539	0.998999
818.781213	0.998544
819.099843	0.999122
819.418429	0.998625
819.736970	0.998593
820.055466	0.998329
820.373919	0.997847
820.692327	0.997632
821.010691	0.998375
821.329011	0.996719
821.647286	0.995990
821.965517	0.996047
822.283704	0.995074
822.601847	0.995369
822.919945	0.994890
823.237999	0.995593
823.556010	0.995472
823.873976	0.996179
824.191897	0.996892
824.509775	0.997129
824.827609	0.997036
825.145398	0.997167
825.463144	0.995669
825.780845	0.995968
826.098502	0.997070
826.416116	0.996937
826.733685	0.997317
827.051210	0.996305
827.368692	0.996856
827.686129	0.996261
828.003522	0.998169
828.320872	0.997838
828.638177	0.997512
828.955439	0.998579
829.272656	0.998898
829.589830	0.998694
829.906960	0.998929
830.224046	0.998584
830.541088	0.998553
830.858086	0.998754
831.175041	1.000159
831.491952	0.998337
831.808819	0.999174
832.125642	0.998896
832.442421	0.999549
832.759157	1.000581
833.075849	0.998362
833.392497	0.997697
833.709101	0.997435
834.025662	0.998481
834.342179	0.997845
834.658653	0.998445
834.975083	0.999072
835.291469	0.998820
835.607811	0.998136
835.924110	0.998330
836.240366	1.000139
836.556578	0.999235
836.872746	0.999609
837.188871	0.998251
837.504952	0.998778
837.820990	1.000231
838.136984	0.998944
838.452935	0.999841
838.768842	1.000574
839.084706	0.999833
839.400526	0.999347
839.716303	0.997575
840.032037	0.999471
840.347727	0.998906
840.663373	0.999860
840.978977	0.998782
841.294537	0.999736
841.610054	0.999155
841.925527	0.998761
842.240957	0.998739
842.556344	0.998675
842.871687	0.999552
843.186987	0.999171
843.502244	0.999769
843.817458	0.998475
844.132629	0.998458
844.447756	0.999183
844.762840	1.000038
845.077881	1.001525
845.392879	0.998668
845.707833	0.999657
846.022745	0.999858
846.337613	1.000206
846.652438	1.000204
846.967221	1.000019
847.281960	0.999526
847.596656	0.999796
847.911309	1.000909
848.225919	0.999232
848.540485	1.000299
848.855009	1.000370
849.169490	1.000159
849.483928	0.999370
849.798323	0.998640
850.112675	1.000031
850.426984	0.999416
850.741251	1.000053
851.055474	0.999068
851.369654	1.000593
851.683792	0.999332
851.997887	0.999126
852.311938	1.000122
852.625947	0.999634
852.939914	0.998854
853.253837	1.001563
853.567718	0.999576
853.881555	0.999400
854.195350	0.999246
854.509103	1.000294
854.822812	1.000651
855.136479	0.999820
855.450103	0.999591
855.763685	0.999343
856.077224	0.999103
856.390720	1.000944
856.704173	0.999937
857.017584	0.999829
857.330953	0.998774
857.644278	1.000296
857.957561	1.000481
858.270802	1.000422
858.584000	1.000687
858.897155	0.999139
859.210268	0.999677
859.523339	0.999871
859.836367	1.000206
860.149352	0.999094
860.462295	0.999785
860.775195	0.999190
861.088054	0.997747
861.400869	0.998982
861.713642	0.998568
862.026373	1.001077
862.339062	1.000468
862.651708	0.999539
862.964312	0.999764
863.276873	0.999196
863.589392	0.999722
863.901869	1.000721
864.214303	1.000069
864.526696	1.000265
864.839045	1.000896
865.151353	0.999445
865.463619	0.998991
865.775842	1.000731
866.088023	1.000420
866.400162	0.999905
866.712258	1.000403
867.024313	0.999713
867.336325	0.999560
867.648296	1.000113
867.960224	0.999532
868.272110	1.000880
868.583954	0.998942
868.895755	1.000030
869.207515	1.000035
869.519233	1.000256
869.830909	0.998590
870.142542	0.998339
870.454134	0.998825
870.765684	1.000284
871.077191	0.999721
871.388657	1.000078
871.700081	1.000877
872.011463	1.000666
872.322803	0.999390
872.634101	0.999026
872.945357	0.999319
873.256571	0.999934
873.567744	0.999597
873.878874	0.999196
874.189963	0.999951
874.501010	1.000655
874.812015	0.999823
875.122979	1.000006
875.433900	0.999398
875.744780	0.998818
876.055618	0.997936
876.366415	0.998757
876.677169	0.999900
876.987882	1.000212
877.298554	1.000314
877.609183	0.999107
877.919771	0.999670
878.230317	1.000586
878.540822	0.999776
878.851285	0.998973
879.161707	0.998899
879.472087	1.000335
879.782425	0.997885
880.092722	0.998516
880.402977	0.999098
880.713191	0.996803
881.023363	0.996932
881.333494	0.996332
881.643583	0.997510
881.953631	0.996189
882.263637	0.996980
882.573602	0.997361
882.883526	0.997529
883.193408	0.998354
883.503248	0.998403
883.813048	0.997661
884.122806	0.998473
884.432522	0.998901
884.742197	1.000016
885.051831	0.998860
885.361424	0.998894
885.670975	0.999981
885.980485	0.999198
886.289954	0.998576
886.599382	0.998876
886.908768	0.999777
887.218113	0.998777
887.527417	0.999455
887.836680	0.999528
888.145901	0.999242
888.455082	1.000393
888.764221	1.000941
889.073319	1.000352
889.382376	0.999979
889.691392	0.998597
890.000366	0.999936
890.309300	1.000865
890.618193	0.999939
890.927044	0.999938
891.235855	0.999982
891.544625	0.999537
891.853353	0.999917
892.162041	0.998974
892.470687	0.999886
892.779293	0.999343
893.087858	0.998777
893.396381	0.999557
893.704864	0.998392
894.013306	0.999237
894.321707	0.999402
894.630068	0.998743
894.938387	0.998981
895.246665	0.998330
895.554903	0.997133
895.863100	0.999385
896.171256	0.998700
896.479371	0.998652
896.787446	0.998464
897.095480	0.998862
897.403473	0.999630
897.711425	0.999029
898.019336	0.999630
898.327207	1.000099
898.635038	0.998603
898.942827	0.998533
899.250576	0.999011
899.558284	1.000579
899.865952	0.998100
900.173579	0.998854
900.481165	0.999576
900.788711	0.998544
901.096216	0.999663
901.403681	0.999746
901.711105	0.999421
902.018489	0.999432
902.325832	0.999966
902.633135	0.999840
902.940397	1.000528
903.247619	0.999154
903.554800	0.999307
903.861941	0.999664
904.169041	0.998723
904.476101	0.999353
904.783121	0.997829
905.090100	0.998569
905.397039	0.998824
905.703938	0.999571
906.010796	0.998666
906.317614	0.998718
906.624391	1.000465
906.931129	0.999739
907.237826	0.998436
907.544483	1.001123
907.851099	0.998908
908.157675	0.999551
908.464211	0.999895
908.770707	0.998202
909.077163	1.000110
909.383578	0.998888
909.689954	0.999972
909.996289	1.000582
910.302584	0.999277
910.608839	1.002155
910.915054	1.000444
911.221229	1.001260
911.527363	0.998418
911.833458	1.000735
912.139513	0.999916
912.445527	1.001252
912.751502	1.000234
913.057436	0.999065
913.363331	1.000120
913.669186	1.000387
913.975000	1.000807
914.280775	0.999925
914.586510	0.999569
914.892205	0.998471
915.197859	0.999159
915.503475	0.999946
915.809050	0.999329
916.114585	0.997731
916.420081	0.998427
916.725536	0.998644
917.030952	0.999810
917.336328	0.998906
917.641665	0.998036
917.946961	0.997864
918.252218	0.999751
918.557435	0.999346
918.862612	0.999692
919.167750	1.000315
919.472848	0.999686
919.777906	1.000549
920.082925	1.000983
920.387904	1.000089
920.692843	1.000675
920.997743	0.999932
921.302603	0.999815
921.607423	0.998735
921.912204	1.000015
922.216946	1.001770
922.521647	0.999659
922.826310	0.999564
923.130932	0.999700
923.435516	1.000054
923.740059	0.999723
924.044564	0.999550
924.349028	0.999061
924.653454	1.001254
924.957840	0.998822
925.262186	0.999256
925.566493	1.000334
925.870761	0.999413
926.174989	0.998696
926.479178	1.000009
926.783328	1.000060
927.087438	1.000044
927.391509	0.999310
927.695541	0.999757
927.999533	1.000697
928.303486	0.999104
928.607400	1.000833
928.911275	1.000219
929.215110	0.999698
929.518906	1.000519
929.822663	1.000739
930.126381	1.001199
930.430060	0.999158
930.733699	0.999965
931.037299	0.999704
931.340861	1.000112
931.644383	0.998769
931.947866	1.000402
932.251309	1.000624
932.554714	1.000045
932.858080	1.001220
933.161407	0.999507
933.464694	1.000668
933.767943	1.000231
934.071153	1.000686
934.374323	1.000290
934.677455	0.999949
934.980548	1.000331
935.283602	1.000691
935.586617	1.000946
935.889593	1.001260
936.192530	1.000859
936.495428	0.999995
936.798287	0.999119
937.101108	0.999592
937.403890	0.999078
937.706632	1.001581
938.009336	1.000381
938.312002	0.999597
938.614628	1.001368
938.917216	0.998141
939.219765	0.999456
939.522275	1.000736
939.824747	0.999731
940.127179	0.999417
940.429573	1.000735
940.731929	0.999672
941.034246	0.999198
941.336524	0.999100
941.638763	0.999874
941.940964	0.999081
942.243126	1.000156
942.545250	1.000665
942.847335	1.000066
943.149381	1.000150
943.451389	0.998747
943.753359	1.000779
944.055290	1.000384
944.357182	0.999911
944.659036	0.999968
944.960851	0.999325
945.262628	1.000368
945.564367	0.998887
945.866067	0.999031
946.167729	1.000091
946.469352	1.000357
946.770937	0.998696
947.072484	1.000851
947.373992	1.000091
947.675462	0.999379
947.976893	0.999732
948.278286	1.000823
948.579641	1.000434
948.880958	0.998677
949.182236	1.000659
949.483476	1.000459
949.784678	0.999318
950.085841	0.999236
950.386967	0.999333
950.688054	0.999499
950.989103	0.998508
951.290114	0.997837
951.591087	1.000436
951.892021	1.000131
952.192917	1.000216
952.493776	0.999561
952.794596	0.999495
953.095378	0.999682
953.396122	0.999674
953.696828	0.999326
953.997496	1.000556
954.298126	1.000711
954.598718	0.999862
954.899272	0.999920
955.199788	0.999277
955.500266	1.000616
955.800706	0.999509
956.101108	0.999283
956.401472	1.001783
956.701798	1.000069
957.002087	1.000703
957.302337	1.000723
957.602550	1.000291
957.902724	1.000314
958.202861	0.999276
958.502960	0.999636
958.803022	1.001528
959.103045	1.000192
959.403031	1.000715
959.702979	1.000296
960.002889	0.998943
960.302762	0.999604
960.602596	1.000174
960.902393	1.000291
961.202153	1.000816
961.501875	1.000541
961.801559	0.999245
962.101205	0.998862
962.400814	1.000302
962.700385	1.001124
962.999918	0.999685
963.299414	1.000553
963.598873	1.000265
963.898293	0.999938
964.197677	0.999448
964.497022	1.000391
964.796331	0.999341
965.095601	1.000709
965.394835	0.999771
965.694030	0.999981
965.993189	1.000162
966.292309	0.999831
966.591393	0.999174
966.890439	1.000212
967.189447	1.000138
967.488419	0.999232
967.787353	1.000782
968.086249	0.999028
968.385108	0.999340
968.683930	1.002193
968.982714	0.999530
969.281462	0.999945
969.580172	0.999837
969.878844	1.001574
970.177480	0.999809
970.476078	1.001773
970.774639	1.000178
971.073162	1.000112
971.371649	0.999462
971.670098	1.000560
971.968510	0.999458
972.266885	1.000018
972.565223	0.999956
972.863524	0.999501
973.161788	0.998457
973.460014	1.000495
973.758204	0.999406
974.056356	0.999816
974.354471	0.998984
974.652550	1.001621
974.950591	0.999152
975.248595	0.998607
975.546563	1.001060
975.844493	1.000656
976.142386	0.998727
976.440243	1.000229
976.738062	0.999755
977.035845	0.999469
977.333590	1.000386
977.631299	0.998769
977.928971	1.000278
978.226606	0.999915
978.524204	0.999857
978.821765	1.000518
979.119290	1.000962
979.416777	0.998610
979.714228	0.999147
980.011642	1.000054
980.309020	0.999722
980.606360	1.000328
980.903664	0.999619
981.200931	0.999102
981.498162	1.000069
981.795356	1.000258
982.092513	0.999540
982.389633	1.000943
982.686717	0.998084
982.983764	1.000941
983.280775	0.999697
983.577749	1.001682
983.874686	0.999664
984.171587	0.999974
984.468451	0.999890
984.765279	1.000482
985.062070	1.000810
985.358824	0.998989
985.655543	0.999711
985.952224	0.999686
986.248869	0.999776
986.545478	1.002508
986.842050	1.000191
987.138586	0.999241
987.435086	0.999337
987.731549	1.000902
988.027975	0.999870
988.324366	0.999592
988.620719	0.999725
988.917037	0.998883
989.213318	1.001400
989.509563	0.999283
989.805772	1.000023
990.101944	1.000407
990.398080	0.999949
990.694180	0.999415
990.990244	0.999939
991.286271	1.000082
991.582262	1.000208
991.878217	1.000101
992.174136	1.001503
992.470019	1.000250
992.765865	1.001515
993.061676	1.000283
993.357450	1.000306
993.653188	1.001453
993.948890	0.999657
994.244556	1.000107
994.540186	1.000282
994.835780	0.999183
995.131337	1.000611
995.426859	1.000255
995.722345	1.000186
996.017795	1.000384
996.313208	0.999547
996.608586	1.000344
996.903928	1.000401
997.199234	0.999551
997.494504	0.999586
997.789738	0.999022
998.084936	0.999225
998.380099	0.998691
998.675225	1.000242
998.970316	1.000370
999.265371	1.000822
999.560390	0.998990
999.855373	1.000246
1000.150320	1.000332
1000.445232	1.000608
1000.740108	0.999311
1001.034948	0.998873
1001.329752	1.001571
1001.624521	0.999998
1001.919254	0.999695
1002.213951	1.000922
1002.508613	0.998630
1002.803239	0.999584
1003.097829	1.000562
1003.392384	0.999298
1003.686903	0.999620
1003.981386	1.000711
1004.275834	1.000990
1004.570246	0.998968
1004.864623	1.001256
1005.158964	0.999657
1005.453270	0.999405
1005.747540	0.999528
1006.041775	1.000299
1006.335974	1.000368
1006.630138	1.000780
1006.924266	1.000171
1007.218359	0.998744
1007.512416	1.000250
1007.806438	1.001145
1008.100425	1.000014
1008.394376	1.001420
1008.688292	1.000100
1008.982172	1.000324
1009.276017	1.000974
1009.569827	1.000397
1009.863602	0.999972
1010.157341	1.000347
1010.451045	1.000748
1010.744714	1.001929
1011.038347	1.000387
1011.331945	0.998589
1011.625508	0.999115
1011.919036	1.000506
1012.212528	1.000661
1012.505986	1.001285
1012.799408	1.000282
1013.092795	1.000254
1013.386147	0.999625
1013.679464	1.001557
1013.972745	0.999488
1014.265992	0.999946
1014.559204	0.999163
1014.852380	1.001676
1015.145521	1.000046
1015.438628	1.000039
1015.731699	0.998583
1016.024736	0.999914
1016.317737	1.000045
1016.610703	1.000151
1016.903635	1.000039
1017.196531	0.999364
1017.489393	1.000618
1017.782219	0.999184
1018.075011	0.999911
1018.367768	0.999725
1018.660490	1.000235
1018.953177	1.000235
1019.245829	1.000235
