Dividing Wavelength (nm)	Counts (n)	Blue Motor Position (mm): 2.400000	Red Motor Position (mm): 0.000000	
326.493990	1.005386
326.888308	1.005386
327.282561	1.005386
327.676750	1.006134
328.070874	1.006276
328.464933	1.007419
328.858929	1.007315
329.252859	1.007867
329.646726	1.007021
330.040528	1.005451
330.434265	1.006151
330.827938	1.004996
331.221547	1.007033
331.615091	1.007837
332.008571	1.006511
332.401986	1.005568
332.795338	1.005955
333.188625	1.006308
333.581847	1.005454
333.975006	1.005947
334.368100	1.006382
334.761129	1.005079
335.154095	1.005955
335.546996	1.005618
335.939833	0.998920
336.332606	1.000188
336.725315	0.997905
337.117960	1.000053
337.510540	0.999497
337.903056	1.000843
338.295508	0.999700
338.687896	1.000568
339.080220	1.000279
339.472480	0.999462
339.864676	1.000019
340.256807	0.998177
340.648875	0.999898
341.040879	0.998916
341.432818	1.000120
341.824694	0.999708
342.216506	0.999892
342.608253	0.999136
342.999937	0.998894
343.391557	1.000089
343.783113	1.000701
344.174605	0.999407
344.566033	0.998929
344.957397	1.000479
345.348697	1.000150
345.739934	1.001086
346.131106	1.000245
346.522215	0.998350
346.913260	0.999746
347.304241	0.998803
347.695159	0.999248
348.086012	1.000153
348.476802	0.998358
348.867528	0.998490
349.258191	0.999666
349.648789	0.999320
350.039324	0.999298
350.429796	0.999132
350.820203	0.998813
351.210548	0.999344
351.600828	1.000126
351.991045	0.998842
352.381198	0.998560
352.771288	0.999152
353.161314	1.000243
353.551276	0.998165
353.941175	0.997940
354.331010	0.999784
354.720782	0.998647
355.110490	0.998919
355.500135	0.999263
355.889717	0.997234
356.279235	0.998443
356.668689	0.998969
357.058080	0.997889
357.447408	0.998106
357.836672	0.997870
358.225873	0.998563
358.615010	0.998832
359.004084	0.998001
359.393095	0.998546
359.782043	0.997591
360.170927	0.998058
360.559748	0.997333
360.948505	0.997779
361.337199	0.997831
361.725830	0.997783
362.114398	0.997008
362.502903	0.996947
362.891344	0.996553
363.279722	0.996842
363.668037	0.997315
364.056289	0.997872
364.444478	0.998868
364.832603	0.997001
365.220665	0.998125
365.608665	0.997481
365.996601	0.997433
366.384474	0.995561
366.772284	0.996530
367.160031	0.995454
367.547715	0.994934
367.935336	0.994727
368.322893	0.993821
368.710388	0.993263
369.097820	0.990474
369.485189	0.988305
369.872495	0.987809
370.259738	0.985683
370.646918	0.982240
371.034035	0.979872
371.421090	0.976669
371.808081	0.971335
372.195010	0.970034
372.581875	0.965094
372.968678	0.959644
373.355418	0.956571
373.742096	0.947357
374.128710	0.944388
374.515262	0.940053
374.901751	0.934838
375.288177	0.929293
375.674540	0.923016
376.060841	0.916245
376.447079	0.909696
376.833254	0.902154
377.219367	0.898541
377.605417	0.886447
377.991404	0.884072
378.377329	0.876197
378.763191	0.869331
379.148991	0.861835
379.534727	0.853503
379.920402	0.846017
380.306013	0.842384
380.691563	0.829859
381.077049	0.822444
381.462474	0.818946
381.847835	0.806611
382.233134	0.802928
382.618371	0.803184
383.003545	0.785793
383.388657	0.783799
383.773706	0.775889
384.158693	0.772122
384.543618	0.766640
384.928480	0.757850
385.313280	0.748261
385.698017	0.747316
386.082692	0.735713
386.467305	0.733849
386.851856	0.729020
387.236344	0.723557
387.620770	0.718252
388.005133	0.712548
388.389435	0.707208
388.773674	0.703598
389.157851	0.695672
389.541965	0.693261
389.926018	0.700317
390.310008	0.686423
390.693936	0.683565
391.077802	0.675796
391.461606	0.677329
391.845348	0.666885
392.229027	0.665916
392.612645	0.664710
392.996200	0.651546
393.379694	0.644389
393.763125	0.634093
394.146494	0.639220
394.529801	0.630003
394.913047	0.622011
395.296230	0.627295
395.679351	0.618962
396.062410	0.615635
396.445408	0.618272
396.828343	0.614393
397.211217	0.608958
397.594028	0.620976
397.976778	0.611548
398.359466	0.608173
398.742092	0.603520
399.124656	0.615551
399.507158	0.602913
399.889598	0.600454
400.271977	0.591931
400.654294	0.595516
401.036549	0.594739
401.418742	0.598620
401.800874	0.584811
402.182944	0.581707
402.564952	0.573031
402.946898	0.575312
403.328783	0.576125
403.710606	0.587247
404.092367	0.562236
404.474067	0.567277
404.855705	0.566214
405.237282	0.574626
405.618797	0.561430
406.000250	0.556423
406.381642	0.546995
406.762972	0.552229
407.144240	0.550727
407.525447	0.550935
407.906593	0.543431
408.287677	0.538919
408.668700	0.547385
409.049661	0.541156
409.430560	0.536244
409.811399	0.544884
410.192176	0.526263
410.572891	0.533855
410.953545	0.522138
411.334138	0.535620
411.714669	0.527267
412.095139	0.540177
412.475547	0.524306
412.855894	0.525848
413.236180	0.524885
413.616405	0.530481
413.996568	0.520682
414.376670	0.527026
414.756711	0.531930
415.136691	0.528828
415.516609	0.519765
415.896466	0.516309
416.276262	0.512754
416.655997	0.514389
417.035670	0.495791
417.415283	0.487229
417.794834	0.492309
418.174324	0.497854
418.553753	0.506334
418.933121	0.488500
419.312428	0.482425
419.691674	0.488243
420.070859	0.476907
420.449983	0.484283
420.829045	0.474307
421.208047	0.482754
421.586988	0.476159
421.965867	0.474595
422.344686	0.463447
422.723444	0.476416
423.102141	0.493617
423.480777	0.465981
423.859352	0.486379
424.237866	0.464152
424.616319	0.464518
424.994712	0.455639
425.373044	0.466112
425.751314	0.454024
426.129524	0.471146
426.507673	0.454608
426.885762	0.447767
427.263789	0.453142
427.641756	0.462778
428.019662	0.453327
428.397508	0.452394
428.775292	0.456772
429.153016	0.448565
429.530679	0.454793
429.908282	0.447991
430.285824	0.458180
430.663305	0.436291
431.040726	0.458105
431.418086	0.457478
431.795385	0.449356
432.172624	0.448666
432.549802	0.448852
432.926920	0.447428
433.303977	0.447393
433.680974	0.444638
434.057910	0.442416
434.434786	0.441685
434.811601	0.444552
435.188355	0.427192
435.565050	0.436501
435.941683	0.437573
436.318257	0.421566
436.694770	0.422650
437.071222	0.421252
437.447614	0.424831
437.823946	0.431906
438.200218	0.421113
438.576429	0.430633
438.952580	0.423765
439.328670	0.420075
439.704700	0.426808
440.080670	0.428253
440.456580	0.409484
440.832429	0.417193
441.208218	0.428530
441.583947	0.417255
441.959616	0.416941
442.335224	0.422373
442.710773	0.412909
443.086261	0.410832
443.461689	0.424701
443.837057	0.414541
444.212365	0.404553
444.587612	0.411578
444.962800	0.401565
445.337927	0.403118
445.712995	0.429714
446.088002	0.391107
446.462949	0.401690
446.837837	0.407313
447.212664	0.394862
447.587431	0.386766
447.962139	0.356780
448.336786	0.315678
448.711374	0.326534
449.085901	0.371148
449.460369	0.375206
449.834776	0.379070
450.209124	0.357921
450.583412	0.350539
450.957640	0.343600
451.331808	0.354978
451.705917	0.378440
452.079965	0.383307
452.453954	0.371066
452.827883	0.378393
453.201752	0.372776
453.575562	0.384216
453.949311	0.372988
454.323001	0.378766
454.696632	0.374737
455.070202	0.367341
455.443713	0.359320
455.817164	0.353713
456.190556	0.349539
456.563888	0.346606
456.937160	0.343813
457.310373	0.361532
457.683526	0.360461
458.056619	0.365886
458.429653	0.366346
458.802628	0.369532
459.175542	0.363856
459.548398	0.346759
459.921194	0.339330
460.293930	0.339181
460.666607	0.316697
461.039224	0.305246
461.411782	0.300233
461.784280	0.300134
462.156719	0.304259
462.529099	0.308596
462.901419	0.324325
463.273680	0.329059
463.645882	0.328423
464.018024	0.334439
464.390106	0.326776
464.762130	0.311605
465.134094	0.294579
465.505999	0.263637
465.877845	0.233891
466.249631	0.220602
466.621358	0.228065
466.993026	0.242404
467.364634	0.248561
467.736184	0.257346
468.107674	0.266101
468.479105	0.265168
468.850477	0.271478
469.221790	0.278651
469.593043	0.288954
469.964238	0.293657
470.335373	0.293223
470.706449	0.291306
471.077467	0.291982
471.448425	0.254023
471.819324	0.229462
472.190164	0.228913
472.560945	0.257777
472.931667	0.280140
473.302330	0.284339
473.672934	0.296142
474.043479	0.284447
474.413965	0.286230
474.784393	0.289384
475.154761	0.284801
475.525070	0.281516
475.895321	0.287688
476.265513	0.281627
476.635645	0.277279
477.005719	0.277021
477.375734	0.273390
477.745691	0.266586
478.115588	0.262864
478.485427	0.256689
478.855207	0.243407
479.224928	0.225798
479.594591	0.213771
479.964194	0.217299
480.333739	0.218548
480.703226	0.219894
481.072653	0.218413
481.442022	0.214141
481.811333	0.210600
482.180584	0.214165
482.549777	0.219696
482.918912	0.222896
483.287988	0.222651
483.657005	0.222391
484.025964	0.228528
484.394864	0.226054
484.763706	0.226802
485.132489	0.231807
485.501213	0.232479
485.869879	0.230958
486.238487	0.233808
486.607036	0.231776
486.975527	0.236346
487.343959	0.232236
487.712333	0.231476
488.080648	0.232789
488.448905	0.231756
488.817104	0.233138
489.185244	0.227517
489.553326	0.224580
489.921350	0.214433
490.289315	0.196993
490.657222	0.191813
491.025070	0.193063
491.392861	0.195005
491.760593	0.201089
492.128267	0.206709
492.495883	0.211808
492.863440	0.218325
493.230939	0.224981
493.598380	0.226340
493.965763	0.228323
494.333088	0.230432
494.700354	0.232180
495.067563	0.231062
495.434713	0.234521
495.801805	0.232043
496.168839	0.233832
496.535815	0.235492
496.902733	0.235049
497.269593	0.236709
497.636395	0.234205
498.003139	0.234646
498.369825	0.237586
498.736453	0.234123
499.103023	0.235857
499.469535	0.235330
499.835989	0.235424
500.202385	0.236460
500.568723	0.239518
500.935003	0.234640
501.301226	0.238947
501.667390	0.233300
502.033497	0.231381
502.399546	0.233994
502.765537	0.235959
503.131470	0.234598
503.497345	0.230889
503.863163	0.239564
504.228923	0.232512
504.594625	0.231074
504.960269	0.236719
505.325856	0.232211
505.691385	0.236473
506.056856	0.233127
506.422270	0.232547
506.787625	0.234756
507.152924	0.232495
507.518164	0.232572
507.883347	0.234402
508.248472	0.236278
508.613540	0.230969
508.978550	0.233755
509.343503	0.234195
509.708398	0.231740
510.073236	0.229563
510.438016	0.229206
510.802738	0.230235
511.167403	0.229300
511.532010	0.231575
511.896561	0.226731
512.261053	0.224997
512.625488	0.227592
512.989866	0.227911
513.354186	0.227933
513.718449	0.230053
514.082655	0.226401
514.446803	0.228465
514.810894	0.226452
515.174927	0.229091
515.538904	0.228554
515.902822	0.225388
516.266684	0.227519
516.630488	0.229051
516.994235	0.227938
517.357925	0.226618
517.721558	0.224742
518.085133	0.224272
518.448651	0.224205
518.812112	0.226627
519.175516	0.226356
519.538863	0.223281
519.902152	0.225725
520.265385	0.222284
520.628560	0.223807
520.991678	0.224612
521.354739	0.223381
521.717743	0.224473
522.080690	0.224920
522.443580	0.222150
522.806413	0.223166
523.169189	0.222884
523.531908	0.221505
523.894569	0.224737
524.257174	0.224685
524.619722	0.222551
524.982213	0.223816
525.344647	0.222419
525.707025	0.223557
526.069345	0.221605
526.431608	0.223265
526.793815	0.220991
527.155964	0.225549
527.518057	0.224346
527.880093	0.225143
528.242072	0.223735
528.603995	0.225929
528.965860	0.227743
529.327669	0.226516
529.689421	0.227376
530.051117	0.228238
530.412755	0.226037
530.774337	0.228383
531.135862	0.228864
531.497331	0.227791
531.858743	0.230908
532.220098	0.227544
532.581396	0.230065
532.942638	0.230460
533.303824	0.231890
533.664953	0.231408
534.026025	0.233338
534.387040	0.230875
534.747999	0.230890
535.108902	0.229800
535.469748	0.234942
535.830537	0.232450
536.191270	0.232987
536.551947	0.232496
536.912567	0.232768
537.273131	0.234341
537.633638	0.234879
537.994089	0.235189
538.354483	0.236115
538.714821	0.232830
539.075103	0.232912
539.435328	0.233533
539.795497	0.237219
540.155609	0.234059
540.515665	0.231812
540.875665	0.237774
541.235609	0.236191
541.595496	0.236140
541.955328	0.232657
542.315102	0.235544
542.674821	0.236632
543.034483	0.236412
543.394090	0.236159
543.753640	0.238094
544.113134	0.233277
544.472571	0.236533
544.831953	0.233223
545.191278	0.237663
545.550548	0.236541
545.909761	0.233772
546.268918	0.234423
546.628019	0.232760
546.987064	0.235551
547.346053	0.237200
547.704986	0.234805
548.063863	0.235219
548.422684	0.235499
548.781449	0.237394
549.140158	0.234985
549.498811	0.237542
549.857408	0.240672
550.215949	0.235618
550.574434	0.238767
550.932864	0.236785
551.291237	0.235244
551.649555	0.237146
552.007817	0.236534
552.366022	0.237411
552.724173	0.237388
553.082267	0.237803
553.440305	0.234925
553.798288	0.239019
554.156215	0.235682
554.514086	0.236278
554.871902	0.239795
555.229661	0.238946
555.587365	0.239421
555.945014	0.242253
556.302606	0.238977
556.660143	0.241419
557.017625	0.238071
557.375050	0.240105
557.732421	0.237298
558.089735	0.239301
558.446994	0.239246
558.804197	0.238227
559.161345	0.238472
559.518437	0.241866
559.875474	0.239816
560.232455	0.239040
560.589381	0.240380
560.946251	0.240315
561.303065	0.237853
561.659825	0.239284
562.016528	0.240887
562.373177	0.243606
562.729770	0.241064
563.086307	0.242736
563.442789	0.240762
563.799216	0.243687
564.155587	0.242513
564.511904	0.243723
564.868164	0.243527
565.224370	0.243441
565.580520	0.245123
565.936615	0.245011
566.292654	0.247983
566.648638	0.245089
567.004567	0.245928
567.360441	0.246510
567.716260	0.248313
568.072023	0.246065
568.427732	0.247036
568.783385	0.249528
569.138982	0.247469
569.494525	0.247113
569.850013	0.250200
570.205445	0.248728
570.560823	0.251239
570.916145	0.253070
571.271412	0.251313
571.626625	0.252727
571.981782	0.253224
572.336884	0.254182
572.691931	0.253847
573.046923	0.255387
573.401860	0.256316
573.756743	0.258162
574.111570	0.256907
574.466342	0.257826
574.821059	0.256491
575.175722	0.259591
575.530330	0.259173
575.884882	0.259356
576.239380	0.261278
576.593823	0.261941
576.948211	0.261486
577.302544	0.264729
577.656823	0.264500
578.011047	0.264610
578.365216	0.265254
578.719330	0.267022
579.073389	0.266375
579.427394	0.268182
579.781344	0.269250
580.135239	0.270242
580.489080	0.270158
580.842866	0.273328
581.196597	0.272983
581.550273	0.271620
581.903895	0.272690
582.257463	0.270789
582.610975	0.274500
582.964434	0.273351
583.317837	0.276011
583.671186	0.276523
584.024481	0.276368
584.377721	0.278616
584.730906	0.279561
585.084037	0.278734
585.437113	0.280933
585.790135	0.280264
586.143103	0.283161
586.496016	0.283980
586.848874	0.281975
587.201679	0.282458
587.554428	0.286022
587.907124	0.284455
588.259765	0.285419
588.612352	0.285661
588.964884	0.289643
589.317362	0.289157
589.669786	0.289125
590.022155	0.287288
590.374470	0.287000
590.726731	0.289184
591.078937	0.293990
591.431090	0.290492
591.783188	0.294215
592.135232	0.294959
592.487222	0.294999
592.839157	0.292882
593.191038	0.295541
593.542866	0.297388
593.894639	0.300480
594.246358	0.298954
594.598022	0.298308
594.949633	0.301623
595.301190	0.302588
595.652692	0.301807
596.004141	0.297638
596.355535	0.305598
596.706876	0.306507
597.058162	0.308941
597.409395	0.306110
597.760573	0.303859
598.111698	0.306901
598.462768	0.307418
598.813785	0.308792
599.164748	0.310173
599.515657	0.310465
599.866511	0.314240
600.217312	0.309094
600.568060	0.314580
600.918753	0.311219
601.269392	0.311461
601.619978	0.314738
601.970510	0.312513
602.320988	0.312665
602.671412	0.310336
603.021783	0.313014
603.372100	0.314208
603.722363	0.314270
604.072572	0.314735
604.422728	0.314277
604.772830	0.316975
605.122878	0.316383
605.472872	0.317258
605.822813	0.314921
606.172701	0.318304
606.522534	0.315222
606.872314	0.315572
607.222041	0.316533
607.571714	0.314247
607.921333	0.315724
608.270899	0.315773
608.620411	0.312315
608.969870	0.316467
609.319276	0.316175
609.668627	0.316339
610.017926	0.314725
610.367171	0.313317
610.716362	0.314161
611.065500	0.314076
611.414585	0.312987
611.763616	0.313277
612.112594	0.314077
612.461518	0.313023
612.810389	0.311035
613.159207	0.313357
613.507971	0.315117
613.856682	0.311338
614.205340	0.312271
614.553945	0.309855
614.902496	0.313000
615.250994	0.311128
615.599439	0.311796
615.947830	0.311116
616.296169	0.312409
616.644454	0.311943
616.992686	0.311389
617.340864	0.309658
617.688990	0.313342
618.037063	0.309848
618.385082	0.311907
618.733048	0.308484
619.080961	0.310875
619.428821	0.310098
619.776628	0.310184
620.124382	0.312490
620.472083	0.312723
620.819731	0.311971
621.167326	0.315619
621.514868	0.315459
621.862357	0.319739
622.209793	0.319223
622.557176	0.321686
622.904506	0.322745
623.251783	0.324909
623.599007	0.327405
623.946179	0.326799
624.293297	0.328904
624.640363	0.333149
624.987376	0.333264
625.334336	0.335345
625.681243	0.338409
626.028097	0.338688
626.374899	0.339645
626.721647	0.340160
627.068343	0.343260
627.414987	0.344299
627.761577	0.346224
628.108115	0.344527
628.454600	0.349810
628.801032	0.347293
629.147412	0.349234
629.493739	0.350190
629.840014	0.352801
630.186236	0.349871
630.532405	0.355738
630.878521	0.353285
631.224585	0.355344
631.570597	0.359049
631.916556	0.357450
632.262462	0.357285
632.608316	0.359711
632.954117	0.360245
633.299866	0.361489
633.645562	0.361761
633.991206	0.366161
634.336797	0.369019
634.682336	0.371431
635.027823	0.372973
635.373257	0.373627
635.718639	0.377369
636.063968	0.376516
636.409245	0.382502
636.754470	0.382573
637.099642	0.384814
637.444762	0.388847
637.789829	0.387527
638.134845	0.391131
638.479808	0.392059
638.824719	0.391647
639.169577	0.396174
639.514383	0.395540
639.859137	0.399375
640.203839	0.399182
640.548489	0.399569
640.893086	0.400849
641.237632	0.403120
641.582125	0.400999
641.926566	0.403053
642.270955	0.403264
642.615292	0.402769
642.959576	0.402236
643.303809	0.403196
643.647990	0.402289
643.992118	0.403578
644.336195	0.405786
644.680219	0.404678
645.024192	0.405480
645.368112	0.398895
645.711981	0.398115
646.055797	0.393005
646.399562	0.395434
646.743274	0.388594
647.086935	0.384965
647.430544	0.385106
647.774101	0.383915
648.117606	0.383999
648.461059	0.384617
648.804460	0.386922
649.147810	0.391603
649.491108	0.393316
649.834354	0.395196
650.177548	0.400374
650.520690	0.405555
650.863781	0.407318
651.206820	0.406293
651.549807	0.410829
651.892742	0.414972
652.235626	0.414725
652.578458	0.415628
652.921238	0.422064
653.263967	0.419437
653.606644	0.423002
653.949269	0.423370
654.291843	0.426939
654.634365	0.423824
654.976836	0.426591
655.319255	0.427914
655.661622	0.429164
656.003938	0.429248
656.346203	0.431484
656.688416	0.430021
657.030577	0.433176
657.372687	0.435338
657.714746	0.435884
658.056753	0.433007
658.398708	0.436926
658.740612	0.437914
659.082465	0.433885
659.424266	0.434756
659.766016	0.434162
660.107715	0.437212
660.449362	0.435608
660.790958	0.435794
661.132503	0.438179
661.473996	0.434298
661.815438	0.435512
662.156829	0.436340
662.498168	0.436627
662.839456	0.438018
663.180693	0.435786
663.521879	0.435351
663.863013	0.436625
664.204097	0.434762
664.545129	0.431448
664.886110	0.432430
665.227040	0.429576
665.567918	0.431788
665.908746	0.430008
666.249522	0.429746
666.590248	0.430734
666.930922	0.428524
667.271545	0.427826
667.612118	0.427706
667.952639	0.429516
668.293109	0.427751
668.633528	0.430692
668.973896	0.430547
669.314213	0.431163
669.654480	0.433104
669.994695	0.433313
670.334859	0.433839
670.674973	0.434110
671.015035	0.434435
671.355047	0.433921
671.695008	0.434740
672.034918	0.437045
672.374777	0.436613
672.714585	0.437682
673.054342	0.437229
673.394049	0.437521
673.733705	0.435181
674.073310	0.436832
674.412864	0.439979
674.752368	0.440442
675.091820	0.440365
675.431223	0.445075
675.770574	0.444495
676.109875	0.447757
676.449125	0.447233
676.788324	0.450279
677.127473	0.455130
677.466571	0.455094
677.805619	0.456449
678.144616	0.458350
678.483562	0.459980
678.822458	0.462550
679.161303	0.463006
679.500098	0.463637
679.838842	0.464930
680.177535	0.464468
680.516179	0.463029
680.854771	0.462197
681.193314	0.455534
681.531805	0.447150
681.870247	0.435737
682.208638	0.427716
682.546978	0.427044
682.885268	0.428427
683.223508	0.434848
683.561697	0.439333
683.899836	0.441450
684.237925	0.444164
684.575963	0.447696
684.913951	0.450546
685.251889	0.445277
685.589776	0.448130
685.927614	0.450513
686.265401	0.444129
686.603137	0.445808
686.940824	0.439594
687.278460	0.438549
687.616046	0.437554
687.953582	0.432493
688.291068	0.433755
688.628504	0.429261
688.965889	0.431986
689.303224	0.435649
689.640510	0.439546
689.977745	0.445283
690.314930	0.453217
690.652065	0.457915
690.989150	0.465269
691.326185	0.471737
691.663170	0.476927
692.000105	0.484559
692.336990	0.491095
692.673825	0.493484
693.010610	0.500518
693.347345	0.506134
693.684030	0.507592
694.020665	0.512367
694.357251	0.521213
694.693786	0.520763
695.030272	0.523244
695.366707	0.528758
695.703093	0.532538
696.039429	0.529537
696.375716	0.531816
696.711952	0.533957
697.048139	0.536075
697.384276	0.538083
697.720363	0.537103
698.056400	0.535207
698.392388	0.541611
698.728326	0.543678
699.064214	0.546957
699.400053	0.546745
699.735842	0.551000
700.071581	0.553585
700.407270	0.556870
700.742910	0.560085
701.078501	0.565702
701.414042	0.566513
701.749533	0.569513
702.084974	0.578786
702.420366	0.570986
702.755709	0.578090
703.091002	0.587051
703.426246	0.580181
703.761440	0.585434
704.096584	0.590667
704.431679	0.587231
704.766725	0.589898
705.101721	0.591396
705.436668	0.587465
705.771565	0.594271
706.106413	0.590175
706.441212	0.585858
706.775961	0.585734
707.110661	0.587609
707.445311	0.583881
707.779913	0.581621
708.114465	0.580374
708.448967	0.576569
708.783421	0.568481
709.117825	0.563146
709.452180	0.562804
709.786485	0.556575
710.120742	0.546442
710.454949	0.548281
710.789107	0.540575
711.123216	0.531141
711.457275	0.532660
711.791286	0.524343
712.125247	0.523176
712.459159	0.533581
712.793023	0.526380
713.126837	0.530475
713.460602	0.530633
713.794318	0.540031
714.127985	0.539317
714.461602	0.549466
714.795171	0.551911
715.128691	0.560219
715.462162	0.568522
715.795584	0.574237
716.128957	0.576454
716.462281	0.583273
716.795556	0.587172
717.128782	0.592007
717.461960	0.601698
717.795088	0.599505
718.128167	0.606218
718.461198	0.614035
718.794180	0.615962
719.127113	0.618485
719.459997	0.620857
719.792833	0.627946
720.125619	0.629425
720.458357	0.634550
720.791046	0.635154
721.123686	0.638222
721.456278	0.644772
721.788821	0.642641
722.121315	0.647499
722.453761	0.651500
722.786158	0.648696
723.118506	0.644957
723.450805	0.652932
723.783056	0.650064
724.115259	0.646179
724.447412	0.646594
724.779518	0.647355
725.111574	0.646164
725.443582	0.641882
725.775542	0.644447
726.107453	0.636122
726.439315	0.636386
726.771129	0.634657
727.102895	0.627851
727.434612	0.620573
727.766281	0.618779
728.097901	0.616950
728.429473	0.617294
728.760996	0.616127
729.092471	0.616909
729.423897	0.619976
729.755276	0.619185
730.086606	0.618632
730.417887	0.614072
730.749120	0.603941
731.080305	0.594596
731.411442	0.590488
731.742530	0.595065
732.073570	0.594113
732.404562	0.587544
732.735506	0.588727
733.066401	0.593157
733.397249	0.602552
733.728048	0.613805
734.058798	0.626901
734.389501	0.637806
734.720156	0.647851
735.050762	0.655310
735.381320	0.656742
735.711831	0.664591
736.042293	0.669682
736.372707	0.666895
736.703073	0.670221
737.033391	0.672223
737.363661	0.669704
737.693883	0.665247
738.024056	0.664010
738.354182	0.664489
738.684260	0.653494
739.014290	0.649373
739.344272	0.651574
739.674207	0.643495
740.004093	0.644060
740.333931	0.643853
740.663722	0.643543
740.993464	0.644912
741.323159	0.647361
741.652806	0.653228
741.982405	0.657800
742.311956	0.663522
742.641460	0.664586
742.970915	0.668285
743.300323	0.675995
743.629683	0.682026
743.958996	0.685295
744.288260	0.688441
744.617477	0.694994
744.946647	0.696241
745.275768	0.701922
745.604842	0.701664
745.933869	0.711892
746.262847	0.713869
746.591778	0.706431
746.920662	0.713341
747.249498	0.719469
747.578286	0.710132
747.907027	0.705784
748.235720	0.706488
748.564365	0.702504
748.892963	0.701609
749.221514	0.705435
749.550017	0.709256
749.878473	0.710066
750.206881	0.716804
750.535242	0.717359
750.863555	0.715506
751.191821	0.717359
751.520039	0.720907
751.848210	0.724239
752.176334	0.718629
752.504411	0.717164
752.832440	0.725685
753.160421	0.729526
753.488356	0.726929
753.816243	0.724346
754.144082	0.733370
754.471875	0.736835
754.799620	0.733071
755.127318	0.734253
755.454969	0.734982
755.782572	0.734511
756.110129	0.738081
756.437638	0.741726
756.765100	0.737846
757.092515	0.735157
757.419882	0.734655
757.747203	0.739201
758.074477	0.740190
758.401703	0.736059
758.728882	0.731728
759.056014	0.730308
759.383099	0.729309
759.710138	0.729724
760.037129	0.726104
760.364073	0.720343
760.690970	0.723696
761.017820	0.727885
761.344623	0.724714
761.671379	0.715233
761.998088	0.702863
762.324751	0.679921
762.651366	0.637208
762.977935	0.569603
763.304456	0.518057
763.630931	0.508064
763.957359	0.547107
764.283740	0.591964
764.610074	0.619482
764.936362	0.652473
765.262602	0.679108
765.588796	0.700354
765.914943	0.717272
766.241044	0.735739
766.567097	0.741854
766.893104	0.753632
767.219064	0.759288
767.544978	0.765221
767.870845	0.778720
768.196665	0.783540
768.522438	0.781591
768.848165	0.782786
769.173846	0.791417
769.499479	0.795558
769.825066	0.800383
770.150607	0.806423
770.476101	0.800494
770.801548	0.801347
771.126949	0.813484
771.452303	0.816946
771.777611	0.815731
772.102872	0.814261
772.428087	0.820692
772.753256	0.823944
773.078378	0.826109
773.403453	0.834325
773.728482	0.839004
774.053465	0.832609
774.378401	0.835751
774.703291	0.844453
775.028135	0.845142
775.352932	0.844886
775.677683	0.848225
776.002388	0.850631
776.327046	0.848679
776.651658	0.853811
776.976224	0.855153
777.300743	0.855570
777.625216	0.858215
777.949643	0.860253
778.274024	0.859150
778.598359	0.861401
778.922647	0.859927
779.246889	0.861011
779.571086	0.864427
779.895236	0.866485
780.219339	0.864666
780.543397	0.860547
780.867409	0.859563
781.191374	0.861646
781.515294	0.862724
781.839167	0.862814
782.162995	0.864571
782.486776	0.862650
782.810511	0.863067
783.134201	0.867795
783.457844	0.865431
783.781441	0.867989
784.104993	0.873267
784.428498	0.872985
784.751958	0.869140
785.075372	0.872230
785.398739	0.875261
785.722061	0.870768
786.045337	0.868549
786.368568	0.871677
786.691752	0.874529
787.014891	0.859961
787.337983	0.850035
787.661030	0.844126
787.984031	0.825095
788.306987	0.813758
788.629897	0.813838
788.952760	0.819564
789.275579	0.823956
789.598351	0.840322
789.921078	0.852718
790.243759	0.854573
790.566395	0.858829
790.888984	0.866828
791.211529	0.871468
791.534027	0.875169
791.856480	0.877812
792.178888	0.881639
792.501249	0.884594
792.823566	0.886899
793.145836	0.885921
793.468062	0.887627
793.790241	0.888622
794.112375	0.886144
794.434464	0.883047
794.756507	0.881658
795.078505	0.879844
795.400457	0.874476
795.722364	0.863557
796.044226	0.857036
796.366042	0.854910
796.687812	0.857642
797.009538	0.853587
797.331218	0.857731
797.652852	0.862685
797.974442	0.866799
798.295986	0.868756
798.617484	0.868128
798.938938	0.874311
799.260346	0.878428
799.581709	0.881112
799.903026	0.883388
800.224299	0.882894
800.545526	0.887075
800.866708	0.890139
801.187845	0.896499
801.508936	0.894963
801.829983	0.891365
802.150984	0.895988
802.471940	0.900930
802.792851	0.899516
803.113717	0.902292
803.434538	0.899131
803.755314	0.902298
804.076045	0.903177
804.396731	0.902363
804.717372	0.901707
805.037967	0.905456
805.358518	0.902837
805.679024	0.900057
805.999485	0.900294
806.319901	0.899330
806.640272	0.901607
806.960598	0.899248
807.280879	0.896345
807.601115	0.894998
807.921306	0.900131
808.241453	0.899838
808.561554	0.897645
808.881611	0.897395
809.201623	0.898595
809.521590	0.899152
809.841513	0.900333
810.161390	0.898850
810.481223	0.901567
810.801011	0.905076
811.120755	0.906201
811.440453	0.904402
811.760107	0.904311
812.079716	0.904182
812.399281	0.907346
812.718801	0.909611
813.038276	0.910619
813.357707	0.911144
813.677093	0.908614
813.996434	0.910722
814.315731	0.911896
814.634983	0.913483
814.954191	0.912558
815.273354	0.907870
815.592473	0.904674
815.911547	0.905671
816.230577	0.901349
816.549562	0.899261
816.868502	0.898181
817.187399	0.897199
817.506250	0.891503
817.825058	0.891660
818.143821	0.889101
818.462539	0.883196
818.781213	0.876339
819.099843	0.865070
819.418429	0.847071
819.736970	0.830487
820.055466	0.809998
820.373919	0.784278
820.692327	0.751659
821.010691	0.715478
821.329011	0.634629
821.647286	0.517549
821.965517	0.402934
822.283704	0.359470
822.601847	0.360063
822.919945	0.396222
823.237999	0.430845
823.556010	0.479129
823.873976	0.535428
824.191897	0.586959
824.509775	0.630397
824.827609	0.676261
825.145398	0.700516
825.463144	0.701677
825.780845	0.683945
826.098502	0.665642
826.416116	0.619628
826.733685	0.574664
827.051210	0.564872
827.368692	0.581254
827.686129	0.619455
828.003522	0.673690
828.320872	0.722652
828.638177	0.766682
828.955439	0.800531
829.272656	0.821861
829.589830	0.839550
829.906960	0.855754
830.224046	0.869761
830.541088	0.879310
830.858086	0.884075
831.175041	0.891716
831.491952	0.889188
831.808819	0.885587
832.125642	0.878411
832.442421	0.865916
832.759157	0.841581
833.075849	0.793940
833.392497	0.728810
833.709101	0.687368
834.025662	0.697276
834.342179	0.729892
834.658653	0.769170
834.975083	0.806788
835.291469	0.833816
835.607811	0.856487
835.924110	0.874043
836.240366	0.891073
836.556578	0.903674
836.872746	0.911335
837.188871	0.917839
837.504952	0.924209
837.820990	0.926934
838.136984	0.930179
838.452935	0.934195
838.768842	0.934086
839.084706	0.928637
839.400526	0.901956
839.716303	0.860117
840.032037	0.838070
840.347727	0.841281
840.663373	0.859523
840.978977	0.882221
841.294537	0.905597
841.610054	0.921919
841.925527	0.928064
842.240957	0.936748
842.556344	0.944411
842.871687	0.949103
843.186987	0.953195
843.502244	0.955132
843.817458	0.955299
844.132629	0.959947
844.447756	0.963725
844.762840	0.964388
845.077881	0.965688
845.392879	0.963073
845.707833	0.967300
846.022745	0.969450
846.337613	0.969825
846.652438	0.970300
846.967221	0.970000
847.281960	0.971864
847.596656	0.972769
847.911309	0.971688
848.225919	0.972399
848.540485	0.973936
848.855009	0.975134
849.169490	0.973525
849.483928	0.973736
849.798323	0.973404
850.112675	0.975317
850.426984	0.974427
850.741251	0.974345
851.055474	0.974763
851.369654	0.973303
851.683792	0.973879
851.997887	0.975610
852.311938	0.975278
852.625947	0.973435
852.939914	0.972219
853.253837	0.974958
853.567718	0.975116
853.881555	0.974926
854.195350	0.973492
854.509103	0.973698
854.822812	0.975058
855.136479	0.975769
855.450103	0.973410
855.763685	0.973007
856.077224	0.974582
856.390720	0.976515
856.704173	0.975036
857.017584	0.973614
857.330953	0.972689
857.644278	0.971632
857.957561	0.973362
858.270802	0.974165
858.584000	0.973150
858.897155	0.971840
859.210268	0.971136
859.523339	0.974427
859.836367	0.975732
860.149352	0.973853
860.462295	0.974165
860.775195	0.973741
861.088054	0.973799
861.400869	0.975583
861.713642	0.975002
862.026373	0.975665
862.339062	0.974742
862.651708	0.973540
862.964312	0.974178
863.276873	0.973554
863.589392	0.972537
863.901869	0.970769
864.214303	0.968738
864.526696	0.967888
864.839045	0.968013
865.151353	0.967158
865.463619	0.966073
865.775842	0.966995
866.088023	0.968058
866.400162	0.966921
866.712258	0.968271
867.024313	0.968649
867.336325	0.969854
867.648296	0.968187
867.960224	0.965706
868.272110	0.966812
868.583954	0.968302
868.895755	0.969882
869.207515	0.965680
869.519233	0.964605
869.830909	0.965283
870.142542	0.966511
870.454134	0.967130
870.765684	0.963728
871.077191	0.964437
871.388657	0.962809
871.700081	0.963200
872.011463	0.963596
872.322803	0.961808
872.634101	0.961337
872.945357	0.957919
873.256571	0.956012
873.567744	0.957262
873.878874	0.958367
874.189963	0.957032
874.501010	0.958625
874.812015	0.954467
875.122979	0.953460
875.433900	0.956726
875.744780	0.958269
876.055618	0.955349
876.366415	0.953533
876.677169	0.952504
876.987882	0.955038
877.298554	0.955116
877.609183	0.951999
877.919771	0.948579
878.230317	0.947154
878.540822	0.943496
878.851285	0.938198
879.161707	0.929245
879.472087	0.917793
879.782425	0.900532
880.092722	0.865000
880.402977	0.810646
880.713191	0.747212
881.023363	0.686584
881.333494	0.650749
881.643583	0.624403
881.953631	0.624139
882.263637	0.652493
882.573602	0.692633
882.883526	0.718976
883.193408	0.744841
883.503248	0.767120
883.813048	0.795076
884.122806	0.827681
884.432522	0.851141
884.742197	0.870867
885.051831	0.882686
885.361424	0.893277
885.670975	0.906549
885.980485	0.915645
886.289954	0.921537
886.599382	0.925845
886.908768	0.931022
887.218113	0.936723
887.527417	0.942778
887.836680	0.944880
888.145901	0.946546
888.455082	0.950305
888.764221	0.954932
889.073319	0.956715
889.382376	0.957002
889.691392	0.955381
890.000366	0.957237
890.309300	0.958219
890.618193	0.957752
890.927044	0.954888
891.235855	0.955972
891.544625	0.955796
891.853353	0.955627
892.162041	0.952818
892.470687	0.946943
892.779293	0.940595
893.087858	0.936026
893.396381	0.928617
893.704864	0.914498
894.013306	0.890912
894.321707	0.863995
894.630068	0.847303
894.938387	0.842664
895.246665	0.843841
895.554903	0.856756
895.863100	0.870588
896.171256	0.887579
896.479371	0.907579
896.787446	0.920491
897.095480	0.928289
897.403473	0.930416
897.711425	0.935419
898.019336	0.942566
898.327207	0.948080
898.635038	0.946927
898.942827	0.949316
899.250576	0.952473
899.558284	0.956365
899.865952	0.958277
900.173579	0.958877
900.481165	0.960141
900.788711	0.961556
901.096216	0.965359
901.403681	0.967361
901.711105	0.966335
902.018489	0.967102
902.325832	0.966417
902.633135	0.965008
902.940397	0.960849
903.247619	0.946412
903.554800	0.920351
903.861941	0.879219
904.169041	0.841200
904.476101	0.823515
904.783121	0.824643
905.090100	0.840730
905.397039	0.863209
905.703938	0.886208
906.010796	0.907551
906.317614	0.924899
906.624391	0.938061
906.931129	0.947756
907.237826	0.955462
907.544483	0.962369
907.851099	0.967409
908.157675	0.970410
908.464211	0.974219
908.770707	0.977314
909.077163	0.979458
909.383578	0.979806
909.689954	0.980739
909.996289	0.981465
910.302584	0.983547
910.608839	0.983257
910.915054	0.983413
911.221229	0.984377
911.527363	0.980849
911.833458	0.983278
912.139513	0.982223
912.445527	0.981631
912.751502	0.978583
913.057436	0.975799
913.363331	0.975722
913.669186	0.970704
913.975000	0.965857
914.280775	0.958327
914.586510	0.951943
914.892205	0.938015
915.197859	0.914524
915.503475	0.886237
915.809050	0.866374
916.114585	0.859998
916.420081	0.856332
916.725536	0.855355
917.030952	0.861883
917.336328	0.875588
917.641665	0.891771
917.946961	0.907749
918.252218	0.919343
918.557435	0.928665
918.862612	0.937639
919.167750	0.943464
919.472848	0.950601
919.777906	0.956806
920.082925	0.961557
920.387904	0.965599
920.692843	0.966509
920.997743	0.968350
921.302603	0.970972
921.607423	0.973164
921.912204	0.976732
922.216946	0.978599
922.521647	0.977799
922.826310	0.979610
923.130932	0.980880
923.435516	0.984035
923.740059	0.983806
924.044564	0.985855
924.349028	0.984949
924.653454	0.987615
924.957840	0.988391
925.262186	0.988349
925.566493	0.989232
925.870761	0.989712
926.174989	0.991201
926.479178	0.992888
926.783328	0.992781
927.087438	0.992873
927.391509	0.993262
927.695541	0.994938
927.999533	0.995356
928.303486	0.994010
928.607400	0.995936
928.911275	0.995210
929.215110	0.997191
929.518906	0.995434
929.822663	0.996345
930.126381	0.995735
930.430060	0.995234
930.733699	0.996091
931.037299	0.995724
931.340861	0.994877
931.644383	0.993865
931.947866	0.995086
932.251309	0.995351
932.554714	0.996000
932.858080	0.996499
933.161407	0.995028
933.464694	0.996294
933.767943	0.995774
934.071153	0.996213
934.374323	0.997277
934.677455	0.996505
934.980548	0.995870
935.283602	0.996364
935.586617	0.996287
935.889593	0.997467
936.192530	0.998028
936.495428	0.996742
936.798287	0.995844
937.101108	0.995538
937.403890	0.994214
937.706632	0.994687
938.009336	0.992493
938.312002	0.990135
938.614628	0.989454
938.917216	0.987528
939.219765	0.986231
939.522275	0.987755
939.824747	0.988397
940.127179	0.989217
940.429573	0.990653
940.731929	0.988986
941.034246	0.989321
941.336524	0.990026
941.638763	0.990741
941.940964	0.991380
942.243126	0.991731
942.545250	0.993205
942.847335	0.993262
943.149381	0.993549
943.451389	0.992950
943.753359	0.994143
944.055290	0.995754
944.357182	0.995155
944.659036	0.995221
944.960851	0.995893
945.262628	0.995295
945.564367	0.995309
945.866067	0.995932
946.167729	0.995307
946.469352	0.995350
946.770937	0.992952
947.072484	0.995566
947.373992	0.995231
947.675462	0.994569
947.976893	0.995023
948.278286	0.997262
948.579641	0.996840
948.880958	0.996185
949.182236	0.995581
949.483476	0.996334
949.784678	0.996264
950.085841	0.995699
950.386967	0.996136
950.688054	0.995847
950.989103	0.994839
951.290114	0.994354
951.591087	0.994761
951.892021	0.993665
952.192917	0.994588
952.493776	0.993173
952.794596	0.994205
953.095378	0.993137
953.396122	0.993716
953.696828	0.995081
953.997496	0.994409
954.298126	0.995560
954.598718	0.994938
954.899272	0.995861
955.199788	0.996029
955.500266	0.997645
955.800706	0.996948
956.101108	0.997326
956.401472	0.999493
956.701798	0.998430
957.002087	0.998991
957.302337	0.999868
957.602550	1.000167
957.902724	1.001037
958.202861	0.999938
958.502960	1.000954
958.803022	1.001810
959.103045	1.000611
959.403031	1.003289
959.702979	1.001669
960.002889	1.000743
960.302762	1.001739
960.602596	1.001760
960.902393	1.002411
961.202153	1.002528
961.501875	1.002448
961.801559	1.002065
962.101205	1.001497
962.400814	1.002468
962.700385	1.003264
962.999918	1.003283
963.299414	1.002526
963.598873	1.002693
963.898293	1.002300
964.197677	1.002377
964.497022	1.002527
964.796331	1.002813
965.095601	1.002812
965.394835	1.002699
965.694030	1.003712
965.993189	1.002755
966.292309	1.004572
966.591393	1.002585
966.890439	1.002333
967.189447	1.001800
967.488419	1.001628
967.787353	1.002069
968.086249	1.002671
968.385108	1.002229
968.683930	1.004677
968.982714	1.002220
969.281462	1.002212
969.580172	1.003224
969.878844	1.003729
970.177480	1.003686
970.476078	1.003558
970.774639	1.002790
971.073162	1.001647
971.371649	1.003218
971.670098	1.001336
971.968510	1.002533
972.266885	1.001556
972.565223	1.002007
972.863524	1.001636
973.161788	1.001122
973.460014	1.003560
973.758204	1.002395
974.056356	1.002605
974.354471	1.001679
974.652550	1.003575
974.950591	1.001820
975.248595	1.001097
975.546563	1.003334
975.844493	1.001652
976.142386	1.001380
976.440243	1.002998
976.738062	1.002663
977.035845	1.001593
977.333590	1.003552
977.631299	1.002979
977.928971	1.002706
978.226606	1.003681
978.524204	1.001888
978.821765	1.003450
979.119290	1.003767
979.416777	1.003482
979.714228	1.002400
980.011642	1.004293
980.309020	1.002874
980.606360	1.003279
980.903664	1.002219
981.200931	1.001131
981.498162	1.000861
981.795356	1.000896
982.092513	1.000156
982.389633	1.000182
982.686717	0.996630
982.983764	0.997379
983.280775	0.995560
983.577749	0.997091
983.874686	0.996192
984.171587	0.998020
984.468451	0.999079
984.765279	1.000493
985.062070	1.001077
985.358824	1.000874
985.655543	1.001144
985.952224	1.000360
986.248869	1.002036
986.545478	1.003574
986.842050	1.002316
987.138586	1.002672
987.435086	1.002723
987.731549	1.004104
988.027975	1.003557
988.324366	1.003213
988.620719	1.005662
988.917037	1.004412
989.213318	1.004324
989.509563	1.003943
989.805772	1.004095
990.101944	1.004892
990.398080	1.004983
990.694180	1.004793
990.990244	1.004025
991.286271	1.003260
991.582262	1.005599
991.878217	1.003166
992.174136	1.004408
992.470019	1.004373
992.765865	1.005301
993.061676	1.003669
993.357450	1.004899
993.653188	1.004892
993.948890	1.004426
994.244556	1.003725
994.540186	1.004285
994.835780	1.003500
995.131337	1.004841
995.426859	1.002455
995.722345	1.002829
996.017795	1.002038
996.313208	1.002005
996.608586	1.002305
996.903928	1.002696
997.199234	1.002113
997.494504	1.003022
997.789738	1.000866
998.084936	1.004210
998.380099	1.002070
998.675225	1.004048
998.970316	1.003189
999.265371	1.003139
999.560390	1.003548
999.855373	1.003599
1000.150320	1.003422
1000.445232	1.004197
1000.740108	1.004800
1001.034948	1.002930
1001.329752	1.004542
1001.624521	1.003975
1001.919254	1.003860
1002.213951	1.003989
1002.508613	1.003632
1002.803239	1.003673
1003.097829	1.003961
1003.392384	1.005293
1003.686903	1.004673
1003.981386	1.004867
1004.275834	1.005731
1004.570246	1.003346
1004.864623	1.005332
1005.158964	1.004294
1005.453270	1.004360
1005.747540	1.004598
1006.041775	1.004922
1006.335974	1.005631
1006.630138	1.005445
1006.924266	1.004407
1007.218359	1.003600
1007.512416	1.004649
1007.806438	1.004431
1008.100425	1.004229
1008.394376	1.006244
1008.688292	1.005363
1008.982172	1.004350
1009.276017	1.004769
1009.569827	1.005550
1009.863602	1.003630
1010.157341	1.005727
1010.451045	1.003783
1010.744714	1.005258
1011.038347	1.004864
1011.331945	1.004133
1011.625508	1.003418
1011.919036	1.004354
1012.212528	1.004359
1012.505986	1.004664
1012.799408	1.005626
1013.092795	1.005570
1013.386147	1.004405
1013.679464	1.004945
1013.972745	1.004211
1014.265992	1.004488
1014.559204	1.003685
1014.852380	1.006106
1015.145521	1.003769
1015.438628	1.005432
1015.731699	1.004204
1016.024736	1.005023
1016.317737	1.005203
1016.610703	1.005968
1016.903635	1.005440
1017.196531	1.005457
1017.489393	1.004093
1017.782219	1.003633
1018.075011	1.003872
1018.367768	1.005428
1018.660490	1.004642
1018.953177	1.004642
1019.245829	1.004642
