Dividing Wavelength (nm)	Counts (n)	Blue Motor Position (mm): 2.700000	Red Motor Position (mm): 0.000000	
326.493990	1.005489
326.888308	1.005489
327.282561	1.005489
327.676750	1.006182
328.070874	1.007731
328.464933	1.008126
328.858929	1.008113
329.252859	1.006347
329.646726	1.006523
330.040528	1.005981
330.434265	1.007036
330.827938	1.006028
331.221547	1.007623
331.615091	1.006820
332.008571	1.007577
332.401986	1.005679
332.795338	1.005305
333.188625	1.006669
333.581847	1.007271
333.975006	1.007473
334.368100	1.006799
334.761129	1.005082
335.154095	1.007072
335.546996	1.004992
335.939833	0.999532
336.332606	0.999863
336.725315	0.998805
337.117960	0.999519
337.510540	0.999022
337.903056	0.999371
338.295508	1.000351
338.687896	1.000335
339.080220	0.999443
339.472480	0.998539
339.864676	0.999597
340.256807	0.998724
340.648875	0.999575
341.040879	1.000216
341.432818	1.000172
341.824694	0.999013
342.216506	0.998748
342.608253	1.000348
342.999937	0.998693
343.391557	0.998706
343.783113	1.000316
344.174605	0.999365
344.566033	0.998446
344.957397	1.000686
345.348697	0.999844
345.739934	0.999594
346.131106	0.998684
346.522215	0.999001
346.913260	0.999081
347.304241	0.998413
347.695159	1.000731
348.086012	0.998580
348.476802	0.999084
348.867528	0.998750
349.258191	0.999752
349.648789	0.999319
350.039324	0.998970
350.429796	0.998020
350.820203	0.998453
351.210548	0.999433
351.600828	0.999537
351.991045	0.999065
352.381198	0.999832
352.771288	0.998894
353.161314	0.999502
353.551276	0.998766
353.941175	0.996838
354.331010	0.999863
354.720782	0.998056
355.110490	0.998435
355.500135	0.997672
355.889717	0.997818
356.279235	0.998605
356.668689	0.999169
357.058080	0.998900
357.447408	0.997909
357.836672	0.999008
358.225873	0.998079
358.615010	0.998401
359.004084	0.996931
359.393095	0.998954
359.782043	0.997548
360.170927	0.997902
360.559748	0.998881
360.948505	0.997650
361.337199	0.998249
361.725830	0.998071
362.114398	0.997890
362.502903	0.996513
362.891344	0.997422
363.279722	0.997533
363.668037	0.998157
364.056289	0.997321
364.444478	0.999146
364.832603	0.996505
365.220665	0.998170
365.608665	0.996616
365.996601	0.997197
366.384474	0.995888
366.772284	0.997274
367.160031	0.995182
367.547715	0.995713
367.935336	0.995356
368.322893	0.993892
368.710388	0.993237
369.097820	0.991504
369.485189	0.990218
369.872495	0.987897
370.259738	0.985964
370.646918	0.981844
371.034035	0.979673
371.421090	0.976651
371.808081	0.972044
372.195010	0.969519
372.581875	0.964772
372.968678	0.959292
373.355418	0.955572
373.742096	0.949309
374.128710	0.943649
374.515262	0.939914
374.901751	0.934013
375.288177	0.928837
375.674540	0.922219
376.060841	0.916864
376.447079	0.909304
376.833254	0.902683
377.219367	0.897483
377.605417	0.886746
377.991404	0.883502
378.377329	0.876908
378.763191	0.870558
379.148991	0.862375
379.534727	0.853509
379.920402	0.846225
380.306013	0.842520
380.691563	0.829687
381.077049	0.822146
381.462474	0.818195
381.847835	0.807628
382.233134	0.802258
382.618371	0.803427
383.003545	0.785822
383.388657	0.783892
383.773706	0.776037
384.158693	0.771377
384.543618	0.766245
384.928480	0.757796
385.313280	0.748306
385.698017	0.747347
386.082692	0.735133
386.467305	0.733982
386.851856	0.728826
387.236344	0.723706
387.620770	0.718176
388.005133	0.712222
388.389435	0.706246
388.773674	0.704431
389.157851	0.695358
389.541965	0.693753
389.926018	0.699782
390.310008	0.686201
390.693936	0.683699
391.077802	0.676076
391.461606	0.677753
391.845348	0.666374
392.229027	0.666282
392.612645	0.664131
392.996200	0.651673
393.379694	0.644108
393.763125	0.634137
394.146494	0.640424
394.529801	0.629515
394.913047	0.621436
395.296230	0.627465
395.679351	0.618697
396.062410	0.616032
396.445408	0.618437
396.828343	0.614071
397.211217	0.608906
397.594028	0.621885
397.976778	0.611166
398.359466	0.607185
398.742092	0.603336
399.124656	0.614776
399.507158	0.603728
399.889598	0.600407
400.271977	0.592138
400.654294	0.595489
401.036549	0.594332
401.418742	0.599728
401.800874	0.584433
402.182944	0.581870
402.564952	0.573337
402.946898	0.575538
403.328783	0.576154
403.710606	0.587530
404.092367	0.562702
404.474067	0.567257
404.855705	0.565909
405.237282	0.575086
405.618797	0.561340
406.000250	0.557062
406.381642	0.547387
406.762972	0.552281
407.144240	0.550746
407.525447	0.550046
407.906593	0.543290
408.287677	0.538770
408.668700	0.547389
409.049661	0.541127
409.430560	0.536341
409.811399	0.544339
410.192176	0.527020
410.572891	0.533902
410.953545	0.521769
411.334138	0.535669
411.714669	0.527560
412.095139	0.539503
412.475547	0.524542
412.855894	0.526042
413.236180	0.524791
413.616405	0.530311
413.996568	0.520671
414.376670	0.526998
414.756711	0.531363
415.136691	0.528274
415.516609	0.519611
415.896466	0.516300
416.276262	0.511955
416.655997	0.513664
417.035670	0.495364
417.415283	0.487251
417.794834	0.492058
418.174324	0.497997
418.553753	0.506481
418.933121	0.488694
419.312428	0.482835
419.691674	0.488811
420.070859	0.476647
420.449983	0.484592
420.829045	0.474049
421.208047	0.482886
421.586988	0.475795
421.965867	0.474852
422.344686	0.463553
422.723444	0.476265
423.102141	0.493214
423.480777	0.465961
423.859352	0.486501
424.237866	0.464068
424.616319	0.465089
424.994712	0.455351
425.373044	0.465774
425.751314	0.454030
426.129524	0.471092
426.507673	0.453998
426.885762	0.447523
427.263789	0.453238
427.641756	0.462551
428.019662	0.452933
428.397508	0.452472
428.775292	0.456840
429.153016	0.448176
429.530679	0.455171
429.908282	0.448372
430.285824	0.458125
430.663305	0.436592
431.040726	0.457553
431.418086	0.457699
431.795385	0.449229
432.172624	0.448266
432.549802	0.448543
432.926920	0.447356
433.303977	0.446814
433.680974	0.444303
434.057910	0.442814
434.434786	0.442060
434.811601	0.444793
435.188355	0.427479
435.565050	0.436368
435.941683	0.438124
436.318257	0.421254
436.694770	0.422932
437.071222	0.421368
437.447614	0.424978
437.823946	0.431723
438.200218	0.420863
438.576429	0.430792
438.952580	0.423857
439.328670	0.420663
439.704700	0.426642
440.080670	0.428106
440.456580	0.409381
440.832429	0.417322
441.208218	0.428144
441.583947	0.417083
441.959616	0.416721
442.335224	0.422014
442.710773	0.412600
443.086261	0.410826
443.461689	0.424967
443.837057	0.414712
444.212365	0.405009
444.587612	0.411685
444.962800	0.401684
445.337927	0.403062
445.712995	0.429394
446.088002	0.391587
446.462949	0.401743
446.837837	0.407004
447.212664	0.395117
447.587431	0.386865
447.962139	0.357016
448.336786	0.316268
448.711374	0.326728
449.085901	0.370927
449.460369	0.375153
449.834776	0.379451
450.209124	0.357692
450.583412	0.350717
450.957640	0.343678
451.331808	0.355433
451.705917	0.378248
452.079965	0.383119
452.453954	0.371339
452.827883	0.378010
453.201752	0.373014
453.575562	0.383902
453.949311	0.372733
454.323001	0.379054
454.696632	0.374916
455.070202	0.367550
455.443713	0.358864
455.817164	0.353816
456.190556	0.349645
456.563888	0.346456
456.937160	0.343809
457.310373	0.361184
457.683526	0.359918
458.056619	0.366200
458.429653	0.366301
458.802628	0.369941
459.175542	0.363977
459.548398	0.346671
459.921194	0.339363
460.293930	0.339516
460.666607	0.317039
461.039224	0.305374
461.411782	0.300442
461.784280	0.299865
462.156719	0.303633
462.529099	0.308663
462.901419	0.324540
463.273680	0.328901
463.645882	0.328293
464.018024	0.334685
464.390106	0.327202
464.762130	0.311523
465.134094	0.294707
465.505999	0.263267
465.877845	0.233791
466.249631	0.220828
466.621358	0.227892
466.993026	0.242179
467.364634	0.248378
467.736184	0.257187
468.107674	0.266067
468.479105	0.264979
468.850477	0.272045
469.221790	0.278912
469.593043	0.289037
469.964238	0.293678
470.335373	0.293387
470.706449	0.291548
471.077467	0.291747
471.448425	0.254028
471.819324	0.229333
472.190164	0.228984
472.560945	0.257533
472.931667	0.279837
473.302330	0.284423
473.672934	0.296195
474.043479	0.284367
474.413965	0.286269
474.784393	0.289793
475.154761	0.284572
475.525070	0.281893
475.895321	0.287188
476.265513	0.281790
476.635645	0.276784
477.005719	0.276915
477.375734	0.273591
477.745691	0.266524
478.115588	0.263122
478.485427	0.256563
478.855207	0.243598
479.224928	0.225672
479.594591	0.214111
479.964194	0.217332
480.333739	0.218523
480.703226	0.220004
481.072653	0.218449
481.442022	0.214177
481.811333	0.210841
482.180584	0.214131
482.549777	0.219499
482.918912	0.222931
483.287988	0.222686
483.657005	0.222126
484.025964	0.228705
484.394864	0.226028
484.763706	0.226500
485.132489	0.231598
485.501213	0.232421
485.869879	0.230815
486.238487	0.233735
486.607036	0.231766
486.975527	0.236640
487.343959	0.232183
487.712333	0.231436
488.080648	0.232784
488.448905	0.231734
488.817104	0.233390
489.185244	0.227802
489.553326	0.224502
489.921350	0.214668
490.289315	0.196859
490.657222	0.191408
491.025070	0.193361
491.392861	0.195015
491.760593	0.200657
492.128267	0.206661
492.495883	0.212194
492.863440	0.218322
493.230939	0.224852
493.598380	0.226455
493.965763	0.228504
494.333088	0.230632
494.700354	0.232106
495.067563	0.231209
495.434713	0.234531
495.801805	0.232430
496.168839	0.233780
496.535815	0.235470
496.902733	0.234994
497.269593	0.236464
497.636395	0.233939
498.003139	0.234651
498.369825	0.237677
498.736453	0.234221
499.103023	0.235853
499.469535	0.235132
499.835989	0.235616
500.202385	0.236023
500.568723	0.239524
500.935003	0.234547
501.301226	0.239057
501.667390	0.232966
502.033497	0.231234
502.399546	0.234282
502.765537	0.236344
503.131470	0.234734
503.497345	0.230888
503.863163	0.239538
504.228923	0.232535
504.594625	0.231050
504.960269	0.236524
505.325856	0.231938
505.691385	0.236425
506.056856	0.232987
506.422270	0.232599
506.787625	0.234885
507.152924	0.232333
507.518164	0.232697
507.883347	0.234295
508.248472	0.236345
508.613540	0.231403
508.978550	0.233691
509.343503	0.234297
509.708398	0.231812
510.073236	0.229283
510.438016	0.229095
510.802738	0.229983
511.167403	0.229131
511.532010	0.231266
511.896561	0.226546
512.261053	0.225146
512.625488	0.227539
512.989866	0.227707
513.354186	0.228076
513.718449	0.230045
514.082655	0.226312
514.446803	0.228743
514.810894	0.226131
515.174927	0.228888
515.538904	0.228465
515.902822	0.225391
516.266684	0.227655
516.630488	0.228961
516.994235	0.227512
517.357925	0.226478
517.721558	0.224775
518.085133	0.224238
518.448651	0.224122
518.812112	0.226441
519.175516	0.226331
519.538863	0.223771
519.902152	0.225817
520.265385	0.222384
520.628560	0.223928
520.991678	0.224480
521.354739	0.223332
521.717743	0.224489
522.080690	0.224906
522.443580	0.222450
522.806413	0.222807
523.169189	0.222852
523.531908	0.221473
523.894569	0.225272
524.257174	0.225078
524.619722	0.222495
524.982213	0.223682
525.344647	0.222551
525.707025	0.223290
526.069345	0.221677
526.431608	0.223404
526.793815	0.221241
527.155964	0.225352
527.518057	0.223963
527.880093	0.225401
528.242072	0.223694
528.603995	0.226006
528.965860	0.227503
529.327669	0.226629
529.689421	0.227271
530.051117	0.228170
530.412755	0.226007
530.774337	0.227880
531.135862	0.228639
531.497331	0.227841
531.858743	0.230871
532.220098	0.227358
532.581396	0.230031
532.942638	0.230280
533.303824	0.231757
533.664953	0.231145
534.026025	0.233319
534.387040	0.230908
534.747999	0.230625
535.108902	0.229883
535.469748	0.234804
535.830537	0.232691
536.191270	0.233029
536.551947	0.232502
536.912567	0.232617
537.273131	0.234372
537.633638	0.234498
537.994089	0.235000
538.354483	0.235964
538.714821	0.232999
539.075103	0.232678
539.435328	0.233477
539.795497	0.237160
540.155609	0.233794
540.515665	0.231940
540.875665	0.237887
541.235609	0.236071
541.595496	0.236338
541.955328	0.232791
542.315102	0.235362
542.674821	0.236455
543.034483	0.236543
543.394090	0.236195
543.753640	0.238107
544.113134	0.232906
544.472571	0.236377
544.831953	0.233535
545.191278	0.237287
545.550548	0.236730
545.909761	0.233556
546.268918	0.234459
546.628019	0.232622
546.987064	0.235524
547.346053	0.237222
547.704986	0.234898
548.063863	0.235304
548.422684	0.235650
548.781449	0.237263
549.140158	0.235075
549.498811	0.237900
549.857408	0.241121
550.215949	0.235615
550.574434	0.238753
550.932864	0.236735
551.291237	0.235030
551.649555	0.236708
552.007817	0.236413
552.366022	0.237805
552.724173	0.237415
553.082267	0.237997
553.440305	0.234546
553.798288	0.239324
554.156215	0.235972
554.514086	0.236362
554.871902	0.239591
555.229661	0.238800
555.587365	0.239373
555.945014	0.242109
556.302606	0.238673
556.660143	0.241343
557.017625	0.238041
557.375050	0.240120
557.732421	0.237199
558.089735	0.239250
558.446994	0.239071
558.804197	0.238159
559.161345	0.238194
559.518437	0.241609
559.875474	0.239711
560.232455	0.238979
560.589381	0.240387
560.946251	0.240214
561.303065	0.237794
561.659825	0.239176
562.016528	0.240915
562.373177	0.243488
562.729770	0.240845
563.086307	0.242626
563.442789	0.240814
563.799216	0.243558
564.155587	0.242499
564.511904	0.243785
564.868164	0.243783
565.224370	0.243216
565.580520	0.245364
565.936615	0.244906
566.292654	0.248101
566.648638	0.244938
567.004567	0.245890
567.360441	0.246329
567.716260	0.248593
568.072023	0.246109
568.427732	0.246816
568.783385	0.249333
569.138982	0.247526
569.494525	0.247323
569.850013	0.250378
570.205445	0.248725
570.560823	0.251021
570.916145	0.253024
571.271412	0.251192
571.626625	0.253033
571.981782	0.253534
572.336884	0.254128
572.691931	0.254087
573.046923	0.255456
573.401860	0.256421
573.756743	0.258162
574.111570	0.256876
574.466342	0.257686
574.821059	0.256594
575.175722	0.259521
575.530330	0.259220
575.884882	0.259529
576.239380	0.261107
576.593823	0.261988
576.948211	0.261532
577.302544	0.264792
577.656823	0.264272
578.011047	0.264035
578.365216	0.265432
578.719330	0.267318
579.073389	0.266614
579.427394	0.268305
579.781344	0.269009
580.135239	0.270304
580.489080	0.270067
580.842866	0.272923
581.196597	0.273035
581.550273	0.271551
581.903895	0.272566
582.257463	0.270498
582.610975	0.274296
582.964434	0.273790
583.317837	0.275768
583.671186	0.276446
584.024481	0.276631
584.377721	0.278899
584.730906	0.279851
585.084037	0.278806
585.437113	0.280816
585.790135	0.280153
586.143103	0.283006
586.496016	0.284110
586.848874	0.281648
587.201679	0.282454
587.554428	0.285921
587.907124	0.284919
588.259765	0.285305
588.612352	0.285736
588.964884	0.289709
589.317362	0.289144
589.669786	0.289173
590.022155	0.287805
590.374470	0.286952
590.726731	0.288752
591.078937	0.293864
591.431090	0.290416
591.783188	0.294200
592.135232	0.294847
592.487222	0.294771
592.839157	0.293068
593.191038	0.295249
593.542866	0.297152
593.894639	0.300258
594.246358	0.298588
594.598022	0.298176
594.949633	0.301898
595.301190	0.302820
595.652692	0.301705
596.004141	0.297618
596.355535	0.305642
596.706876	0.306756
597.058162	0.308790
597.409395	0.305991
597.760573	0.303695
598.111698	0.307251
598.462768	0.307399
598.813785	0.308667
599.164748	0.309930
599.515657	0.310287
599.866511	0.313597
600.217312	0.309107
600.568060	0.314396
600.918753	0.310890
601.269392	0.311724
601.619978	0.315387
601.970510	0.312773
602.320988	0.312929
602.671412	0.310762
603.021783	0.312948
603.372100	0.314442
603.722363	0.314109
604.072572	0.315035
604.422728	0.314444
604.772830	0.316846
605.122878	0.316488
605.472872	0.316876
605.822813	0.315241
606.172701	0.317793
606.522534	0.315065
606.872314	0.315681
607.222041	0.316490
607.571714	0.314213
607.921333	0.315902
608.270899	0.315412
608.620411	0.312532
608.969870	0.316045
609.319276	0.316571
609.668627	0.316225
610.017926	0.314974
610.367171	0.313252
610.716362	0.314119
611.065500	0.314146
611.414585	0.313703
611.763616	0.312905
612.112594	0.313744
612.461518	0.313175
612.810389	0.310910
613.159207	0.313506
613.507971	0.314952
613.856682	0.310872
614.205340	0.311879
614.553945	0.309431
614.902496	0.312898
615.250994	0.311165
615.599439	0.311880
615.947830	0.311027
616.296169	0.312206
616.644454	0.311992
616.992686	0.312027
617.340864	0.310025
617.688990	0.313509
618.037063	0.309628
618.385082	0.311670
618.733048	0.308563
619.080961	0.310666
619.428821	0.310525
619.776628	0.309921
620.124382	0.312195
620.472083	0.312672
620.819731	0.312242
621.167326	0.315633
621.514868	0.315650
621.862357	0.319923
622.209793	0.319178
622.557176	0.321570
622.904506	0.322645
623.251783	0.325203
623.599007	0.327469
623.946179	0.326385
624.293297	0.329159
624.640363	0.332669
624.987376	0.333317
625.334336	0.335225
625.681243	0.338350
626.028097	0.338603
626.374899	0.339490
626.721647	0.340437
627.068343	0.342945
627.414987	0.343909
627.761577	0.346430
628.108115	0.344340
628.454600	0.350207
628.801032	0.347562
629.147412	0.349654
629.493739	0.350097
629.840014	0.352857
630.186236	0.349515
630.532405	0.355688
630.878521	0.352970
631.224585	0.355230
631.570597	0.358793
631.916556	0.357387
632.262462	0.357243
632.608316	0.359561
632.954117	0.360310
633.299866	0.361747
633.645562	0.361767
633.991206	0.365908
634.336797	0.368677
634.682336	0.371167
635.027823	0.372807
635.373257	0.373626
635.718639	0.377306
636.063968	0.376586
636.409245	0.382447
636.754470	0.382671
637.099642	0.385193
637.444762	0.388350
637.789829	0.387016
638.134845	0.390995
638.479808	0.392351
638.824719	0.391936
639.169577	0.396192
639.514383	0.394765
639.859137	0.399508
640.203839	0.398834
640.548489	0.399998
640.893086	0.400660
641.237632	0.402507
641.582125	0.401267
641.926566	0.402807
642.270955	0.403081
642.615292	0.402750
642.959576	0.402350
643.303809	0.402856
643.647990	0.402512
643.992118	0.402940
644.336195	0.406066
644.680219	0.404678
645.024192	0.405150
645.368112	0.398932
645.711981	0.398074
646.055797	0.393036
646.399562	0.395712
646.743274	0.388254
647.086935	0.384955
647.430544	0.385449
647.774101	0.383706
648.117606	0.384101
648.461059	0.384538
648.804460	0.386909
649.147810	0.391821
649.491108	0.393803
649.834354	0.394999
650.177548	0.400651
650.520690	0.405988
650.863781	0.407011
651.206820	0.406345
651.549807	0.410581
651.892742	0.415104
652.235626	0.414836
652.578458	0.415314
652.921238	0.422402
653.263967	0.419349
653.606644	0.423068
653.949269	0.423623
654.291843	0.426953
654.634365	0.423951
654.976836	0.426572
655.319255	0.427772
655.661622	0.428170
656.003938	0.428786
656.346203	0.431493
656.688416	0.430243
657.030577	0.432724
657.372687	0.435088
657.714746	0.435764
658.056753	0.432804
658.398708	0.436339
658.740612	0.438122
659.082465	0.433497
659.424266	0.434755
659.766016	0.434401
660.107715	0.437093
660.449362	0.435272
660.790958	0.436619
661.132503	0.437488
661.473996	0.434286
661.815438	0.435921
662.156829	0.435797
662.498168	0.436687
662.839456	0.437943
663.180693	0.435589
663.521879	0.435468
663.863013	0.436299
664.204097	0.434810
664.545129	0.431895
664.886110	0.432260
665.227040	0.429202
665.567918	0.432078
665.908746	0.429302
666.249522	0.429724
666.590248	0.431028
666.930922	0.428863
667.271545	0.428034
667.612118	0.427557
667.952639	0.429160
668.293109	0.427896
668.633528	0.430902
668.973896	0.430421
669.314213	0.431110
669.654480	0.432871
669.994695	0.432704
670.334859	0.433983
670.674973	0.434189
671.015035	0.433559
671.355047	0.434061
671.695008	0.435283
672.034918	0.437721
672.374777	0.436318
672.714585	0.437673
673.054342	0.437489
673.394049	0.437510
673.733705	0.435211
674.073310	0.436641
674.412864	0.439666
674.752368	0.440515
675.091820	0.440189
675.431223	0.444945
675.770574	0.444545
676.109875	0.447540
676.449125	0.447251
676.788324	0.449974
677.127473	0.454780
677.466571	0.454775
677.805619	0.456982
678.144616	0.457457
678.483562	0.460112
678.822458	0.462707
679.161303	0.463129
679.500098	0.463645
679.838842	0.465502
680.177535	0.464500
680.516179	0.462796
680.854771	0.461932
681.193314	0.455118
681.531805	0.446714
681.870247	0.435537
682.208638	0.428052
682.546978	0.427116
682.885268	0.428369
683.223508	0.435023
683.561697	0.438973
683.899836	0.440876
684.237925	0.444634
684.575963	0.446776
684.913951	0.451222
685.251889	0.445964
685.589776	0.448079
685.927614	0.450360
686.265401	0.444849
686.603137	0.446304
686.940824	0.440188
687.278460	0.438890
687.616046	0.437672
687.953582	0.432691
688.291068	0.434340
688.628504	0.429192
688.965889	0.431801
689.303224	0.435742
689.640510	0.439880
689.977745	0.445204
690.314930	0.453203
690.652065	0.458118
690.989150	0.465343
691.326185	0.472199
691.663170	0.476805
692.000105	0.483987
692.336990	0.491667
692.673825	0.493697
693.010610	0.499722
693.347345	0.506569
693.684030	0.508128
694.020665	0.512107
694.357251	0.521048
694.693786	0.520917
695.030272	0.524121
695.366707	0.528545
695.703093	0.532390
696.039429	0.529713
696.375716	0.531716
696.711952	0.534533
697.048139	0.536198
697.384276	0.538487
697.720363	0.536837
698.056400	0.535270
698.392388	0.541143
698.728326	0.543750
699.064214	0.547089
699.400053	0.547205
699.735842	0.551514
700.071581	0.553733
700.407270	0.557281
700.742910	0.559511
701.078501	0.564956
701.414042	0.566532
701.749533	0.569940
702.084974	0.579073
702.420366	0.571101
702.755709	0.578101
703.091002	0.585957
703.426246	0.580035
703.761440	0.585610
704.096584	0.590631
704.431679	0.587273
704.766725	0.589565
705.101721	0.591378
705.436668	0.587863
705.771565	0.594636
706.106413	0.590116
706.441212	0.586154
706.775961	0.585294
707.110661	0.587189
707.445311	0.584192
707.779913	0.581272
708.114465	0.580100
708.448967	0.577050
708.783421	0.569097
709.117825	0.562985
709.452180	0.563376
709.786485	0.557370
710.120742	0.546875
710.454949	0.548462
710.789107	0.540270
711.123216	0.531361
711.457275	0.532437
711.791286	0.524670
712.125247	0.523713
712.459159	0.534168
712.793023	0.525708
713.126837	0.530664
713.460602	0.531021
713.794318	0.539291
714.127985	0.538029
714.461602	0.549255
714.795171	0.551708
715.128691	0.560515
715.462162	0.567869
715.795584	0.574156
716.128957	0.577273
716.462281	0.583443
716.795556	0.586495
717.128782	0.592507
717.461960	0.601369
717.795088	0.599765
718.128167	0.606998
718.461198	0.613696
718.794180	0.615219
719.127113	0.618061
719.459997	0.621403
719.792833	0.627323
720.125619	0.629187
720.458357	0.635169
720.791046	0.634789
721.123686	0.638196
721.456278	0.645619
721.788821	0.642387
722.121315	0.647306
722.453761	0.650675
722.786158	0.648329
723.118506	0.645699
723.450805	0.653067
723.783056	0.650338
724.115259	0.646346
724.447412	0.645991
724.779518	0.647575
725.111574	0.646509
725.443582	0.641895
725.775542	0.644148
726.107453	0.635750
726.439315	0.635933
726.771129	0.634397
727.102895	0.627266
727.434612	0.619935
727.766281	0.619333
728.097901	0.617382
728.429473	0.616310
728.760996	0.615494
729.092471	0.616446
729.423897	0.619805
729.755276	0.618692
730.086606	0.618671
730.417887	0.613344
730.749120	0.603804
731.080305	0.594783
731.411442	0.590845
731.742530	0.595203
732.073570	0.594291
732.404562	0.587276
732.735506	0.588144
733.066401	0.593877
733.397249	0.602245
733.728048	0.614778
734.058798	0.626582
734.389501	0.638896
734.720156	0.648000
735.050762	0.655888
735.381320	0.656557
735.711831	0.664538
736.042293	0.670069
736.372707	0.665922
736.703073	0.670774
737.033391	0.672925
737.363661	0.669792
737.693883	0.665072
738.024056	0.664094
738.354182	0.665694
738.684260	0.653540
739.014290	0.649211
739.344272	0.650893
739.674207	0.643916
740.004093	0.643484
740.333931	0.643891
740.663722	0.643181
740.993464	0.644576
741.323159	0.647836
741.652806	0.652738
741.982405	0.658334
742.311956	0.663361
742.641460	0.664758
742.970915	0.668574
743.300323	0.675572
743.629683	0.682299
743.958996	0.684840
744.288260	0.688705
744.617477	0.695214
744.946647	0.696941
745.275768	0.702816
745.604842	0.701520
745.933869	0.712070
746.262847	0.713387
746.591778	0.706202
746.920662	0.712665
747.249498	0.718812
747.578286	0.709686
747.907027	0.706746
748.235720	0.706698
748.564365	0.702399
748.892963	0.700682
749.221514	0.704572
749.550017	0.709010
749.878473	0.709715
750.206881	0.716963
750.535242	0.717062
750.863555	0.715201
751.191821	0.716517
751.520039	0.721100
751.848210	0.724472
752.176334	0.718045
752.504411	0.718027
752.832440	0.725487
753.160421	0.729590
753.488356	0.727805
753.816243	0.724489
754.144082	0.733131
754.471875	0.736703
754.799620	0.732941
755.127318	0.734287
755.454969	0.734743
755.782572	0.734762
756.110129	0.737825
756.437638	0.741603
756.765100	0.738282
757.092515	0.734899
757.419882	0.734102
757.747203	0.740094
758.074477	0.739274
758.401703	0.735867
758.728882	0.731694
759.056014	0.730815
759.383099	0.729571
759.710138	0.729936
760.037129	0.726265
760.364073	0.721000
760.690970	0.723363
761.017820	0.727550
761.344623	0.724101
761.671379	0.715172
761.998088	0.703743
762.324751	0.679715
762.651366	0.637343
762.977935	0.569412
763.304456	0.517923
763.630931	0.508478
763.957359	0.547486
764.283740	0.591691
764.610074	0.619394
764.936362	0.650823
765.262602	0.679294
765.588796	0.700152
765.914943	0.717806
766.241044	0.735618
766.567097	0.741650
766.893104	0.752739
767.219064	0.758786
767.544978	0.765823
767.870845	0.779247
768.196665	0.783392
768.522438	0.780646
768.848165	0.782862
769.173846	0.791988
769.499479	0.796511
769.825066	0.799468
770.150607	0.804332
770.476101	0.800707
770.801548	0.802547
771.126949	0.813733
771.452303	0.817679
771.777611	0.816025
772.102872	0.814765
772.428087	0.819948
772.753256	0.823846
773.078378	0.826707
773.403453	0.833903
773.728482	0.838478
774.053465	0.831422
774.378401	0.835535
774.703291	0.845236
775.028135	0.845111
775.352932	0.844673
775.677683	0.848874
776.002388	0.850445
776.327046	0.848295
776.651658	0.853573
776.976224	0.855786
777.300743	0.855638
777.625216	0.858421
777.949643	0.860317
778.274024	0.858414
778.598359	0.861236
778.922647	0.859785
779.246889	0.861219
779.571086	0.864009
779.895236	0.867104
780.219339	0.864391
780.543397	0.859458
780.867409	0.859418
781.191374	0.861798
781.515294	0.863354
781.839167	0.862414
782.162995	0.865160
782.486776	0.862331
782.810511	0.863527
783.134201	0.867067
783.457844	0.865211
783.781441	0.867176
784.104993	0.871942
784.428498	0.873335
784.751958	0.869459
785.075372	0.871680
785.398739	0.875613
785.722061	0.870248
786.045337	0.867691
786.368568	0.871793
786.691752	0.874938
787.014891	0.860422
787.337983	0.851123
787.661030	0.844263
787.984031	0.826001
788.306987	0.813407
788.629897	0.814092
788.952760	0.820186
789.275579	0.823137
789.598351	0.839473
789.921078	0.852274
790.243759	0.853373
790.566395	0.858643
790.888984	0.866367
791.211529	0.871063
791.534027	0.874628
791.856480	0.876901
792.178888	0.882046
792.501249	0.884720
792.823566	0.886779
793.145836	0.885635
793.468062	0.886967
793.790241	0.889664
794.112375	0.885428
794.434464	0.882474
794.756507	0.881272
795.078505	0.879621
795.400457	0.873515
795.722364	0.863136
796.044226	0.857084
796.366042	0.854484
796.687812	0.857231
797.009538	0.853907
797.331218	0.857983
797.652852	0.861915
797.974442	0.865186
798.295986	0.867314
798.617484	0.868877
798.938938	0.874427
799.260346	0.878402
799.581709	0.879489
799.903026	0.883865
800.224299	0.883795
800.545526	0.886521
800.866708	0.890257
801.187845	0.895715
801.508936	0.894890
801.829983	0.892141
802.150984	0.896280
802.471940	0.901633
802.792851	0.900959
803.113717	0.901852
803.434538	0.898778
803.755314	0.902261
804.076045	0.903080
804.396731	0.903009
804.717372	0.901832
805.037967	0.905595
805.358518	0.903045
805.679024	0.898237
805.999485	0.900550
806.319901	0.899074
806.640272	0.902101
806.960598	0.899518
807.280879	0.896956
807.601115	0.894397
807.921306	0.899563
808.241453	0.899951
808.561554	0.897556
808.881611	0.897330
809.201623	0.898960
809.521590	0.899370
809.841513	0.901272
810.161390	0.898453
810.481223	0.900841
810.801011	0.904901
811.120755	0.906374
811.440453	0.905017
811.760107	0.905133
812.079716	0.903863
812.399281	0.906665
812.718801	0.909528
813.038276	0.910639
813.357707	0.909907
813.677093	0.908317
813.996434	0.910383
814.315731	0.912095
814.634983	0.913788
814.954191	0.912636
815.273354	0.907673
815.592473	0.904271
815.911547	0.905248
816.230577	0.900503
816.549562	0.899429
816.868502	0.898865
817.187399	0.896404
817.506250	0.890439
817.825058	0.891557
818.143821	0.888522
818.462539	0.884060
818.781213	0.876398
819.099843	0.865930
819.418429	0.847566
819.736970	0.832149
820.055466	0.810274
820.373919	0.784216
820.692327	0.751512
821.010691	0.715154
821.329011	0.634508
821.647286	0.516866
821.965517	0.402317
822.283704	0.359181
822.601847	0.359446
822.919945	0.396307
823.237999	0.430443
823.556010	0.478479
823.873976	0.535136
824.191897	0.587107
824.509775	0.630931
824.827609	0.676607
825.145398	0.700124
825.463144	0.702237
825.780845	0.683824
826.098502	0.665910
826.416116	0.619895
826.733685	0.574981
827.051210	0.564959
827.368692	0.580289
827.686129	0.619478
828.003522	0.674197
828.320872	0.722231
828.638177	0.766553
828.955439	0.800255
829.272656	0.822086
829.589830	0.839861
829.906960	0.856061
830.224046	0.868793
830.541088	0.879714
830.858086	0.883712
831.175041	0.891797
831.491952	0.889112
831.808819	0.886030
832.125642	0.877723
832.442421	0.865000
832.759157	0.841750
833.075849	0.792818
833.392497	0.729595
833.709101	0.687607
834.025662	0.697214
834.342179	0.729471
834.658653	0.769579
834.975083	0.806234
835.291469	0.833464
835.607811	0.856475
835.924110	0.873928
836.240366	0.890825
836.556578	0.903189
836.872746	0.911862
837.188871	0.918278
837.504952	0.924555
837.820990	0.927376
838.136984	0.930976
838.452935	0.933431
838.768842	0.935250
839.084706	0.928512
839.400526	0.902957
839.716303	0.859340
840.032037	0.838235
840.347727	0.841919
840.663373	0.859451
840.978977	0.881892
841.294537	0.905649
841.610054	0.920770
841.925527	0.930396
842.240957	0.935525
842.556344	0.943841
842.871687	0.949572
843.186987	0.952962
843.502244	0.954636
843.817458	0.956363
844.132629	0.960548
844.447756	0.963349
844.762840	0.965237
845.077881	0.964127
845.392879	0.963428
845.707833	0.967067
846.022745	0.968519
846.337613	0.969706
846.652438	0.969575
846.967221	0.969322
847.281960	0.970983
847.596656	0.972022
847.911309	0.972252
848.225919	0.971689
848.540485	0.974689
848.855009	0.973732
849.169490	0.974000
849.483928	0.973687
849.798323	0.971685
850.112675	0.975644
850.426984	0.973656
850.741251	0.974974
851.055474	0.974538
851.369654	0.973577
851.683792	0.972718
851.997887	0.974379
852.311938	0.975240
852.625947	0.973795
852.939914	0.972126
853.253837	0.974457
853.567718	0.975357
853.881555	0.973934
854.195350	0.973267
854.509103	0.974189
854.822812	0.975474
855.136479	0.975293
855.450103	0.973657
855.763685	0.973471
856.077224	0.974481
856.390720	0.975644
856.704173	0.975128
857.017584	0.974937
857.330953	0.973515
857.644278	0.971454
857.957561	0.972740
858.270802	0.972950
858.584000	0.973888
858.897155	0.970591
859.210268	0.971174
859.523339	0.974411
859.836367	0.974947
860.149352	0.974733
860.462295	0.974441
860.775195	0.974805
861.088054	0.973530
861.400869	0.975752
861.713642	0.974500
862.026373	0.976540
862.339062	0.975142
862.651708	0.973353
862.964312	0.973147
863.276873	0.973645
863.589392	0.972896
863.901869	0.969814
864.214303	0.969924
864.526696	0.968780
864.839045	0.968198
865.151353	0.965885
865.463619	0.965876
865.775842	0.967016
866.088023	0.967943
866.400162	0.966990
866.712258	0.967936
867.024313	0.967044
867.336325	0.969204
867.648296	0.967899
867.960224	0.966400
868.272110	0.967820
868.583954	0.969193
868.895755	0.968032
869.207515	0.966606
869.519233	0.964473
869.830909	0.964591
870.142542	0.966406
870.454134	0.966616
870.765684	0.963826
871.077191	0.963116
871.388657	0.961813
871.700081	0.964297
872.011463	0.964184
872.322803	0.961245
872.634101	0.959775
872.945357	0.957967
873.256571	0.956521
873.567744	0.957374
873.878874	0.957020
874.189963	0.956521
874.501010	0.957360
874.812015	0.954479
875.122979	0.954039
875.433900	0.957475
875.744780	0.957625
876.055618	0.953800
876.366415	0.953844
876.677169	0.954033
876.987882	0.956033
877.298554	0.955077
877.609183	0.950788
877.919771	0.947487
878.230317	0.947052
878.540822	0.943726
878.851285	0.937283
879.161707	0.929666
879.472087	0.918602
879.782425	0.899811
880.092722	0.865083
880.402977	0.810160
880.713191	0.747600
881.023363	0.686430
881.333494	0.651476
881.643583	0.623946
881.953631	0.624492
882.263637	0.652682
882.573602	0.692194
882.883526	0.719596
883.193408	0.744191
883.503248	0.767307
883.813048	0.795795
884.122806	0.826895
884.432522	0.850457
884.742197	0.869653
885.051831	0.881363
885.361424	0.892986
885.670975	0.905893
885.980485	0.914217
886.289954	0.921180
886.599382	0.926794
886.908768	0.931270
887.218113	0.937007
887.527417	0.941676
887.836680	0.946222
888.145901	0.947925
888.455082	0.951207
888.764221	0.954493
889.073319	0.956662
889.382376	0.957773
889.691392	0.955596
890.000366	0.957708
890.309300	0.958264
890.618193	0.957379
890.927044	0.955230
891.235855	0.955762
891.544625	0.956801
891.853353	0.955435
892.162041	0.953042
892.470687	0.946614
892.779293	0.941910
893.087858	0.935783
893.396381	0.928247
893.704864	0.914172
894.013306	0.889890
894.321707	0.862682
894.630068	0.847127
894.938387	0.841465
895.246665	0.843045
895.554903	0.856142
895.863100	0.871196
896.171256	0.888532
896.479371	0.907221
896.787446	0.921063
897.095480	0.927841
897.403473	0.929974
897.711425	0.934727
898.019336	0.943086
898.327207	0.947940
898.635038	0.946855
898.942827	0.948770
899.250576	0.951925
899.558284	0.956420
899.865952	0.957780
900.173579	0.958658
900.481165	0.959946
900.788711	0.962027
901.096216	0.964744
901.403681	0.966834
901.711105	0.967020
902.018489	0.966071
902.325832	0.966436
902.633135	0.964638
902.940397	0.959782
903.247619	0.945384
903.554800	0.922183
903.861941	0.879664
904.169041	0.841209
904.476101	0.823194
904.783121	0.825029
905.090100	0.840520
905.397039	0.863746
905.703938	0.885782
906.010796	0.906830
906.317614	0.925118
906.624391	0.936980
906.931129	0.948348
907.237826	0.955317
907.544483	0.961427
907.851099	0.967031
908.157675	0.971051
908.464211	0.974213
908.770707	0.974930
909.077163	0.978798
909.383578	0.979717
909.689954	0.979399
909.996289	0.980114
910.302584	0.983036
910.608839	0.985026
910.915054	0.982911
911.221229	0.983332
911.527363	0.981758
911.833458	0.982988
912.139513	0.982114
912.445527	0.981240
912.751502	0.978995
913.057436	0.976034
913.363331	0.976710
913.669186	0.971322
913.975000	0.965872
914.280775	0.958456
914.586510	0.951330
914.892205	0.937535
915.197859	0.914257
915.503475	0.887224
915.809050	0.865558
916.114585	0.860216
916.420081	0.856784
916.725536	0.855399
917.030952	0.862280
917.336328	0.877042
917.641665	0.891834
917.946961	0.908411
918.252218	0.919609
918.557435	0.928735
918.862612	0.939197
919.167750	0.944249
919.472848	0.950679
919.777906	0.957226
920.082925	0.962419
920.387904	0.966083
920.692843	0.966307
920.997743	0.968700
921.302603	0.971194
921.607423	0.973547
921.912204	0.975166
922.216946	0.977596
922.521647	0.979235
922.826310	0.979255
923.130932	0.982070
923.435516	0.984268
923.740059	0.983928
924.044564	0.983008
924.349028	0.985476
924.653454	0.988913
924.957840	0.988481
925.262186	0.988704
925.566493	0.989625
925.870761	0.989920
926.174989	0.990796
926.479178	0.993325
926.783328	0.991626
927.087438	0.992802
927.391509	0.991382
927.695541	0.994666
927.999533	0.994806
928.303486	0.993827
928.607400	0.995299
928.911275	0.995499
929.215110	0.996016
929.518906	0.995900
929.822663	0.996578
930.126381	0.996684
930.430060	0.995335
930.733699	0.994547
931.037299	0.995510
931.340861	0.996157
931.644383	0.993763
931.947866	0.995577
932.251309	0.995862
932.554714	0.995985
932.858080	0.995067
933.161407	0.994714
933.464694	0.996116
933.767943	0.995775
934.071153	0.996399
934.374323	0.997217
934.677455	0.996051
934.980548	0.996369
935.283602	0.997697
935.586617	0.995668
935.889593	0.997980
936.192530	0.997367
936.495428	0.996869
936.798287	0.995470
937.101108	0.995942
937.403890	0.994372
937.706632	0.995631
938.009336	0.991153
938.312002	0.990765
938.614628	0.988869
938.917216	0.988299
939.219765	0.986472
939.522275	0.987703
939.824747	0.987665
940.127179	0.987730
940.429573	0.990460
940.731929	0.989444
941.034246	0.989016
941.336524	0.989195
941.638763	0.990289
941.940964	0.991227
942.243126	0.991280
942.545250	0.993914
942.847335	0.992735
943.149381	0.993480
943.451389	0.993685
943.753359	0.994148
944.055290	0.995626
944.357182	0.995029
944.659036	0.995243
944.960851	0.995614
945.262628	0.996052
945.564367	0.994901
945.866067	0.994970
946.167729	0.995451
946.469352	0.994667
946.770937	0.993419
947.072484	0.996171
947.373992	0.995231
947.675462	0.994818
947.976893	0.994955
948.278286	0.996742
948.579641	0.997387
948.880958	0.996325
949.182236	0.997225
949.483476	0.997397
949.784678	0.996655
950.085841	0.996496
950.386967	0.995842
950.688054	0.995964
950.989103	0.994860
951.290114	0.993264
951.591087	0.994616
951.892021	0.993968
952.192917	0.994904
952.493776	0.994148
952.794596	0.993431
953.095378	0.994061
953.396122	0.992640
953.696828	0.993944
953.997496	0.995216
954.298126	0.996221
954.598718	0.994602
954.899272	0.996410
955.199788	0.995199
955.500266	0.998021
955.800706	0.998220
956.101108	0.997787
956.401472	0.999879
956.701798	0.999103
957.002087	0.998989
957.302337	0.998923
957.602550	1.000493
957.902724	1.000606
958.202861	1.000133
958.502960	1.000462
958.803022	1.001977
959.103045	1.000999
959.403031	1.001671
959.702979	1.001607
960.002889	1.001430
960.302762	1.000984
960.602596	1.001781
960.902393	1.001766
961.202153	1.001913
961.501875	1.003206
961.801559	1.002126
962.101205	1.002081
962.400814	1.003100
962.700385	1.002399
962.999918	1.002088
963.299414	1.001168
963.598873	1.003134
963.898293	1.001663
964.197677	1.000863
964.497022	1.002309
964.796331	1.001681
965.095601	1.003520
965.394835	1.003218
965.694030	1.004613
965.993189	1.001952
966.292309	1.002846
966.591393	1.001901
966.890439	1.001869
967.189447	1.003017
967.488419	1.002388
967.787353	1.001322
968.086249	1.002355
968.385108	1.001998
968.683930	1.002615
968.982714	1.002372
969.281462	1.002437
969.580172	1.001263
969.878844	1.003877
970.177480	1.002709
970.476078	1.002846
970.774639	1.003143
971.073162	1.002331
971.371649	1.001825
971.670098	1.002405
971.968510	1.002373
972.266885	1.002745
972.565223	1.002014
972.863524	1.001111
973.161788	1.001668
973.460014	1.003602
973.758204	1.001319
974.056356	1.002375
974.354471	1.000412
974.652550	1.003059
974.950591	1.001414
975.248595	1.001523
975.546563	1.003538
975.844493	1.003643
976.142386	1.002663
976.440243	1.002991
976.738062	1.002136
977.035845	1.002227
977.333590	1.003443
977.631299	1.002579
977.928971	1.003271
978.226606	1.002559
978.524204	1.002411
978.821765	1.004156
979.119290	1.003547
979.416777	1.002778
979.714228	1.002817
980.011642	1.004067
980.309020	1.002516
980.606360	1.002362
980.903664	1.002018
981.200931	1.002869
981.498162	1.002463
981.795356	1.000822
982.092513	1.000109
982.389633	0.999617
982.686717	0.996809
982.983764	0.995880
983.280775	0.996919
983.577749	0.996290
983.874686	0.996705
984.171587	0.997357
984.468451	0.998605
984.765279	1.000420
985.062070	1.000873
985.358824	1.000493
985.655543	1.001029
985.952224	1.002048
986.248869	1.002145
986.545478	1.003626
986.842050	1.002041
987.138586	1.002713
987.435086	1.002928
987.731549	1.004817
988.027975	1.003786
988.324366	1.003736
988.620719	1.004524
988.917037	1.004340
989.213318	1.004075
989.509563	1.002986
989.805772	1.004916
990.101944	1.004991
990.398080	1.004595
990.694180	1.004833
990.990244	1.003631
991.286271	1.003622
991.582262	1.005350
991.878217	1.004361
992.174136	1.004867
992.470019	1.003777
992.765865	1.005233
993.061676	1.004984
993.357450	1.003591
993.653188	1.005289
993.948890	1.004178
994.244556	1.004370
994.540186	1.002722
994.835780	1.003299
995.131337	1.003306
995.426859	1.002428
995.722345	1.002765
996.017795	1.003184
996.313208	1.001549
996.608586	1.002940
996.903928	1.002860
997.199234	1.002458
997.494504	1.004215
997.789738	1.001365
998.084936	1.002510
998.380099	1.002447
998.675225	1.003461
998.970316	1.004015
999.265371	1.004578
999.560390	1.003075
999.855373	1.003019
1000.150320	1.002969
1000.445232	1.003888
1000.740108	1.003313
1001.034948	1.003842
1001.329752	1.005781
1001.624521	1.003355
1001.919254	1.004439
1002.213951	1.004410
1002.508613	1.002169
1002.803239	1.004420
1003.097829	1.004408
1003.392384	1.004597
1003.686903	1.005041
1003.981386	1.004945
1004.275834	1.005033
1004.570246	1.002545
1004.864623	1.004733
1005.158964	1.004493
1005.453270	1.004263
1005.747540	1.004119
1006.041775	1.004940
1006.335974	1.005381
1006.630138	1.003946
1006.924266	1.004232
1007.218359	1.004279
1007.512416	1.005658
1007.806438	1.004959
1008.100425	1.004452
1008.394376	1.005046
1008.688292	1.005253
1008.982172	1.003200
1009.276017	1.004404
1009.569827	1.005313
1009.863602	1.003191
1010.157341	1.004624
1010.451045	1.004128
1010.744714	1.005489
1011.038347	1.005463
1011.331945	1.004959
1011.625508	1.004931
1011.919036	1.005457
1012.212528	1.005498
1012.505986	1.004996
1012.799408	1.005066
1013.092795	1.004722
1013.386147	1.004415
1013.679464	1.005567
1013.972745	1.005253
1014.265992	1.003999
1014.559204	1.004114
1014.852380	1.005809
1015.145521	1.004928
1015.438628	1.004563
1015.731699	1.004310
1016.024736	1.005878
1016.317737	1.004278
1016.610703	1.005240
1016.903635	1.004384
1017.196531	1.004953
1017.489393	1.004367
1017.782219	1.004127
1018.075011	1.004123
1018.367768	1.004300
1018.660490	1.004723
1018.953177	1.004723
1019.245829	1.004723
