Dividing Wavelength (nm)	Counts (n)	Blue Motor Position (mm): 13.100000	Red Motor Position (mm): 0.000000	
326.493990	1.002571
326.888308	1.002571
327.282561	1.002571
327.676750	1.003401
328.070874	1.005242
328.464933	1.003931
328.858929	1.003261
329.252859	1.003438
329.646726	1.002822
330.040528	1.003230
330.434265	1.003081
330.827938	1.002923
331.221547	1.004049
331.615091	1.003841
332.008571	1.004643
332.401986	1.002771
332.795338	1.002481
333.188625	1.003462
333.581847	1.002246
333.975006	1.003581
334.368100	1.004139
334.761129	1.001801
335.154095	1.004006
335.546996	1.001992
335.939833	0.998515
336.332606	0.999230
336.725315	0.999034
337.117960	1.000071
337.510540	0.997876
337.903056	0.998668
338.295508	1.000158
338.687896	0.998966
339.080220	0.998617
339.472480	0.998361
339.864676	0.999132
340.256807	0.998762
340.648875	0.999154
341.040879	0.999221
341.432818	0.998860
341.824694	0.998012
342.216506	1.000318
342.608253	0.998293
342.999937	0.998122
343.391557	0.998674
343.783113	0.999717
344.174605	0.998716
344.566033	0.997177
344.957397	1.000245
345.348697	0.999080
345.739934	0.998453
346.131106	0.999546
346.522215	0.998106
346.913260	0.998296
347.304241	0.997605
347.695159	0.998866
348.086012	0.998350
348.476802	0.998323
348.867528	0.998413
349.258191	0.998264
349.648789	0.999480
350.039324	0.998854
350.429796	0.997075
350.820203	0.997411
351.210548	0.998126
351.600828	0.999191
351.991045	0.998103
352.381198	0.998930
352.771288	0.998418
353.161314	0.999346
353.551276	0.996924
353.941175	0.996941
354.331010	0.998710
354.720782	0.997747
355.110490	0.997463
355.500135	0.997549
355.889717	0.997324
356.279235	0.997829
356.668689	0.997470
357.058080	0.997533
357.447408	0.996613
357.836672	0.998432
358.225873	0.998198
358.615010	0.997202
359.004084	0.997519
359.393095	0.998048
359.782043	0.996704
360.170927	0.997822
360.559748	0.997204
360.948505	0.996817
361.337199	0.996400
361.725830	0.997471
362.114398	0.996480
362.502903	0.996462
362.891344	0.995935
363.279722	0.997606
363.668037	0.997045
364.056289	0.997139
364.444478	0.997199
364.832603	0.996637
365.220665	0.997113
365.608665	0.996694
365.996601	0.996439
366.384474	0.995443
366.772284	0.996196
367.160031	0.994863
367.547715	0.994506
367.935336	0.994213
368.322893	0.993509
368.710388	0.992040
369.097820	0.990210
369.485189	0.987626
369.872495	0.986510
370.259738	0.983041
370.646918	0.980653
371.034035	0.978671
371.421090	0.975550
371.808081	0.972261
372.195010	0.968846
372.581875	0.963134
372.968678	0.957941
373.355418	0.954663
373.742096	0.948023
374.128710	0.943412
374.515262	0.939357
374.901751	0.932822
375.288177	0.928133
375.674540	0.921784
376.060841	0.915893
376.447079	0.908031
376.833254	0.902182
377.219367	0.896596
377.605417	0.885650
377.991404	0.882266
378.377329	0.876424
378.763191	0.870265
379.148991	0.859738
379.534727	0.853314
379.920402	0.846609
380.306013	0.841177
380.691563	0.828792
381.077049	0.821893
381.462474	0.819208
381.847835	0.807662
382.233134	0.801336
382.618371	0.802603
383.003545	0.784423
383.388657	0.782533
383.773706	0.775063
384.158693	0.770774
384.543618	0.765942
384.928480	0.757363
385.313280	0.747174
385.698017	0.746860
386.082692	0.735296
386.467305	0.733123
386.851856	0.728014
387.236344	0.722792
387.620770	0.717312
388.005133	0.711484
388.389435	0.705312
388.773674	0.703334
389.157851	0.695307
389.541965	0.693162
389.926018	0.699789
390.310008	0.686324
390.693936	0.683202
391.077802	0.675676
391.461606	0.677161
391.845348	0.665831
392.229027	0.665468
392.612645	0.663874
392.996200	0.650381
393.379694	0.643219
393.763125	0.634118
394.146494	0.638808
394.529801	0.629551
394.913047	0.620688
395.296230	0.627734
395.679351	0.617878
396.062410	0.615429
396.445408	0.617302
396.828343	0.613377
397.211217	0.608653
397.594028	0.620548
397.976778	0.610640
398.359466	0.607618
398.742092	0.603108
399.124656	0.614322
399.507158	0.603097
399.889598	0.600338
400.271977	0.591449
400.654294	0.595260
401.036549	0.594331
401.418742	0.598445
401.800874	0.584627
402.182944	0.580943
402.564952	0.573180
402.946898	0.574924
403.328783	0.575521
403.710606	0.586644
404.092367	0.561640
404.474067	0.567480
404.855705	0.565574
405.237282	0.574015
405.618797	0.560542
406.000250	0.556578
406.381642	0.546740
406.762972	0.551722
407.144240	0.550101
407.525447	0.550025
407.906593	0.543828
408.287677	0.538019
408.668700	0.546973
409.049661	0.540781
409.430560	0.535848
409.811399	0.544940
410.192176	0.525788
410.572891	0.533086
410.953545	0.521203
411.334138	0.535237
411.714669	0.526995
412.095139	0.539560
412.475547	0.523940
412.855894	0.525327
413.236180	0.524116
413.616405	0.529394
413.996568	0.519999
414.376670	0.526749
414.756711	0.531245
415.136691	0.527399
415.516609	0.519751
415.896466	0.515897
416.276262	0.512232
416.655997	0.514150
417.035670	0.495200
417.415283	0.487662
417.794834	0.492099
418.174324	0.497939
418.553753	0.506379
418.933121	0.488131
419.312428	0.482689
419.691674	0.488049
420.070859	0.476711
420.449983	0.483941
420.829045	0.474446
421.208047	0.482802
421.586988	0.475375
421.965867	0.474423
422.344686	0.463271
422.723444	0.475796
423.102141	0.492885
423.480777	0.465277
423.859352	0.486533
424.237866	0.463371
424.616319	0.464256
424.994712	0.455569
425.373044	0.465841
425.751314	0.453840
426.129524	0.470344
426.507673	0.453131
426.885762	0.447409
427.263789	0.452396
427.641756	0.462359
428.019662	0.452955
428.397508	0.451428
428.775292	0.456195
429.153016	0.448275
429.530679	0.454269
429.908282	0.447585
430.285824	0.458272
430.663305	0.436228
431.040726	0.457282
431.418086	0.457236
431.795385	0.449221
432.172624	0.448577
432.549802	0.448277
432.926920	0.447270
433.303977	0.446621
433.680974	0.443670
434.057910	0.442556
434.434786	0.441718
434.811601	0.444585
435.188355	0.426763
435.565050	0.436152
435.941683	0.437281
436.318257	0.420826
436.694770	0.422144
437.071222	0.420666
437.447614	0.424567
437.823946	0.431622
438.200218	0.420908
438.576429	0.430322
438.952580	0.423333
439.328670	0.419896
439.704700	0.426064
440.080670	0.427887
440.456580	0.408979
440.832429	0.416945
441.208218	0.427944
441.583947	0.417342
441.959616	0.416302
442.335224	0.422333
442.710773	0.412212
443.086261	0.410799
443.461689	0.424518
443.837057	0.414194
444.212365	0.404341
444.587612	0.411756
444.962800	0.401382
445.337927	0.403066
445.712995	0.429126
446.088002	0.391093
446.462949	0.401389
446.837837	0.406270
447.212664	0.394771
447.587431	0.386649
447.962139	0.356874
448.336786	0.315954
448.711374	0.326273
449.085901	0.370687
449.460369	0.375063
449.834776	0.378498
450.209124	0.357723
450.583412	0.350704
450.957640	0.343428
451.331808	0.354400
451.705917	0.378114
452.079965	0.382808
452.453954	0.371034
452.827883	0.378008
453.201752	0.372709
453.575562	0.384080
453.949311	0.372515
454.323001	0.378400
454.696632	0.374523
455.070202	0.367037
455.443713	0.358810
455.817164	0.353312
456.190556	0.349211
456.563888	0.346438
456.937160	0.343690
457.310373	0.360796
457.683526	0.359911
458.056619	0.365721
458.429653	0.366090
458.802628	0.369681
459.175542	0.364020
459.548398	0.346282
459.921194	0.338991
460.293930	0.339355
460.666607	0.316740
461.039224	0.305164
461.411782	0.300500
461.784280	0.299822
462.156719	0.303764
462.529099	0.308406
462.901419	0.324297
463.273680	0.328624
463.645882	0.328309
464.018024	0.333765
464.390106	0.326844
464.762130	0.311540
465.134094	0.294349
465.505999	0.263319
465.877845	0.233608
466.249631	0.220647
466.621358	0.228338
466.993026	0.242071
467.364634	0.248347
467.736184	0.256886
468.107674	0.265889
468.479105	0.265107
468.850477	0.271904
469.221790	0.278688
469.593043	0.288794
469.964238	0.293433
470.335373	0.292961
470.706449	0.291281
471.077467	0.291871
471.448425	0.253914
471.819324	0.229568
472.190164	0.228818
472.560945	0.257638
472.931667	0.280113
473.302330	0.284222
473.672934	0.296213
474.043479	0.283643
474.413965	0.286016
474.784393	0.289536
475.154761	0.284644
475.525070	0.281825
475.895321	0.287516
476.265513	0.281678
476.635645	0.277113
477.005719	0.276750
477.375734	0.273484
477.745691	0.266649
478.115588	0.262861
478.485427	0.256558
478.855207	0.243305
479.224928	0.225890
479.594591	0.213645
479.964194	0.217315
480.333739	0.218662
480.703226	0.220084
481.072653	0.218343
481.442022	0.214018
481.811333	0.210818
482.180584	0.214095
482.549777	0.219563
482.918912	0.222870
483.287988	0.222405
483.657005	0.222123
484.025964	0.228625
484.394864	0.225928
484.763706	0.226574
485.132489	0.231681
485.501213	0.232397
485.869879	0.230809
486.238487	0.233898
486.607036	0.231931
486.975527	0.236613
487.343959	0.232198
487.712333	0.231398
488.080648	0.232665
488.448905	0.232051
488.817104	0.233143
489.185244	0.227574
489.553326	0.224748
489.921350	0.214510
490.289315	0.196804
490.657222	0.191784
491.025070	0.193156
491.392861	0.195134
491.760593	0.201068
492.128267	0.206633
492.495883	0.212071
492.863440	0.218435
493.230939	0.224708
493.598380	0.226125
493.965763	0.228278
494.333088	0.230429
494.700354	0.232163
495.067563	0.231002
495.434713	0.234668
495.801805	0.232195
496.168839	0.233765
496.535815	0.235224
496.902733	0.235007
497.269593	0.236866
497.636395	0.234657
498.003139	0.234788
498.369825	0.238069
498.736453	0.234213
499.103023	0.235956
499.469535	0.235106
499.835989	0.235719
500.202385	0.236496
500.568723	0.239486
500.935003	0.234715
501.301226	0.238817
501.667390	0.233198
502.033497	0.231239
502.399546	0.234343
502.765537	0.236140
503.131470	0.234890
503.497345	0.230948
503.863163	0.239611
504.228923	0.232681
504.594625	0.231398
504.960269	0.236671
505.325856	0.232023
505.691385	0.236715
506.056856	0.233278
506.422270	0.232834
506.787625	0.235033
507.152924	0.232480
507.518164	0.233222
507.883347	0.234500
508.248472	0.236393
508.613540	0.231229
508.978550	0.234035
509.343503	0.234292
509.708398	0.231956
510.073236	0.229589
510.438016	0.229383
510.802738	0.230389
511.167403	0.229342
511.532010	0.231629
511.896561	0.226820
512.261053	0.225595
512.625488	0.227644
512.989866	0.228086
513.354186	0.228402
513.718449	0.230410
514.082655	0.226521
514.446803	0.228977
514.810894	0.226376
515.174927	0.229238
515.538904	0.228958
515.902822	0.225638
516.266684	0.228070
516.630488	0.229148
516.994235	0.228135
517.357925	0.227041
517.721558	0.225170
518.085133	0.224801
518.448651	0.224671
518.812112	0.227156
519.175516	0.226789
519.538863	0.224159
519.902152	0.226258
520.265385	0.222667
520.628560	0.224653
520.991678	0.225283
521.354739	0.223969
521.717743	0.225355
522.080690	0.225413
522.443580	0.223026
522.806413	0.223654
523.169189	0.223416
523.531908	0.222266
523.894569	0.225906
524.257174	0.225890
524.619722	0.223367
524.982213	0.224399
525.344647	0.223632
525.707025	0.224659
526.069345	0.222466
526.431608	0.224291
526.793815	0.222314
527.155964	0.226612
527.518057	0.225444
527.880093	0.226555
528.242072	0.225085
528.603995	0.227188
528.965860	0.228860
529.327669	0.227824
529.689421	0.228678
530.051117	0.229449
530.412755	0.227356
530.774337	0.229611
531.135862	0.229919
531.497331	0.229111
531.858743	0.232331
532.220098	0.228999
532.581396	0.231314
532.942638	0.232020
533.303824	0.232960
533.664953	0.232596
534.026025	0.234802
534.387040	0.232608
534.747999	0.232414
535.108902	0.231514
535.469748	0.236402
535.830537	0.234364
536.191270	0.234549
536.551947	0.234088
536.912567	0.234175
537.273131	0.236082
537.633638	0.236153
537.994089	0.236436
538.354483	0.237911
538.714821	0.234734
539.075103	0.234789
539.435328	0.235244
539.795497	0.239087
540.155609	0.235612
540.515665	0.233776
540.875665	0.239344
541.235609	0.238323
541.595496	0.238107
541.955328	0.234870
542.315102	0.237329
542.674821	0.238776
543.034483	0.238577
543.394090	0.238422
543.753640	0.240057
544.113134	0.235152
544.472571	0.238624
544.831953	0.235176
545.191278	0.239569
545.550548	0.238663
545.909761	0.235789
546.268918	0.236720
546.628019	0.235067
546.987064	0.237848
547.346053	0.239448
547.704986	0.237055
548.063863	0.237549
548.422684	0.237938
548.781449	0.239784
549.140158	0.237585
549.498811	0.240191
549.857408	0.243128
550.215949	0.238045
550.574434	0.241256
550.932864	0.239343
551.291237	0.237662
551.649555	0.239264
552.007817	0.239324
552.366022	0.240020
552.724173	0.240028
553.082267	0.240455
553.440305	0.237498
553.798288	0.241635
554.156215	0.238237
554.514086	0.239016
554.871902	0.242187
555.229661	0.241463
555.587365	0.242486
555.945014	0.244554
556.302606	0.241676
556.660143	0.244280
557.017625	0.241021
557.375050	0.243067
557.732421	0.240024
558.089735	0.241982
558.446994	0.242049
558.804197	0.241263
559.161345	0.241111
559.518437	0.244448
559.875474	0.243051
560.232455	0.242565
560.589381	0.243331
560.946251	0.243711
561.303065	0.241277
561.659825	0.242417
562.016528	0.244514
562.373177	0.247002
562.729770	0.244582
563.086307	0.246102
563.442789	0.244548
563.799216	0.247102
564.155587	0.246475
564.511904	0.247799
564.868164	0.247648
565.224370	0.247767
565.580520	0.249817
565.936615	0.249109
566.292654	0.252384
566.648638	0.249733
567.004567	0.250384
567.360441	0.251232
567.716260	0.253502
568.072023	0.251055
568.427732	0.252401
568.783385	0.254762
569.138982	0.252999
569.494525	0.252942
569.850013	0.255678
570.205445	0.254662
570.560823	0.257511
570.916145	0.259477
571.271412	0.257784
571.626625	0.259616
571.981782	0.260264
572.336884	0.261380
572.691931	0.261138
573.046923	0.262970
573.401860	0.263963
573.756743	0.266160
574.111570	0.265005
574.466342	0.265805
574.821059	0.265206
575.175722	0.268337
575.530330	0.268194
575.884882	0.268774
576.239380	0.270830
576.593823	0.271707
576.948211	0.271625
577.302544	0.274720
577.656823	0.275034
578.011047	0.275370
578.365216	0.276415
578.719330	0.278823
579.073389	0.278552
579.427394	0.280081
579.781344	0.281681
580.135239	0.282925
580.489080	0.283531
580.842866	0.286842
581.196597	0.286926
581.550273	0.286101
581.903895	0.287766
582.257463	0.285878
582.610975	0.290214
582.964434	0.289813
583.317837	0.292947
583.671186	0.293735
584.024481	0.294042
584.377721	0.297212
584.730906	0.298518
585.084037	0.298454
585.437113	0.300416
585.790135	0.300814
586.143103	0.304442
586.496016	0.305568
586.848874	0.304413
587.201679	0.305703
587.554428	0.309315
587.907124	0.309209
588.259765	0.310285
588.612352	0.311862
588.964884	0.315883
589.317362	0.316495
589.669786	0.317396
590.022155	0.316425
590.374470	0.317017
590.726731	0.319269
591.078937	0.325003
591.431090	0.322660
591.783188	0.327254
592.135232	0.328986
592.487222	0.328906
592.839157	0.328703
593.191038	0.331587
593.542866	0.334094
593.894639	0.338724
594.246358	0.337810
594.598022	0.338932
594.949633	0.342951
595.301190	0.344769
595.652692	0.344550
596.004141	0.342010
596.355535	0.350652
596.706876	0.352325
597.058162	0.356026
597.409395	0.354278
597.760573	0.353271
598.111698	0.357317
598.462768	0.359070
598.813785	0.361355
599.164748	0.363962
599.515657	0.364825
599.866511	0.370694
600.217312	0.366687
600.568060	0.373032
600.918753	0.370742
601.269392	0.373042
601.619978	0.377584
601.970510	0.377141
602.320988	0.378206
602.671412	0.377977
603.021783	0.381409
603.372100	0.384038
603.722363	0.385569
604.072572	0.387771
604.422728	0.388617
604.772830	0.392630
605.122878	0.394015
605.472872	0.395693
605.822813	0.396113
606.172701	0.400133
606.522534	0.399630
606.872314	0.401061
607.222041	0.403840
607.571714	0.403758
607.921333	0.406841
608.270899	0.408631
608.620411	0.407211
608.969870	0.412944
609.319276	0.414823
609.668627	0.416971
610.017926	0.416830
610.367171	0.418467
610.716362	0.420709
611.065500	0.423014
611.414585	0.423995
611.763616	0.425692
612.112594	0.428506
612.461518	0.429843
612.810389	0.430563
613.159207	0.434765
613.507971	0.438131
613.856682	0.437042
614.205340	0.439714
614.553945	0.439636
614.902496	0.445153
615.250994	0.445383
615.599439	0.448209
615.947830	0.450140
616.296169	0.453585
616.644454	0.455434
616.992686	0.457456
617.340864	0.458909
617.688990	0.463443
618.037063	0.462878
618.385082	0.466902
618.733048	0.467215
619.080961	0.470737
619.428821	0.473472
619.776628	0.475185
620.124382	0.479804
620.472083	0.482904
620.819731	0.484167
621.167326	0.489631
621.514868	0.491210
621.862357	0.496690
622.209793	0.497953
622.557176	0.502276
622.904506	0.505574
623.251783	0.508824
623.599007	0.513460
623.946179	0.514593
624.293297	0.519423
624.640363	0.523854
624.987376	0.526229
625.334336	0.529790
625.681243	0.534725
626.028097	0.537224
626.374899	0.540240
626.721647	0.543706
627.068343	0.547799
627.414987	0.550460
627.761577	0.554410
628.108115	0.555225
628.454600	0.561346
628.801032	0.562889
629.147412	0.565102
629.493739	0.569231
629.840014	0.572581
630.186236	0.572832
630.532405	0.579641
630.878521	0.579623
631.224585	0.584157
631.570597	0.588402
631.916556	0.591072
632.262462	0.591741
632.608316	0.596645
632.954117	0.599091
633.299866	0.601726
633.645562	0.604790
633.991206	0.609609
634.336797	0.613502
634.682336	0.617752
635.027823	0.621060
635.373257	0.623062
635.718639	0.628214
636.063968	0.629774
636.409245	0.634890
636.754470	0.637751
637.099642	0.641020
637.444762	0.645783
637.789829	0.647461
638.134845	0.651491
638.479808	0.654728
638.824719	0.656527
639.169577	0.660773
639.514383	0.663186
639.859137	0.667898
640.203839	0.668631
640.548489	0.671532
640.893086	0.674240
641.237632	0.677838
641.582125	0.679345
641.926566	0.683010
642.270955	0.684697
642.615292	0.686966
642.959576	0.689105
643.303809	0.691328
643.647990	0.693263
643.992118	0.695408
644.336195	0.698826
644.680219	0.701436
645.024192	0.702644
645.368112	0.701915
645.711981	0.702894
646.055797	0.702955
646.399562	0.706648
646.743274	0.705750
647.086935	0.704728
647.430544	0.707526
647.774101	0.709124
648.117606	0.711112
648.461059	0.713839
648.804460	0.717296
649.147810	0.720525
649.491108	0.724118
649.834354	0.726607
650.177548	0.731282
650.520690	0.735671
650.863781	0.738001
651.206820	0.740831
651.549807	0.744543
651.892742	0.749455
652.235626	0.750122
652.578458	0.752799
652.921238	0.757341
653.263967	0.757862
653.606644	0.760604
653.949269	0.763571
654.291843	0.765630
654.634365	0.767631
654.976836	0.770851
655.319255	0.772229
655.661622	0.775769
656.003938	0.777252
656.346203	0.778272
656.688416	0.781483
657.030577	0.783287
657.372687	0.786341
657.714746	0.788288
658.056753	0.789229
658.398708	0.792286
658.740612	0.794337
659.082465	0.794714
659.424266	0.795662
659.766016	0.797815
660.107715	0.801690
660.449362	0.801680
660.790958	0.803721
661.132503	0.806810
661.473996	0.806737
661.815438	0.809637
662.156829	0.810722
662.498168	0.813350
662.839456	0.813476
663.180693	0.815889
663.521879	0.816058
663.863013	0.818838
664.204097	0.820494
664.545129	0.820097
664.886110	0.822967
665.227040	0.823334
665.567918	0.824446
665.908746	0.826453
666.249522	0.827101
666.590248	0.829579
666.930922	0.830081
667.271545	0.831967
667.612118	0.832868
667.952639	0.834523
668.293109	0.836314
668.633528	0.838811
668.973896	0.839880
669.314213	0.841297
669.654480	0.844086
669.994695	0.845184
670.334859	0.847074
670.674973	0.849520
671.015035	0.850233
671.355047	0.852461
671.695008	0.853479
672.034918	0.854550
672.374777	0.857140
672.714585	0.858080
673.054342	0.859054
673.394049	0.860247
673.733705	0.860913
674.073310	0.863256
674.412864	0.864243
674.752368	0.866143
675.091820	0.869027
675.431223	0.870234
675.770574	0.870432
676.109875	0.874105
676.449125	0.874967
676.788324	0.877642
677.127473	0.879705
677.466571	0.881286
677.805619	0.882944
678.144616	0.884964
678.483562	0.886165
678.822458	0.888093
679.161303	0.889029
679.500098	0.890596
679.838842	0.892411
680.177535	0.893693
680.516179	0.893352
680.854771	0.894223
681.193314	0.893633
681.531805	0.891992
681.870247	0.889759
682.208638	0.888605
682.546978	0.889841
682.885268	0.891487
683.223508	0.894083
683.561697	0.896554
683.899836	0.898848
684.237925	0.899729
684.575963	0.899644
684.913951	0.901451
685.251889	0.901533
685.589776	0.902278
685.927614	0.903047
686.265401	0.903739
686.603137	0.903843
686.940824	0.903670
687.278460	0.903918
687.616046	0.903711
687.953582	0.902733
688.291068	0.904040
688.628504	0.904198
688.965889	0.904344
689.303224	0.905218
689.640510	0.908412
689.977745	0.910643
690.314930	0.913579
690.652065	0.915628
690.989150	0.917875
691.326185	0.921097
691.663170	0.922996
692.000105	0.925076
692.336990	0.927415
692.673825	0.928568
693.010610	0.930466
693.347345	0.932952
693.684030	0.934454
694.020665	0.934780
694.357251	0.936194
694.693786	0.937945
695.030272	0.937741
695.366707	0.939701
695.703093	0.939908
696.039429	0.940352
696.375716	0.943060
696.711952	0.941951
697.048139	0.943913
697.384276	0.944563
697.720363	0.944751
698.056400	0.944560
698.392388	0.944539
698.728326	0.947355
699.064214	0.947845
699.400053	0.948151
699.735842	0.950141
700.071581	0.950412
700.407270	0.952212
700.742910	0.952530
701.078501	0.953274
701.414042	0.955656
701.749533	0.954697
702.084974	0.956789
702.420366	0.957481
702.755709	0.957917
703.091002	0.960687
703.426246	0.960803
703.761440	0.959919
704.096584	0.960461
704.431679	0.960901
704.766725	0.961837
705.101721	0.963158
705.436668	0.962791
705.771565	0.963113
706.106413	0.963195
706.441212	0.964857
706.775961	0.964780
707.110661	0.963916
707.445311	0.965070
707.779913	0.964646
708.114465	0.966366
708.448967	0.965961
708.783421	0.965571
709.117825	0.964233
709.452180	0.964025
709.786485	0.963926
710.120742	0.962517
710.454949	0.962933
710.789107	0.962404
711.123216	0.959608
711.457275	0.959721
711.791286	0.959802
712.125247	0.961019
712.459159	0.960492
712.793023	0.959828
713.126837	0.962943
713.460602	0.961837
713.794318	0.962880
714.127985	0.964695
714.461602	0.966226
714.795171	0.966044
715.128691	0.968022
715.462162	0.969530
715.795584	0.970275
716.128957	0.970734
716.462281	0.972131
716.795556	0.971124
717.128782	0.973382
717.461960	0.973554
717.795088	0.973466
718.128167	0.975340
718.461198	0.975293
718.794180	0.976555
719.127113	0.976459
719.459997	0.977238
719.792833	0.977277
720.125619	0.976809
720.458357	0.978063
720.791046	0.979393
721.123686	0.978006
721.456278	0.978922
721.788821	0.978788
722.121315	0.980281
722.453761	0.979459
722.786158	0.980270
723.118506	0.980118
723.450805	0.979226
723.783056	0.980944
724.115259	0.979421
724.447412	0.980759
724.779518	0.980632
725.111574	0.980589
725.443582	0.980188
725.775542	0.981271
726.107453	0.981296
726.439315	0.981146
726.771129	0.980109
727.102895	0.980635
727.434612	0.980172
727.766281	0.979278
728.097901	0.978766
728.429473	0.979519
728.760996	0.978469
729.092471	0.979935
729.423897	0.980329
729.755276	0.980434
730.086606	0.980103
730.417887	0.980554
730.749120	0.980371
731.080305	0.979912
731.411442	0.978555
731.742530	0.978930
732.073570	0.980011
732.404562	0.980017
732.735506	0.980765
733.066401	0.979336
733.397249	0.980837
733.728048	0.981850
734.058798	0.983622
734.389501	0.984148
734.720156	0.984004
735.050762	0.985309
735.381320	0.984752
735.711831	0.983887
736.042293	0.985606
736.372707	0.986173
736.703073	0.984629
737.033391	0.985626
737.363661	0.985506
737.693883	0.985834
738.024056	0.985204
738.354182	0.986314
738.684260	0.984914
739.014290	0.985769
739.344272	0.984783
739.674207	0.984937
740.004093	0.984830
740.333931	0.984367
740.663722	0.984097
740.993464	0.985544
741.323159	0.984513
741.652806	0.985468
741.982405	0.986119
742.311956	0.986511
742.641460	0.987507
742.970915	0.986432
743.300323	0.985994
743.629683	0.986813
743.958996	0.988652
744.288260	0.987186
744.617477	0.988152
744.946647	0.986950
745.275768	0.989061
745.604842	0.988625
745.933869	0.988501
746.262847	0.988337
746.591778	0.987288
746.920662	0.988820
747.249498	0.989920
747.578286	0.989713
747.907027	0.988418
748.235720	0.988326
748.564365	0.989402
748.892963	0.988426
749.221514	0.988686
749.550017	0.988852
749.878473	0.989756
750.206881	0.991052
750.535242	0.989379
750.863555	0.988826
751.191821	0.990452
751.520039	0.989379
751.848210	0.988931
752.176334	0.989927
752.504411	0.989783
752.832440	0.989750
753.160421	0.989307
753.488356	0.990107
753.816243	0.989579
754.144082	0.990901
754.471875	0.990033
754.799620	0.990985
755.127318	0.990123
755.454969	0.990157
755.782572	0.991531
756.110129	0.989831
756.437638	0.991717
756.765100	0.991037
757.092515	0.989978
757.419882	0.990786
757.747203	0.990810
758.074477	0.991544
758.401703	0.990581
758.728882	0.990217
759.056014	0.990113
759.383099	0.990714
759.710138	0.989629
760.037129	0.990034
760.364073	0.991309
760.690970	0.989226
761.017820	0.989388
761.344623	0.991123
761.671379	0.990165
761.998088	0.990196
762.324751	0.989796
762.651366	0.989658
762.977935	0.985874
763.304456	0.984188
763.630931	0.981947
763.957359	0.982128
764.283740	0.983508
764.610074	0.986154
764.936362	0.986764
765.262602	0.988329
765.588796	0.988845
765.914943	0.989140
766.241044	0.990420
766.567097	0.990113
766.893104	0.992109
767.219064	0.990834
767.544978	0.991187
767.870845	0.992176
768.196665	0.992160
768.522438	0.992233
768.848165	0.992942
769.173846	0.993513
769.499479	0.993782
769.825066	0.993942
770.150607	0.994062
770.476101	0.993275
770.801548	0.994259
771.126949	0.994792
771.452303	0.993965
771.777611	0.994383
772.102872	0.993835
772.428087	0.993271
772.753256	0.993974
773.078378	0.994304
773.403453	0.994447
773.728482	0.996147
774.053465	0.994152
774.378401	0.994266
774.703291	0.995637
775.028135	0.996396
775.352932	0.992932
775.677683	0.995380
776.002388	0.994585
776.327046	0.994871
776.651658	0.996103
776.976224	0.995631
777.300743	0.994692
777.625216	0.995289
777.949643	0.996171
778.274024	0.993959
778.598359	0.995119
778.922647	0.995673
779.246889	0.995993
779.571086	0.994990
779.895236	0.995841
780.219339	0.996156
780.543397	0.994625
780.867409	0.995276
781.191374	0.994919
781.515294	0.995854
781.839167	0.995616
782.162995	0.995468
782.486776	0.994332
782.810511	0.995469
783.134201	0.996202
783.457844	0.996364
783.781441	0.994977
784.104993	0.994701
784.428498	0.995959
784.751958	0.996412
785.075372	0.997006
785.398739	0.995434
785.722061	0.995351
786.045337	0.995355
786.368568	0.994983
786.691752	0.996024
787.014891	0.995054
787.337983	0.994470
787.661030	0.994680
787.984031	0.995137
788.306987	0.993281
788.629897	0.991497
788.952760	0.993641
789.275579	0.993947
789.598351	0.994019
789.921078	0.995195
790.243759	0.994522
790.566395	0.995086
790.888984	0.995130
791.211529	0.995265
791.534027	0.995611
791.856480	0.995984
792.178888	0.995133
792.501249	0.996059
792.823566	0.996798
793.145836	0.996538
793.468062	0.996160
793.790241	0.997259
794.112375	0.995516
794.434464	0.996333
794.756507	0.996726
795.078505	0.995761
795.400457	0.996226
795.722364	0.995858
796.044226	0.995319
796.366042	0.994273
796.687812	0.994225
797.009538	0.995610
797.331218	0.995783
797.652852	0.996239
797.974442	0.994299
798.295986	0.995995
798.617484	0.994493
798.938938	0.996564
799.260346	0.995451
799.581709	0.995393
799.903026	0.996277
800.224299	0.995097
800.545526	0.995268
800.866708	0.994956
801.187845	0.996187
801.508936	0.995977
801.829983	0.996336
802.150984	0.996776
802.471940	0.996415
802.792851	0.995983
803.113717	0.997673
803.434538	0.996953
803.755314	0.997149
804.076045	0.996821
804.396731	0.996475
804.717372	0.994664
805.037967	0.997056
805.358518	0.995876
805.679024	0.997022
805.999485	0.997010
806.319901	0.996280
806.640272	0.996128
806.960598	0.996420
807.280879	0.996274
807.601115	0.997417
807.921306	0.997875
808.241453	0.995675
808.561554	0.996046
808.881611	0.996165
809.201623	0.995481
809.521590	0.996530
809.841513	0.996584
810.161390	0.996068
810.481223	0.996678
810.801011	0.997478
811.120755	0.997273
811.440453	0.995885
811.760107	0.996357
812.079716	0.996448
812.399281	0.997309
812.718801	0.995414
813.038276	0.996369
813.357707	0.996555
813.677093	0.996988
813.996434	0.996320
814.315731	0.997866
814.634983	0.996874
814.954191	0.996274
815.273354	0.995951
815.592473	0.996598
815.911547	0.996273
816.230577	0.995371
816.549562	0.994726
816.868502	0.994975
817.187399	0.996691
817.506250	0.995066
817.825058	0.994838
818.143821	0.995221
818.462539	0.995255
818.781213	0.994868
819.099843	0.994954
819.418429	0.993905
819.736970	0.993687
820.055466	0.991094
820.373919	0.990939
820.692327	0.989680
821.010691	0.987792
821.329011	0.983883
821.647286	0.979831
821.965517	0.974451
822.283704	0.969457
822.601847	0.966777
822.919945	0.967654
823.237999	0.971221
823.556010	0.971639
823.873976	0.976404
824.191897	0.979246
824.509775	0.981796
824.827609	0.982469
825.145398	0.985298
825.463144	0.983606
825.780845	0.984745
826.098502	0.985146
826.416116	0.984376
826.733685	0.979615
827.051210	0.977804
827.368692	0.979304
827.686129	0.980182
828.003522	0.984024
828.320872	0.985382
828.638177	0.988225
828.955439	0.990862
829.272656	0.990811
829.589830	0.991127
829.906960	0.993168
830.224046	0.993486
830.541088	0.993301
830.858086	0.994596
831.175041	0.994889
831.491952	0.995535
831.808819	0.994187
832.125642	0.993453
832.442421	0.994339
832.759157	0.993927
833.075849	0.990371
833.392497	0.988086
833.709101	0.986285
834.025662	0.985025
834.342179	0.986307
834.658653	0.988002
834.975083	0.990092
835.291469	0.991426
835.607811	0.992662
835.924110	0.993312
836.240366	0.995711
836.556578	0.994918
836.872746	0.996569
837.188871	0.996318
837.504952	0.995816
837.820990	0.997391
838.136984	0.996407
838.452935	0.996554
838.768842	0.996572
839.084706	0.997339
839.400526	0.995865
839.716303	0.992804
840.032037	0.992498
840.347727	0.992346
840.663373	0.993037
840.978977	0.993589
841.294537	0.995733
841.610054	0.995993
841.925527	0.996901
842.240957	0.997775
842.556344	0.996742
842.871687	0.997446
843.186987	0.998748
843.502244	0.998559
843.817458	0.998078
844.132629	0.998286
844.447756	0.997972
844.762840	0.999027
845.077881	0.999628
845.392879	0.997434
845.707833	0.998145
846.022745	0.999107
846.337613	0.999463
846.652438	0.998188
846.967221	0.998681
847.281960	0.998771
847.596656	0.999058
847.911309	0.998894
848.225919	0.997383
848.540485	0.998851
848.855009	1.000615
849.169490	1.000040
849.483928	0.998558
849.798323	0.997614
850.112675	1.000366
850.426984	0.999563
850.741251	0.998892
851.055474	0.998486
851.369654	0.998893
851.683792	0.997858
851.997887	0.998954
852.311938	0.999916
852.625947	0.998467
852.939914	0.998336
853.253837	0.999292
853.567718	1.000744
853.881555	0.998977
854.195350	0.999189
854.509103	0.998534
854.822812	0.999373
855.136479	0.999261
855.450103	0.998483
855.763685	0.999327
856.077224	0.999498
856.390720	0.999114
856.704173	0.999481
857.017584	0.999733
857.330953	0.998558
857.644278	0.999463
857.957561	0.998612
858.270802	0.999960
858.584000	0.998857
858.897155	0.998718
859.210268	0.997406
859.523339	0.998708
859.836367	0.998811
860.149352	0.998827
860.462295	0.998945
860.775195	0.999472
861.088054	0.998147
861.400869	0.998215
861.713642	0.998829
862.026373	0.998708
862.339062	0.998157
862.651708	0.998952
862.964312	0.998767
863.276873	0.998253
863.589392	0.999007
863.901869	0.999361
864.214303	0.998985
864.526696	0.999191
864.839045	0.998929
865.151353	0.998680
865.463619	0.997597
865.775842	0.999248
866.088023	1.000201
866.400162	0.997345
866.712258	0.999574
867.024313	0.999343
867.336325	0.999566
867.648296	0.998909
867.960224	0.997647
868.272110	0.998955
868.583954	0.998146
868.895755	0.998825
869.207515	0.997934
869.519233	0.998856
869.830909	0.998690
870.142542	0.998035
870.454134	0.998506
870.765684	0.997263
871.077191	0.998011
871.388657	0.999036
871.700081	0.997787
872.011463	0.997804
872.322803	0.998877
872.634101	0.997093
872.945357	0.997616
873.256571	0.997002
873.567744	0.997705
873.878874	0.997794
874.189963	0.996486
874.501010	0.999229
874.812015	0.998356
875.122979	0.997729
875.433900	0.997141
875.744780	0.997413
876.055618	0.996572
876.366415	0.996634
876.677169	0.996280
876.987882	0.997591
877.298554	0.998285
877.609183	0.996468
877.919771	0.995877
878.230317	0.996482
878.540822	0.995055
878.851285	0.994560
879.161707	0.994936
879.472087	0.997045
879.782425	0.991353
880.092722	0.989923
880.402977	0.986503
880.713191	0.981406
881.023363	0.975316
881.333494	0.972356
881.643583	0.972233
881.953631	0.971650
882.263637	0.971239
882.573602	0.973541
882.883526	0.976414
883.193408	0.979484
883.503248	0.980895
883.813048	0.982586
884.122806	0.984878
884.432522	0.986733
884.742197	0.989583
885.051831	0.989911
885.361424	0.991176
885.670975	0.993365
885.980485	0.992854
886.289954	0.993345
886.599382	0.994022
886.908768	0.995876
887.218113	0.994126
887.527417	0.994828
887.836680	0.996773
888.145901	0.996308
888.455082	0.997238
888.764221	0.996136
889.073319	0.996939
889.382376	0.996867
889.691392	0.995481
890.000366	0.997175
890.309300	0.997062
890.618193	0.997028
890.927044	0.996714
891.235855	0.996797
891.544625	0.997142
891.853353	0.997104
892.162041	0.995898
892.470687	0.997167
892.779293	0.995293
893.087858	0.994842
893.396381	0.994433
893.704864	0.992579
894.013306	0.991452
894.321707	0.988320
894.630068	0.986201
894.938387	0.985981
895.246665	0.985930
895.554903	0.987589
895.863100	0.989156
896.171256	0.990645
896.479371	0.991466
896.787446	0.991823
897.095480	0.993385
897.403473	0.994483
897.711425	0.994729
898.019336	0.995244
898.327207	0.995117
898.635038	0.995226
898.942827	0.996036
899.250576	0.995084
899.558284	0.997042
899.865952	0.995686
900.173579	0.996859
900.481165	0.995887
900.788711	0.996565
901.096216	0.997100
901.403681	0.997717
901.711105	0.997359
902.018489	0.996383
902.325832	0.997606
902.633135	0.996860
902.940397	0.997744
903.247619	0.995855
903.554800	0.992740
903.861941	0.990225
904.169041	0.985163
904.476101	0.982951
904.783121	0.982045
905.090100	0.985333
905.397039	0.986394
905.703938	0.989615
906.010796	0.989707
906.317614	0.991173
906.624391	0.994487
906.931129	0.995488
907.237826	0.996099
907.544483	0.995801
907.851099	0.996217
908.157675	0.995455
908.464211	0.998157
908.770707	0.997436
909.077163	0.998484
909.383578	0.997530
909.689954	0.997320
909.996289	0.998513
910.302584	0.998161
910.608839	1.000356
910.915054	0.998717
911.221229	0.999061
911.527363	0.996893
911.833458	0.999013
912.139513	0.998356
912.445527	0.998789
912.751502	0.997650
913.057436	0.996317
913.363331	0.997798
913.669186	0.997056
913.975000	0.997169
914.280775	0.995173
914.586510	0.993912
914.892205	0.992221
915.197859	0.991480
915.503475	0.989156
915.809050	0.986263
916.114585	0.983342
916.420081	0.983117
916.725536	0.983949
917.030952	0.985129
917.336328	0.985788
917.641665	0.987976
917.946961	0.988034
918.252218	0.989397
918.557435	0.990795
918.862612	0.992438
919.167750	0.994973
919.472848	0.994264
919.777906	0.995484
920.082925	0.996795
920.387904	0.996848
920.692843	0.997115
920.997743	0.996571
921.302603	0.997314
921.607423	0.996093
921.912204	0.996570
922.216946	0.998409
922.521647	0.997431
922.826310	0.997739
923.130932	0.999295
923.435516	0.998075
923.740059	0.998278
924.044564	0.997830
924.349028	0.997803
924.653454	0.998429
924.957840	0.998666
925.262186	0.998195
925.566493	0.998839
925.870761	0.997593
926.174989	0.998101
926.479178	1.000174
926.783328	0.999959
927.087438	0.997745
927.391509	0.999229
927.695541	0.999152
927.999533	1.000752
928.303486	0.999192
928.607400	1.000402
928.911275	1.000179
929.215110	1.000451
929.518906	0.999460
929.822663	1.000801
930.126381	1.000980
930.430060	0.999420
930.733699	0.999887
931.037299	0.999971
931.340861	1.001041
931.644383	0.998224
931.947866	1.000243
932.251309	1.000216
932.554714	1.000961
932.858080	0.999772
933.161407	0.998683
933.464694	1.000397
933.767943	1.000410
934.071153	0.999079
934.374323	1.000920
934.677455	1.000677
934.980548	0.999467
935.283602	1.000951
935.586617	0.998849
935.889593	1.000044
936.192530	0.999193
936.495428	0.999648
936.798287	0.999256
937.101108	0.998977
937.403890	0.998938
937.706632	1.001030
938.009336	1.000338
938.312002	0.998224
938.614628	0.999480
938.917216	0.997263
939.219765	0.998192
939.522275	0.999964
939.824747	0.998798
940.127179	0.998577
940.429573	0.998409
940.731929	0.997503
941.034246	0.998465
941.336524	0.997944
941.638763	0.998427
941.940964	0.998548
942.243126	0.999010
942.545250	1.000908
942.847335	0.997866
943.149381	0.998957
943.451389	0.997363
943.753359	0.998781
944.055290	1.000566
944.357182	1.000260
944.659036	0.999745
944.960851	1.000215
945.262628	0.999938
945.564367	1.000078
945.866067	1.000578
946.167729	0.999470
946.469352	1.000676
946.770937	0.998220
947.072484	1.001459
947.373992	0.999525
947.675462	0.999692
947.976893	0.999660
948.278286	1.001387
948.579641	1.000332
948.880958	0.998736
949.182236	1.000326
949.483476	1.000233
949.784678	1.000033
950.085841	1.000795
950.386967	0.998822
950.688054	0.999790
950.989103	0.999087
951.290114	0.998632
951.591087	1.000408
951.892021	0.998646
952.192917	1.000008
952.493776	0.999090
952.794596	0.998686
953.095378	0.999722
953.396122	0.998721
953.696828	0.998518
953.997496	1.000885
954.298126	1.000542
954.598718	0.999304
954.899272	1.000484
955.199788	0.999278
955.500266	1.000889
955.800706	1.000607
956.101108	0.999380
956.401472	1.000918
956.701798	1.000626
957.002087	1.001249
957.302337	1.000129
957.602550	1.001099
957.902724	1.000384
958.202861	1.000487
958.502960	1.000468
958.803022	1.001467
959.103045	1.001426
959.403031	1.001735
959.702979	1.002543
960.002889	1.000479
960.302762	1.000317
960.602596	1.002749
960.902393	1.001106
961.202153	1.002104
961.501875	1.000564
961.801559	1.002245
962.101205	1.000119
962.400814	1.002556
962.700385	1.001017
962.999918	1.000350
963.299414	1.000582
963.598873	1.001286
963.898293	1.001009
964.197677	1.001234
964.497022	1.000847
964.796331	1.001239
965.095601	1.001962
965.394835	1.001505
965.694030	1.002304
965.993189	1.000739
966.292309	1.001346
966.591393	0.999995
966.890439	1.000805
967.189447	1.000977
967.488419	1.001124
967.787353	1.000557
968.086249	1.002372
968.385108	1.001097
968.683930	1.001922
968.982714	1.000938
969.281462	1.001789
969.580172	1.001055
969.878844	1.001885
970.177480	1.001001
970.476078	1.002363
970.774639	1.000879
971.073162	1.000613
971.371649	1.001128
971.670098	1.001704
971.968510	1.002610
972.266885	1.001507
972.565223	1.000910
972.863524	1.000060
973.161788	1.000343
973.460014	1.003535
973.758204	0.999641
974.056356	1.001460
974.354471	0.999914
974.652550	1.002603
974.950591	1.001538
975.248595	1.001308
975.546563	1.002410
975.844493	1.001465
976.142386	1.001220
976.440243	1.001958
976.738062	1.001895
977.035845	1.000409
977.333590	1.001789
977.631299	1.001266
977.928971	1.001861
978.226606	1.001130
978.524204	1.000814
978.821765	1.002270
979.119290	1.003069
979.416777	1.001285
979.714228	1.001566
980.011642	1.002103
980.309020	1.001582
980.606360	1.001605
980.903664	1.002135
981.200931	1.001830
981.498162	1.000870
981.795356	1.000852
982.092513	1.000168
982.389633	1.001578
982.686717	0.999230
982.983764	1.000752
983.280775	1.000179
983.577749	1.001891
983.874686	0.999434
984.171587	0.999326
984.468451	1.001211
984.765279	1.002278
985.062070	1.000913
985.358824	1.000920
985.655543	1.002327
985.952224	1.001362
986.248869	1.002073
986.545478	1.002802
986.842050	1.001077
987.138586	1.000235
987.435086	1.000302
987.731549	1.002690
988.027975	1.001982
988.324366	1.001653
988.620719	1.002322
988.917037	1.002019
989.213318	1.002072
989.509563	1.001894
989.805772	1.002358
990.101944	1.002376
990.398080	1.002251
990.694180	1.003092
990.990244	1.001124
991.286271	1.001760
991.582262	1.001687
991.878217	1.002389
992.174136	1.001738
992.470019	1.002064
992.765865	1.003117
993.061676	1.003066
993.357450	1.001441
993.653188	1.002760
993.948890	1.001769
994.244556	1.001470
994.540186	1.001746
994.835780	1.001434
995.131337	1.002358
995.426859	1.002060
995.722345	1.002213
996.017795	1.001510
996.313208	1.002784
996.608586	1.001557
996.903928	1.001050
997.199234	1.001411
997.494504	1.002506
997.789738	1.000716
998.084936	1.002559
998.380099	1.001146
998.675225	1.003175
998.970316	1.002582
999.265371	1.002170
999.560390	1.001954
999.855373	1.001506
1000.150320	1.002309
1000.445232	1.001236
1000.740108	1.001276
1001.034948	1.002150
1001.329752	1.002288
1001.624521	1.000991
1001.919254	1.000781
1002.213951	1.001694
1002.508613	1.000757
1002.803239	1.002084
1003.097829	1.001980
1003.392384	1.003179
1003.686903	1.002829
1003.981386	1.002609
1004.275834	1.004173
1004.570246	1.001147
1004.864623	1.002574
1005.158964	1.002643
1005.453270	1.000797
1005.747540	1.002768
1006.041775	1.001816
1006.335974	1.002521
1006.630138	1.001811
1006.924266	1.001631
1007.218359	1.000672
1007.512416	1.003563
1007.806438	1.001874
1008.100425	1.002108
1008.394376	1.001653
1008.688292	1.001927
1008.982172	1.001187
1009.276017	1.002484
1009.569827	1.003190
1009.863602	1.001268
1010.157341	1.002075
1010.451045	1.001955
1010.744714	1.002642
1011.038347	1.002386
1011.331945	1.000801
1011.625508	1.002270
1011.919036	1.001690
1012.212528	1.003687
1012.505986	1.001975
1012.799408	1.002072
1013.092795	1.002133
1013.386147	1.002593
1013.679464	1.002874
1013.972745	1.003284
1014.265992	1.001886
1014.559204	1.002015
1014.852380	1.002424
1015.145521	1.001888
1015.438628	1.001229
1015.731699	1.002350
1016.024736	1.001978
1016.317737	1.003075
1016.610703	1.002838
1016.903635	1.002066
1017.196531	1.001303
1017.489393	1.002411
1017.782219	1.002205
1018.075011	1.002225
1018.367768	1.001442
1018.660490	1.002884
1018.953177	1.002884
1019.245829	1.002884
