Dividing Wavelength (nm)	Counts (n)	Blue Motor Position (mm): 31.700000	Red Motor Position (mm): 0.000000	
326.493990	0.999280
326.888308	0.999280
327.282561	0.999280
327.676750	0.999886
328.070874	1.001413
328.464933	1.001861
328.858929	1.000857
329.252859	0.999585
329.646726	0.999983
330.040528	1.000082
330.434265	1.001321
330.827938	0.999591
331.221547	1.000842
331.615091	1.001002
332.008571	1.001050
332.401986	0.999374
332.795338	0.999838
333.188625	1.001432
333.581847	0.999889
333.975006	0.999908
334.368100	0.999751
334.761129	0.999387
335.154095	1.000619
335.546996	1.000674
335.939833	0.999638
336.332606	1.000064
336.725315	0.998556
337.117960	1.000102
337.510540	0.999610
337.903056	0.999118
338.295508	1.000710
338.687896	1.000462
339.080220	0.999976
339.472480	0.999628
339.864676	0.999926
340.256807	0.998276
340.648875	1.001226
341.040879	0.998870
341.432818	1.000998
341.824694	0.998756
342.216506	1.000312
342.608253	0.999282
342.999937	0.999321
343.391557	0.999525
343.783113	1.000069
344.174605	1.001050
344.566033	0.998385
344.957397	1.000182
345.348697	1.000064
345.739934	1.000347
346.131106	0.998618
346.522215	1.000030
346.913260	0.998746
347.304241	0.998771
347.695159	0.999557
348.086012	0.999166
348.476802	0.999557
348.867528	0.998616
349.258191	1.000181
349.648789	0.999021
350.039324	0.999821
350.429796	0.998632
350.820203	0.998933
351.210548	0.998846
351.600828	1.000461
351.991045	0.999103
352.381198	1.000163
352.771288	0.999329
353.161314	0.999127
353.551276	0.998888
353.941175	0.998659
354.331010	1.000637
354.720782	0.998955
355.110490	0.998386
355.500135	1.000140
355.889717	0.997788
356.279235	0.997925
356.668689	1.000483
357.058080	0.998830
357.447408	0.996540
357.836672	0.997164
358.225873	0.998275
358.615010	0.998516
359.004084	0.997859
359.393095	0.998284
359.782043	0.998369
360.170927	0.997818
360.559748	0.997164
360.948505	0.997931
361.337199	0.997784
361.725830	0.998377
362.114398	0.998082
362.502903	0.997397
362.891344	0.997172
363.279722	0.997649
363.668037	0.999008
364.056289	0.997209
364.444478	0.998128
364.832603	0.996980
365.220665	0.998541
365.608665	0.997187
365.996601	0.998590
366.384474	0.995515
366.772284	0.996705
367.160031	0.996183
367.547715	0.996163
367.935336	0.995795
368.322893	0.993619
368.710388	0.993351
369.097820	0.991746
369.485189	0.988579
369.872495	0.987544
370.259738	0.984556
370.646918	0.982638
371.034035	0.979999
371.421090	0.977202
371.808081	0.971981
372.195010	0.970182
372.581875	0.964073
372.968678	0.959709
373.355418	0.957068
373.742096	0.948958
374.128710	0.945948
374.515262	0.940795
374.901751	0.934645
375.288177	0.929429
375.674540	0.922800
376.060841	0.917017
376.447079	0.909853
376.833254	0.903499
377.219367	0.898593
377.605417	0.886677
377.991404	0.884215
378.377329	0.878171
378.763191	0.871790
379.148991	0.861140
379.534727	0.854752
379.920402	0.847082
380.306013	0.843286
380.691563	0.829902
381.077049	0.823947
381.462474	0.819242
381.847835	0.806989
382.233134	0.802923
382.618371	0.803030
383.003545	0.786665
383.388657	0.784925
383.773706	0.776841
384.158693	0.772645
384.543618	0.767444
384.928480	0.757852
385.313280	0.748636
385.698017	0.748548
386.082692	0.736192
386.467305	0.734600
386.851856	0.729963
387.236344	0.723926
387.620770	0.718822
388.005133	0.712842
388.389435	0.707051
388.773674	0.705307
389.157851	0.696779
389.541965	0.694740
389.926018	0.700341
390.310008	0.687744
390.693936	0.684171
391.077802	0.677162
391.461606	0.677143
391.845348	0.667434
392.229027	0.667118
392.612645	0.665464
392.996200	0.652082
393.379694	0.645335
393.763125	0.635837
394.146494	0.639074
394.529801	0.630461
394.913047	0.622719
395.296230	0.628670
395.679351	0.620326
396.062410	0.616450
396.445408	0.619370
396.828343	0.614418
397.211217	0.609519
397.594028	0.622105
397.976778	0.613185
398.359466	0.608627
398.742092	0.604651
399.124656	0.615864
399.507158	0.604185
399.889598	0.602140
400.271977	0.593155
400.654294	0.596085
401.036549	0.595929
401.418742	0.599983
401.800874	0.586189
402.182944	0.582548
402.564952	0.574592
402.946898	0.576494
403.328783	0.577242
403.710606	0.588761
404.092367	0.563144
404.474067	0.568980
404.855705	0.567352
405.237282	0.576121
405.618797	0.562645
406.000250	0.558238
406.381642	0.548518
406.762972	0.553454
407.144240	0.552393
407.525447	0.551912
407.906593	0.544883
408.287677	0.540914
408.668700	0.548483
409.049661	0.542848
409.430560	0.538195
409.811399	0.546204
410.192176	0.527903
410.572891	0.535959
410.953545	0.524047
411.334138	0.537618
411.714669	0.529939
412.095139	0.541997
412.475547	0.526039
412.855894	0.528412
413.236180	0.527380
413.616405	0.532525
413.996568	0.523649
414.376670	0.530122
414.756711	0.535425
415.136691	0.532071
415.516609	0.522973
415.896466	0.520700
416.276262	0.516938
416.655997	0.519526
417.035670	0.501389
417.415283	0.494535
417.794834	0.500187
418.174324	0.506109
418.553753	0.516619
418.933121	0.500403
419.312428	0.495933
419.691674	0.502862
420.070859	0.492866
420.449983	0.502807
420.829045	0.494103
421.208047	0.505163
421.586988	0.500427
421.965867	0.502064
422.344686	0.493864
422.723444	0.508199
423.102141	0.527091
423.480777	0.503714
423.859352	0.527031
424.237866	0.508738
424.616319	0.513096
424.994712	0.508231
425.373044	0.521717
425.751314	0.515103
426.129524	0.534349
426.507673	0.523362
426.885762	0.521541
427.263789	0.532047
427.641756	0.544964
428.019662	0.541957
428.397508	0.547283
428.775292	0.556992
429.153016	0.555413
429.530679	0.566528
429.908282	0.567168
430.285824	0.581045
430.663305	0.571087
431.040726	0.594824
431.418086	0.600499
431.795385	0.602291
432.172624	0.609103
432.549802	0.616504
432.926920	0.622816
433.303977	0.630757
433.680974	0.636335
434.057910	0.643468
434.434786	0.651092
434.811601	0.660826
435.188355	0.658409
435.565050	0.671903
435.941683	0.681168
436.318257	0.680015
436.694770	0.690895
437.071222	0.698648
437.447614	0.709388
437.823946	0.720577
438.200218	0.723961
438.576429	0.737684
438.952580	0.744055
439.328670	0.749858
439.704700	0.761717
440.080670	0.770324
440.456580	0.772369
440.832429	0.784231
441.208218	0.796666
441.583947	0.799762
441.959616	0.807089
442.335224	0.818516
442.710773	0.822517
443.086261	0.830197
443.461689	0.840267
443.837057	0.844724
444.212365	0.850229
444.587612	0.858461
444.962800	0.862762
445.337927	0.871504
445.712995	0.882919
446.088002	0.880328
446.462949	0.888327
446.837837	0.896462
447.212664	0.898531
447.587431	0.903914
447.962139	0.904704
448.336786	0.900869
448.711374	0.908161
449.085901	0.921291
449.460369	0.927851
449.834776	0.932741
450.209124	0.935139
450.583412	0.938777
450.957640	0.940401
451.331808	0.946691
451.705917	0.952494
452.079965	0.955963
452.453954	0.958918
452.827883	0.962297
453.201752	0.964676
453.575562	0.967733
453.949311	0.970066
454.323001	0.971758
454.696632	0.973869
455.070202	0.975480
455.443713	0.977527
455.817164	0.979026
456.190556	0.980640
456.563888	0.982690
456.937160	0.983026
457.310373	0.985370
457.683526	0.986043
458.056619	0.988743
458.429653	0.988417
458.802628	0.988996
459.175542	0.989824
459.548398	0.990655
459.921194	0.991044
460.293930	0.992395
460.666607	0.992013
461.039224	0.991496
461.411782	0.992356
461.784280	0.992782
462.156719	0.995290
462.529099	0.994570
462.901419	0.994127
463.273680	0.994316
463.645882	0.994532
464.018024	0.996105
464.390106	0.995616
464.762130	0.994936
465.134094	0.995471
465.505999	0.995798
465.877845	0.994913
466.249631	0.994920
466.621358	0.995040
466.993026	0.995158
467.364634	0.996359
467.736184	0.996019
468.107674	0.995834
468.479105	0.996875
468.850477	0.996350
469.221790	0.996885
469.593043	0.996439
469.964238	0.996655
470.335373	0.997041
470.706449	0.997385
471.077467	0.996877
471.448425	0.997413
471.819324	0.997050
472.190164	0.996469
472.560945	0.996700
472.931667	0.997116
473.302330	0.997033
473.672934	0.997140
474.043479	0.996378
474.413965	0.996985
474.784393	0.997432
475.154761	0.996829
475.525070	0.996677
475.895321	0.997758
476.265513	0.997384
476.635645	0.997622
477.005719	0.996354
477.375734	0.997107
477.745691	0.996372
478.115588	0.996449
478.485427	0.997113
478.855207	0.997412
479.224928	0.996824
479.594591	0.997040
479.964194	0.996753
480.333739	0.996870
480.703226	0.996651
481.072653	0.996555
481.442022	0.996436
481.811333	0.997077
482.180584	0.996743
482.549777	0.996826
482.918912	0.996691
483.287988	0.996853
483.657005	0.996578
484.025964	0.996709
484.394864	0.996590
484.763706	0.996078
485.132489	0.997066
485.501213	0.996918
485.869879	0.997116
486.238487	0.995707
486.607036	0.997403
486.975527	0.996907
487.343959	0.995987
487.712333	0.997050
488.080648	0.996043
488.448905	0.996387
488.817104	0.996566
489.185244	0.996452
489.553326	0.997214
489.921350	0.996597
490.289315	0.996334
490.657222	0.995944
491.025070	0.996635
491.392861	0.996682
491.760593	0.996073
492.128267	0.996441
492.495883	0.996139
492.863440	0.996984
493.230939	0.996905
493.598380	0.996961
493.965763	0.997069
494.333088	0.996283
494.700354	0.996466
495.067563	0.996994
495.434713	0.997110
495.801805	0.996938
496.168839	0.996846
496.535815	0.997541
496.902733	0.996645
497.269593	0.997082
497.636395	0.995986
498.003139	0.996496
498.369825	0.997232
498.736453	0.997587
499.103023	0.996766
499.469535	0.996908
499.835989	0.997048
500.202385	0.996686
500.568723	0.997423
500.935003	0.997289
501.301226	0.997131
501.667390	0.996217
502.033497	0.996727
502.399546	0.996599
502.765537	0.996642
503.131470	0.997258
503.497345	0.997139
503.863163	0.996740
504.228923	0.996723
504.594625	0.996688
504.960269	0.997037
505.325856	0.997499
505.691385	0.997187
506.056856	0.997345
506.422270	0.997222
506.787625	0.997374
507.152924	0.997604
507.518164	0.997096
507.883347	0.997450
508.248472	0.997402
508.613540	0.996406
508.978550	0.997516
509.343503	0.997014
509.708398	0.997779
510.073236	0.997219
510.438016	0.996708
510.802738	0.996570
511.167403	0.996360
511.532010	0.997186
511.896561	0.997111
512.261053	0.996795
512.625488	0.996360
512.989866	0.997052
513.354186	0.996466
513.718449	0.996892
514.082655	0.996799
514.446803	0.997147
514.810894	0.997318
515.174927	0.997701
515.538904	0.997492
515.902822	0.996547
516.266684	0.997402
516.630488	0.996945
516.994235	0.997565
517.357925	0.997571
517.721558	0.997318
518.085133	0.996940
518.448651	0.996765
518.812112	0.997259
519.175516	0.997460
519.538863	0.996519
519.902152	0.997538
520.265385	0.996927
520.628560	0.997267
520.991678	0.997254
521.354739	0.997299
521.717743	0.997001
522.080690	0.996528
522.443580	0.997448
522.806413	0.996594
523.169189	0.997224
523.531908	0.996900
523.894569	0.996946
524.257174	0.996730
524.619722	0.997386
524.982213	0.996943
525.344647	0.996427
525.707025	0.995980
526.069345	0.996344
526.431608	0.997533
526.793815	0.996924
527.155964	0.997146
527.518057	0.997127
527.880093	0.997099
528.242072	0.997100
528.603995	0.996485
528.965860	0.997070
529.327669	0.997264
529.689421	0.996218
530.051117	0.997277
530.412755	0.997587
530.774337	0.996673
531.135862	0.997616
531.497331	0.996689
531.858743	0.997473
532.220098	0.996711
532.581396	0.997347
532.942638	0.997355
533.303824	0.997835
533.664953	0.996824
534.026025	0.997727
534.387040	0.997169
534.747999	0.997073
535.108902	0.996973
535.469748	0.997579
535.830537	0.997537
536.191270	0.997587
536.551947	0.996804
536.912567	0.996805
537.273131	0.997661
537.633638	0.996414
537.994089	0.997100
538.354483	0.997186
538.714821	0.997252
539.075103	0.997289
539.435328	0.997131
539.795497	0.996948
540.155609	0.996982
540.515665	0.997448
540.875665	0.996411
541.235609	0.997598
541.595496	0.996691
541.955328	0.997109
542.315102	0.997343
542.674821	0.997654
543.034483	0.998023
543.394090	0.996531
543.753640	0.996545
544.113134	0.997157
544.472571	0.997740
544.831953	0.997295
545.191278	0.997572
545.550548	0.996407
545.909761	0.996722
546.268918	0.997612
546.628019	0.997558
546.987064	0.996689
547.346053	0.997250
547.704986	0.996850
548.063863	0.996804
548.422684	0.996735
548.781449	0.997029
549.140158	0.997900
549.498811	0.996275
549.857408	0.996783
550.215949	0.996027
550.574434	0.996525
550.932864	0.997445
551.291237	0.996977
551.649555	0.997569
552.007817	0.997029
552.366022	0.997383
552.724173	0.997456
553.082267	0.997537
553.440305	0.996143
553.798288	0.996224
554.156215	0.996412
554.514086	0.997097
554.871902	0.997235
555.229661	0.996316
555.587365	0.996780
555.945014	0.997410
556.302606	0.996873
556.660143	0.997217
557.017625	0.996935
557.375050	0.996634
557.732421	0.997247
558.089735	0.997049
558.446994	0.997382
558.804197	0.997553
559.161345	0.996304
559.518437	0.997326
559.875474	0.997175
560.232455	0.997518
560.589381	0.997662
560.946251	0.997289
561.303065	0.996617
561.659825	0.997092
562.016528	0.997275
562.373177	0.997229
562.729770	0.996751
563.086307	0.996133
563.442789	0.997586
563.799216	0.996513
564.155587	0.997348
564.511904	0.997506
564.868164	0.996373
565.224370	0.996806
565.580520	0.997490
565.936615	0.996693
566.292654	0.997100
566.648638	0.997626
567.004567	0.997155
567.360441	0.997509
567.716260	0.996750
568.072023	0.996055
568.427732	0.997178
568.783385	0.996991
569.138982	0.996904
569.494525	0.997143
569.850013	0.997525
570.205445	0.997362
570.560823	0.997149
570.916145	0.997689
571.271412	0.996716
571.626625	0.996993
571.981782	0.997398
572.336884	0.997351
572.691931	0.997546
573.046923	0.997703
573.401860	0.997092
573.756743	0.997171
574.111570	0.997147
574.466342	0.998020
574.821059	0.997278
575.175722	0.997694
575.530330	0.997424
575.884882	0.997360
576.239380	0.997726
576.593823	0.996903
576.948211	0.997372
577.302544	0.997356
577.656823	0.997327
578.011047	0.996819
578.365216	0.997660
578.719330	0.997507
579.073389	0.996811
579.427394	0.996950
579.781344	0.997703
580.135239	0.997026
580.489080	0.997824
580.842866	0.997401
581.196597	0.997404
581.550273	0.996718
581.903895	0.997810
582.257463	0.996559
582.610975	0.996656
582.964434	0.997123
583.317837	0.997675
583.671186	0.997230
584.024481	0.997209
584.377721	0.996810
584.730906	0.997218
585.084037	0.998729
585.437113	0.997750
585.790135	0.997184
586.143103	0.997381
586.496016	0.997616
586.848874	0.997089
587.201679	0.997035
587.554428	0.996873
587.907124	0.997558
588.259765	0.998428
588.612352	0.997780
588.964884	0.998176
589.317362	0.997615
589.669786	0.997841
590.022155	0.996510
590.374470	0.997128
590.726731	0.996319
591.078937	0.997877
591.431090	0.997241
591.783188	0.996732
592.135232	0.997878
592.487222	0.997008
592.839157	0.996789
593.191038	0.998186
593.542866	0.997052
593.894639	0.996944
594.246358	0.998085
594.598022	0.998002
594.949633	0.998104
595.301190	0.997078
595.652692	0.997036
596.004141	0.997625
596.355535	0.997071
596.706876	0.997733
597.058162	0.997376
597.409395	0.997724
597.760573	0.998052
598.111698	0.997204
598.462768	0.997128
598.813785	0.997030
599.164748	0.997320
599.515657	0.997092
599.866511	0.997823
600.217312	0.998194
600.568060	0.996628
600.918753	0.997035
601.269392	0.998104
601.619978	0.997540
601.970510	0.997485
602.320988	0.997386
602.671412	0.997907
603.021783	0.997383
603.372100	0.997474
603.722363	0.997833
604.072572	0.997087
604.422728	0.997443
604.772830	0.997618
605.122878	0.998322
605.472872	0.998261
605.822813	0.997494
606.172701	0.997738
606.522534	0.998319
606.872314	0.998121
607.222041	0.997458
607.571714	0.997679
607.921333	0.997614
608.270899	0.997542
608.620411	0.997728
608.969870	0.998696
609.319276	0.997901
609.668627	0.998321
610.017926	0.997861
610.367171	0.997884
610.716362	0.997979
611.065500	0.997596
611.414585	0.997765
611.763616	0.997677
612.112594	0.997626
612.461518	0.996656
612.810389	0.996952
613.159207	0.997611
613.507971	0.997739
613.856682	0.998803
614.205340	0.997278
614.553945	0.998271
614.902496	0.997380
615.250994	0.997850
615.599439	0.998362
615.947830	0.997322
616.296169	0.998161
616.644454	0.998050
616.992686	0.997605
617.340864	0.997618
617.688990	0.996828
618.037063	0.998030
618.385082	0.996851
618.733048	0.996839
619.080961	0.998049
619.428821	0.997943
619.776628	0.997314
620.124382	0.997660
620.472083	0.998033
620.819731	0.998725
621.167326	0.998004
621.514868	0.998365
621.862357	0.998216
622.209793	0.997741
622.557176	0.997094
622.904506	0.997500
623.251783	0.997737
623.599007	0.998537
623.946179	0.997437
624.293297	0.997967
624.640363	0.997842
624.987376	0.997580
625.334336	0.997760
625.681243	0.997599
626.028097	0.997987
626.374899	0.997929
626.721647	0.998852
627.068343	0.997891
627.414987	0.998096
627.761577	0.997288
628.108115	0.997606
628.454600	0.997676
628.801032	0.997650
629.147412	0.997397
629.493739	0.998303
629.840014	0.997855
630.186236	0.997453
630.532405	0.999112
630.878521	0.997398
631.224585	0.998026
631.570597	0.997529
631.916556	0.999098
632.262462	0.997387
632.608316	0.998138
632.954117	0.997591
633.299866	0.997108
633.645562	0.997241
633.991206	0.997631
634.336797	0.997765
634.682336	0.999124
635.027823	0.998121
635.373257	0.998113
635.718639	0.997800
636.063968	0.997213
636.409245	0.997326
636.754470	0.998025
637.099642	0.998538
637.444762	0.997898
637.789829	0.997199
638.134845	0.997762
638.479808	0.998729
638.824719	0.998274
639.169577	0.997379
639.514383	0.997911
639.859137	0.997936
640.203839	0.998456
640.548489	0.998090
640.893086	0.997337
641.237632	0.998763
641.582125	0.997785
641.926566	0.999061
642.270955	0.998614
642.615292	0.998031
642.959576	0.998704
643.303809	0.998582
643.647990	0.998746
643.992118	0.999248
644.336195	0.997111
644.680219	0.998500
645.024192	0.998306
645.368112	0.997433
645.711981	0.997804
646.055797	0.997993
646.399562	0.998083
646.743274	0.999080
647.086935	0.997522
647.430544	0.997415
647.774101	0.997795
648.117606	0.998951
648.461059	0.999139
648.804460	0.997561
649.147810	0.997520
649.491108	0.997963
649.834354	0.997944
650.177548	0.998269
650.520690	0.997698
650.863781	0.997896
651.206820	0.998430
651.549807	0.998936
651.892742	0.998607
652.235626	0.997830
652.578458	0.998305
652.921238	0.999267
653.263967	0.998727
653.606644	0.997114
653.949269	0.998359
654.291843	0.997542
654.634365	0.998240
654.976836	0.997898
655.319255	0.998124
655.661622	0.997892
656.003938	0.997694
656.346203	0.998047
656.688416	0.998365
657.030577	0.998170
657.372687	0.998604
657.714746	0.997448
658.056753	0.997164
658.398708	0.997520
658.740612	0.998389
659.082465	0.998161
659.424266	0.998232
659.766016	0.997507
660.107715	0.998525
660.449362	0.998446
660.790958	0.997812
661.132503	0.998751
661.473996	0.997317
661.815438	0.997899
662.156829	0.998533
662.498168	0.998605
662.839456	0.997036
663.180693	0.998068
663.521879	0.997583
663.863013	0.997873
664.204097	0.997437
664.545129	0.997618
664.886110	0.998008
665.227040	0.997420
665.567918	0.997539
665.908746	0.997387
666.249522	0.997289
666.590248	0.997704
666.930922	0.997322
667.271545	0.997832
667.612118	0.997621
667.952639	0.998645
668.293109	0.997722
668.633528	0.997670
668.973896	0.998243
669.314213	0.997390
669.654480	0.998395
669.994695	0.997119
670.334859	0.998019
670.674973	0.997833
671.015035	0.997262
671.355047	0.998060
671.695008	0.997349
672.034918	0.997398
672.374777	0.998044
672.714585	0.998077
673.054342	0.998316
673.394049	0.997645
673.733705	0.997763
674.073310	0.998124
674.412864	0.997966
674.752368	0.997435
675.091820	0.998604
675.431223	0.998776
675.770574	0.996984
676.109875	0.997768
676.449125	0.997520
676.788324	0.997257
677.127473	0.999172
677.466571	0.998464
677.805619	0.998476
678.144616	0.998902
678.483562	0.998774
678.822458	0.998502
679.161303	0.997485
679.500098	0.997829
679.838842	0.997931
680.177535	0.997843
680.516179	0.997031
680.854771	0.997143
681.193314	0.997107
681.531805	0.997247
681.870247	0.997056
682.208638	0.997585
682.546978	0.996536
682.885268	0.996885
683.223508	0.997228
683.561697	0.997442
683.899836	0.997329
684.237925	0.997234
684.575963	0.996751
684.913951	0.997698
685.251889	0.997726
685.589776	0.997514
685.927614	0.997220
686.265401	0.997448
686.603137	0.997374
686.940824	0.997208
687.278460	0.997953
687.616046	0.997575
687.953582	0.997516
688.291068	0.997518
688.628504	0.997347
688.965889	0.996831
689.303224	0.995973
689.640510	0.996907
689.977745	0.996795
690.314930	0.996802
690.652065	0.996964
690.989150	0.996359
691.326185	0.998148
691.663170	0.997571
692.000105	0.997390
692.336990	0.996530
692.673825	0.996755
693.010610	0.997259
693.347345	0.997045
693.684030	0.997120
694.020665	0.997372
694.357251	0.997225
694.693786	0.997033
695.030272	0.996067
695.366707	0.997040
695.703093	0.997938
696.039429	0.997089
696.375716	0.997555
696.711952	0.997162
697.048139	0.997629
697.384276	0.997998
697.720363	0.996948
698.056400	0.996644
698.392388	0.996151
698.728326	0.996483
699.064214	0.997970
699.400053	0.997309
699.735842	0.998716
700.071581	0.996691
700.407270	0.997525
700.742910	0.997687
701.078501	0.996583
701.414042	0.998324
701.749533	0.996644
702.084974	0.997561
702.420366	0.997903
702.755709	0.997188
703.091002	0.997444
703.426246	0.998390
703.761440	0.997328
704.096584	0.996909
704.431679	0.996494
704.766725	0.997076
705.101721	0.998113
705.436668	0.997848
705.771565	0.996907
706.106413	0.996832
706.441212	0.997250
706.775961	0.997322
707.110661	0.996217
707.445311	0.997532
707.779913	0.997959
708.114465	0.997719
708.448967	0.997160
708.783421	0.997669
709.117825	0.996700
709.452180	0.997232
709.786485	0.996675
710.120742	0.996947
710.454949	0.996522
710.789107	0.997284
711.123216	0.995670
711.457275	0.995359
711.791286	0.996262
712.125247	0.998754
712.459159	0.995728
712.793023	0.995634
713.126837	0.997723
713.460602	0.997008
713.794318	0.996588
714.127985	0.995606
714.461602	0.996864
714.795171	0.995350
715.128691	0.996599
715.462162	0.997300
715.795584	0.996565
716.128957	0.997476
716.462281	0.997578
716.795556	0.996914
717.128782	0.998082
717.461960	0.996659
717.795088	0.997320
718.128167	0.998272
718.461198	0.997064
718.794180	0.997325
719.127113	0.996628
719.459997	0.996149
719.792833	0.996674
720.125619	0.995784
720.458357	0.997149
720.791046	0.997413
721.123686	0.997364
721.456278	0.997655
721.788821	0.997016
722.121315	0.998281
722.453761	0.996541
722.786158	0.996325
723.118506	0.997184
723.450805	0.996825
723.783056	0.997460
724.115259	0.996819
724.447412	0.997739
724.779518	0.996704
725.111574	0.995724
725.443582	0.997179
725.775542	0.997881
726.107453	0.997140
726.439315	0.996983
726.771129	0.997335
727.102895	0.996734
727.434612	0.996119
727.766281	0.997573
728.097901	0.996156
728.429473	0.997222
728.760996	0.995937
729.092471	0.995980
729.423897	0.996342
729.755276	0.996432
730.086606	0.996554
730.417887	0.997487
730.749120	0.996800
731.080305	0.996882
731.411442	0.995305
731.742530	0.996661
732.073570	0.995740
732.404562	0.996194
732.735506	0.996700
733.066401	0.996889
733.397249	0.997088
733.728048	0.996872
734.058798	0.996748
734.389501	0.997426
734.720156	0.995831
735.050762	0.998179
735.381320	0.996981
735.711831	0.996891
736.042293	0.996556
736.372707	0.998428
736.703073	0.995545
737.033391	0.996694
737.363661	0.997822
737.693883	0.996566
738.024056	0.996296
738.354182	0.996374
738.684260	0.997151
739.014290	0.996821
739.344272	0.996647
739.674207	0.997477
740.004093	0.996667
740.333931	0.996776
740.663722	0.996214
740.993464	0.996952
741.323159	0.996392
741.652806	0.996624
741.982405	0.997511
742.311956	0.997160
742.641460	0.996860
742.970915	0.997201
743.300323	0.996319
743.629683	0.996547
743.958996	0.997368
744.288260	0.996342
744.617477	0.996720
744.946647	0.996881
745.275768	0.997193
745.604842	0.995745
745.933869	0.996747
746.262847	0.997430
746.591778	0.995456
746.920662	0.997619
747.249498	0.997766
747.578286	0.998368
747.907027	0.997699
748.235720	0.996409
748.564365	0.997151
748.892963	0.996289
749.221514	0.996546
749.550017	0.996360
749.878473	0.996734
750.206881	0.998878
750.535242	0.997180
750.863555	0.997233
751.191821	0.996663
751.520039	0.996795
751.848210	0.994163
752.176334	0.996535
752.504411	0.995980
752.832440	0.996037
753.160421	0.996907
753.488356	0.997615
753.816243	0.996116
754.144082	0.997278
754.471875	0.997444
754.799620	0.998163
755.127318	0.997747
755.454969	0.996246
755.782572	0.999029
756.110129	0.997281
756.437638	0.997906
756.765100	0.997521
757.092515	0.997552
757.419882	0.997128
757.747203	0.995813
758.074477	0.997800
758.401703	0.998008
758.728882	0.997396
759.056014	0.997408
759.383099	0.997172
759.710138	0.996891
760.037129	0.996927
760.364073	0.997646
760.690970	0.996432
761.017820	0.995432
761.344623	0.997249
761.671379	0.997185
761.998088	0.996657
762.324751	0.996589
762.651366	0.995553
762.977935	0.994638
763.304456	0.995317
763.630931	0.993351
763.957359	0.993297
764.283740	0.994442
764.610074	0.994681
764.936362	0.996362
765.262602	0.996658
765.588796	0.997108
765.914943	0.996558
766.241044	0.996141
766.567097	0.996408
766.893104	0.997303
767.219064	0.996123
767.544978	0.996961
767.870845	0.997709
768.196665	0.996463
768.522438	0.997325
768.848165	0.996559
769.173846	0.997408
769.499479	0.998383
769.825066	0.998995
770.150607	0.998517
770.476101	0.997657
770.801548	0.998045
771.126949	0.998103
771.452303	0.996703
771.777611	0.997569
772.102872	0.997936
772.428087	0.997042
772.753256	0.997348
773.078378	0.997001
773.403453	0.997229
773.728482	0.999585
774.053465	0.997193
774.378401	0.997365
774.703291	0.998276
775.028135	0.999245
775.352932	0.996898
775.677683	0.998473
776.002388	0.997703
776.327046	0.997708
776.651658	0.999267
776.976224	0.998528
777.300743	0.997387
777.625216	0.997438
777.949643	0.998096
778.274024	0.997492
778.598359	0.998062
778.922647	0.998127
779.246889	0.998721
779.571086	0.998229
779.895236	0.998491
780.219339	0.999098
780.543397	0.997937
780.867409	0.998502
781.191374	0.998263
781.515294	0.998599
781.839167	0.998678
782.162995	0.998359
782.486776	0.997990
782.810511	0.998198
783.134201	0.998947
783.457844	0.999481
783.781441	0.997953
784.104993	0.996798
784.428498	0.998071
784.751958	0.998051
785.075372	0.998714
785.398739	0.998277
785.722061	0.996928
786.045337	0.997632
786.368568	0.997548
786.691752	0.998157
787.014891	0.997296
787.337983	0.996594
787.661030	0.997145
787.984031	0.997303
788.306987	0.997209
788.629897	0.996742
788.952760	0.997498
789.275579	0.997350
789.598351	0.996954
789.921078	0.998317
790.243759	0.997784
790.566395	0.997497
790.888984	0.998563
791.211529	0.997560
791.534027	0.997732
791.856480	0.998298
792.178888	0.997931
792.501249	0.997519
792.823566	0.999727
793.145836	0.998296
793.468062	0.998177
793.790241	0.999574
794.112375	0.997132
794.434464	0.998770
794.756507	0.999387
795.078505	0.998160
795.400457	0.998431
795.722364	0.997679
796.044226	0.996525
796.366042	0.997525
796.687812	0.995801
797.009538	0.997220
797.331218	0.998499
797.652852	0.999410
797.974442	0.996780
798.295986	0.998036
798.617484	0.997086
798.938938	0.998379
799.260346	0.996471
799.581709	0.997058
799.903026	0.998271
800.224299	0.997598
800.545526	0.997881
800.866708	0.996335
801.187845	0.998884
801.508936	0.998145
801.829983	0.998466
802.150984	0.998895
802.471940	0.998003
802.792851	0.998408
803.113717	0.998168
803.434538	0.998782
803.755314	0.999557
804.076045	0.998535
804.396731	0.997916
804.717372	0.997707
805.037967	0.998692
805.358518	0.999254
805.679024	0.996884
805.999485	0.998076
806.319901	0.998512
806.640272	0.997862
806.960598	0.997621
807.280879	0.998262
807.601115	0.999396
807.921306	0.998972
808.241453	0.997854
808.561554	0.999570
808.881611	0.997960
809.201623	0.998362
809.521590	0.997217
809.841513	0.999112
810.161390	0.996703
810.481223	0.997470
810.801011	0.997899
811.120755	0.998428
811.440453	0.997640
811.760107	0.997768
812.079716	0.999006
812.399281	0.997588
812.718801	0.998020
813.038276	0.997186
813.357707	0.998467
813.677093	0.998526
813.996434	0.998035
814.315731	1.000060
814.634983	0.998887
814.954191	0.998743
815.273354	0.997342
815.592473	0.997886
815.911547	0.999262
816.230577	0.996846
816.549562	0.998575
816.868502	0.997416
817.187399	0.999056
817.506250	0.998418
817.825058	0.997563
818.143821	0.997445
818.462539	0.996742
818.781213	0.997036
819.099843	0.996923
819.418429	0.996465
819.736970	0.997251
820.055466	0.995720
820.373919	0.995956
820.692327	0.994081
821.010691	0.994526
821.329011	0.991307
821.647286	0.989703
821.965517	0.987687
822.283704	0.986635
822.601847	0.985374
822.919945	0.985005
823.237999	0.986279
823.556010	0.987092
823.873976	0.988319
824.191897	0.990029
824.509775	0.991552
824.827609	0.992016
825.145398	0.993360
825.463144	0.991932
825.780845	0.992236
826.098502	0.993229
826.416116	0.991845
826.733685	0.990257
827.051210	0.989964
827.368692	0.989947
827.686129	0.989994
828.003522	0.993393
828.320872	0.992793
828.638177	0.993808
828.955439	0.994970
829.272656	0.996698
829.589830	0.996067
829.906960	0.996254
830.224046	0.996952
830.541088	0.996868
830.858086	0.996978
831.175041	0.997729
831.491952	0.997831
831.808819	0.997255
832.125642	0.996454
832.442421	0.998539
832.759157	0.998293
833.075849	0.995190
833.392497	0.993900
833.709101	0.992219
834.025662	0.993278
834.342179	0.993350
834.658653	0.995058
834.975083	0.995049
835.291469	0.995867
835.607811	0.995855
835.924110	0.996465
836.240366	0.997363
836.556578	0.997031
836.872746	0.998287
837.188871	0.997949
837.504952	0.997904
837.820990	0.997370
838.136984	0.998612
838.452935	0.998349
838.768842	0.999126
839.084706	0.998139
839.400526	0.998228
839.716303	0.996466
840.032037	0.996148
840.347727	0.995595
840.663373	0.996670
840.978977	0.997165
841.294537	0.997397
841.610054	0.998149
841.925527	0.998667
842.240957	0.998492
842.556344	0.997658
842.871687	0.997737
843.186987	0.997982
843.502244	0.998873
843.817458	0.998255
844.132629	0.998874
844.447756	0.998783
844.762840	0.999574
845.077881	1.000135
845.392879	0.998474
845.707833	0.998249
846.022745	0.999440
846.337613	0.999893
846.652438	0.998452
846.967221	0.999915
847.281960	0.998670
847.596656	0.999344
847.911309	0.999334
848.225919	0.997646
848.540485	0.997907
848.855009	0.999529
849.169490	1.000869
849.483928	0.999320
849.798323	0.998147
850.112675	0.999060
850.426984	1.000078
850.741251	0.998929
851.055474	0.998764
851.369654	1.000627
851.683792	0.997875
851.997887	0.999734
852.311938	1.000398
852.625947	0.998982
852.939914	0.998052
853.253837	0.999474
853.567718	0.999568
853.881555	0.999971
854.195350	0.999396
854.509103	0.999114
854.822812	0.999867
855.136479	0.998934
855.450103	0.998916
855.763685	0.999901
856.077224	0.999246
856.390720	0.999774
856.704173	0.999937
857.017584	0.999497
857.330953	0.999225
857.644278	0.999284
857.957561	0.999453
858.270802	0.999460
858.584000	0.999359
858.897155	0.998751
859.210268	0.999037
859.523339	1.000339
859.836367	0.999790
860.149352	0.999134
860.462295	0.999467
860.775195	0.999631
861.088054	0.998515
861.400869	0.999190
861.713642	0.998678
862.026373	0.999422
862.339062	0.999976
862.651708	0.998560
862.964312	0.999673
863.276873	0.999767
863.589392	0.998666
863.901869	0.998521
864.214303	0.999533
864.526696	0.999212
864.839045	0.999282
865.151353	0.999381
865.463619	0.998294
865.775842	0.999121
866.088023	0.999936
866.400162	0.999796
866.712258	1.000399
867.024313	0.998892
867.336325	1.000602
867.648296	0.999720
867.960224	0.999278
868.272110	1.000197
868.583954	0.999016
868.895755	0.999403
869.207515	0.998990
869.519233	1.000364
869.830909	0.998036
870.142542	0.997689
870.454134	0.998731
870.765684	0.998360
871.077191	0.999753
871.388657	0.999112
871.700081	0.999248
872.011463	1.000093
872.322803	0.999202
872.634101	0.998428
872.945357	0.998352
873.256571	0.998790
873.567744	0.998039
873.878874	0.997969
874.189963	0.998213
874.501010	0.999901
874.812015	0.999294
875.122979	0.999479
875.433900	0.998477
875.744780	0.998543
876.055618	0.997398
876.366415	0.997978
876.677169	0.997908
876.987882	0.999611
877.298554	0.999492
877.609183	0.998569
877.919771	0.998113
878.230317	0.998474
878.540822	0.997967
878.851285	0.997785
879.161707	0.998159
879.472087	0.997804
879.782425	0.996694
880.092722	0.995310
880.402977	0.992216
880.713191	0.990203
881.023363	0.987551
881.333494	0.985597
881.643583	0.987146
881.953631	0.986933
882.263637	0.986132
882.573602	0.986865
882.883526	0.988267
883.193408	0.990749
883.503248	0.990183
883.813048	0.991948
884.122806	0.993124
884.432522	0.993231
884.742197	0.995689
885.051831	0.995593
885.361424	0.995633
885.670975	0.997143
885.980485	0.997215
886.289954	0.997063
886.599382	0.996605
886.908768	0.998006
887.218113	0.997717
887.527417	0.997836
887.836680	0.997400
888.145901	0.998310
888.455082	0.999324
888.764221	0.998838
889.073319	0.997606
889.382376	0.999042
889.691392	0.997269
890.000366	0.999221
890.309300	0.999553
890.618193	0.997942
890.927044	0.998751
891.235855	0.998498
891.544625	0.997952
891.853353	0.998231
892.162041	0.997572
892.470687	0.999059
892.779293	0.997393
893.087858	0.997310
893.396381	0.996554
893.704864	0.996425
894.013306	0.994677
894.321707	0.994261
894.630068	0.993147
894.938387	0.992757
895.246665	0.993881
895.554903	0.992776
895.863100	0.996114
896.171256	0.995108
896.479371	0.994881
896.787446	0.996430
897.095480	0.995987
897.403473	0.996676
897.711425	0.997763
898.019336	0.997939
898.327207	0.998215
898.635038	0.997618
898.942827	0.997406
899.250576	0.997223
899.558284	0.998155
899.865952	0.996688
900.173579	0.997807
900.481165	0.999061
900.788711	0.998554
901.096216	0.998027
901.403681	0.997905
901.711105	0.998954
902.018489	0.998810
902.325832	0.999043
902.633135	0.998205
902.940397	0.998841
903.247619	0.997457
903.554800	0.996457
903.861941	0.994999
904.169041	0.993086
904.476101	0.991695
904.783121	0.991125
905.090100	0.992491
905.397039	0.993065
905.703938	0.994317
906.010796	0.995045
906.317614	0.996043
906.624391	0.997024
906.931129	0.998017
907.237826	0.996934
907.544483	0.998611
907.851099	0.998250
908.157675	0.997697
908.464211	0.999618
908.770707	0.998300
909.077163	0.998525
909.383578	0.998132
909.689954	0.998383
909.996289	0.998808
910.302584	0.999160
910.608839	1.000279
910.915054	0.999081
911.221229	1.001230
911.527363	0.999141
911.833458	0.999239
912.139513	0.998451
912.445527	0.999825
912.751502	0.998807
913.057436	0.999308
913.363331	1.000166
913.669186	0.998454
913.975000	0.999514
914.280775	0.997706
914.586510	0.996691
914.892205	0.995521
915.197859	0.994387
915.503475	0.995207
915.809050	0.993553
916.114585	0.992047
916.420081	0.991386
916.725536	0.993027
917.030952	0.993518
917.336328	0.992394
917.641665	0.993485
917.946961	0.994638
918.252218	0.994149
918.557435	0.995746
918.862612	0.996175
919.167750	0.995775
919.472848	0.996933
919.777906	0.998206
920.082925	0.999545
920.387904	0.998036
920.692843	0.997781
920.997743	0.997128
921.302603	0.998918
921.607423	0.998181
921.912204	0.998131
922.216946	1.000655
922.521647	0.998602
922.826310	0.999020
923.130932	0.999415
923.435516	0.999002
923.740059	0.998664
924.044564	0.998532
924.349028	0.999212
924.653454	0.998991
924.957840	0.998896
925.262186	1.000146
925.566493	0.998563
925.870761	0.999511
926.174989	0.999215
926.479178	0.999405
926.783328	0.999856
927.087438	0.999717
927.391509	0.998906
927.695541	1.000004
927.999533	1.000344
928.303486	0.999449
928.607400	0.999965
928.911275	0.999764
929.215110	0.998985
929.518906	0.999583
929.822663	0.999262
930.126381	1.001690
930.430060	1.000152
930.733699	0.999769
931.037299	1.000775
931.340861	1.000293
931.644383	0.998926
931.947866	0.999861
932.251309	0.999917
932.554714	1.000143
932.858080	1.000163
933.161407	0.998497
933.464694	1.000156
933.767943	0.999094
934.071153	0.999692
934.374323	0.999208
934.677455	0.999620
934.980548	0.999299
935.283602	1.000741
935.586617	0.999118
935.889593	1.000785
936.192530	1.000997
936.495428	1.000080
936.798287	0.999855
937.101108	1.000040
937.403890	0.998428
937.706632	1.001716
938.009336	0.999223
938.312002	0.999120
938.614628	1.000648
938.917216	0.998683
939.219765	0.998711
939.522275	0.999190
939.824747	0.998880
940.127179	0.999911
940.429573	1.000569
940.731929	0.998856
941.034246	0.998836
941.336524	0.999750
941.638763	0.999980
941.940964	0.998936
942.243126	0.999349
942.545250	0.999935
942.847335	0.999415
943.149381	1.000369
943.451389	0.998722
943.753359	1.000079
944.055290	1.000672
944.357182	1.000281
944.659036	1.000562
944.960851	0.998861
945.262628	0.999419
945.564367	1.000282
945.866067	0.999928
946.167729	0.999122
946.469352	0.999966
946.770937	0.998336
947.072484	0.999784
947.373992	0.999754
947.675462	0.999149
947.976893	0.998007
948.278286	1.001451
948.579641	1.000735
948.880958	0.999287
949.182236	0.999102
949.483476	1.001975
949.784678	0.998776
950.085841	0.999312
950.386967	0.999875
950.688054	0.999127
950.989103	0.997661
951.290114	0.998851
951.591087	0.999513
951.892021	0.998728
952.192917	1.000189
952.493776	0.999829
952.794596	0.999848
953.095378	0.998778
953.396122	0.999375
953.696828	0.999555
953.997496	1.000698
954.298126	0.999643
954.598718	1.000356
954.899272	1.001292
955.199788	0.999733
955.500266	1.000619
955.800706	0.999714
956.101108	0.999367
956.401472	1.000753
956.701798	0.999908
957.002087	1.000349
957.302337	1.000176
957.602550	1.000829
957.902724	0.999180
958.202861	0.999526
958.502960	0.998214
958.803022	1.000851
959.103045	1.000635
959.403031	1.000707
959.702979	0.999247
960.002889	1.000885
960.302762	1.000387
960.602596	0.999569
960.902393	1.000292
961.202153	1.001151
961.501875	1.001213
961.801559	1.000229
962.101205	0.998391
962.400814	1.001709
962.700385	1.001494
962.999918	1.000042
963.299414	0.999452
963.598873	1.000547
963.898293	1.000099
964.197677	1.000570
964.497022	1.001247
964.796331	1.000395
965.095601	1.001313
965.394835	0.999800
965.694030	1.000865
965.993189	1.000103
966.292309	1.000857
966.591393	1.000232
966.890439	1.001195
967.189447	0.999152
967.488419	0.999887
967.787353	0.999578
968.086249	1.000345
968.385108	0.999798
968.683930	1.001034
968.982714	1.001032
969.281462	0.999548
969.580172	1.001068
969.878844	1.001589
970.177480	0.999735
970.476078	1.000531
970.774639	1.000687
971.073162	0.999930
971.371649	1.000161
971.670098	0.999719
971.968510	1.001318
972.266885	1.000545
972.565223	0.999409
972.863524	0.998925
973.161788	1.000081
973.460014	1.001221
973.758204	0.999248
974.056356	1.000361
974.354471	0.998945
974.652550	1.000361
974.950591	0.999808
975.248595	0.998522
975.546563	1.000189
975.844493	1.001232
976.142386	1.000493
976.440243	1.001331
976.738062	1.000302
977.035845	0.999121
977.333590	1.000939
977.631299	0.999151
977.928971	1.000137
978.226606	0.999737
978.524204	1.000230
978.821765	1.000195
979.119290	1.000189
979.416777	1.000309
979.714228	0.999004
980.011642	0.999687
980.309020	1.000704
980.606360	0.999907
980.903664	1.000080
981.200931	0.999703
981.498162	1.001316
981.795356	1.000431
982.092513	0.999500
982.389633	1.000526
982.686717	0.999992
982.983764	1.000009
983.280775	1.000332
983.577749	1.000961
983.874686	0.999053
984.171587	0.998783
984.468451	0.999746
984.765279	0.999757
985.062070	1.000124
985.358824	1.000157
985.655543	1.000458
985.952224	1.000291
986.248869	1.000513
986.545478	1.001599
986.842050	0.999767
987.138586	0.998766
987.435086	0.999612
987.731549	1.001556
988.027975	1.000690
988.324366	1.000530
988.620719	1.001035
988.917037	0.999363
989.213318	1.000987
989.509563	0.999741
989.805772	1.000282
990.101944	0.999936
990.398080	1.000786
990.694180	1.000927
990.990244	0.999846
991.286271	1.000529
991.582262	1.001314
991.878217	1.000315
992.174136	1.000946
992.470019	1.000669
992.765865	1.001562
993.061676	1.000474
993.357450	1.001032
993.653188	1.001693
993.948890	1.000138
994.244556	0.999407
994.540186	1.000786
994.835780	1.000492
995.131337	1.000517
995.426859	1.000216
995.722345	1.000327
996.017795	0.999287
996.313208	1.000253
996.608586	1.000203
996.903928	1.000268
997.199234	1.000378
997.494504	1.002057
997.789738	1.000091
998.084936	1.000840
998.380099	0.999432
998.675225	1.001851
998.970316	0.999705
999.265371	1.001157
999.560390	1.000617
999.855373	1.001151
1000.150320	1.001210
1000.445232	1.000759
1000.740108	0.999742
1001.034948	1.000596
1001.329752	1.000685
1001.624521	1.001186
1001.919254	0.998385
1002.213951	1.000142
1002.508613	1.000534
1002.803239	1.000161
1003.097829	1.000586
1003.392384	1.000376
1003.686903	1.000254
1003.981386	1.000857
1004.275834	1.002016
1004.570246	0.999496
1004.864623	1.001073
1005.158964	1.001010
1005.453270	0.999712
1005.747540	1.000025
1006.041775	1.000082
1006.335974	1.000346
1006.630138	1.000812
1006.924266	0.998342
1007.218359	0.998934
1007.512416	1.001051
1007.806438	0.999872
1008.100425	1.000848
1008.394376	1.000517
1008.688292	0.999614
1008.982172	1.000102
1009.276017	1.000935
1009.569827	1.002096
1009.863602	0.998801
1010.157341	1.000814
1010.451045	0.999894
1010.744714	1.002011
1011.038347	1.001403
1011.331945	1.000217
1011.625508	1.000046
1011.919036	1.000741
1012.212528	1.000905
1012.505986	1.000671
1012.799408	0.999988
1013.092795	0.999348
1013.386147	1.000401
1013.679464	1.001815
1013.972745	1.000880
1014.265992	0.999665
1014.559204	1.000586
1014.852380	1.001144
1015.145521	1.000724
1015.438628	0.999943
1015.731699	1.000790
1016.024736	1.000491
1016.317737	1.000968
1016.610703	1.001055
1016.903635	1.000370
1017.196531	1.000724
1017.489393	0.999764
1017.782219	1.000988
1018.075011	0.999753
1018.367768	0.999329
1018.660490	1.001325
1018.953177	1.001325
1019.245829	1.001325
