Dividing Wavelength (nm)	Counts (n)	Blue Motor Position (mm): 24.100000	Red Motor Position (mm): 0.000000	
326.493990	1.001478
326.888308	1.001478
327.282561	1.001478
327.676750	1.001757
328.070874	1.002261
328.464933	1.003345
328.858929	1.002212
329.252859	1.002186
329.646726	1.001117
330.040528	1.000430
330.434265	1.002327
330.827938	1.001118
331.221547	1.001990
331.615091	1.002547
332.008571	1.002815
332.401986	1.001235
332.795338	1.002030
333.188625	1.002015
333.581847	1.002154
333.975006	1.003055
334.368100	1.002070
334.761129	1.000802
335.154095	1.002788
335.546996	1.001354
335.939833	1.000068
336.332606	1.000855
336.725315	0.998609
337.117960	1.000773
337.510540	0.998981
337.903056	1.000338
338.295508	1.000525
338.687896	1.001631
339.080220	0.999848
339.472480	0.999428
339.864676	1.000731
340.256807	0.998812
340.648875	1.000938
341.040879	0.998758
341.432818	0.999988
341.824694	1.000177
342.216506	1.000184
342.608253	1.000282
342.999937	1.000329
343.391557	1.000147
343.783113	1.001204
344.174605	1.000695
344.566033	0.999155
344.957397	1.000781
345.348697	0.999914
345.739934	0.999659
346.131106	0.999662
346.522215	0.999404
346.913260	0.999707
347.304241	0.999369
347.695159	1.000008
348.086012	0.998950
348.476802	0.999415
348.867528	0.999333
349.258191	0.999130
349.648789	1.000147
350.039324	0.998769
350.429796	0.999798
350.820203	0.998331
351.210548	0.999646
351.600828	0.999750
351.991045	0.999356
352.381198	0.998572
352.771288	0.999287
353.161314	1.000120
353.551276	0.998004
353.941175	0.998363
354.331010	0.999897
354.720782	0.999833
355.110490	0.998892
355.500135	0.999868
355.889717	0.998994
356.279235	0.998359
356.668689	0.999633
357.058080	0.998754
357.447408	0.997030
357.836672	0.998608
358.225873	0.999092
358.615010	0.998697
359.004084	0.998000
359.393095	0.999105
359.782043	0.997768
360.170927	0.999479
360.559748	0.999268
360.948505	0.997908
361.337199	0.997954
361.725830	0.998704
362.114398	0.997806
362.502903	0.997411
362.891344	0.997315
363.279722	0.997449
363.668037	0.998508
364.056289	0.997337
364.444478	0.999610
364.832603	0.997481
365.220665	0.997928
365.608665	0.997774
365.996601	0.997552
366.384474	0.995602
366.772284	0.997078
367.160031	0.996478
367.547715	0.996075
367.935336	0.995181
368.322893	0.994017
368.710388	0.992910
369.097820	0.991596
369.485189	0.989825
369.872495	0.988011
370.259738	0.985335
370.646918	0.982714
371.034035	0.980776
371.421090	0.976583
371.808081	0.972599
372.195010	0.969843
372.581875	0.965077
372.968678	0.959927
373.355418	0.956632
373.742096	0.949291
374.128710	0.945588
374.515262	0.940561
374.901751	0.934720
375.288177	0.929724
375.674540	0.922134
376.060841	0.916893
376.447079	0.911154
376.833254	0.903390
377.219367	0.898059
377.605417	0.887041
377.991404	0.883366
378.377329	0.877299
378.763191	0.871299
379.148991	0.861751
379.534727	0.855282
379.920402	0.846184
380.306013	0.843160
380.691563	0.830418
381.077049	0.823779
381.462474	0.819177
381.847835	0.808432
382.233134	0.803289
382.618371	0.803378
383.003545	0.786694
383.388657	0.783984
383.773706	0.776682
384.158693	0.771764
384.543618	0.767331
384.928480	0.758126
385.313280	0.748312
385.698017	0.746894
386.082692	0.735996
386.467305	0.734718
386.851856	0.729226
387.236344	0.723909
387.620770	0.717923
388.005133	0.712331
388.389435	0.707210
388.773674	0.705051
389.157851	0.695844
389.541965	0.694247
389.926018	0.700887
390.310008	0.687459
390.693936	0.684513
391.077802	0.677323
391.461606	0.678791
391.845348	0.666881
392.229027	0.666754
392.612645	0.664377
392.996200	0.651630
393.379694	0.645205
393.763125	0.635336
394.146494	0.639741
394.529801	0.630070
394.913047	0.622173
395.296230	0.628206
395.679351	0.618994
396.062410	0.616198
396.445408	0.618894
396.828343	0.614303
397.211217	0.609284
397.594028	0.622069
397.976778	0.611761
398.359466	0.608270
398.742092	0.604063
399.124656	0.615595
399.507158	0.603806
399.889598	0.601541
400.271977	0.592072
400.654294	0.596435
401.036549	0.594953
401.418742	0.599395
401.800874	0.585086
402.182944	0.582359
402.564952	0.573796
402.946898	0.575665
403.328783	0.576769
403.710606	0.587416
404.092367	0.562970
404.474067	0.568022
404.855705	0.566333
405.237282	0.575297
405.618797	0.561701
406.000250	0.556869
406.381642	0.547402
406.762972	0.552461
407.144240	0.551158
407.525447	0.551100
407.906593	0.544171
408.287677	0.539264
408.668700	0.547572
409.049661	0.541747
409.430560	0.537041
409.811399	0.544835
410.192176	0.526508
410.572891	0.534653
410.953545	0.522705
411.334138	0.535849
411.714669	0.527833
412.095139	0.540101
412.475547	0.524707
412.855894	0.526182
413.236180	0.525770
413.616405	0.530706
413.996568	0.521174
414.376670	0.527199
414.756711	0.532411
415.136691	0.528969
415.516609	0.520354
415.896466	0.516771
416.276262	0.513469
416.655997	0.514715
417.035670	0.496407
417.415283	0.488136
417.794834	0.493148
418.174324	0.497885
418.553753	0.507084
418.933121	0.489166
419.312428	0.483007
419.691674	0.489392
420.070859	0.477827
420.449983	0.485500
420.829045	0.475038
421.208047	0.483251
421.586988	0.476648
421.965867	0.475451
422.344686	0.464492
422.723444	0.476826
423.102141	0.494022
423.480777	0.466821
423.859352	0.487657
424.237866	0.464213
424.616319	0.465481
424.994712	0.456178
425.373044	0.466636
425.751314	0.455406
426.129524	0.471602
426.507673	0.454655
426.885762	0.448119
427.263789	0.453612
427.641756	0.463836
428.019662	0.453411
428.397508	0.452918
428.775292	0.457345
429.153016	0.448990
429.530679	0.455785
429.908282	0.449160
430.285824	0.458468
430.663305	0.437299
431.040726	0.458231
431.418086	0.458005
431.795385	0.450327
432.172624	0.449045
432.549802	0.449802
432.926920	0.448527
433.303977	0.447876
433.680974	0.445010
434.057910	0.443613
434.434786	0.443154
434.811601	0.446054
435.188355	0.427992
435.565050	0.437707
435.941683	0.438597
436.318257	0.422288
436.694770	0.423625
437.071222	0.421891
437.447614	0.426111
437.823946	0.432704
438.200218	0.422229
438.576429	0.431562
438.952580	0.424320
439.328670	0.421376
439.704700	0.427793
440.080670	0.429099
440.456580	0.410347
440.832429	0.418229
441.208218	0.429200
441.583947	0.418714
441.959616	0.417721
442.335224	0.423661
442.710773	0.413919
443.086261	0.412209
443.461689	0.426505
443.837057	0.416126
444.212365	0.406046
444.587612	0.412935
444.962800	0.403054
445.337927	0.404247
445.712995	0.430660
446.088002	0.392795
446.462949	0.402956
446.837837	0.408153
447.212664	0.396737
447.587431	0.388199
447.962139	0.358782
448.336786	0.317170
448.711374	0.328000
449.085901	0.372431
449.460369	0.376855
449.834776	0.380306
450.209124	0.359750
450.583412	0.352299
450.957640	0.345303
451.331808	0.357060
451.705917	0.380145
452.079965	0.385102
452.453954	0.373351
452.827883	0.380367
453.201752	0.375190
453.575562	0.386311
453.949311	0.375537
454.323001	0.381665
454.696632	0.377215
455.070202	0.369923
455.443713	0.362640
455.817164	0.356939
456.190556	0.353434
456.563888	0.350480
456.937160	0.348510
457.310373	0.365854
457.683526	0.365319
458.056619	0.371728
458.429653	0.372350
458.802628	0.376277
459.175542	0.371325
459.548398	0.354391
459.921194	0.347855
460.293930	0.348825
460.666607	0.327656
461.039224	0.316615
461.411782	0.312906
461.784280	0.313061
462.156719	0.317751
462.529099	0.323314
462.901419	0.339954
463.273680	0.345066
463.645882	0.345562
464.018024	0.353066
464.390106	0.346982
464.762130	0.333185
465.134094	0.319093
465.505999	0.291853
465.877845	0.265788
466.249631	0.253974
466.621358	0.261822
466.993026	0.277044
467.364634	0.284040
467.736184	0.294656
468.107674	0.305604
468.479105	0.307274
468.850477	0.315461
469.221790	0.324288
469.593043	0.336080
469.964238	0.343623
470.335373	0.345321
470.706449	0.346355
471.077467	0.350271
471.448425	0.319130
471.819324	0.300171
472.190164	0.302102
472.560945	0.331330
472.931667	0.356163
473.302330	0.362707
473.672934	0.377605
474.043479	0.370273
474.413965	0.375821
474.784393	0.383670
475.154761	0.383608
475.525070	0.385163
475.895321	0.394777
476.265513	0.394204
476.635645	0.394261
477.005719	0.399713
477.375734	0.401825
477.745691	0.401354
478.115588	0.403546
478.485427	0.404051
478.855207	0.399378
479.224928	0.392664
479.594591	0.389009
479.964194	0.396978
480.333739	0.401930
480.703226	0.410880
481.072653	0.415628
481.442022	0.420879
481.811333	0.424605
482.180584	0.433622
482.549777	0.444816
482.918912	0.453850
483.287988	0.460428
483.657005	0.466580
484.025964	0.478749
484.394864	0.484085
484.763706	0.492119
485.132489	0.502316
485.501213	0.510343
485.869879	0.515244
486.238487	0.526615
486.607036	0.531246
486.975527	0.543445
487.343959	0.547334
487.712333	0.554748
488.080648	0.562998
488.448905	0.571330
488.817104	0.578895
489.185244	0.582988
489.553326	0.589624
489.921350	0.591296
490.289315	0.588576
490.657222	0.592131
491.025070	0.602341
491.392861	0.610547
491.760593	0.622035
492.128267	0.634048
492.495883	0.644280
492.863440	0.655394
493.230939	0.666168
493.598380	0.674538
493.965763	0.683953
494.333088	0.689893
494.700354	0.699926
495.067563	0.705098
495.434713	0.714820
495.801805	0.720828
496.168839	0.728493
496.535815	0.736947
496.902733	0.741970
497.269593	0.750684
497.636395	0.755105
498.003139	0.763767
498.369825	0.771286
498.736453	0.776156
499.103023	0.782780
499.469535	0.789144
499.835989	0.795332
500.202385	0.801396
500.568723	0.808902
500.935003	0.812528
501.301226	0.821270
501.667390	0.823234
502.033497	0.829318
502.399546	0.834913
502.765537	0.841015
503.131470	0.846306
503.497345	0.850988
503.863163	0.857811
504.228923	0.861283
504.594625	0.865559
504.960269	0.871728
505.325856	0.875994
505.691385	0.881349
506.056856	0.884454
506.422270	0.889344
506.787625	0.893005
507.152924	0.897983
507.518164	0.901437
507.883347	0.904981
508.248472	0.909113
508.613540	0.911900
508.978550	0.916662
509.343503	0.919209
509.708398	0.923129
510.073236	0.925861
510.438016	0.928249
510.802738	0.931419
511.167403	0.933926
511.532010	0.937756
511.896561	0.939302
512.261053	0.941635
512.625488	0.944941
512.989866	0.947339
513.354186	0.949431
513.718449	0.952711
514.082655	0.953619
514.446803	0.957138
514.810894	0.958526
515.174927	0.960546
515.538904	0.962491
515.902822	0.963538
516.266684	0.965599
516.630488	0.967337
516.994235	0.969257
517.357925	0.971116
517.721558	0.971838
518.085133	0.972874
518.448651	0.974578
518.812112	0.975894
519.175516	0.976932
519.538863	0.977408
519.902152	0.978600
520.265385	0.979286
520.628560	0.980159
520.991678	0.981833
521.354739	0.982912
521.717743	0.982806
522.080690	0.983234
522.443580	0.984726
522.806413	0.984867
523.169189	0.986454
523.531908	0.985884
523.894569	0.987344
524.257174	0.987098
524.619722	0.987910
524.982213	0.988136
525.344647	0.988492
525.707025	0.988648
526.069345	0.989026
526.431608	0.990070
526.793815	0.990743
527.155964	0.991053
527.518057	0.991470
527.880093	0.991662
528.242072	0.991687
528.603995	0.991603
528.965860	0.992363
529.327669	0.991874
529.689421	0.991701
530.051117	0.992685
530.412755	0.992726
530.774337	0.992631
531.135862	0.993669
531.497331	0.992799
531.858743	0.993498
532.220098	0.993258
532.581396	0.992997
532.942638	0.994062
533.303824	0.994439
533.664953	0.993620
534.026025	0.995108
534.387040	0.994335
534.747999	0.993693
535.108902	0.993906
535.469748	0.994906
535.830537	0.994588
536.191270	0.994371
536.551947	0.994667
536.912567	0.994308
537.273131	0.995187
537.633638	0.994624
537.994089	0.995048
538.354483	0.995116
538.714821	0.995647
539.075103	0.995579
539.435328	0.995526
539.795497	0.995259
540.155609	0.995281
540.515665	0.994947
540.875665	0.995121
541.235609	0.995320
541.595496	0.995226
541.955328	0.995156
542.315102	0.995421
542.674821	0.995952
543.034483	0.996398
543.394090	0.994974
543.753640	0.995650
544.113134	0.995077
544.472571	0.996414
544.831953	0.994809
545.191278	0.995824
545.550548	0.995577
545.909761	0.995359
546.268918	0.996499
546.628019	0.996660
546.987064	0.995102
547.346053	0.995699
547.704986	0.994976
548.063863	0.995915
548.422684	0.996162
548.781449	0.995997
549.140158	0.996390
549.498811	0.995617
549.857408	0.995336
550.215949	0.995208
550.574434	0.995801
550.932864	0.996356
551.291237	0.995885
551.649555	0.996273
552.007817	0.996278
552.366022	0.996534
552.724173	0.996551
553.082267	0.996030
553.440305	0.995296
553.798288	0.994957
554.156215	0.995235
554.514086	0.995719
554.871902	0.995590
555.229661	0.995226
555.587365	0.995965
555.945014	0.996351
556.302606	0.995258
556.660143	0.996715
557.017625	0.996880
557.375050	0.995300
557.732421	0.995780
558.089735	0.995250
558.446994	0.995576
558.804197	0.996040
559.161345	0.995330
559.518437	0.995588
559.875474	0.996228
560.232455	0.996211
560.589381	0.996450
560.946251	0.995717
561.303065	0.996168
561.659825	0.995662
562.016528	0.996120
562.373177	0.995743
562.729770	0.995410
563.086307	0.995100
563.442789	0.995984
563.799216	0.995896
564.155587	0.996028
564.511904	0.996608
564.868164	0.995103
565.224370	0.995783
565.580520	0.995701
565.936615	0.995760
566.292654	0.995608
566.648638	0.996715
567.004567	0.995541
567.360441	0.996411
567.716260	0.996199
568.072023	0.996018
568.427732	0.996221
568.783385	0.995693
569.138982	0.996346
569.494525	0.995893
569.850013	0.996559
570.205445	0.996159
570.560823	0.996067
570.916145	0.995695
571.271412	0.995831
571.626625	0.996492
571.981782	0.996351
572.336884	0.996715
572.691931	0.996000
573.046923	0.996859
573.401860	0.995875
573.756743	0.996156
574.111570	0.995863
574.466342	0.996883
574.821059	0.996121
575.175722	0.996467
575.530330	0.996300
575.884882	0.996058
576.239380	0.995858
576.593823	0.996110
576.948211	0.996558
577.302544	0.995909
577.656823	0.996273
578.011047	0.995587
578.365216	0.996176
578.719330	0.995838
579.073389	0.994772
579.427394	0.995660
579.781344	0.995884
580.135239	0.995300
580.489080	0.995314
580.842866	0.996118
581.196597	0.995144
581.550273	0.995951
581.903895	0.995912
582.257463	0.995838
582.610975	0.995289
582.964434	0.995723
583.317837	0.996717
583.671186	0.996625
584.024481	0.995717
584.377721	0.994584
584.730906	0.996420
585.084037	0.996716
585.437113	0.996680
585.790135	0.995595
586.143103	0.996197
586.496016	0.996291
586.848874	0.996386
587.201679	0.995802
587.554428	0.996418
587.907124	0.996797
588.259765	0.996218
588.612352	0.996505
588.964884	0.996503
589.317362	0.996033
589.669786	0.995934
590.022155	0.995713
590.374470	0.995933
590.726731	0.995797
591.078937	0.996297
591.431090	0.996112
591.783188	0.995501
592.135232	0.996870
592.487222	0.995980
592.839157	0.995823
593.191038	0.996135
593.542866	0.996145
593.894639	0.995182
594.246358	0.996300
594.598022	0.995927
594.949633	0.995740
595.301190	0.996089
595.652692	0.995395
596.004141	0.995539
596.355535	0.995821
596.706876	0.995909
597.058162	0.995730
597.409395	0.996185
597.760573	0.995640
598.111698	0.995798
598.462768	0.995005
598.813785	0.995166
599.164748	0.995211
599.515657	0.995365
599.866511	0.996227
600.217312	0.996283
600.568060	0.996289
600.918753	0.995885
601.269392	0.996381
601.619978	0.996097
601.970510	0.995940
602.320988	0.995678
602.671412	0.995622
603.021783	0.996395
603.372100	0.996682
603.722363	0.996934
604.072572	0.995923
604.422728	0.995788
604.772830	0.995371
605.122878	0.995632
605.472872	0.996599
605.822813	0.995457
606.172701	0.996357
606.522534	0.996145
606.872314	0.996159
607.222041	0.996110
607.571714	0.995377
607.921333	0.996397
608.270899	0.995754
608.620411	0.995518
608.969870	0.996601
609.319276	0.996170
609.668627	0.996214
610.017926	0.995732
610.367171	0.996201
610.716362	0.996704
611.065500	0.994480
611.414585	0.996145
611.763616	0.995402
612.112594	0.995933
612.461518	0.994712
612.810389	0.995716
613.159207	0.995984
613.507971	0.995101
613.856682	0.996481
614.205340	0.994413
614.553945	0.996084
614.902496	0.995333
615.250994	0.995720
615.599439	0.995752
615.947830	0.994966
616.296169	0.995429
616.644454	0.995914
616.992686	0.995882
617.340864	0.995768
617.688990	0.994925
618.037063	0.995766
618.385082	0.995543
618.733048	0.996053
619.080961	0.995866
619.428821	0.996048
619.776628	0.995420
620.124382	0.995827
620.472083	0.996739
620.819731	0.996608
621.167326	0.996016
621.514868	0.996373
621.862357	0.996044
622.209793	0.995675
622.557176	0.995639
622.904506	0.995752
623.251783	0.995573
623.599007	0.996268
623.946179	0.995241
624.293297	0.996329
624.640363	0.996319
624.987376	0.995763
625.334336	0.995748
625.681243	0.995898
626.028097	0.996099
626.374899	0.995697
626.721647	0.995734
627.068343	0.996095
627.414987	0.996502
627.761577	0.995801
628.108115	0.995055
628.454600	0.995865
628.801032	0.995881
629.147412	0.996147
629.493739	0.996157
629.840014	0.995742
630.186236	0.995381
630.532405	0.995929
630.878521	0.994861
631.224585	0.996116
631.570597	0.995109
631.916556	0.995974
632.262462	0.994616
632.608316	0.996295
632.954117	0.994771
633.299866	0.995478
633.645562	0.995976
633.991206	0.996608
634.336797	0.995332
634.682336	0.996101
635.027823	0.996103
635.373257	0.996035
635.718639	0.996756
636.063968	0.995352
636.409245	0.996012
636.754470	0.995911
637.099642	0.995726
637.444762	0.996952
637.789829	0.995551
638.134845	0.995724
638.479808	0.995567
638.824719	0.996421
639.169577	0.996307
639.514383	0.995828
639.859137	0.995545
640.203839	0.996688
640.548489	0.995789
640.893086	0.995788
641.237632	0.996410
641.582125	0.995613
641.926566	0.996746
642.270955	0.996156
642.615292	0.996011
642.959576	0.996332
643.303809	0.995936
643.647990	0.995444
643.992118	0.996605
644.336195	0.995076
644.680219	0.995712
645.024192	0.996139
645.368112	0.994753
645.711981	0.995946
646.055797	0.995656
646.399562	0.994725
646.743274	0.996650
647.086935	0.995534
647.430544	0.995846
647.774101	0.995469
648.117606	0.995724
648.461059	0.996329
648.804460	0.995610
649.147810	0.996437
649.491108	0.995484
649.834354	0.995784
650.177548	0.995853
650.520690	0.994358
650.863781	0.995177
651.206820	0.995730
651.549807	0.995757
651.892742	0.996455
652.235626	0.995975
652.578458	0.995703
652.921238	0.996695
653.263967	0.996207
653.606644	0.994777
653.949269	0.997005
654.291843	0.995522
654.634365	0.995857
654.976836	0.995625
655.319255	0.996042
655.661622	0.995468
656.003938	0.996017
656.346203	0.994757
656.688416	0.996134
657.030577	0.995840
657.372687	0.996341
657.714746	0.995640
658.056753	0.995765
658.398708	0.995217
658.740612	0.996728
659.082465	0.996246
659.424266	0.995688
659.766016	0.994409
660.107715	0.996672
660.449362	0.996163
660.790958	0.996445
661.132503	0.996250
661.473996	0.995701
661.815438	0.996481
662.156829	0.996170
662.498168	0.996213
662.839456	0.995307
663.180693	0.996063
663.521879	0.994952
663.863013	0.995984
664.204097	0.995547
664.545129	0.996478
664.886110	0.995797
665.227040	0.995753
665.567918	0.995222
665.908746	0.995143
666.249522	0.995442
666.590248	0.995948
666.930922	0.995733
667.271545	0.995315
667.612118	0.995732
667.952639	0.995713
668.293109	0.995530
668.633528	0.995074
668.973896	0.995624
669.314213	0.994988
669.654480	0.995768
669.994695	0.994829
670.334859	0.995300
670.674973	0.995658
671.015035	0.995664
671.355047	0.995632
671.695008	0.994792
672.034918	0.995211
672.374777	0.995858
672.714585	0.995211
673.054342	0.996251
673.394049	0.995079
673.733705	0.994648
674.073310	0.995380
674.412864	0.995155
674.752368	0.995359
675.091820	0.996036
675.431223	0.996397
675.770574	0.994936
676.109875	0.996211
676.449125	0.994901
676.788324	0.995789
677.127473	0.996360
677.466571	0.995481
677.805619	0.994934
678.144616	0.996606
678.483562	0.995665
678.822458	0.995569
679.161303	0.995455
679.500098	0.995735
679.838842	0.996140
680.177535	0.995842
680.516179	0.995201
680.854771	0.995461
681.193314	0.995458
681.531805	0.995771
681.870247	0.995797
682.208638	0.995587
682.546978	0.994377
682.885268	0.994525
683.223508	0.994931
683.561697	0.995704
683.899836	0.994955
684.237925	0.994711
684.575963	0.994828
684.913951	0.995109
685.251889	0.995376
685.589776	0.995044
685.927614	0.995670
686.265401	0.995188
686.603137	0.994730
686.940824	0.994369
687.278460	0.995766
687.616046	0.995101
687.953582	0.994967
688.291068	0.995189
688.628504	0.995412
688.965889	0.994920
689.303224	0.994032
689.640510	0.994444
689.977745	0.994653
690.314930	0.995108
690.652065	0.994297
690.989150	0.995461
691.326185	0.995079
691.663170	0.995243
692.000105	0.995598
692.336990	0.995719
692.673825	0.994450
693.010610	0.994688
693.347345	0.995761
693.684030	0.995581
694.020665	0.995673
694.357251	0.995426
694.693786	0.995427
695.030272	0.994409
695.366707	0.995185
695.703093	0.995938
696.039429	0.994822
696.375716	0.995756
696.711952	0.995228
697.048139	0.996223
697.384276	0.995250
697.720363	0.995437
698.056400	0.994643
698.392388	0.994152
698.728326	0.995489
699.064214	0.996189
699.400053	0.996131
699.735842	0.996490
700.071581	0.995337
700.407270	0.995495
700.742910	0.996359
701.078501	0.995474
701.414042	0.996335
701.749533	0.994526
702.084974	0.996342
702.420366	0.996543
702.755709	0.995919
703.091002	0.995932
703.426246	0.996785
703.761440	0.995248
704.096584	0.996157
704.431679	0.995007
704.766725	0.994924
705.101721	0.996343
705.436668	0.995940
705.771565	0.995563
706.106413	0.995241
706.441212	0.996410
706.775961	0.995633
707.110661	0.995798
707.445311	0.996127
707.779913	0.996966
708.114465	0.996510
708.448967	0.996365
708.783421	0.996657
709.117825	0.996713
709.452180	0.995992
709.786485	0.996206
710.120742	0.995192
710.454949	0.994420
710.789107	0.995556
711.123216	0.994335
711.457275	0.994332
711.791286	0.994826
712.125247	0.997461
712.459159	0.994990
712.793023	0.994245
713.126837	0.995904
713.460602	0.994842
713.794318	0.994376
714.127985	0.994305
714.461602	0.994764
714.795171	0.994998
715.128691	0.995521
715.462162	0.995946
715.795584	0.994776
716.128957	0.995205
716.462281	0.995940
716.795556	0.996011
717.128782	0.996487
717.461960	0.996131
717.795088	0.995247
718.128167	0.996066
718.461198	0.995757
718.794180	0.996473
719.127113	0.996609
719.459997	0.995361
719.792833	0.995784
720.125619	0.995833
720.458357	0.996019
720.791046	0.996618
721.123686	0.995868
721.456278	0.995897
721.788821	0.995781
722.121315	0.997016
722.453761	0.995897
722.786158	0.995297
723.118506	0.996247
723.450805	0.995325
723.783056	0.996171
724.115259	0.996071
724.447412	0.996634
724.779518	0.996000
725.111574	0.995085
725.443582	0.996377
725.775542	0.996056
726.107453	0.996800
726.439315	0.996826
726.771129	0.996133
727.102895	0.995510
727.434612	0.996160
727.766281	0.995600
728.097901	0.995575
728.429473	0.995555
728.760996	0.994798
729.092471	0.995445
729.423897	0.996285
729.755276	0.995897
730.086606	0.995225
730.417887	0.996477
730.749120	0.996016
731.080305	0.996349
731.411442	0.994481
731.742530	0.995126
732.073570	0.995290
732.404562	0.995649
732.735506	0.995559
733.066401	0.995027
733.397249	0.996142
733.728048	0.996270
734.058798	0.995570
734.389501	0.996083
734.720156	0.997008
735.050762	0.996958
735.381320	0.996880
735.711831	0.994990
736.042293	0.995111
736.372707	0.997389
736.703073	0.994583
737.033391	0.996133
737.363661	0.997139
737.693883	0.995669
738.024056	0.994784
738.354182	0.995635
738.684260	0.995790
739.014290	0.994886
739.344272	0.995913
739.674207	0.996036
740.004093	0.996084
740.333931	0.995831
740.663722	0.995824
740.993464	0.995669
741.323159	0.996150
741.652806	0.995634
741.982405	0.995444
742.311956	0.996144
742.641460	0.996562
742.970915	0.995583
743.300323	0.995825
743.629683	0.995524
743.958996	0.997560
744.288260	0.995454
744.617477	0.996269
744.946647	0.995338
745.275768	0.996939
745.604842	0.995826
745.933869	0.996330
746.262847	0.996897
746.591778	0.995706
746.920662	0.996669
747.249498	0.997559
747.578286	0.997849
747.907027	0.996040
748.235720	0.996713
748.564365	0.997222
748.892963	0.995381
749.221514	0.996453
749.550017	0.996245
749.878473	0.996207
750.206881	0.998043
750.535242	0.996499
750.863555	0.995458
751.191821	0.996317
751.520039	0.995596
751.848210	0.995101
752.176334	0.995597
752.504411	0.997001
752.832440	0.995473
753.160421	0.997447
753.488356	0.996043
753.816243	0.996558
754.144082	0.995342
754.471875	0.996483
754.799620	0.996640
755.127318	0.995946
755.454969	0.996713
755.782572	0.997544
756.110129	0.996291
756.437638	0.997805
756.765100	0.997984
757.092515	0.996679
757.419882	0.996960
757.747203	0.995693
758.074477	0.997227
758.401703	0.996661
758.728882	0.996466
759.056014	0.995703
759.383099	0.997260
759.710138	0.995589
760.037129	0.996046
760.364073	0.996708
760.690970	0.996185
761.017820	0.996003
761.344623	0.997206
761.671379	0.997088
761.998088	0.996078
762.324751	0.995562
762.651366	0.995452
762.977935	0.994491
763.304456	0.993838
763.630931	0.991721
763.957359	0.991774
764.283740	0.993406
764.610074	0.994134
764.936362	0.993972
765.262602	0.995043
765.588796	0.995839
765.914943	0.996551
766.241044	0.995741
766.567097	0.996805
766.893104	0.997533
767.219064	0.995422
767.544978	0.996152
767.870845	0.996913
768.196665	0.997006
768.522438	0.997489
768.848165	0.997701
769.173846	0.997943
769.499479	0.998157
769.825066	0.998278
770.150607	0.999092
770.476101	0.997553
770.801548	0.997965
771.126949	0.997570
771.452303	0.997762
771.777611	0.998325
772.102872	0.997155
772.428087	0.997780
772.753256	0.998125
773.078378	0.998145
773.403453	0.997417
773.728482	0.998464
774.053465	0.997826
774.378401	0.997192
774.703291	0.998501
775.028135	0.998292
775.352932	0.996808
775.677683	0.999162
776.002388	0.997946
776.327046	0.998358
776.651658	0.999149
776.976224	0.997413
777.300743	0.997542
777.625216	0.998186
777.949643	0.999393
778.274024	0.997810
778.598359	0.999204
778.922647	0.997769
779.246889	0.999413
779.571086	0.997492
779.895236	0.997876
780.219339	0.998858
780.543397	0.997065
780.867409	0.999201
781.191374	0.998081
781.515294	0.999231
781.839167	0.998416
782.162995	0.998921
782.486776	0.998407
782.810511	0.998745
783.134201	0.998513
783.457844	0.999471
783.781441	0.997402
784.104993	0.997546
784.428498	0.998082
784.751958	1.000082
785.075372	0.998903
785.398739	0.998002
785.722061	0.997599
786.045337	0.998755
786.368568	0.997053
786.691752	0.998059
787.014891	0.998780
787.337983	0.996652
787.661030	0.997622
787.984031	0.997790
788.306987	0.998262
788.629897	0.995613
788.952760	0.998120
789.275579	0.998278
789.598351	0.996883
789.921078	0.998494
790.243759	0.997864
790.566395	0.997291
790.888984	0.998764
791.211529	0.999154
791.534027	0.998437
791.856480	0.998190
792.178888	0.997681
792.501249	0.998045
792.823566	0.999473
793.145836	0.999210
793.468062	0.998498
793.790241	0.999310
794.112375	0.997489
794.434464	0.998457
794.756507	0.998349
795.078505	0.999110
795.400457	0.998426
795.722364	0.998930
796.044226	0.998081
796.366042	0.997454
796.687812	0.996237
797.009538	0.997454
797.331218	0.998189
797.652852	0.999005
797.974442	0.997536
798.295986	0.998412
798.617484	0.997925
798.938938	0.999433
799.260346	0.998615
799.581709	0.997823
799.903026	0.998389
800.224299	0.998515
800.545526	0.998775
800.866708	0.998089
801.187845	0.998025
801.508936	0.998369
801.829983	0.997280
802.150984	0.998572
802.471940	0.998582
802.792851	0.998575
803.113717	0.999043
803.434538	0.999079
803.755314	0.999865
804.076045	0.999029
804.396731	0.998692
804.717372	0.997283
805.037967	0.999838
805.358518	0.999715
805.679024	0.998180
805.999485	0.998123
806.319901	0.999030
806.640272	0.999110
806.960598	0.998466
807.280879	0.998593
807.601115	0.999294
807.921306	0.998878
808.241453	0.998612
808.561554	0.998741
808.881611	0.998277
809.201623	0.997761
809.521590	0.998894
809.841513	0.999186
810.161390	0.997710
810.481223	0.998295
810.801011	0.999364
811.120755	0.999462
811.440453	0.998135
811.760107	0.999799
812.079716	0.997769
812.399281	0.997978
812.718801	0.999152
813.038276	0.998375
813.357707	0.998603
813.677093	0.999931
813.996434	0.999535
814.315731	0.999180
814.634983	0.999778
814.954191	0.998893
815.273354	0.998395
815.592473	0.999577
815.911547	0.999121
816.230577	0.998524
816.549562	0.998680
816.868502	0.997284
817.187399	0.999282
817.506250	0.998719
817.825058	0.996031
818.143821	0.997994
818.462539	0.997392
818.781213	0.997909
819.099843	0.997669
819.418429	0.996633
819.736970	0.995990
820.055466	0.995969
820.373919	0.995021
820.692327	0.993506
821.010691	0.993637
821.329011	0.991599
821.647286	0.988681
821.965517	0.985260
822.283704	0.982638
822.601847	0.979981
822.919945	0.981041
823.237999	0.982416
823.556010	0.984318
823.873976	0.986578
824.191897	0.988029
824.509775	0.990506
824.827609	0.990746
825.145398	0.991908
825.463144	0.991298
825.780845	0.990470
826.098502	0.991237
826.416116	0.991158
826.733685	0.989305
827.051210	0.987360
827.368692	0.988346
827.686129	0.988026
828.003522	0.991202
828.320872	0.992357
828.638177	0.993578
828.955439	0.994531
829.272656	0.995659
829.589830	0.995651
829.906960	0.996641
830.224046	0.996367
830.541088	0.996548
830.858086	0.997133
831.175041	0.998780
831.491952	0.997065
831.808819	0.997286
832.125642	0.996916
832.442421	0.997302
832.759157	0.997966
833.075849	0.994795
833.392497	0.994327
833.709101	0.991406
834.025662	0.991382
834.342179	0.992988
834.658653	0.994560
834.975083	0.995881
835.291469	0.996071
835.607811	0.995851
835.924110	0.996006
836.240366	0.999155
836.556578	0.998432
836.872746	0.998938
837.188871	0.998394
837.504952	0.999122
837.820990	0.998592
838.136984	0.998535
838.452935	0.999036
838.768842	0.999895
839.084706	0.999362
839.400526	0.998050
839.716303	0.997057
840.032037	0.996847
840.347727	0.995965
840.663373	0.996631
840.978977	0.996553
841.294537	0.997954
841.610054	0.998944
841.925527	0.998705
842.240957	0.999413
842.556344	0.999465
842.871687	0.998745
843.186987	0.999401
843.502244	1.000091
843.817458	0.999811
844.132629	0.999436
844.447756	0.999963
844.762840	0.999217
845.077881	1.001652
845.392879	0.999181
845.707833	1.000227
846.022745	0.999698
846.337613	1.000225
846.652438	0.999532
846.967221	1.000263
847.281960	1.000184
847.596656	1.000314
847.911309	1.000021
848.225919	0.999266
848.540485	1.000330
848.855009	1.001134
849.169490	0.999320
849.483928	1.000039
849.798323	0.998619
850.112675	1.000594
850.426984	1.000124
850.741251	1.000521
851.055474	0.999433
851.369654	1.000184
851.683792	0.999470
851.997887	0.999141
852.311938	1.000312
852.625947	0.998807
852.939914	0.999815
853.253837	1.001368
853.567718	1.001526
853.881555	1.000839
854.195350	1.000007
854.509103	1.000570
854.822812	1.000944
855.136479	1.001080
855.450103	1.000405
855.763685	1.000121
856.077224	0.999876
856.390720	1.000376
856.704173	1.001582
857.017584	1.000337
857.330953	1.001865
857.644278	0.999898
857.957561	0.999902
858.270802	1.001432
858.584000	1.000115
858.897155	1.000328
859.210268	1.000531
859.523339	1.000468
859.836367	0.999918
860.149352	0.999707
860.462295	0.999561
860.775195	1.000116
861.088054	0.998651
861.400869	0.999585
861.713642	0.999683
862.026373	1.000538
862.339062	1.001106
862.651708	0.999909
862.964312	1.000908
863.276873	0.999358
863.589392	0.999571
863.901869	0.999373
864.214303	1.000981
864.526696	1.000052
864.839045	1.000939
865.151353	1.000182
865.463619	0.999142
865.775842	1.000395
866.088023	1.000454
866.400162	1.000528
866.712258	1.000837
867.024313	1.000069
867.336325	1.001351
867.648296	0.999790
867.960224	1.000220
868.272110	1.000011
868.583954	0.999977
868.895755	1.000748
869.207515	1.000076
869.519233	1.000378
869.830909	0.999588
870.142542	0.999200
870.454134	0.999023
870.765684	0.999430
871.077191	1.000271
871.388657	1.000789
871.700081	0.999869
872.011463	1.000412
872.322803	0.999079
872.634101	0.999993
872.945357	0.997790
873.256571	0.998903
873.567744	0.999603
873.878874	0.998523
874.189963	0.999612
874.501010	1.001746
874.812015	0.999358
875.122979	1.000239
875.433900	0.998720
875.744780	0.999526
876.055618	0.998849
876.366415	0.998805
876.677169	0.998879
876.987882	0.998749
877.298554	1.000222
877.609183	0.998455
877.919771	0.999422
878.230317	0.999128
878.540822	0.997452
878.851285	0.997918
879.161707	0.997300
879.472087	0.997708
879.782425	0.995124
880.092722	0.994596
880.402977	0.991948
880.713191	0.989984
881.023363	0.985629
881.333494	0.983369
881.643583	0.984358
881.953631	0.983988
882.263637	0.983561
882.573602	0.984663
882.883526	0.985845
883.193408	0.987747
883.503248	0.990461
883.813048	0.990569
884.122806	0.992005
884.432522	0.992497
884.742197	0.995917
885.051831	0.994075
885.361424	0.995973
885.670975	0.997959
885.980485	0.995763
886.289954	0.996534
886.599382	0.996069
886.908768	0.997685
887.218113	0.996941
887.527417	0.997625
887.836680	0.999400
888.145901	0.998599
888.455082	0.998992
888.764221	0.998647
889.073319	0.998631
889.382376	0.999924
889.691392	0.999076
890.000366	0.998739
890.309300	0.998167
890.618193	0.998870
890.927044	0.998798
891.235855	0.998128
891.544625	0.998805
891.853353	0.998772
892.162041	0.997951
892.470687	0.999267
892.779293	0.997722
893.087858	0.996617
893.396381	0.996308
893.704864	0.995885
894.013306	0.994989
894.321707	0.993695
894.630068	0.992393
894.938387	0.992519
895.246665	0.992253
895.554903	0.992293
895.863100	0.995297
896.171256	0.994314
896.479371	0.994286
896.787446	0.994938
897.095480	0.997360
897.403473	0.998107
897.711425	0.998279
898.019336	0.998709
898.327207	0.998742
898.635038	0.997799
898.942827	0.997892
899.250576	0.998057
899.558284	0.998336
899.865952	0.999062
900.173579	0.998438
900.481165	0.999997
900.788711	0.998993
901.096216	0.999026
901.403681	0.999399
901.711105	0.998772
902.018489	0.999322
902.325832	0.999154
902.633135	0.999952
902.940397	0.998919
903.247619	0.997602
903.554800	0.996358
903.861941	0.994283
904.169041	0.991941
904.476101	0.990820
904.783121	0.989115
905.090100	0.990209
905.397039	0.992901
905.703938	0.993590
906.010796	0.995816
906.317614	0.996244
906.624391	0.997124
906.931129	0.998557
907.237826	0.998936
907.544483	0.999478
907.851099	0.998726
908.157675	0.999522
908.464211	0.999978
908.770707	0.998083
909.077163	0.999722
909.383578	1.000942
909.689954	0.998273
909.996289	1.000883
910.302584	1.000285
910.608839	1.001970
910.915054	1.000062
911.221229	1.001282
911.527363	0.999535
911.833458	0.999747
912.139513	1.000292
912.445527	1.000133
912.751502	0.999697
913.057436	0.999179
913.363331	1.000066
913.669186	0.999566
913.975000	0.998891
914.280775	0.998444
914.586510	0.997340
914.892205	0.995545
915.197859	0.994566
915.503475	0.993968
915.809050	0.991923
916.114585	0.988939
916.420081	0.990432
916.725536	0.991881
917.030952	0.990795
917.336328	0.991941
917.641665	0.992063
917.946961	0.992703
918.252218	0.993728
918.557435	0.995748
918.862612	0.995892
919.167750	0.997118
919.472848	0.997272
919.777906	0.998374
920.082925	0.999353
920.387904	0.998903
920.692843	0.998973
920.997743	0.998336
921.302603	0.999585
921.607423	0.998426
921.912204	0.999568
922.216946	1.000958
922.521647	0.999856
922.826310	0.999562
923.130932	0.999864
923.435516	0.999956
923.740059	0.999258
924.044564	0.999163
924.349028	0.999289
924.653454	1.000564
924.957840	0.999492
925.262186	1.000965
925.566493	1.000797
925.870761	1.000690
926.174989	1.000031
926.479178	1.000752
926.783328	1.000278
927.087438	1.000276
927.391509	1.000311
927.695541	1.001618
927.999533	1.000609
928.303486	1.000459
928.607400	1.001348
928.911275	1.000803
929.215110	1.001821
929.518906	1.001913
929.822663	1.002142
930.126381	1.001641
930.430060	1.000767
930.733699	1.002347
931.037299	1.001008
931.340861	1.001353
931.644383	1.000445
931.947866	1.000691
932.251309	1.002242
932.554714	1.000528
932.858080	1.001885
933.161407	1.000432
933.464694	1.001998
933.767943	1.000970
934.071153	1.000027
934.374323	1.001470
934.677455	1.000528
934.980548	0.999611
935.283602	1.000804
935.586617	0.999591
935.889593	1.002211
936.192530	1.000346
936.495428	1.001493
936.798287	1.000785
937.101108	1.001265
937.403890	1.000654
937.706632	1.001036
938.009336	1.000515
938.312002	1.000221
938.614628	1.000238
938.917216	0.998966
939.219765	0.999364
939.522275	1.000668
939.824747	1.001449
940.127179	1.000341
940.429573	1.001897
940.731929	1.000066
941.034246	1.000102
941.336524	0.998706
941.638763	0.999972
941.940964	0.999123
942.243126	0.999355
942.545250	1.001440
942.847335	1.000415
943.149381	1.000216
943.451389	1.001259
943.753359	1.000135
944.055290	1.002488
944.357182	1.000422
944.659036	1.000366
944.960851	1.000841
945.262628	1.000070
945.564367	1.000176
945.866067	1.000415
946.167729	1.000986
946.469352	1.000666
946.770937	0.998459
947.072484	1.001186
947.373992	0.999677
947.675462	0.999907
947.976893	0.999542
948.278286	1.001249
948.579641	1.001904
948.880958	1.000212
949.182236	1.002245
949.483476	1.001071
949.784678	1.000845
950.085841	1.000178
950.386967	1.000599
950.688054	1.000221
950.989103	0.999858
951.290114	0.999939
951.591087	1.001035
951.892021	1.000068
952.192917	1.001200
952.493776	1.000205
952.794596	1.000239
953.095378	0.999720
953.396122	1.000735
953.696828	1.001056
953.997496	1.000323
954.298126	1.000837
954.598718	1.001237
954.899272	1.000201
955.199788	1.000347
955.500266	1.002866
955.800706	0.999791
956.101108	1.000992
956.401472	1.002168
956.701798	1.000768
957.002087	1.001339
957.302337	1.000412
957.602550	1.002160
957.902724	1.001051
958.202861	1.001760
958.502960	1.000247
958.803022	1.002613
959.103045	1.001377
959.403031	1.002231
959.702979	1.001461
960.002889	1.001465
960.302762	1.000600
960.602596	1.002110
960.902393	1.001687
961.202153	1.001460
961.501875	1.001837
961.801559	1.001627
962.101205	1.000614
962.400814	1.002666
962.700385	1.001222
962.999918	1.002929
963.299414	1.000075
963.598873	1.001010
963.898293	1.001431
964.197677	1.001512
964.497022	1.001454
964.796331	1.001214
965.095601	1.001795
965.394835	1.001308
965.694030	1.003315
965.993189	1.001268
966.292309	1.001615
966.591393	1.000438
966.890439	1.000468
967.189447	1.001756
967.488419	1.000501
967.787353	1.001417
968.086249	1.001553
968.385108	1.001056
968.683930	1.002005
968.982714	1.001285
969.281462	1.000417
969.580172	1.001373
969.878844	1.002157
970.177480	1.002640
970.476078	1.002977
970.774639	1.002242
971.073162	1.000970
971.371649	1.001353
971.670098	1.000598
971.968510	1.001274
972.266885	1.001979
972.565223	1.001557
972.863524	0.999611
973.161788	1.000684
973.460014	1.001885
973.758204	1.000319
974.056356	1.000966
974.354471	0.999535
974.652550	1.002354
974.950591	1.001662
975.248595	1.000625
975.546563	1.002482
975.844493	1.001927
976.142386	1.000727
976.440243	1.001964
976.738062	1.002606
977.035845	1.000256
977.333590	1.001215
977.631299	1.001206
977.928971	1.001654
978.226606	1.000671
978.524204	1.000177
978.821765	1.001841
979.119290	1.002809
979.416777	1.000611
979.714228	1.000903
980.011642	1.002271
980.309020	1.002625
980.606360	1.001595
980.903664	1.001384
981.200931	1.001325
981.498162	1.002002
981.795356	1.000420
982.092513	1.000213
982.389633	1.002366
982.686717	1.001138
982.983764	0.999885
983.280775	0.999828
983.577749	1.001559
983.874686	1.000574
984.171587	1.000238
984.468451	1.001834
984.765279	1.000832
985.062070	1.002376
985.358824	1.001022
985.655543	1.001862
985.952224	1.000802
986.248869	1.000856
986.545478	1.002990
986.842050	1.001509
987.138586	0.999987
987.435086	1.001760
987.731549	1.001922
988.027975	1.001584
988.324366	1.000811
988.620719	1.002496
988.917037	1.002268
989.213318	1.003015
989.509563	1.001285
989.805772	1.001415
990.101944	1.002149
990.398080	1.001869
990.694180	1.001897
990.990244	1.000476
991.286271	1.000678
991.582262	1.002310
991.878217	1.002337
992.174136	1.003312
992.470019	1.001830
992.765865	1.002383
993.061676	1.001403
993.357450	1.002401
993.653188	1.002527
993.948890	1.001272
994.244556	1.001441
994.540186	1.000214
994.835780	1.001588
995.131337	1.002438
995.426859	1.001644
995.722345	1.001522
996.017795	1.000316
996.313208	1.000822
996.608586	1.000764
996.903928	1.002378
997.199234	1.001054
997.494504	1.002701
997.789738	1.000700
998.084936	1.001897
998.380099	1.000499
998.675225	1.002825
998.970316	1.001799
999.265371	1.002929
999.560390	1.001109
999.855373	1.001782
1000.150320	1.001752
1000.445232	1.002884
1000.740108	1.000951
1001.034948	1.001548
1001.329752	1.001817
1001.624521	1.002129
1001.919254	1.000420
1002.213951	1.001078
1002.508613	1.001130
1002.803239	1.001524
1003.097829	1.001427
1003.392384	1.002054
1003.686903	1.002045
1003.981386	1.001959
1004.275834	1.002179
1004.570246	1.000757
1004.864623	1.002797
1005.158964	1.001661
1005.453270	1.000928
1005.747540	1.002810
1006.041775	1.001273
1006.335974	1.002621
1006.630138	1.002479
1006.924266	1.000636
1007.218359	1.000316
1007.512416	1.003182
1007.806438	1.001390
1008.100425	1.001979
1008.394376	1.002917
1008.688292	1.001266
1008.982172	1.002241
1009.276017	1.002153
1009.569827	1.002857
1009.863602	1.000375
1010.157341	1.001352
1010.451045	1.001734
1010.744714	1.002939
1011.038347	1.002184
1011.331945	1.001697
1011.625508	1.001541
1011.919036	1.001539
1012.212528	1.001427
1012.505986	1.001042
1012.799408	1.002310
1013.092795	1.002078
1013.386147	1.001384
1013.679464	1.001978
1013.972745	1.000836
1014.265992	1.002822
1014.559204	1.001124
1014.852380	1.002215
1015.145521	1.001615
1015.438628	1.001634
1015.731699	1.001671
1016.024736	1.002014
1016.317737	1.002572
1016.610703	1.002086
1016.903635	1.001931
1017.196531	1.001594
1017.489393	1.001837
1017.782219	1.002064
1018.075011	1.000621
1018.367768	1.000977
1018.660490	1.001346
1018.953177	1.001346
1019.245829	1.001346
