Dividing Wavelength (nm)	Counts (n)	Blue Motor Position (mm): 24.800000	Red Motor Position (mm): 0.000000	
326.493990	1.000370
326.888308	1.000370
327.282561	1.000370
327.676750	1.001846
328.070874	1.000144
328.464933	1.001920
328.858929	1.001784
329.252859	1.000874
329.646726	1.000019
330.040528	1.001366
330.434265	1.000660
330.827938	1.000490
331.221547	1.000576
331.615091	1.001310
332.008571	1.002527
332.401986	1.000621
332.795338	1.001682
333.188625	1.001901
333.581847	1.001122
333.975006	1.001285
334.368100	1.001037
334.761129	1.000435
335.154095	1.001419
335.546996	1.001405
335.939833	0.998110
336.332606	0.999570
336.725315	0.998040
337.117960	1.000248
337.510540	0.998271
337.903056	0.999910
338.295508	1.000544
338.687896	1.000867
339.080220	0.999857
339.472480	0.999112
339.864676	0.998841
340.256807	0.998371
340.648875	1.000290
341.040879	0.998097
341.432818	1.000307
341.824694	1.000042
342.216506	0.999942
342.608253	0.999401
342.999937	0.998216
343.391557	0.998981
343.783113	1.000292
344.174605	1.000167
344.566033	0.998436
344.957397	1.000110
345.348697	0.998901
345.739934	0.999032
346.131106	0.998576
346.522215	0.999282
346.913260	0.999428
347.304241	0.998497
347.695159	1.000499
348.086012	0.999398
348.476802	0.999442
348.867528	0.997900
349.258191	0.999506
349.648789	0.998337
350.039324	0.999195
350.429796	0.998825
350.820203	0.997278
351.210548	0.999017
351.600828	0.998073
351.991045	0.998152
352.381198	0.998838
352.771288	0.998419
353.161314	0.999726
353.551276	0.998761
353.941175	0.997108
354.331010	0.998904
354.720782	0.999100
355.110490	0.997539
355.500135	0.999192
355.889717	0.996600
356.279235	0.998039
356.668689	0.998750
357.058080	0.998718
357.447408	0.998022
357.836672	0.997988
358.225873	0.997750
358.615010	0.998680
359.004084	0.996861
359.393095	0.997885
359.782043	0.997623
360.170927	0.999028
360.559748	0.997966
360.948505	0.996316
361.337199	0.997800
361.725830	0.998475
362.114398	0.997527
362.502903	0.997352
362.891344	0.997187
363.279722	0.996685
363.668037	0.998030
364.056289	0.998216
364.444478	0.998946
364.832603	0.998438
365.220665	0.998061
365.608665	0.996297
365.996601	0.997019
366.384474	0.995725
366.772284	0.995545
367.160031	0.995398
367.547715	0.996851
367.935336	0.994959
368.322893	0.993752
368.710388	0.992797
369.097820	0.989934
369.485189	0.987623
369.872495	0.987640
370.259738	0.984668
370.646918	0.982527
371.034035	0.979962
371.421090	0.976461
371.808081	0.971589
372.195010	0.969809
372.581875	0.964340
372.968678	0.959728
373.355418	0.957245
373.742096	0.947067
374.128710	0.944507
374.515262	0.940011
374.901751	0.933916
375.288177	0.928975
375.674540	0.923236
376.060841	0.916123
376.447079	0.908619
376.833254	0.903252
377.219367	0.897797
377.605417	0.886561
377.991404	0.883314
378.377329	0.876381
378.763191	0.871289
379.148991	0.860904
379.534727	0.854033
379.920402	0.845489
380.306013	0.841892
380.691563	0.829599
381.077049	0.823296
381.462474	0.819419
381.847835	0.807141
382.233134	0.802118
382.618371	0.802042
383.003545	0.785515
383.388657	0.783612
383.773706	0.776048
384.158693	0.772843
384.543618	0.766665
384.928480	0.758548
385.313280	0.747214
385.698017	0.747521
386.082692	0.735436
386.467305	0.734238
386.851856	0.728258
387.236344	0.724304
387.620770	0.718260
388.005133	0.712008
388.389435	0.706800
388.773674	0.704078
389.157851	0.696369
389.541965	0.693936
389.926018	0.700481
390.310008	0.686756
390.693936	0.683258
391.077802	0.675915
391.461606	0.677443
391.845348	0.666299
392.229027	0.666582
392.612645	0.664121
392.996200	0.651048
393.379694	0.643768
393.763125	0.634168
394.146494	0.639834
394.529801	0.629342
394.913047	0.621693
395.296230	0.627922
395.679351	0.619527
396.062410	0.615438
396.445408	0.618427
396.828343	0.614543
397.211217	0.609259
397.594028	0.620919
397.976778	0.611426
398.359466	0.607683
398.742092	0.603627
399.124656	0.614882
399.507158	0.603881
399.889598	0.600995
400.271977	0.591580
400.654294	0.595750
401.036549	0.594757
401.418742	0.598671
401.800874	0.584969
402.182944	0.582061
402.564952	0.573390
402.946898	0.575576
403.328783	0.576118
403.710606	0.587327
404.092367	0.561881
404.474067	0.567493
404.855705	0.566757
405.237282	0.574656
405.618797	0.561489
406.000250	0.557234
406.381642	0.546793
406.762972	0.552257
407.144240	0.550993
407.525447	0.551115
407.906593	0.543391
408.287677	0.539752
408.668700	0.546444
409.049661	0.541629
409.430560	0.536369
409.811399	0.545255
410.192176	0.526975
410.572891	0.533852
410.953545	0.521751
411.334138	0.535245
411.714669	0.528201
412.095139	0.539792
412.475547	0.524243
412.855894	0.526366
413.236180	0.525278
413.616405	0.530660
413.996568	0.521087
414.376670	0.527336
414.756711	0.532287
415.136691	0.528567
415.516609	0.520266
415.896466	0.517118
416.276262	0.512711
416.655997	0.514972
417.035670	0.495782
417.415283	0.487884
417.794834	0.492264
418.174324	0.497998
418.553753	0.507077
418.933121	0.489281
419.312428	0.483036
419.691674	0.488816
420.070859	0.477761
420.449983	0.485591
420.829045	0.474331
421.208047	0.483420
421.586988	0.476369
421.965867	0.475507
422.344686	0.464586
422.723444	0.476689
423.102141	0.493868
423.480777	0.466208
423.859352	0.487617
424.237866	0.464677
424.616319	0.465248
424.994712	0.456241
425.373044	0.466974
425.751314	0.454338
426.129524	0.471164
426.507673	0.453890
426.885762	0.448003
427.263789	0.453791
427.641756	0.463796
428.019662	0.453654
428.397508	0.453045
428.775292	0.457284
429.153016	0.449280
429.530679	0.455501
429.908282	0.448689
430.285824	0.458709
430.663305	0.437049
431.040726	0.458795
431.418086	0.458095
431.795385	0.449785
432.172624	0.449341
432.549802	0.449317
432.926920	0.448488
433.303977	0.447633
433.680974	0.445270
434.057910	0.443882
434.434786	0.442114
434.811601	0.445676
435.188355	0.428144
435.565050	0.437440
435.941683	0.439090
436.318257	0.422298
436.694770	0.422971
437.071222	0.421717
437.447614	0.426096
437.823946	0.432716
438.200218	0.421683
438.576429	0.431438
438.952580	0.424726
439.328670	0.421284
439.704700	0.427652
440.080670	0.429221
440.456580	0.410505
440.832429	0.418118
441.208218	0.429317
441.583947	0.418612
441.959616	0.417702
442.335224	0.423588
442.710773	0.413751
443.086261	0.412033
443.461689	0.425972
443.837057	0.415517
444.212365	0.406113
444.587612	0.413091
444.962800	0.403124
445.337927	0.404477
445.712995	0.430856
446.088002	0.392554
446.462949	0.403431
446.837837	0.408173
447.212664	0.397132
447.587431	0.388546
447.962139	0.358962
448.336786	0.318086
448.711374	0.328584
449.085901	0.373272
449.460369	0.377748
449.834776	0.380805
450.209124	0.360730
450.583412	0.353546
450.957640	0.346474
451.331808	0.358411
451.705917	0.381902
452.079965	0.386955
452.453954	0.375448
452.827883	0.382784
453.201752	0.377744
453.575562	0.389601
453.949311	0.379070
454.323001	0.385529
454.696632	0.382190
455.070202	0.375471
455.443713	0.368039
455.817164	0.363473
456.190556	0.360474
456.563888	0.358020
456.937160	0.356238
457.310373	0.374293
457.683526	0.373996
458.056619	0.380918
458.429653	0.382452
458.802628	0.386995
459.175542	0.382530
459.548398	0.366765
459.921194	0.361240
460.293930	0.363328
460.666607	0.343593
461.039224	0.334655
461.411782	0.331462
461.784280	0.332278
462.156719	0.338157
462.529099	0.343767
462.901419	0.361141
463.273680	0.366800
463.645882	0.368494
464.018024	0.376889
464.390106	0.372098
464.762130	0.360383
465.134094	0.348672
465.505999	0.325747
465.877845	0.302853
466.249631	0.292448
466.621358	0.300817
466.993026	0.316428
467.364634	0.324407
467.736184	0.335921
468.107674	0.347966
468.479105	0.352140
468.850477	0.361054
469.221790	0.371268
469.593043	0.384561
469.964238	0.393415
470.335373	0.397398
470.706449	0.400572
471.077467	0.406169
471.448425	0.380211
471.819324	0.365679
472.190164	0.368820
472.560945	0.397954
472.931667	0.422812
473.302330	0.431073
473.672934	0.447053
474.043479	0.442553
474.413965	0.450139
474.784393	0.459248
475.154761	0.461090
475.525070	0.465291
475.895321	0.476158
476.265513	0.478316
476.635645	0.480918
477.005719	0.488629
477.375734	0.492569
477.745691	0.494398
478.115588	0.498921
478.485427	0.502439
478.855207	0.500874
479.224928	0.497591
479.594591	0.496209
479.964194	0.506115
480.333739	0.513210
480.703226	0.523367
481.072653	0.530049
481.442022	0.536795
481.811333	0.541483
482.180584	0.551611
482.549777	0.564327
482.918912	0.573393
483.287988	0.581493
483.657005	0.588673
484.025964	0.600941
484.394864	0.607316
484.763706	0.616036
485.132489	0.626828
485.501213	0.635604
485.869879	0.641208
486.238487	0.651920
486.607036	0.657951
486.975527	0.669091
487.343959	0.673674
487.712333	0.681928
488.080648	0.689121
488.448905	0.698241
488.817104	0.705748
489.185244	0.710751
489.553326	0.717589
489.921350	0.720042
490.289315	0.718626
490.657222	0.722202
491.025070	0.731340
491.392861	0.739288
491.760593	0.750065
492.128267	0.760589
492.495883	0.769387
492.863440	0.779207
493.230939	0.788599
493.598380	0.795361
493.965763	0.802794
494.333088	0.807818
494.700354	0.815878
495.067563	0.820863
495.434713	0.828354
495.801805	0.833165
496.168839	0.839502
496.535815	0.845419
496.902733	0.850283
497.269593	0.856134
497.636395	0.860716
498.003139	0.866312
498.369825	0.871725
498.736453	0.876231
499.103023	0.880749
499.469535	0.885337
499.835989	0.890190
500.202385	0.894762
500.568723	0.899485
500.935003	0.901838
501.301226	0.908016
501.667390	0.909394
502.033497	0.913580
502.399546	0.917486
502.765537	0.921053
503.131470	0.924203
503.497345	0.927424
503.863163	0.931554
504.228923	0.933946
504.594625	0.935977
504.960269	0.940717
505.325856	0.943621
505.691385	0.945305
506.056856	0.946891
506.422270	0.949987
506.787625	0.952081
507.152924	0.955101
507.518164	0.956012
507.883347	0.958310
508.248472	0.961097
508.613540	0.962094
508.978550	0.964372
509.343503	0.965693
509.708398	0.968461
510.073236	0.969591
510.438016	0.970193
510.802738	0.971613
511.167403	0.972552
511.532010	0.974794
511.896561	0.975444
512.261053	0.976468
512.625488	0.977212
512.989866	0.978475
513.354186	0.978908
513.718449	0.980614
514.082655	0.980884
514.446803	0.981872
514.810894	0.982596
515.174927	0.983208
515.538904	0.984519
515.902822	0.984961
516.266684	0.985662
516.630488	0.985689
516.994235	0.986625
517.357925	0.987339
517.721558	0.986969
518.085133	0.987198
518.448651	0.988006
518.812112	0.988707
519.175516	0.989045
519.538863	0.988519
519.902152	0.989687
520.265385	0.989184
520.628560	0.989260
520.991678	0.990204
521.354739	0.990683
521.717743	0.990092
522.080690	0.990045
522.443580	0.990936
522.806413	0.990295
523.169189	0.991357
523.531908	0.990840
523.894569	0.991274
524.257174	0.991442
524.619722	0.991184
524.982213	0.991021
525.344647	0.991767
525.707025	0.991563
526.069345	0.991408
526.431608	0.991938
526.793815	0.992432
527.155964	0.992711
527.518057	0.992599
527.880093	0.992470
528.242072	0.992252
528.603995	0.992545
528.965860	0.993073
529.327669	0.993083
529.689421	0.992422
530.051117	0.993179
530.412755	0.993329
530.774337	0.992671
531.135862	0.993966
531.497331	0.992901
531.858743	0.993156
532.220098	0.992654
532.581396	0.993967
532.942638	0.993424
533.303824	0.994471
533.664953	0.992788
534.026025	0.994256
534.387040	0.993826
534.747999	0.993538
535.108902	0.993336
535.469748	0.994052
535.830537	0.993879
536.191270	0.994171
536.551947	0.993048
536.912567	0.993614
537.273131	0.994174
537.633638	0.993552
537.994089	0.994575
538.354483	0.994758
538.714821	0.993495
539.075103	0.993841
539.435328	0.994174
539.795497	0.994277
540.155609	0.993780
540.515665	0.994351
540.875665	0.993951
541.235609	0.994181
541.595496	0.994100
541.955328	0.993888
542.315102	0.994858
542.674821	0.994576
543.034483	0.994739
543.394090	0.993521
543.753640	0.994335
544.113134	0.993656
544.472571	0.994818
544.831953	0.994433
545.191278	0.994699
545.550548	0.994449
545.909761	0.993863
546.268918	0.995218
546.628019	0.995241
546.987064	0.994066
547.346053	0.993667
547.704986	0.994009
548.063863	0.994009
548.422684	0.994782
548.781449	0.994251
549.140158	0.994237
549.498811	0.994024
549.857408	0.994001
550.215949	0.993227
550.574434	0.994093
550.932864	0.994601
551.291237	0.993800
551.649555	0.994746
552.007817	0.993863
552.366022	0.994416
552.724173	0.994376
553.082267	0.993957
553.440305	0.993700
553.798288	0.993229
554.156215	0.993956
554.514086	0.994469
554.871902	0.994408
555.229661	0.993182
555.587365	0.993935
555.945014	0.994599
556.302606	0.994182
556.660143	0.994455
557.017625	0.994744
557.375050	0.993843
557.732421	0.993907
558.089735	0.994043
558.446994	0.994066
558.804197	0.994073
559.161345	0.993868
559.518437	0.994122
559.875474	0.993380
560.232455	0.994736
560.589381	0.994308
560.946251	0.994997
561.303065	0.994769
561.659825	0.994112
562.016528	0.994994
562.373177	0.994039
562.729770	0.993597
563.086307	0.993406
563.442789	0.994186
563.799216	0.993578
564.155587	0.993971
564.511904	0.994286
564.868164	0.993207
565.224370	0.994161
565.580520	0.994200
565.936615	0.993835
566.292654	0.993722
566.648638	0.994142
567.004567	0.993700
567.360441	0.994208
567.716260	0.994437
568.072023	0.993072
568.427732	0.994303
568.783385	0.994221
569.138982	0.994293
569.494525	0.994196
569.850013	0.995097
570.205445	0.994261
570.560823	0.994514
570.916145	0.994322
571.271412	0.994233
571.626625	0.994174
571.981782	0.993648
572.336884	0.995043
572.691931	0.993972
573.046923	0.994315
573.401860	0.993968
573.756743	0.994192
574.111570	0.994401
574.466342	0.995078
574.821059	0.993866
575.175722	0.994338
575.530330	0.993717
575.884882	0.994254
576.239380	0.994427
576.593823	0.994416
576.948211	0.994219
577.302544	0.994478
577.656823	0.993932
578.011047	0.993514
578.365216	0.994447
578.719330	0.994581
579.073389	0.992912
579.427394	0.994344
579.781344	0.994292
580.135239	0.993291
580.489080	0.994430
580.842866	0.994210
581.196597	0.993927
581.550273	0.994048
581.903895	0.995069
582.257463	0.994464
582.610975	0.994470
582.964434	0.994000
583.317837	0.994964
583.671186	0.994828
584.024481	0.994071
584.377721	0.993794
584.730906	0.993886
585.084037	0.995342
585.437113	0.995494
585.790135	0.994161
586.143103	0.994040
586.496016	0.994022
586.848874	0.994726
587.201679	0.994323
587.554428	0.994019
587.907124	0.994720
588.259765	0.994691
588.612352	0.995054
588.964884	0.994778
589.317362	0.994724
589.669786	0.994387
590.022155	0.993862
590.374470	0.994426
590.726731	0.993908
591.078937	0.994448
591.431090	0.994161
591.783188	0.994291
592.135232	0.995197
592.487222	0.994693
592.839157	0.994096
593.191038	0.994390
593.542866	0.993613
593.894639	0.993324
594.246358	0.994472
594.598022	0.994408
594.949633	0.994164
595.301190	0.994025
595.652692	0.993980
596.004141	0.994321
596.355535	0.994462
596.706876	0.994611
597.058162	0.993974
597.409395	0.994123
597.760573	0.993870
598.111698	0.994416
598.462768	0.993570
598.813785	0.993733
599.164748	0.993801
599.515657	0.993643
599.866511	0.994139
600.217312	0.995245
600.568060	0.993989
600.918753	0.995016
601.269392	0.994477
601.619978	0.993803
601.970510	0.994313
602.320988	0.994430
602.671412	0.993845
603.021783	0.994779
603.372100	0.995195
603.722363	0.994939
604.072572	0.994491
604.422728	0.994292
604.772830	0.994088
605.122878	0.995119
605.472872	0.994657
605.822813	0.993772
606.172701	0.994281
606.522534	0.994539
606.872314	0.994707
607.222041	0.993721
607.571714	0.994596
607.921333	0.994298
608.270899	0.994059
608.620411	0.994604
608.969870	0.995151
609.319276	0.994493
609.668627	0.994601
610.017926	0.994422
610.367171	0.994334
610.716362	0.994451
611.065500	0.994177
611.414585	0.994809
611.763616	0.994071
612.112594	0.994105
612.461518	0.993805
612.810389	0.994945
613.159207	0.994177
613.507971	0.993623
613.856682	0.995558
614.205340	0.993623
614.553945	0.994627
614.902496	0.994129
615.250994	0.994163
615.599439	0.994234
615.947830	0.993448
616.296169	0.994195
616.644454	0.994884
616.992686	0.993975
617.340864	0.995073
617.688990	0.994062
618.037063	0.994355
618.385082	0.993762
618.733048	0.992996
619.080961	0.994214
619.428821	0.994843
619.776628	0.993691
620.124382	0.995299
620.472083	0.994789
620.819731	0.995193
621.167326	0.994568
621.514868	0.994692
621.862357	0.993856
622.209793	0.993929
622.557176	0.993803
622.904506	0.993297
623.251783	0.994551
623.599007	0.994476
623.946179	0.993872
624.293297	0.995449
624.640363	0.994880
624.987376	0.993718
625.334336	0.994472
625.681243	0.994856
626.028097	0.994316
626.374899	0.994717
626.721647	0.995415
627.068343	0.994719
627.414987	0.994526
627.761577	0.994068
628.108115	0.993785
628.454600	0.995550
628.801032	0.994429
629.147412	0.994404
629.493739	0.995566
629.840014	0.994101
630.186236	0.994602
630.532405	0.994760
630.878521	0.993977
631.224585	0.994206
631.570597	0.994431
631.916556	0.994468
632.262462	0.993327
632.608316	0.995123
632.954117	0.993158
633.299866	0.994279
633.645562	0.994317
633.991206	0.995287
634.336797	0.994632
634.682336	0.995290
635.027823	0.994015
635.373257	0.994090
635.718639	0.995405
636.063968	0.994680
636.409245	0.993940
636.754470	0.994620
637.099642	0.994654
637.444762	0.995124
637.789829	0.994667
638.134845	0.994314
638.479808	0.994794
638.824719	0.995180
639.169577	0.995126
639.514383	0.994779
639.859137	0.994975
640.203839	0.994858
640.548489	0.994808
640.893086	0.994872
641.237632	0.995444
641.582125	0.993726
641.926566	0.995224
642.270955	0.995034
642.615292	0.994651
642.959576	0.994731
643.303809	0.994814
643.647990	0.995906
643.992118	0.995274
644.336195	0.994425
644.680219	0.995029
645.024192	0.995257
645.368112	0.994082
645.711981	0.994698
646.055797	0.994512
646.399562	0.994077
646.743274	0.996208
647.086935	0.994462
647.430544	0.994733
647.774101	0.993862
648.117606	0.994908
648.461059	0.995565
648.804460	0.994622
649.147810	0.994733
649.491108	0.994526
649.834354	0.994671
650.177548	0.994593
650.520690	0.994604
650.863781	0.994432
651.206820	0.995186
651.549807	0.995002
651.892742	0.994391
652.235626	0.993785
652.578458	0.994126
652.921238	0.995752
653.263967	0.995922
653.606644	0.994561
653.949269	0.995972
654.291843	0.993877
654.634365	0.995116
654.976836	0.994241
655.319255	0.995477
655.661622	0.995455
656.003938	0.994533
656.346203	0.994879
656.688416	0.995840
657.030577	0.994212
657.372687	0.995187
657.714746	0.994144
658.056753	0.994596
658.398708	0.994467
658.740612	0.994907
659.082465	0.994744
659.424266	0.995408
659.766016	0.994492
660.107715	0.994917
660.449362	0.995019
660.790958	0.994644
661.132503	0.995246
661.473996	0.994646
661.815438	0.995571
662.156829	0.994963
662.498168	0.995317
662.839456	0.993756
663.180693	0.995750
663.521879	0.995161
663.863013	0.995507
664.204097	0.994364
664.545129	0.995768
664.886110	0.994949
665.227040	0.994959
665.567918	0.994619
665.908746	0.994211
666.249522	0.994196
666.590248	0.994483
666.930922	0.994202
667.271545	0.995596
667.612118	0.994469
667.952639	0.994225
668.293109	0.995251
668.633528	0.994031
668.973896	0.994032
669.314213	0.994438
669.654480	0.994750
669.994695	0.994007
670.334859	0.994333
670.674973	0.994509
671.015035	0.994754
671.355047	0.994752
671.695008	0.994437
672.034918	0.994637
672.374777	0.994431
672.714585	0.994227
673.054342	0.995325
673.394049	0.994495
673.733705	0.994511
674.073310	0.994339
674.412864	0.994622
674.752368	0.994272
675.091820	0.995930
675.431223	0.995717
675.770574	0.994263
676.109875	0.995159
676.449125	0.994790
676.788324	0.993680
677.127473	0.995664
677.466571	0.995321
677.805619	0.994766
678.144616	0.994560
678.483562	0.994748
678.822458	0.994860
679.161303	0.994026
679.500098	0.995408
679.838842	0.995333
680.177535	0.994951
680.516179	0.994000
680.854771	0.993963
681.193314	0.994651
681.531805	0.994831
681.870247	0.995195
682.208638	0.994642
682.546978	0.993442
682.885268	0.994264
683.223508	0.994156
683.561697	0.994194
683.899836	0.993912
684.237925	0.994489
684.575963	0.995178
684.913951	0.994939
685.251889	0.995354
685.589776	0.994844
685.927614	0.994064
686.265401	0.994401
686.603137	0.993906
686.940824	0.994633
687.278460	0.994779
687.616046	0.994292
687.953582	0.994481
688.291068	0.994163
688.628504	0.994293
688.965889	0.993435
689.303224	0.993054
689.640510	0.994681
689.977745	0.993912
690.314930	0.994152
690.652065	0.994272
690.989150	0.994200
691.326185	0.995008
691.663170	0.994183
692.000105	0.994966
692.336990	0.994918
692.673825	0.995018
693.010610	0.995575
693.347345	0.994954
693.684030	0.994584
694.020665	0.995030
694.357251	0.994424
694.693786	0.994064
695.030272	0.994166
695.366707	0.995063
695.703093	0.994567
696.039429	0.994274
696.375716	0.995234
696.711952	0.993648
697.048139	0.995622
697.384276	0.994723
697.720363	0.994726
698.056400	0.993627
698.392388	0.994604
698.728326	0.994821
699.064214	0.996263
699.400053	0.994739
699.735842	0.995927
700.071581	0.995256
700.407270	0.994784
700.742910	0.995284
701.078501	0.995222
701.414042	0.995606
701.749533	0.993733
702.084974	0.995655
702.420366	0.994645
702.755709	0.994909
703.091002	0.994819
703.426246	0.995331
703.761440	0.994829
704.096584	0.995842
704.431679	0.994099
704.766725	0.994511
705.101721	0.995524
705.436668	0.994630
705.771565	0.994829
706.106413	0.994642
706.441212	0.995905
706.775961	0.995457
707.110661	0.994554
707.445311	0.995868
707.779913	0.996380
708.114465	0.995615
708.448967	0.996115
708.783421	0.995642
709.117825	0.995083
709.452180	0.994504
709.786485	0.995434
710.120742	0.995235
710.454949	0.994142
710.789107	0.994793
711.123216	0.994116
711.457275	0.993764
711.791286	0.995164
712.125247	0.996053
712.459159	0.993937
712.793023	0.993839
713.126837	0.995561
713.460602	0.994451
713.794318	0.994137
714.127985	0.994564
714.461602	0.993352
714.795171	0.994199
715.128691	0.994329
715.462162	0.994731
715.795584	0.995251
716.128957	0.995292
716.462281	0.995116
716.795556	0.994038
717.128782	0.995341
717.461960	0.993745
717.795088	0.995217
718.128167	0.995461
718.461198	0.994861
718.794180	0.995307
719.127113	0.995185
719.459997	0.994182
719.792833	0.995356
720.125619	0.994406
720.458357	0.995439
720.791046	0.996054
721.123686	0.994936
721.456278	0.995177
721.788821	0.995115
722.121315	0.995684
722.453761	0.995423
722.786158	0.995209
723.118506	0.995370
723.450805	0.994848
723.783056	0.996389
724.115259	0.994747
724.447412	0.996019
724.779518	0.995066
725.111574	0.995235
725.443582	0.995221
725.775542	0.995491
726.107453	0.995136
726.439315	0.995365
726.771129	0.994875
727.102895	0.994728
727.434612	0.995304
727.766281	0.995515
728.097901	0.995004
728.429473	0.995898
728.760996	0.994127
729.092471	0.995412
729.423897	0.995076
729.755276	0.994972
730.086606	0.995605
730.417887	0.995651
730.749120	0.995306
731.080305	0.994482
731.411442	0.994536
731.742530	0.993643
732.073570	0.993924
732.404562	0.995083
732.735506	0.994287
733.066401	0.994985
733.397249	0.993930
733.728048	0.995272
734.058798	0.996074
734.389501	0.995655
734.720156	0.995476
735.050762	0.996349
735.381320	0.994445
735.711831	0.995014
736.042293	0.994457
736.372707	0.996208
736.703073	0.994663
737.033391	0.994562
737.363661	0.996545
737.693883	0.995498
738.024056	0.995248
738.354182	0.995608
738.684260	0.995145
739.014290	0.994657
739.344272	0.994604
739.674207	0.994596
740.004093	0.994727
740.333931	0.995105
740.663722	0.994383
740.993464	0.996002
741.323159	0.995347
741.652806	0.995470
741.982405	0.995468
742.311956	0.995534
742.641460	0.995320
742.970915	0.994453
743.300323	0.994522
743.629683	0.995330
743.958996	0.996753
744.288260	0.995326
744.617477	0.995872
744.946647	0.995431
745.275768	0.996390
745.604842	0.995220
745.933869	0.995058
746.262847	0.996384
746.591778	0.995747
746.920662	0.996897
747.249498	0.995897
747.578286	0.996477
747.907027	0.995416
748.235720	0.996080
748.564365	0.996637
748.892963	0.995338
749.221514	0.995249
749.550017	0.995293
749.878473	0.995142
750.206881	0.997196
750.535242	0.995642
750.863555	0.994888
751.191821	0.995803
751.520039	0.995494
751.848210	0.993564
752.176334	0.994981
752.504411	0.995914
752.832440	0.995878
753.160421	0.996184
753.488356	0.996119
753.816243	0.994962
754.144082	0.995516
754.471875	0.996150
754.799620	0.995391
755.127318	0.996181
755.454969	0.995925
755.782572	0.996734
756.110129	0.995344
756.437638	0.996889
756.765100	0.996376
757.092515	0.995250
757.419882	0.996635
757.747203	0.995267
758.074477	0.996687
758.401703	0.995400
758.728882	0.995777
759.056014	0.995548
759.383099	0.995815
759.710138	0.995697
760.037129	0.996172
760.364073	0.996341
760.690970	0.995510
761.017820	0.994699
761.344623	0.996132
761.671379	0.996792
761.998088	0.995898
762.324751	0.995501
762.651366	0.994349
762.977935	0.993908
763.304456	0.993375
763.630931	0.991701
763.957359	0.991000
764.283740	0.992129
764.610074	0.993812
764.936362	0.993603
765.262602	0.994415
765.588796	0.995186
765.914943	0.995351
766.241044	0.994672
766.567097	0.995789
766.893104	0.995772
767.219064	0.994695
767.544978	0.996414
767.870845	0.996211
768.196665	0.996641
768.522438	0.997557
768.848165	0.997028
769.173846	0.996561
769.499479	0.996743
769.825066	0.997246
770.150607	0.997386
770.476101	0.996782
770.801548	0.997049
771.126949	0.997660
771.452303	0.996527
771.777611	0.997193
772.102872	0.997169
772.428087	0.997199
772.753256	0.997207
773.078378	0.996928
773.403453	0.995658
773.728482	0.997585
774.053465	0.997306
774.378401	0.997346
774.703291	0.997938
775.028135	0.997826
775.352932	0.996136
775.677683	0.996780
776.002388	0.997164
776.327046	0.996676
776.651658	0.998768
776.976224	0.997491
777.300743	0.997372
777.625216	0.996857
777.949643	0.997747
778.274024	0.996415
778.598359	0.997527
778.922647	0.996644
779.246889	0.997423
779.571086	0.998193
779.895236	0.997048
780.219339	0.997886
780.543397	0.997051
780.867409	0.997428
781.191374	0.996575
781.515294	0.998355
781.839167	0.998273
782.162995	0.996740
782.486776	0.997038
782.810511	0.997467
783.134201	0.997875
783.457844	0.998972
783.781441	0.997467
784.104993	0.996700
784.428498	0.997179
784.751958	0.998134
785.075372	0.998216
785.398739	0.997651
785.722061	0.996572
786.045337	0.996980
786.368568	0.997909
786.691752	0.997162
787.014891	0.998229
787.337983	0.995951
787.661030	0.997330
787.984031	0.997761
788.306987	0.996720
788.629897	0.995694
788.952760	0.996786
789.275579	0.997481
789.598351	0.996604
789.921078	0.998298
790.243759	0.996715
790.566395	0.996805
790.888984	0.997844
791.211529	0.997213
791.534027	0.997416
791.856480	0.997583
792.178888	0.997687
792.501249	0.997212
792.823566	0.998457
793.145836	0.997868
793.468062	0.998210
793.790241	0.996986
794.112375	0.996312
794.434464	0.997935
794.756507	0.997891
795.078505	0.998136
795.400457	0.997908
795.722364	0.997259
796.044226	0.996810
796.366042	0.997095
796.687812	0.995996
797.009538	0.996216
797.331218	0.997081
797.652852	0.997122
797.974442	0.996814
798.295986	0.997779
798.617484	0.996397
798.938938	0.998018
799.260346	0.996942
799.581709	0.997681
799.903026	0.998116
800.224299	0.996768
800.545526	0.997343
800.866708	0.997171
801.187845	0.998845
801.508936	0.996886
801.829983	0.997810
802.150984	0.999486
802.471940	0.997947
802.792851	0.997267
803.113717	0.997534
803.434538	0.997928
803.755314	0.999309
804.076045	0.999091
804.396731	0.997088
804.717372	0.996650
805.037967	0.998346
805.358518	0.997438
805.679024	0.997361
805.999485	0.998141
806.319901	0.998245
806.640272	0.999018
806.960598	0.998101
807.280879	0.997884
807.601115	0.999097
807.921306	0.999101
808.241453	0.997536
808.561554	0.998361
808.881611	0.998039
809.201623	0.997692
809.521590	0.997342
809.841513	0.998367
810.161390	0.996777
810.481223	0.996880
810.801011	0.997666
811.120755	0.998471
811.440453	0.997882
811.760107	0.996511
812.079716	0.998034
812.399281	0.997701
812.718801	0.997246
813.038276	0.998301
813.357707	0.998481
813.677093	0.998370
813.996434	0.997914
814.315731	0.999280
814.634983	0.998678
814.954191	0.998408
815.273354	0.997506
815.592473	0.996960
815.911547	0.998503
816.230577	0.997714
816.549562	0.997060
816.868502	0.997715
817.187399	0.997878
817.506250	0.997189
817.825058	0.997228
818.143821	0.997210
818.462539	0.997249
818.781213	0.996885
819.099843	0.996949
819.418429	0.995341
819.736970	0.996051
820.055466	0.994386
820.373919	0.994812
820.692327	0.993567
821.010691	0.993090
821.329011	0.990672
821.647286	0.986807
821.965517	0.985288
822.283704	0.982205
822.601847	0.980690
822.919945	0.980117
823.237999	0.982493
823.556010	0.984140
823.873976	0.986070
824.191897	0.987648
824.509775	0.988813
824.827609	0.990159
825.145398	0.991134
825.463144	0.989718
825.780845	0.990927
826.098502	0.991460
826.416116	0.990513
826.733685	0.988347
827.051210	0.986025
827.368692	0.987314
827.686129	0.988530
828.003522	0.991009
828.320872	0.991253
828.638177	0.992403
828.955439	0.994366
829.272656	0.995154
829.589830	0.994628
829.906960	0.996178
830.224046	0.995484
830.541088	0.996022
830.858086	0.996133
831.175041	0.998022
831.491952	0.996382
831.808819	0.996258
832.125642	0.996212
832.442421	0.996234
832.759157	0.996945
833.075849	0.994267
833.392497	0.992906
833.709101	0.990997
834.025662	0.991541
834.342179	0.991111
834.658653	0.993297
834.975083	0.994453
835.291469	0.995274
835.607811	0.995109
835.924110	0.995901
836.240366	0.997763
836.556578	0.997384
836.872746	0.996980
837.188871	0.996874
837.504952	0.997252
837.820990	0.998056
838.136984	0.997305
838.452935	0.997440
838.768842	0.998132
839.084706	0.998650
839.400526	0.997509
839.716303	0.995058
840.032037	0.994754
840.347727	0.994904
840.663373	0.995892
840.978977	0.996892
841.294537	0.997091
841.610054	0.997387
841.925527	0.998340
842.240957	0.998162
842.556344	0.998582
842.871687	0.998992
843.186987	0.998890
843.502244	0.999201
843.817458	0.998456
844.132629	0.998900
844.447756	0.999492
844.762840	0.998833
845.077881	0.999678
845.392879	0.999168
845.707833	0.999277
846.022745	0.999746
846.337613	0.998469
846.652438	0.999375
846.967221	0.998724
847.281960	0.999712
847.596656	1.000169
847.911309	1.000135
848.225919	0.998244
848.540485	0.998984
848.855009	1.000461
849.169490	0.999738
849.483928	0.999919
849.798323	0.999141
850.112675	1.000092
850.426984	1.000378
850.741251	0.998836
851.055474	0.998365
851.369654	0.999219
851.683792	0.998057
851.997887	0.999633
852.311938	0.998585
852.625947	0.998600
852.939914	0.999095
853.253837	0.999078
853.567718	1.001237
853.881555	0.998656
854.195350	1.000746
854.509103	0.999677
854.822812	0.999743
855.136479	0.999255
855.450103	1.000526
855.763685	0.999514
856.077224	0.999782
856.390720	0.998751
856.704173	0.999888
857.017584	0.999625
857.330953	0.999859
857.644278	0.999347
857.957561	0.999359
858.270802	1.000205
858.584000	0.999523
858.897155	0.998885
859.210268	0.999807
859.523339	1.000038
859.836367	0.999652
860.149352	0.998416
860.462295	0.998738
860.775195	0.999074
861.088054	0.998465
861.400869	0.999767
861.713642	0.998088
862.026373	0.999366
862.339062	1.000152
862.651708	0.999181
862.964312	0.999231
863.276873	0.998437
863.589392	0.998903
863.901869	0.999774
864.214303	0.999140
864.526696	0.998987
864.839045	0.998957
865.151353	0.999197
865.463619	0.997988
865.775842	0.999933
866.088023	1.000356
866.400162	0.998789
866.712258	0.999495
867.024313	0.998899
867.336325	0.999816
867.648296	0.999245
867.960224	0.999639
868.272110	0.999600
868.583954	0.998862
868.895755	0.999475
869.207515	0.998541
869.519233	0.999718
869.830909	0.998896
870.142542	0.997465
870.454134	0.999235
870.765684	0.998228
871.077191	0.999426
871.388657	0.998553
871.700081	0.999620
872.011463	0.999761
872.322803	0.998301
872.634101	0.998160
872.945357	0.998840
873.256571	0.998475
873.567744	0.997993
873.878874	0.998993
874.189963	0.997694
874.501010	0.999811
874.812015	0.999114
875.122979	0.999161
875.433900	0.998492
875.744780	0.999349
876.055618	0.997367
876.366415	0.997512
876.677169	0.998208
876.987882	0.998593
877.298554	0.999397
877.609183	0.997681
877.919771	0.999623
878.230317	0.998130
878.540822	0.996732
878.851285	0.996737
879.161707	0.997579
879.472087	0.998076
879.782425	0.994894
880.092722	0.994169
880.402977	0.991018
880.713191	0.988155
881.023363	0.984876
881.333494	0.982662
881.643583	0.983177
881.953631	0.983361
882.263637	0.981863
882.573602	0.982992
882.883526	0.984773
883.193408	0.987748
883.503248	0.988534
883.813048	0.989059
884.122806	0.991036
884.432522	0.991058
884.742197	0.994136
885.051831	0.993146
885.361424	0.994375
885.670975	0.996712
885.980485	0.996010
886.289954	0.995204
886.599382	0.994968
886.908768	0.997897
887.218113	0.996603
887.527417	0.997636
887.836680	0.997721
888.145901	0.997892
888.455082	0.998890
888.764221	0.998042
889.073319	0.997613
889.382376	0.999017
889.691392	0.997187
890.000366	0.998253
890.309300	0.998227
890.618193	0.998690
890.927044	0.998020
891.235855	0.996718
891.544625	0.998443
891.853353	0.997663
892.162041	0.997876
892.470687	0.998510
892.779293	0.997123
893.087858	0.996007
893.396381	0.995712
893.704864	0.994375
894.013306	0.994905
894.321707	0.992895
894.630068	0.991572
894.938387	0.991363
895.246665	0.990582
895.554903	0.990772
895.863100	0.993205
896.171256	0.993985
896.479371	0.994899
896.787446	0.993977
897.095480	0.996035
897.403473	0.996504
897.711425	0.997542
898.019336	0.997682
898.327207	0.998598
898.635038	0.996109
898.942827	0.997745
899.250576	0.997782
899.558284	0.998510
899.865952	0.997272
900.173579	0.997335
900.481165	0.998669
900.788711	0.997358
901.096216	0.998275
901.403681	0.998076
901.711105	0.997687
902.018489	0.997898
902.325832	0.998204
902.633135	0.997747
902.940397	0.999069
903.247619	0.996997
903.554800	0.995606
903.861941	0.994017
904.169041	0.991017
904.476101	0.989665
904.783121	0.988870
905.090100	0.988933
905.397039	0.991415
905.703938	0.993259
906.010796	0.994529
906.317614	0.995054
906.624391	0.996691
906.931129	0.996801
907.237826	0.997206
907.544483	0.998219
907.851099	0.998318
908.157675	0.998140
908.464211	0.998620
908.770707	0.996840
909.077163	0.999099
909.383578	0.999365
909.689954	0.998369
909.996289	0.998803
910.302584	0.999679
910.608839	1.000421
910.915054	0.998125
911.221229	0.999930
911.527363	0.998787
911.833458	1.000072
912.139513	0.999790
912.445527	1.000455
912.751502	0.998862
913.057436	0.998954
913.363331	0.999522
913.669186	0.999145
913.975000	0.999201
914.280775	0.998487
914.586510	0.996695
914.892205	0.995129
915.197859	0.994650
915.503475	0.992578
915.809050	0.990439
916.114585	0.989334
916.420081	0.988843
916.725536	0.989644
917.030952	0.990663
917.336328	0.991105
917.641665	0.991206
917.946961	0.992686
918.252218	0.994010
918.557435	0.994480
918.862612	0.995840
919.167750	0.996635
919.472848	0.996127
919.777906	0.997130
920.082925	0.999001
920.387904	0.997911
920.692843	0.997703
920.997743	0.997985
921.302603	0.998069
921.607423	0.998029
921.912204	0.999007
922.216946	0.999255
922.521647	0.998982
922.826310	0.998071
923.130932	0.999327
923.435516	0.999767
923.740059	0.997612
924.044564	0.998551
924.349028	0.998296
924.653454	1.000329
924.957840	0.998845
925.262186	0.998866
925.566493	0.999296
925.870761	0.999307
926.174989	0.997867
926.479178	1.000688
926.783328	0.999426
927.087438	0.999578
927.391509	0.999853
927.695541	0.999713
927.999533	0.999235
928.303486	1.000040
928.607400	1.000366
928.911275	0.998862
929.215110	1.001214
929.518906	1.000572
929.822663	1.001377
930.126381	1.001370
930.430060	1.000503
930.733699	1.001526
931.037299	1.000566
931.340861	1.000303
931.644383	0.999199
931.947866	1.000825
932.251309	1.001033
932.554714	1.000078
932.858080	1.000597
933.161407	0.998831
933.464694	1.000763
933.767943	1.000386
934.071153	1.000061
934.374323	0.999827
934.677455	0.999563
934.980548	1.000078
935.283602	1.000853
935.586617	0.999915
935.889593	1.002025
936.192530	1.000475
936.495428	0.999815
936.798287	0.999357
937.101108	0.999513
937.403890	0.999399
937.706632	1.001200
938.009336	1.000427
938.312002	0.999120
938.614628	0.999685
938.917216	0.999029
939.219765	0.998777
939.522275	0.999514
939.824747	0.998979
940.127179	0.999315
940.429573	0.999355
940.731929	0.998873
941.034246	0.998858
941.336524	0.998680
941.638763	0.998662
941.940964	0.998892
942.243126	0.999893
942.545250	1.000511
942.847335	1.000601
943.149381	0.999007
943.451389	0.998917
943.753359	0.999747
944.055290	1.001476
944.357182	1.000170
944.659036	0.999743
944.960851	1.000435
945.262628	0.999940
945.564367	1.000229
945.866067	0.999637
946.167729	0.999994
946.469352	1.000851
946.770937	0.998211
947.072484	1.000754
947.373992	0.999113
947.675462	0.999318
947.976893	1.000171
948.278286	1.000950
948.579641	1.000405
948.880958	0.999504
949.182236	1.000826
949.483476	1.000952
949.784678	0.999820
950.085841	0.999575
950.386967	0.999363
950.688054	1.000272
950.989103	0.999453
951.290114	0.998485
951.591087	1.000152
951.892021	0.999841
952.192917	0.999668
952.493776	0.998676
952.794596	0.999910
953.095378	0.999842
953.396122	0.999668
953.696828	1.000299
953.997496	0.999384
954.298126	1.000393
954.598718	0.999130
954.899272	0.998917
955.199788	0.999684
955.500266	1.000413
955.800706	0.999820
956.101108	0.999620
956.401472	1.001088
956.701798	0.999839
957.002087	1.000258
957.302337	0.999893
957.602550	1.000337
957.902724	0.999881
958.202861	1.000973
958.502960	1.000577
958.803022	1.000731
959.103045	1.001207
959.403031	1.002043
959.702979	1.001535
960.002889	1.001274
960.302762	0.999384
960.602596	1.001457
960.902393	1.000288
961.202153	1.001302
961.501875	1.001257
961.801559	0.999345
962.101205	0.999761
962.400814	1.001014
962.700385	1.002079
962.999918	1.000444
963.299414	1.000087
963.598873	1.001671
963.898293	1.001171
964.197677	0.999778
964.497022	1.001287
964.796331	0.999793
965.095601	1.001086
965.394835	1.000879
965.694030	1.002201
965.993189	1.000991
966.292309	1.000987
966.591393	0.999188
966.890439	1.001196
967.189447	1.001571
967.488419	1.000703
967.787353	1.000169
968.086249	1.001779
968.385108	1.000131
968.683930	1.000412
968.982714	1.000635
969.281462	1.000499
969.580172	0.999621
969.878844	1.001383
970.177480	1.001051
970.476078	1.001247
970.774639	1.000797
971.073162	1.001076
971.371649	1.000295
971.670098	1.000698
971.968510	1.001600
972.266885	0.999051
972.565223	0.999643
972.863524	0.999422
973.161788	1.000724
973.460014	1.001393
973.758204	0.999197
974.056356	1.000501
974.354471	1.000954
974.652550	1.001246
974.950591	0.999140
975.248595	1.000458
975.546563	1.000985
975.844493	1.000660
976.142386	0.999825
976.440243	1.000716
976.738062	1.001737
977.035845	0.999529
977.333590	1.001415
977.631299	1.000405
977.928971	1.001038
978.226606	0.999666
978.524204	0.999622
978.821765	1.000109
979.119290	1.001013
979.416777	1.000709
979.714228	1.000686
980.011642	1.001326
980.309020	0.999834
980.606360	0.999573
980.903664	0.999911
981.200931	0.999526
981.498162	1.000064
981.795356	1.001011
982.092513	1.000387
982.389633	1.001071
982.686717	0.999704
982.983764	0.999219
983.280775	0.999978
983.577749	1.000571
983.874686	1.000550
984.171587	0.999029
984.468451	1.000573
984.765279	1.001367
985.062070	1.000850
985.358824	1.000342
985.655543	0.999561
985.952224	1.000674
986.248869	1.001273
986.545478	1.001574
986.842050	1.000044
987.138586	0.999520
987.435086	1.001101
987.731549	1.001304
988.027975	1.002480
988.324366	1.001439
988.620719	1.002455
988.917037	0.999850
989.213318	1.002081
989.509563	1.000599
989.805772	1.000947
990.101944	1.000753
990.398080	1.000450
990.694180	1.001721
990.990244	1.001027
991.286271	0.999650
991.582262	1.002032
991.878217	1.001283
992.174136	1.001636
992.470019	1.000803
992.765865	1.002187
993.061676	1.001303
993.357450	1.001266
993.653188	1.002376
993.948890	1.000965
994.244556	1.000935
994.540186	1.000022
994.835780	1.000837
995.131337	1.001282
995.426859	1.000653
995.722345	1.001688
996.017795	1.000177
996.313208	1.000405
996.608586	1.001268
996.903928	1.001361
997.199234	1.001249
997.494504	1.001160
997.789738	0.999603
998.084936	1.002341
998.380099	1.000667
998.675225	1.001300
998.970316	1.000989
999.265371	1.001248
999.560390	1.001275
999.855373	1.000357
1000.150320	1.000278
1000.445232	1.000347
1000.740108	1.001208
1001.034948	1.000282
1001.329752	1.002764
1001.624521	1.001536
1001.919254	0.999941
1002.213951	1.000993
1002.508613	1.000056
1002.803239	1.000993
1003.097829	1.001021
1003.392384	0.999632
1003.686903	1.000816
1003.981386	1.000508
1004.275834	1.000993
1004.570246	1.000374
1004.864623	1.000462
1005.158964	1.001913
1005.453270	1.000726
1005.747540	1.000983
1006.041775	1.001784
1006.335974	1.002023
1006.630138	1.000859
1006.924266	1.000626
1007.218359	1.000112
1007.512416	1.001279
1007.806438	1.000549
1008.100425	1.001315
1008.394376	1.001793
1008.688292	1.000755
1008.982172	1.000651
1009.276017	1.001548
1009.569827	1.002126
1009.863602	1.000042
1010.157341	1.001802
1010.451045	1.000238
1010.744714	1.002557
1011.038347	0.999881
1011.331945	1.002102
1011.625508	0.999937
1011.919036	1.000985
1012.212528	1.001293
1012.505986	0.999894
1012.799408	1.001016
1013.092795	1.001519
1013.386147	1.001022
1013.679464	1.002379
1013.972745	1.001266
1014.265992	0.999743
1014.559204	1.000306
1014.852380	1.000642
1015.145521	1.001240
1015.438628	1.000444
1015.731699	1.001114
1016.024736	1.000286
1016.317737	1.001448
1016.610703	1.002132
1016.903635	1.000590
1017.196531	1.000193
1017.489393	1.001418
1017.782219	1.000609
1018.075011	1.000368
1018.367768	1.000633
1018.660490	1.000068
1018.953177	1.000068
1019.245829	1.000068
