Dividing Wavelength (nm)	Counts (n)	Blue Motor Position (mm): 4.500000	Red Motor Position (mm): 0.000000	
326.493990	1.005745
326.888308	1.005745
327.282561	1.005745
327.676750	1.005784
328.070874	1.007387
328.464933	1.007143
328.858929	1.007182
329.252859	1.006126
329.646726	1.006033
330.040528	1.006845
330.434265	1.005667
330.827938	1.006508
331.221547	1.006669
331.615091	1.007345
332.008571	1.007725
332.401986	1.005000
332.795338	1.006206
333.188625	1.007131
333.581847	1.005270
333.975006	1.006375
334.368100	1.005709
334.761129	1.004854
335.154095	1.006498
335.546996	1.003893
335.939833	0.998398
336.332606	0.999011
336.725315	0.998757
337.117960	1.000500
337.510540	0.997951
337.903056	0.999533
338.295508	1.000663
338.687896	0.999589
339.080220	0.998688
339.472480	0.999453
339.864676	0.999741
340.256807	0.998398
340.648875	0.998953
341.040879	0.999667
341.432818	0.999774
341.824694	0.998925
342.216506	1.000129
342.608253	0.999018
342.999937	0.999171
343.391557	0.999750
343.783113	1.000087
344.174605	0.999693
344.566033	0.997815
344.957397	0.999705
345.348697	0.999265
345.739934	0.999368
346.131106	0.997886
346.522215	0.998771
346.913260	0.999056
347.304241	0.997785
347.695159	0.998625
348.086012	0.998257
348.476802	0.998828
348.867528	0.998827
349.258191	0.999671
349.648789	0.999260
350.039324	0.998666
350.429796	0.997715
350.820203	0.997034
351.210548	0.998878
351.600828	0.997882
351.991045	0.998949
352.381198	0.998419
352.771288	0.998417
353.161314	0.997747
353.551276	0.998341
353.941175	0.997194
354.331010	0.999016
354.720782	0.998913
355.110490	0.998600
355.500135	0.999015
355.889717	0.998234
356.279235	0.997636
356.668689	0.998291
357.058080	0.999674
357.447408	0.996887
357.836672	0.998482
358.225873	0.998036
358.615010	0.998140
359.004084	0.996073
359.393095	0.999346
359.782043	0.996784
360.170927	0.998262
360.559748	0.997700
360.948505	0.997019
361.337199	0.997852
361.725830	0.998045
362.114398	0.997878
362.502903	0.996542
362.891344	0.996621
363.279722	0.996769
363.668037	0.998106
364.056289	0.996771
364.444478	0.998399
364.832603	0.996880
365.220665	0.996970
365.608665	0.996974
365.996601	0.995904
366.384474	0.994643
366.772284	0.997643
367.160031	0.995203
367.547715	0.996258
367.935336	0.994051
368.322893	0.993435
368.710388	0.991644
369.097820	0.990983
369.485189	0.988317
369.872495	0.986856
370.259738	0.984625
370.646918	0.982339
371.034035	0.979746
371.421090	0.976045
371.808081	0.972157
372.195010	0.969963
372.581875	0.964532
372.968678	0.959800
373.355418	0.955844
373.742096	0.947803
374.128710	0.943441
374.515262	0.939228
374.901751	0.933155
375.288177	0.929123
375.674540	0.922130
376.060841	0.915711
376.447079	0.909662
376.833254	0.902674
377.219367	0.897633
377.605417	0.885754
377.991404	0.882644
378.377329	0.876065
378.763191	0.870109
379.148991	0.861932
379.534727	0.853219
379.920402	0.845790
380.306013	0.841827
380.691563	0.829697
381.077049	0.822448
381.462474	0.818308
381.847835	0.806670
382.233134	0.801725
382.618371	0.803111
383.003545	0.785534
383.388657	0.782691
383.773706	0.775301
384.158693	0.771375
384.543618	0.766229
384.928480	0.757622
385.313280	0.746592
385.698017	0.746950
386.082692	0.735868
386.467305	0.733648
386.851856	0.729114
387.236344	0.723515
387.620770	0.717460
388.005133	0.712074
388.389435	0.706256
388.773674	0.703684
389.157851	0.695419
389.541965	0.693201
389.926018	0.699290
390.310008	0.686632
390.693936	0.683531
391.077802	0.675839
391.461606	0.676819
391.845348	0.666115
392.229027	0.665349
392.612645	0.664242
392.996200	0.651405
393.379694	0.643844
393.763125	0.634401
394.146494	0.638511
394.529801	0.630215
394.913047	0.621406
395.296230	0.626988
395.679351	0.618713
396.062410	0.615369
396.445408	0.617928
396.828343	0.613885
397.211217	0.608399
397.594028	0.621147
397.976778	0.611076
398.359466	0.608308
398.742092	0.603309
399.124656	0.615013
399.507158	0.603123
399.889598	0.600394
400.271977	0.591557
400.654294	0.595473
401.036549	0.594870
401.418742	0.598870
401.800874	0.585336
402.182944	0.581738
402.564952	0.572352
402.946898	0.575307
403.328783	0.575656
403.710606	0.587351
404.092367	0.561910
404.474067	0.566858
404.855705	0.565791
405.237282	0.574983
405.618797	0.560344
406.000250	0.556473
406.381642	0.546085
406.762972	0.551129
407.144240	0.549956
407.525447	0.549796
407.906593	0.542813
408.287677	0.538548
408.668700	0.546718
409.049661	0.540245
409.430560	0.535723
409.811399	0.544121
410.192176	0.526462
410.572891	0.534048
410.953545	0.521682
411.334138	0.535348
411.714669	0.527281
412.095139	0.540474
412.475547	0.524029
412.855894	0.526116
413.236180	0.524189
413.616405	0.530477
413.996568	0.520427
414.376670	0.526946
414.756711	0.531268
415.136691	0.527995
415.516609	0.519831
415.896466	0.516140
416.276262	0.512180
416.655997	0.513771
417.035670	0.495456
417.415283	0.486958
417.794834	0.491917
418.174324	0.497925
418.553753	0.506312
418.933121	0.488672
419.312428	0.483344
419.691674	0.488686
420.070859	0.476548
420.449983	0.484600
420.829045	0.473804
421.208047	0.482682
421.586988	0.475817
421.965867	0.474664
422.344686	0.463225
422.723444	0.475803
423.102141	0.493012
423.480777	0.465108
423.859352	0.486882
424.237866	0.463968
424.616319	0.464915
424.994712	0.455805
425.373044	0.465960
425.751314	0.453908
426.129524	0.470809
426.507673	0.454096
426.885762	0.446957
427.263789	0.452900
427.641756	0.462976
428.019662	0.452962
428.397508	0.452252
428.775292	0.456322
429.153016	0.447907
429.530679	0.454569
429.908282	0.447600
430.285824	0.457970
430.663305	0.436726
431.040726	0.457193
431.418086	0.456739
431.795385	0.449002
432.172624	0.448008
432.549802	0.448515
432.926920	0.447392
433.303977	0.446627
433.680974	0.444294
434.057910	0.442618
434.434786	0.441753
434.811601	0.444858
435.188355	0.427135
435.565050	0.436166
435.941683	0.437203
436.318257	0.421643
436.694770	0.422257
437.071222	0.420781
437.447614	0.425203
437.823946	0.431384
438.200218	0.421147
438.576429	0.430506
438.952580	0.423440
439.328670	0.420234
439.704700	0.426437
440.080670	0.428108
440.456580	0.409108
440.832429	0.417224
441.208218	0.427863
441.583947	0.417737
441.959616	0.416948
442.335224	0.422156
442.710773	0.412808
443.086261	0.411272
443.461689	0.424484
443.837057	0.414379
444.212365	0.404651
444.587612	0.411792
444.962800	0.401698
445.337927	0.402883
445.712995	0.429340
446.088002	0.390896
446.462949	0.401358
446.837837	0.406198
447.212664	0.395080
447.587431	0.386954
447.962139	0.357017
448.336786	0.315834
448.711374	0.326453
449.085901	0.371050
449.460369	0.375118
449.834776	0.378756
450.209124	0.357712
450.583412	0.350294
450.957640	0.343279
451.331808	0.355076
451.705917	0.378357
452.079965	0.383345
452.453954	0.371184
452.827883	0.378284
453.201752	0.372781
453.575562	0.383978
453.949311	0.372404
454.323001	0.379004
454.696632	0.374417
455.070202	0.367046
455.443713	0.358993
455.817164	0.353619
456.190556	0.349605
456.563888	0.346692
456.937160	0.343949
457.310373	0.360878
457.683526	0.360338
458.056619	0.365845
458.429653	0.366294
458.802628	0.369814
459.175542	0.363815
459.548398	0.346456
459.921194	0.339112
460.293930	0.339393
460.666607	0.316806
461.039224	0.305012
461.411782	0.300749
461.784280	0.299542
462.156719	0.303885
462.529099	0.308469
462.901419	0.324440
463.273680	0.328477
463.645882	0.328226
464.018024	0.334243
464.390106	0.327178
464.762130	0.311266
465.134094	0.294749
465.505999	0.263422
465.877845	0.233763
466.249631	0.220502
466.621358	0.228039
466.993026	0.242205
467.364634	0.248528
467.736184	0.257028
468.107674	0.265854
468.479105	0.264927
468.850477	0.271465
469.221790	0.278679
469.593043	0.289004
469.964238	0.293690
470.335373	0.293395
470.706449	0.291013
471.077467	0.291834
471.448425	0.253878
471.819324	0.229178
472.190164	0.228854
472.560945	0.258023
472.931667	0.280019
473.302330	0.284310
473.672934	0.296078
474.043479	0.284294
474.413965	0.286116
474.784393	0.289335
475.154761	0.284951
475.525070	0.281883
475.895321	0.287536
476.265513	0.281686
476.635645	0.277079
477.005719	0.276828
477.375734	0.273454
477.745691	0.266572
478.115588	0.263076
478.485427	0.256249
478.855207	0.243298
479.224928	0.225605
479.594591	0.213690
479.964194	0.217312
480.333739	0.218630
480.703226	0.220067
481.072653	0.218188
481.442022	0.214176
481.811333	0.210834
482.180584	0.214033
482.549777	0.219652
482.918912	0.222731
483.287988	0.222484
483.657005	0.222153
484.025964	0.228485
484.394864	0.225721
484.763706	0.226551
485.132489	0.231508
485.501213	0.232287
485.869879	0.230672
486.238487	0.233508
486.607036	0.231871
486.975527	0.236266
487.343959	0.232159
487.712333	0.231222
488.080648	0.232794
488.448905	0.231899
488.817104	0.232869
489.185244	0.227774
489.553326	0.224581
489.921350	0.214390
490.289315	0.196642
490.657222	0.191675
491.025070	0.193093
491.392861	0.194956
491.760593	0.200884
492.128267	0.206472
492.495883	0.212125
492.863440	0.218274
493.230939	0.224831
493.598380	0.226228
493.965763	0.228579
494.333088	0.230306
494.700354	0.232057
495.067563	0.231030
495.434713	0.234561
495.801805	0.232007
496.168839	0.233685
496.535815	0.235043
496.902733	0.235158
497.269593	0.236815
497.636395	0.234373
498.003139	0.234526
498.369825	0.237592
498.736453	0.234356
499.103023	0.235843
499.469535	0.235233
499.835989	0.235251
500.202385	0.236075
500.568723	0.239376
500.935003	0.234581
501.301226	0.238718
501.667390	0.233062
502.033497	0.231220
502.399546	0.234149
502.765537	0.236086
503.131470	0.234431
503.497345	0.230844
503.863163	0.239381
504.228923	0.232418
504.594625	0.231232
504.960269	0.236426
505.325856	0.232014
505.691385	0.236145
506.056856	0.233068
506.422270	0.232470
506.787625	0.235000
507.152924	0.232486
507.518164	0.232585
507.883347	0.234487
508.248472	0.236091
508.613540	0.230916
508.978550	0.233751
509.343503	0.234228
509.708398	0.231740
510.073236	0.229474
510.438016	0.229162
510.802738	0.230147
511.167403	0.229145
511.532010	0.231512
511.896561	0.226604
512.261053	0.225092
512.625488	0.227453
512.989866	0.227784
513.354186	0.227964
513.718449	0.230102
514.082655	0.226187
514.446803	0.228430
514.810894	0.226190
515.174927	0.229069
515.538904	0.228199
515.902822	0.225362
516.266684	0.227514
516.630488	0.228653
516.994235	0.227723
517.357925	0.226458
517.721558	0.224608
518.085133	0.224266
518.448651	0.224165
518.812112	0.226721
519.175516	0.226257
519.538863	0.223488
519.902152	0.225389
520.265385	0.222119
520.628560	0.224159
520.991678	0.224344
521.354739	0.223158
521.717743	0.224333
522.080690	0.224822
522.443580	0.222053
522.806413	0.222951
523.169189	0.222569
523.531908	0.221272
523.894569	0.224855
524.257174	0.225094
524.619722	0.222469
524.982213	0.223536
525.344647	0.222441
525.707025	0.223415
526.069345	0.221682
526.431608	0.223345
526.793815	0.221106
527.155964	0.225301
527.518057	0.224289
527.880093	0.225432
528.242072	0.223907
528.603995	0.225654
528.965860	0.227534
529.327669	0.226467
529.689421	0.227236
530.051117	0.228205
530.412755	0.226080
530.774337	0.227994
531.135862	0.228642
531.497331	0.227764
531.858743	0.230952
532.220098	0.227692
532.581396	0.229851
532.942638	0.230507
533.303824	0.231433
533.664953	0.230950
534.026025	0.233117
534.387040	0.230885
534.747999	0.230702
535.108902	0.229658
535.469748	0.235054
535.830537	0.232553
536.191270	0.232853
536.551947	0.232631
536.912567	0.232522
537.273131	0.233985
537.633638	0.234681
537.994089	0.234903
538.354483	0.235944
538.714821	0.232754
539.075103	0.232590
539.435328	0.233527
539.795497	0.237345
540.155609	0.233812
540.515665	0.231921
540.875665	0.237632
541.235609	0.236009
541.595496	0.235982
541.955328	0.232515
542.315102	0.235400
542.674821	0.236399
543.034483	0.236550
543.394090	0.236208
543.753640	0.238112
544.113134	0.233144
544.472571	0.236484
544.831953	0.233223
545.191278	0.237585
545.550548	0.236630
545.909761	0.233488
546.268918	0.234362
546.628019	0.232619
546.987064	0.235416
547.346053	0.236841
547.704986	0.234588
548.063863	0.235166
548.422684	0.235439
548.781449	0.237222
549.140158	0.235034
549.498811	0.237848
549.857408	0.240738
550.215949	0.235390
550.574434	0.238633
550.932864	0.236612
551.291237	0.235057
551.649555	0.236868
552.007817	0.236420
552.366022	0.237296
552.724173	0.237484
553.082267	0.237761
553.440305	0.234763
553.798288	0.238927
554.156215	0.235485
554.514086	0.236226
554.871902	0.239466
555.229661	0.238817
555.587365	0.239301
555.945014	0.241967
556.302606	0.238766
556.660143	0.241577
557.017625	0.237969
557.375050	0.240097
557.732421	0.237104
558.089735	0.238907
558.446994	0.239122
558.804197	0.238346
559.161345	0.238131
559.518437	0.241807
559.875474	0.239545
560.232455	0.238998
560.589381	0.240153
560.946251	0.240430
561.303065	0.237933
561.659825	0.239041
562.016528	0.240696
562.373177	0.243392
562.729770	0.241117
563.086307	0.242786
563.442789	0.240878
563.799216	0.243293
564.155587	0.242358
564.511904	0.243573
564.868164	0.243139
565.224370	0.243293
565.580520	0.245053
565.936615	0.245019
566.292654	0.247944
566.648638	0.245171
567.004567	0.245778
567.360441	0.246323
567.716260	0.248269
568.072023	0.246181
568.427732	0.247034
568.783385	0.249353
569.138982	0.247443
569.494525	0.247242
569.850013	0.250084
570.205445	0.248483
570.560823	0.251073
570.916145	0.253092
571.271412	0.251244
571.626625	0.252785
571.981782	0.253276
572.336884	0.254045
572.691931	0.253640
573.046923	0.255171
573.401860	0.256290
573.756743	0.257954
574.111570	0.256846
574.466342	0.257533
574.821059	0.256346
575.175722	0.259450
575.530330	0.259322
575.884882	0.259380
576.239380	0.261324
576.593823	0.262133
576.948211	0.261209
577.302544	0.264710
577.656823	0.264380
578.011047	0.264328
578.365216	0.265086
578.719330	0.267066
579.073389	0.266487
579.427394	0.268158
579.781344	0.269045
580.135239	0.270149
580.489080	0.270291
580.842866	0.273003
581.196597	0.273009
581.550273	0.271487
581.903895	0.272307
582.257463	0.270395
582.610975	0.273838
582.964434	0.273322
583.317837	0.275628
583.671186	0.276283
584.024481	0.276374
584.377721	0.278811
584.730906	0.279401
585.084037	0.278936
585.437113	0.280674
585.790135	0.279710
586.143103	0.283002
586.496016	0.283887
586.848874	0.281708
587.201679	0.282076
587.554428	0.285518
587.907124	0.284472
588.259765	0.285401
588.612352	0.285985
588.964884	0.289780
589.317362	0.289140
589.669786	0.289197
590.022155	0.287366
590.374470	0.287175
590.726731	0.288527
591.078937	0.293915
591.431090	0.289899
591.783188	0.294156
592.135232	0.294620
592.487222	0.294804
592.839157	0.292798
593.191038	0.295050
593.542866	0.297021
593.894639	0.300341
594.246358	0.298830
594.598022	0.297936
594.949633	0.301678
595.301190	0.302525
595.652692	0.301530
596.004141	0.297770
596.355535	0.305513
596.706876	0.306273
597.058162	0.308434
597.409395	0.305811
597.760573	0.303332
598.111698	0.306545
598.462768	0.307384
598.813785	0.308465
599.164748	0.310027
599.515657	0.310114
599.866511	0.314065
600.217312	0.308959
600.568060	0.314255
600.918753	0.311025
601.269392	0.311559
601.619978	0.314705
601.970510	0.312326
602.320988	0.312786
602.671412	0.310490
603.021783	0.312934
603.372100	0.314180
603.722363	0.314271
604.072572	0.314696
604.422728	0.314450
604.772830	0.316837
605.122878	0.316595
605.472872	0.316947
605.822813	0.315204
606.172701	0.318030
606.522534	0.315278
606.872314	0.315404
607.222041	0.316373
607.571714	0.314442
607.921333	0.315856
608.270899	0.315483
608.620411	0.312352
608.969870	0.316107
609.319276	0.316300
609.668627	0.316009
610.017926	0.315127
610.367171	0.313387
610.716362	0.313745
611.065500	0.313877
611.414585	0.313152
611.763616	0.312991
612.112594	0.313938
612.461518	0.313356
612.810389	0.311080
613.159207	0.313076
613.507971	0.315135
613.856682	0.310873
614.205340	0.312038
614.553945	0.309769
614.902496	0.312978
615.250994	0.311152
615.599439	0.311678
615.947830	0.311503
616.296169	0.312352
616.644454	0.311799
616.992686	0.311666
617.340864	0.309779
617.688990	0.313162
618.037063	0.309747
618.385082	0.311470
618.733048	0.308449
619.080961	0.310421
619.428821	0.310099
619.776628	0.309911
620.124382	0.312103
620.472083	0.312645
620.819731	0.311906
621.167326	0.315641
621.514868	0.315368
621.862357	0.319429
622.209793	0.319002
622.557176	0.321581
622.904506	0.322302
623.251783	0.325053
623.599007	0.327129
623.946179	0.326675
624.293297	0.329208
624.640363	0.332864
624.987376	0.333267
625.334336	0.335434
625.681243	0.337769
626.028097	0.338424
626.374899	0.339330
626.721647	0.339936
627.068343	0.343041
627.414987	0.344402
627.761577	0.346351
628.108115	0.344219
628.454600	0.350012
628.801032	0.347199
629.147412	0.349229
629.493739	0.349783
629.840014	0.352380
630.186236	0.349732
630.532405	0.356064
630.878521	0.353069
631.224585	0.355393
631.570597	0.358991
631.916556	0.357068
632.262462	0.357292
632.608316	0.359567
632.954117	0.360220
633.299866	0.361016
633.645562	0.361599
633.991206	0.366032
634.336797	0.368549
634.682336	0.371765
635.027823	0.372941
635.373257	0.373386
635.718639	0.377231
636.063968	0.376339
636.409245	0.382265
636.754470	0.382318
637.099642	0.384748
637.444762	0.388442
637.789829	0.387491
638.134845	0.390682
638.479808	0.391982
638.824719	0.391784
639.169577	0.396270
639.514383	0.394997
639.859137	0.398875
640.203839	0.398674
640.548489	0.399312
640.893086	0.400432
641.237632	0.402400
641.582125	0.400948
641.926566	0.402853
642.270955	0.402760
642.615292	0.402353
642.959576	0.401925
643.303809	0.402466
643.647990	0.402545
643.992118	0.403044
644.336195	0.405739
644.680219	0.404391
645.024192	0.405195
645.368112	0.399036
645.711981	0.397343
646.055797	0.392820
646.399562	0.395286
646.743274	0.388010
647.086935	0.384923
647.430544	0.385127
647.774101	0.384037
648.117606	0.383985
648.461059	0.384183
648.804460	0.386799
649.147810	0.391563
649.491108	0.393437
649.834354	0.394903
650.177548	0.400294
650.520690	0.405681
650.863781	0.406915
651.206820	0.406450
651.549807	0.410936
651.892742	0.415163
652.235626	0.414648
652.578458	0.414882
652.921238	0.421737
653.263967	0.419340
653.606644	0.423028
653.949269	0.422872
654.291843	0.427518
654.634365	0.423660
654.976836	0.426802
655.319255	0.427124
655.661622	0.428588
656.003938	0.428785
656.346203	0.431628
656.688416	0.429582
657.030577	0.433201
657.372687	0.435128
657.714746	0.435858
658.056753	0.432896
658.398708	0.436353
658.740612	0.437420
659.082465	0.433954
659.424266	0.434476
659.766016	0.433432
660.107715	0.436766
660.449362	0.435562
660.790958	0.436271
661.132503	0.437271
661.473996	0.434235
661.815438	0.435654
662.156829	0.435898
662.498168	0.436259
662.839456	0.437684
663.180693	0.435227
663.521879	0.435002
663.863013	0.436088
664.204097	0.434716
664.545129	0.431259
664.886110	0.431825
665.227040	0.429194
665.567918	0.431955
665.908746	0.429431
666.249522	0.429746
666.590248	0.430454
666.930922	0.428322
667.271545	0.427255
667.612118	0.427455
667.952639	0.429007
668.293109	0.427797
668.633528	0.430867
668.973896	0.430470
669.314213	0.431004
669.654480	0.433018
669.994695	0.432686
670.334859	0.433383
670.674973	0.434532
671.015035	0.434135
671.355047	0.434359
671.695008	0.435275
672.034918	0.436877
672.374777	0.436597
672.714585	0.437548
673.054342	0.437587
673.394049	0.437798
673.733705	0.435172
674.073310	0.436568
674.412864	0.439241
674.752368	0.439866
675.091820	0.440159
675.431223	0.444785
675.770574	0.444318
676.109875	0.447492
676.449125	0.447316
676.788324	0.449769
677.127473	0.454966
677.466571	0.454704
677.805619	0.456402
678.144616	0.457965
678.483562	0.459550
678.822458	0.462265
679.161303	0.462553
679.500098	0.463312
679.838842	0.465054
680.177535	0.463863
680.516179	0.462707
680.854771	0.461645
681.193314	0.455114
681.531805	0.446844
681.870247	0.435245
682.208638	0.427709
682.546978	0.427111
682.885268	0.428518
683.223508	0.434684
683.561697	0.438039
683.899836	0.441216
684.237925	0.444026
684.575963	0.447095
684.913951	0.450525
685.251889	0.445620
685.589776	0.447797
685.927614	0.450556
686.265401	0.444256
686.603137	0.445474
686.940824	0.440138
687.278460	0.438409
687.616046	0.437755
687.953582	0.432950
688.291068	0.434006
688.628504	0.429069
688.965889	0.431593
689.303224	0.435632
689.640510	0.439552
689.977745	0.445166
690.314930	0.453136
690.652065	0.458332
690.989150	0.465402
691.326185	0.471629
691.663170	0.476388
692.000105	0.483982
692.336990	0.491162
692.673825	0.493160
693.010610	0.499783
693.347345	0.506196
693.684030	0.506991
694.020665	0.512344
694.357251	0.521212
694.693786	0.520254
695.030272	0.523889
695.366707	0.528420
695.703093	0.531680
696.039429	0.529372
696.375716	0.531275
696.711952	0.533898
697.048139	0.535911
697.384276	0.537823
697.720363	0.536456
698.056400	0.534825
698.392388	0.541586
698.728326	0.543672
699.064214	0.546293
699.400053	0.547125
699.735842	0.551252
700.071581	0.553881
700.407270	0.556940
700.742910	0.559368
701.078501	0.566603
701.414042	0.566259
701.749533	0.568795
702.084974	0.578861
702.420366	0.570619
702.755709	0.578848
703.091002	0.585926
703.426246	0.580280
703.761440	0.585110
704.096584	0.589966
704.431679	0.587134
704.766725	0.589221
705.101721	0.591535
705.436668	0.586654
705.771565	0.593971
706.106413	0.590428
706.441212	0.586090
706.775961	0.585729
707.110661	0.587743
707.445311	0.583969
707.779913	0.580957
708.114465	0.580052
708.448967	0.576352
708.783421	0.568571
709.117825	0.562568
709.452180	0.562343
709.786485	0.556560
710.120742	0.546833
710.454949	0.548368
710.789107	0.540301
711.123216	0.530976
711.457275	0.532654
711.791286	0.524309
712.125247	0.523090
712.459159	0.533907
712.793023	0.525615
713.126837	0.530367
713.460602	0.530723
713.794318	0.539523
714.127985	0.538870
714.461602	0.548468
714.795171	0.552367
715.128691	0.560553
715.462162	0.567882
715.795584	0.573444
716.128957	0.576330
716.462281	0.582375
716.795556	0.586059
717.128782	0.592105
717.461960	0.601192
717.795088	0.599675
718.128167	0.606379
718.461198	0.613974
718.794180	0.615945
719.127113	0.618250
719.459997	0.620695
719.792833	0.627838
720.125619	0.628915
720.458357	0.635191
720.791046	0.634358
721.123686	0.638125
721.456278	0.644854
721.788821	0.641056
722.121315	0.647590
722.453761	0.651727
722.786158	0.648174
723.118506	0.644078
723.450805	0.652218
723.783056	0.649205
724.115259	0.646574
724.447412	0.645841
724.779518	0.646772
725.111574	0.646264
725.443582	0.641182
725.775542	0.643359
726.107453	0.635539
726.439315	0.636443
726.771129	0.634317
727.102895	0.627179
727.434612	0.620442
727.766281	0.619078
728.097901	0.617273
728.429473	0.617257
728.760996	0.615297
729.092471	0.616089
729.423897	0.620311
729.755276	0.618400
730.086606	0.618042
730.417887	0.614193
730.749120	0.603688
731.080305	0.594878
731.411442	0.590827
731.742530	0.594625
732.073570	0.594248
732.404562	0.587124
732.735506	0.588611
733.066401	0.593672
733.397249	0.602620
733.728048	0.613426
734.058798	0.626376
734.389501	0.638225
734.720156	0.647873
735.050762	0.654636
735.381320	0.655395
735.711831	0.663848
736.042293	0.669569
736.372707	0.666032
736.703073	0.670591
737.033391	0.672454
737.363661	0.669517
737.693883	0.664902
738.024056	0.663987
738.354182	0.664218
738.684260	0.653469
739.014290	0.649493
739.344272	0.650542
739.674207	0.643373
740.004093	0.643014
740.333931	0.644210
740.663722	0.643584
740.993464	0.643560
741.323159	0.647960
741.652806	0.652820
741.982405	0.657730
742.311956	0.662501
742.641460	0.665536
742.970915	0.668635
743.300323	0.675773
743.629683	0.682324
743.958996	0.684170
744.288260	0.687698
744.617477	0.694744
744.946647	0.696141
745.275768	0.701622
745.604842	0.702086
745.933869	0.711375
746.262847	0.712849
746.591778	0.705785
746.920662	0.712902
747.249498	0.719476
747.578286	0.709699
747.907027	0.705792
748.235720	0.705875
748.564365	0.701680
748.892963	0.701195
749.221514	0.704611
749.550017	0.709233
749.878473	0.709549
750.206881	0.716719
750.535242	0.716258
750.863555	0.716076
751.191821	0.717140
751.520039	0.720776
751.848210	0.724083
752.176334	0.718229
752.504411	0.716933
752.832440	0.724940
753.160421	0.729218
753.488356	0.727036
753.816243	0.724183
754.144082	0.732792
754.471875	0.736880
754.799620	0.732826
755.127318	0.733432
755.454969	0.734524
755.782572	0.733955
756.110129	0.738079
756.437638	0.740847
756.765100	0.737547
757.092515	0.734795
757.419882	0.733513
757.747203	0.738800
758.074477	0.739733
758.401703	0.735488
758.728882	0.731442
759.056014	0.729956
759.383099	0.729322
759.710138	0.729974
760.037129	0.725891
760.364073	0.720294
760.690970	0.722888
761.017820	0.727898
761.344623	0.724521
761.671379	0.714569
761.998088	0.703415
762.324751	0.680274
762.651366	0.637618
762.977935	0.569315
763.304456	0.517081
763.630931	0.507780
763.957359	0.547242
764.283740	0.591403
764.610074	0.619619
764.936362	0.651313
765.262602	0.679027
765.588796	0.699163
765.914943	0.717092
766.241044	0.735416
766.567097	0.741638
766.893104	0.753109
767.219064	0.758366
767.544978	0.766150
767.870845	0.778364
768.196665	0.782962
768.522438	0.781220
768.848165	0.782216
769.173846	0.792269
769.499479	0.796047
769.825066	0.799863
770.150607	0.804069
770.476101	0.799710
770.801548	0.801718
771.126949	0.813825
771.452303	0.817406
771.777611	0.816726
772.102872	0.814887
772.428087	0.819823
772.753256	0.823833
773.078378	0.825569
773.403453	0.834018
773.728482	0.838773
774.053465	0.830803
774.378401	0.835666
774.703291	0.845012
775.028135	0.844723
775.352932	0.844624
775.677683	0.849089
776.002388	0.849317
776.327046	0.849552
776.651658	0.853249
776.976224	0.854969
777.300743	0.854847
777.625216	0.857363
777.949643	0.859748
778.274024	0.859192
778.598359	0.860986
778.922647	0.860196
779.246889	0.860796
779.571086	0.863658
779.895236	0.865710
780.219339	0.864544
780.543397	0.860527
780.867409	0.859876
781.191374	0.861475
781.515294	0.862782
781.839167	0.862239
782.162995	0.864186
782.486776	0.862060
782.810511	0.862841
783.134201	0.867763
783.457844	0.865012
783.781441	0.867288
784.104993	0.873679
784.428498	0.873405
784.751958	0.869559
785.075372	0.871641
785.398739	0.875712
785.722061	0.870146
786.045337	0.868021
786.368568	0.870852
786.691752	0.873513
787.014891	0.859582
787.337983	0.850857
787.661030	0.843608
787.984031	0.824879
788.306987	0.813260
788.629897	0.813918
788.952760	0.818531
789.275579	0.823300
789.598351	0.838932
789.921078	0.852086
790.243759	0.853611
790.566395	0.858195
790.888984	0.866847
791.211529	0.870992
791.534027	0.874273
791.856480	0.877136
792.178888	0.882101
792.501249	0.884077
792.823566	0.886300
793.145836	0.886174
793.468062	0.888201
793.790241	0.887953
794.112375	0.885077
794.434464	0.882338
794.756507	0.881927
795.078505	0.879454
795.400457	0.875171
795.722364	0.862745
796.044226	0.856407
796.366042	0.854215
796.687812	0.857849
797.009538	0.853043
797.331218	0.858410
797.652852	0.861385
797.974442	0.865269
798.295986	0.868405
798.617484	0.868065
798.938938	0.873592
799.260346	0.878661
799.581709	0.879143
799.903026	0.883264
800.224299	0.883380
800.545526	0.886257
800.866708	0.891129
801.187845	0.895076
801.508936	0.894013
801.829983	0.891696
802.150984	0.897524
802.471940	0.900705
802.792851	0.900219
803.113717	0.901278
803.434538	0.898906
803.755314	0.901593
804.076045	0.903032
804.396731	0.903709
804.717372	0.902194
805.037967	0.905358
805.358518	0.902724
805.679024	0.897980
805.999485	0.900279
806.319901	0.899345
806.640272	0.902185
806.960598	0.900034
807.280879	0.896602
807.601115	0.895131
807.921306	0.899886
808.241453	0.899917
808.561554	0.896854
808.881611	0.897439
809.201623	0.898283
809.521590	0.899432
809.841513	0.900554
810.161390	0.898813
810.481223	0.899710
810.801011	0.904213
811.120755	0.905741
811.440453	0.905019
811.760107	0.905020
812.079716	0.902367
812.399281	0.906827
812.718801	0.909390
813.038276	0.909840
813.357707	0.910287
813.677093	0.908559
813.996434	0.910416
814.315731	0.912189
814.634983	0.912558
814.954191	0.912117
815.273354	0.906762
815.592473	0.904526
815.911547	0.904780
816.230577	0.901185
816.549562	0.898347
816.868502	0.898453
817.187399	0.896829
817.506250	0.890677
817.825058	0.891640
818.143821	0.888495
818.462539	0.884560
818.781213	0.875108
819.099843	0.865150
819.418429	0.847196
819.736970	0.831236
820.055466	0.810351
820.373919	0.784424
820.692327	0.751220
821.010691	0.715349
821.329011	0.634279
821.647286	0.517449
821.965517	0.402623
822.283704	0.359700
822.601847	0.360359
822.919945	0.395581
823.237999	0.430077
823.556010	0.478379
823.873976	0.535886
824.191897	0.586732
824.509775	0.630723
824.827609	0.676995
825.145398	0.700143
825.463144	0.702694
825.780845	0.684743
826.098502	0.665856
826.416116	0.620176
826.733685	0.574747
827.051210	0.565028
827.368692	0.580878
827.686129	0.618707
828.003522	0.674095
828.320872	0.722315
828.638177	0.766426
828.955439	0.799463
829.272656	0.822242
829.589830	0.839818
829.906960	0.855880
830.224046	0.868413
830.541088	0.879282
830.858086	0.883942
831.175041	0.890511
831.491952	0.889128
831.808819	0.884021
832.125642	0.877856
832.442421	0.865291
832.759157	0.841171
833.075849	0.793572
833.392497	0.728069
833.709101	0.687446
834.025662	0.696683
834.342179	0.730084
834.658653	0.769631
834.975083	0.806447
835.291469	0.833196
835.607811	0.856760
835.924110	0.872247
836.240366	0.890301
836.556578	0.903857
836.872746	0.910866
837.188871	0.919300
837.504952	0.923673
837.820990	0.927067
838.136984	0.930623
838.452935	0.933213
838.768842	0.934895
839.084706	0.928018
839.400526	0.903124
839.716303	0.861086
840.032037	0.838347
840.347727	0.841783
840.663373	0.859107
840.978977	0.882252
841.294537	0.905326
841.610054	0.920848
841.925527	0.928408
842.240957	0.935879
842.556344	0.944010
842.871687	0.949369
843.186987	0.953805
843.502244	0.953806
843.817458	0.955448
844.132629	0.960423
844.447756	0.963536
844.762840	0.964771
845.077881	0.965864
845.392879	0.962597
845.707833	0.966752
846.022745	0.967195
846.337613	0.968453
846.652438	0.969265
846.967221	0.970282
847.281960	0.969906
847.596656	0.971758
847.911309	0.972378
848.225919	0.971041
848.540485	0.973246
848.855009	0.974456
849.169490	0.972788
849.483928	0.973716
849.798323	0.972380
850.112675	0.974582
850.426984	0.974300
850.741251	0.974813
851.055474	0.974912
851.369654	0.974240
851.683792	0.972971
851.997887	0.974377
852.311938	0.974302
852.625947	0.973149
852.939914	0.972153
853.253837	0.974085
853.567718	0.975039
853.881555	0.974933
854.195350	0.974160
854.509103	0.974607
854.822812	0.974487
855.136479	0.975061
855.450103	0.973761
855.763685	0.974266
856.077224	0.974508
856.390720	0.975369
856.704173	0.974649
857.017584	0.973697
857.330953	0.971532
857.644278	0.970961
857.957561	0.972741
858.270802	0.973620
858.584000	0.973830
858.897155	0.971245
859.210268	0.971464
859.523339	0.974459
859.836367	0.975123
860.149352	0.975015
860.462295	0.974292
860.775195	0.974874
861.088054	0.973141
861.400869	0.974390
861.713642	0.974126
862.026373	0.975865
862.339062	0.975749
862.651708	0.974074
862.964312	0.972950
863.276873	0.973099
863.589392	0.971745
863.901869	0.971098
864.214303	0.969097
864.526696	0.967686
864.839045	0.967870
865.151353	0.966601
865.463619	0.966371
865.775842	0.967206
866.088023	0.967107
866.400162	0.966255
866.712258	0.966817
867.024313	0.967649
867.336325	0.969291
867.648296	0.967758
867.960224	0.964708
868.272110	0.966200
868.583954	0.967288
868.895755	0.969047
869.207515	0.966577
869.519233	0.964740
869.830909	0.965257
870.142542	0.965539
870.454134	0.965973
870.765684	0.963420
871.077191	0.962952
871.388657	0.962272
871.700081	0.963528
872.011463	0.963579
872.322803	0.962086
872.634101	0.960607
872.945357	0.956534
873.256571	0.954974
873.567744	0.956941
873.878874	0.958049
874.189963	0.956636
874.501010	0.956758
874.812015	0.953577
875.122979	0.954178
875.433900	0.956867
875.744780	0.958141
876.055618	0.954061
876.366415	0.952255
876.677169	0.952936
876.987882	0.953987
877.298554	0.955618
877.609183	0.950907
877.919771	0.948836
878.230317	0.946111
878.540822	0.943888
878.851285	0.937621
879.161707	0.929546
879.472087	0.918592
879.782425	0.899749
880.092722	0.865163
880.402977	0.810566
880.713191	0.747032
881.023363	0.686178
881.333494	0.651552
881.643583	0.623770
881.953631	0.624575
882.263637	0.652193
882.573602	0.692706
882.883526	0.718553
883.193408	0.744448
883.503248	0.767985
883.813048	0.795533
884.122806	0.826811
884.432522	0.850423
884.742197	0.871996
885.051831	0.881639
885.361424	0.892983
885.670975	0.905899
885.980485	0.915106
886.289954	0.921332
886.599382	0.925375
886.908768	0.930360
887.218113	0.936588
887.527417	0.941921
887.836680	0.944445
888.145901	0.947743
888.455082	0.950353
888.764221	0.954235
889.073319	0.955281
889.382376	0.958094
889.691392	0.955100
890.000366	0.956724
890.309300	0.956985
890.618193	0.956643
890.927044	0.955703
891.235855	0.955169
891.544625	0.954865
891.853353	0.955216
892.162041	0.952570
892.470687	0.945580
892.779293	0.940636
893.087858	0.936389
893.396381	0.928819
893.704864	0.913760
894.013306	0.890060
894.321707	0.863267
894.630068	0.847582
894.938387	0.842209
895.246665	0.844106
895.554903	0.855837
895.863100	0.869372
896.171256	0.887148
896.479371	0.906552
896.787446	0.921544
897.095480	0.927062
897.403473	0.930807
897.711425	0.935328
898.019336	0.942862
898.327207	0.946570
898.635038	0.946809
898.942827	0.947969
899.250576	0.951187
899.558284	0.956483
899.865952	0.957359
900.173579	0.959449
900.481165	0.960293
900.788711	0.961966
901.096216	0.964551
901.403681	0.966392
901.711105	0.966642
902.018489	0.965631
902.325832	0.966429
902.633135	0.964903
902.940397	0.959904
903.247619	0.945519
903.554800	0.920628
903.861941	0.878822
904.169041	0.840876
904.476101	0.823571
904.783121	0.824942
905.090100	0.840637
905.397039	0.863775
905.703938	0.885972
906.010796	0.907036
906.317614	0.924818
906.624391	0.937476
906.931129	0.946782
907.237826	0.956336
907.544483	0.961708
907.851099	0.967052
908.157675	0.971773
908.464211	0.973776
908.770707	0.975836
909.077163	0.977578
909.383578	0.979595
909.689954	0.979081
909.996289	0.979723
910.302584	0.982222
910.608839	0.984791
910.915054	0.983078
911.221229	0.983516
911.527363	0.980636
911.833458	0.982304
912.139513	0.982182
912.445527	0.981020
912.751502	0.978987
913.057436	0.976129
913.363331	0.974551
913.669186	0.971104
913.975000	0.966105
914.280775	0.958699
914.586510	0.951392
914.892205	0.937541
915.197859	0.914544
915.503475	0.886701
915.809050	0.866686
916.114585	0.859891
916.420081	0.856764
916.725536	0.854340
917.030952	0.861831
917.336328	0.876717
917.641665	0.891839
917.946961	0.907121
918.252218	0.920407
918.557435	0.929086
918.862612	0.938161
919.167750	0.943669
919.472848	0.950651
919.777906	0.955956
920.082925	0.961598
920.387904	0.965978
920.692843	0.966118
920.997743	0.967718
921.302603	0.971366
921.607423	0.974149
921.912204	0.975724
922.216946	0.978414
922.521647	0.977776
922.826310	0.979023
923.130932	0.981771
923.435516	0.983749
923.740059	0.983731
924.044564	0.984703
924.349028	0.984563
924.653454	0.988053
924.957840	0.987332
925.262186	0.988270
925.566493	0.988699
925.870761	0.989174
926.174989	0.990315
926.479178	0.991832
926.783328	0.992453
927.087438	0.992728
927.391509	0.991496
927.695541	0.993759
927.999533	0.994745
928.303486	0.994538
928.607400	0.994797
928.911275	0.994725
929.215110	0.995914
929.518906	0.995649
929.822663	0.996434
930.126381	0.996856
930.430060	0.996370
930.733699	0.995512
931.037299	0.995392
931.340861	0.995124
931.644383	0.994246
931.947866	0.994570
932.251309	0.995052
932.554714	0.995198
932.858080	0.994461
933.161407	0.994989
933.464694	0.995583
933.767943	0.995684
934.071153	0.996952
934.374323	0.997739
934.677455	0.996543
934.980548	0.996054
935.283602	0.996793
935.586617	0.995276
935.889593	0.997393
936.192530	0.996546
936.495428	0.996276
936.798287	0.994346
937.101108	0.995333
937.403890	0.994341
937.706632	0.994503
938.009336	0.991380
938.312002	0.989588
938.614628	0.989584
938.917216	0.987607
939.219765	0.985647
939.522275	0.986398
939.824747	0.986941
940.127179	0.988520
940.429573	0.989850
940.731929	0.988286
941.034246	0.988848
941.336524	0.989368
941.638763	0.990400
941.940964	0.990828
942.243126	0.991294
942.545250	0.991739
942.847335	0.992326
943.149381	0.994311
943.451389	0.992413
943.753359	0.993079
944.055290	0.995341
944.357182	0.994986
944.659036	0.994982
944.960851	0.994928
945.262628	0.995775
945.564367	0.994888
945.866067	0.994688
946.167729	0.994711
946.469352	0.993112
946.770937	0.993271
947.072484	0.995194
947.373992	0.995013
947.675462	0.995483
947.976893	0.995332
948.278286	0.997493
948.579641	0.997287
948.880958	0.997094
949.182236	0.996090
949.483476	0.996976
949.784678	0.996969
950.085841	0.995527
950.386967	0.996055
950.688054	0.996101
950.989103	0.993480
951.290114	0.993774
951.591087	0.996320
951.892021	0.993901
952.192917	0.994857
952.493776	0.994120
952.794596	0.992871
953.095378	0.992373
953.396122	0.992545
953.696828	0.993928
953.997496	0.994165
954.298126	0.995057
954.598718	0.994880
954.899272	0.994425
955.199788	0.995744
955.500266	0.997134
955.800706	0.997367
956.101108	0.997214
956.401472	0.999641
956.701798	0.998174
957.002087	0.998688
957.302337	0.998520
957.602550	0.999492
957.902724	0.999667
958.202861	1.000450
958.502960	0.999945
958.803022	1.001255
959.103045	1.000585
959.403031	1.001134
959.702979	1.001645
960.002889	1.001178
960.302762	1.000465
960.602596	1.000390
960.902393	1.001066
961.202153	1.002084
961.501875	1.002545
961.801559	1.001899
962.101205	1.001198
962.400814	1.001728
962.700385	1.002624
962.999918	1.003110
963.299414	1.002129
963.598873	1.002668
963.898293	1.002339
964.197677	1.001940
964.497022	1.001528
964.796331	1.001622
965.095601	1.002672
965.394835	1.002108
965.694030	1.003739
965.993189	1.002343
966.292309	1.003306
966.591393	1.000867
966.890439	1.002628
967.189447	1.002717
967.488419	1.001171
967.787353	1.002249
968.086249	1.002558
968.385108	1.002246
968.683930	1.003965
968.982714	1.002718
969.281462	1.002505
969.580172	1.001712
969.878844	1.002953
970.177480	1.001751
970.476078	1.003096
970.774639	1.002891
971.073162	1.000995
971.371649	1.002835
971.670098	1.000997
971.968510	1.002437
972.266885	1.001449
972.565223	1.001907
972.863524	1.000916
973.161788	1.002005
973.460014	1.002734
973.758204	1.001221
974.056356	1.001511
974.354471	1.001210
974.652550	1.001902
974.950591	1.001110
975.248595	1.001006
975.546563	1.002864
975.844493	1.002907
976.142386	1.001792
976.440243	1.002260
976.738062	1.001673
977.035845	1.001980
977.333590	1.002922
977.631299	1.001694
977.928971	1.002662
978.226606	1.002951
978.524204	1.001401
978.821765	1.002051
979.119290	1.003587
979.416777	1.003346
979.714228	1.002634
980.011642	1.003264
980.309020	1.002020
980.606360	1.001979
980.903664	1.002531
981.200931	1.001593
981.498162	1.002063
981.795356	1.000201
982.092513	0.999933
982.389633	0.999208
982.686717	0.996403
982.983764	0.995359
983.280775	0.996141
983.577749	0.996074
983.874686	0.996027
984.171587	0.997099
984.468451	0.998627
984.765279	1.000189
985.062070	1.000518
985.358824	1.000305
985.655543	1.001247
985.952224	1.001728
986.248869	1.002205
986.545478	1.003755
986.842050	1.002594
987.138586	1.002031
987.435086	1.001634
987.731549	1.003849
988.027975	1.003640
988.324366	1.001857
988.620719	1.004085
988.917037	1.004169
989.213318	1.004710
989.509563	1.004054
989.805772	1.003808
990.101944	1.004564
990.398080	1.004573
990.694180	1.005394
990.990244	1.002961
991.286271	1.003226
991.582262	1.003372
991.878217	1.003216
992.174136	1.004766
992.470019	1.003202
992.765865	1.005573
993.061676	1.004259
993.357450	1.003336
993.653188	1.003939
993.948890	1.002652
994.244556	1.002435
994.540186	1.002817
994.835780	1.002938
995.131337	1.004739
995.426859	1.003127
995.722345	1.002085
996.017795	1.001746
996.313208	1.002118
996.608586	1.001836
996.903928	1.002201
997.199234	1.001349
997.494504	1.001895
997.789738	1.000994
998.084936	1.001920
998.380099	1.002125
998.675225	1.003591
998.970316	1.004445
999.265371	1.003088
999.560390	1.003093
999.855373	1.003577
1000.150320	1.003571
1000.445232	1.004534
1000.740108	1.004389
1001.034948	1.003235
1001.329752	1.005044
1001.624521	1.003798
1001.919254	1.003855
1002.213951	1.004498
1002.508613	1.003472
1002.803239	1.003442
1003.097829	1.004861
1003.392384	1.003571
1003.686903	1.003969
1003.981386	1.004755
1004.275834	1.005349
1004.570246	1.003016
1004.864623	1.004164
1005.158964	1.004703
1005.453270	1.004005
1005.747540	1.003862
1006.041775	1.004722
1006.335974	1.005037
1006.630138	1.004519
1006.924266	1.003992
1007.218359	1.001819
1007.512416	1.005313
1007.806438	1.003850
1008.100425	1.004087
1008.394376	1.003883
1008.688292	1.004168
1008.982172	1.003705
1009.276017	1.005637
1009.569827	1.004744
1009.863602	1.002550
1010.157341	1.004440
1010.451045	1.004093
1010.744714	1.005874
1011.038347	1.004556
1011.331945	1.004461
1011.625508	1.005136
1011.919036	1.004127
1012.212528	1.004722
1012.505986	1.003396
1012.799408	1.004215
1013.092795	1.004662
1013.386147	1.003597
1013.679464	1.005882
1013.972745	1.004222
1014.265992	1.004022
1014.559204	1.003812
1014.852380	1.004502
1015.145521	1.004452
1015.438628	1.005445
1015.731699	1.004749
1016.024736	1.005580
1016.317737	1.005134
1016.610703	1.005424
1016.903635	1.005026
1017.196531	1.003881
1017.489393	1.003755
1017.782219	1.004018
1018.075011	1.003621
1018.367768	1.003123
1018.660490	1.004529
1018.953177	1.004529
1019.245829	1.004529
