Dividing Wavelength (nm)	Counts (n)	Blue Motor Position (mm): 8.900000	Red Motor Position (mm): 0.000000	
326.493990	1.004570
326.888308	1.004570
327.282561	1.004570
327.676750	1.005654
328.070874	1.005676
328.464933	1.005996
328.858929	1.005392
329.252859	1.005014
329.646726	1.004895
330.040528	1.004277
330.434265	1.004015
330.827938	1.004400
331.221547	1.004651
331.615091	1.005928
332.008571	1.005122
332.401986	1.004903
332.795338	1.005018
333.188625	1.005482
333.581847	1.005351
333.975006	1.005011
334.368100	1.005254
334.761129	1.003002
335.154095	1.004872
335.546996	1.003126
335.939833	0.998221
336.332606	0.999520
336.725315	0.996949
337.117960	0.999523
337.510540	0.998078
337.903056	0.998857
338.295508	0.999438
338.687896	0.999017
339.080220	0.999157
339.472480	0.998632
339.864676	0.999770
340.256807	0.997889
340.648875	0.998752
341.040879	0.998314
341.432818	0.999334
341.824694	0.998929
342.216506	0.999269
342.608253	0.997290
342.999937	0.999549
343.391557	0.998182
343.783113	1.000156
344.174605	0.999871
344.566033	0.998540
344.957397	0.999507
345.348697	0.998968
345.739934	1.000045
346.131106	0.998206
346.522215	0.997217
346.913260	0.998712
347.304241	0.998299
347.695159	0.998775
348.086012	0.998766
348.476802	0.999320
348.867528	0.997149
349.258191	0.998534
349.648789	0.998552
350.039324	0.998952
350.429796	0.998062
350.820203	0.997901
351.210548	0.998689
351.600828	0.999347
351.991045	0.997713
352.381198	0.999323
352.771288	0.997890
353.161314	0.998538
353.551276	0.998159
353.941175	0.997127
354.331010	0.997631
354.720782	0.998373
355.110490	0.997903
355.500135	0.997851
355.889717	0.996825
356.279235	0.996638
356.668689	0.997642
357.058080	0.996458
357.447408	0.996274
357.836672	0.997249
358.225873	0.997587
358.615010	0.998971
359.004084	0.995589
359.393095	0.997795
359.782043	0.996939
360.170927	0.997651
360.559748	0.997767
360.948505	0.996426
361.337199	0.997748
361.725830	0.998019
362.114398	0.997897
362.502903	0.996800
362.891344	0.995662
363.279722	0.996712
363.668037	0.997688
364.056289	0.996717
364.444478	0.997038
364.832603	0.995908
365.220665	0.997416
365.608665	0.997113
365.996601	0.996462
366.384474	0.995796
366.772284	0.995833
367.160031	0.994799
367.547715	0.995458
367.935336	0.993985
368.322893	0.992983
368.710388	0.991489
369.097820	0.990388
369.485189	0.987536
369.872495	0.987150
370.259738	0.983276
370.646918	0.981603
371.034035	0.978488
371.421090	0.977191
371.808081	0.971211
372.195010	0.968302
372.581875	0.963082
372.968678	0.959387
373.355418	0.956169
373.742096	0.948080
374.128710	0.943315
374.515262	0.938822
374.901751	0.933436
375.288177	0.928473
375.674540	0.921435
376.060841	0.915801
376.447079	0.907924
376.833254	0.901283
377.219367	0.896480
377.605417	0.884889
377.991404	0.881396
378.377329	0.876525
378.763191	0.870084
379.148991	0.860314
379.534727	0.853366
379.920402	0.845520
380.306013	0.841564
380.691563	0.828439
381.077049	0.822194
381.462474	0.818110
381.847835	0.806896
382.233134	0.803166
382.618371	0.802266
383.003545	0.784626
383.388657	0.782698
383.773706	0.775294
384.158693	0.770387
384.543618	0.766270
384.928480	0.757013
385.313280	0.747005
385.698017	0.746948
386.082692	0.735846
386.467305	0.733567
386.851856	0.728508
387.236344	0.722390
387.620770	0.716951
388.005133	0.711896
388.389435	0.706260
388.773674	0.703610
389.157851	0.694553
389.541965	0.692352
389.926018	0.698912
390.310008	0.686127
390.693936	0.683120
391.077802	0.674695
391.461606	0.677580
391.845348	0.666154
392.229027	0.665556
392.612645	0.663894
392.996200	0.650497
393.379694	0.643119
393.763125	0.634699
394.146494	0.638698
394.529801	0.629175
394.913047	0.621396
395.296230	0.626480
395.679351	0.618231
396.062410	0.615711
396.445408	0.618581
396.828343	0.612920
397.211217	0.608525
397.594028	0.620973
397.976778	0.611356
398.359466	0.606877
398.742092	0.602497
399.124656	0.614500
399.507158	0.603028
399.889598	0.600187
400.271977	0.591952
400.654294	0.595770
401.036549	0.594459
401.418742	0.597997
401.800874	0.584465
402.182944	0.581114
402.564952	0.572363
402.946898	0.574983
403.328783	0.575790
403.710606	0.586845
404.092367	0.561379
404.474067	0.566975
404.855705	0.565737
405.237282	0.574627
405.618797	0.560452
406.000250	0.556435
406.381642	0.546392
406.762972	0.550951
407.144240	0.551052
407.525447	0.550306
407.906593	0.542808
408.287677	0.538089
408.668700	0.546483
409.049661	0.540528
409.430560	0.535479
409.811399	0.543479
410.192176	0.526242
410.572891	0.533225
410.953545	0.521629
411.334138	0.535109
411.714669	0.526886
412.095139	0.539554
412.475547	0.523215
412.855894	0.525733
413.236180	0.524552
413.616405	0.529925
413.996568	0.520383
414.376670	0.527360
414.756711	0.531650
415.136691	0.528315
415.516609	0.519084
415.896466	0.516090
416.276262	0.512289
416.655997	0.514233
417.035670	0.495332
417.415283	0.486711
417.794834	0.491687
418.174324	0.497535
418.553753	0.506175
418.933121	0.488185
419.312428	0.482605
419.691674	0.488286
420.070859	0.476748
420.449983	0.484272
420.829045	0.473652
421.208047	0.482916
421.586988	0.475157
421.965867	0.474417
422.344686	0.463307
422.723444	0.476179
423.102141	0.492941
423.480777	0.465546
423.859352	0.486448
424.237866	0.463644
424.616319	0.464582
424.994712	0.455450
425.373044	0.465406
425.751314	0.453695
426.129524	0.470580
426.507673	0.453774
426.885762	0.447182
427.263789	0.452889
427.641756	0.461795
428.019662	0.452766
428.397508	0.451987
428.775292	0.457000
429.153016	0.448327
429.530679	0.454629
429.908282	0.447421
430.285824	0.458031
430.663305	0.436082
431.040726	0.457131
431.418086	0.457169
431.795385	0.448599
432.172624	0.448005
432.549802	0.448404
432.926920	0.447112
433.303977	0.446430
433.680974	0.443668
434.057910	0.442799
434.434786	0.441352
434.811601	0.444622
435.188355	0.426659
435.565050	0.436299
435.941683	0.436919
436.318257	0.421462
436.694770	0.422826
437.071222	0.420389
437.447614	0.424691
437.823946	0.431081
438.200218	0.421187
438.576429	0.430505
438.952580	0.423610
439.328670	0.419994
439.704700	0.426269
440.080670	0.427644
440.456580	0.408892
440.832429	0.417314
441.208218	0.428263
441.583947	0.416943
441.959616	0.416270
442.335224	0.422075
442.710773	0.412441
443.086261	0.410401
443.461689	0.424897
443.837057	0.414048
444.212365	0.403898
444.587612	0.411715
444.962800	0.401467
445.337927	0.402959
445.712995	0.429446
446.088002	0.390736
446.462949	0.401703
446.837837	0.406218
447.212664	0.394830
447.587431	0.386710
447.962139	0.356766
448.336786	0.315728
448.711374	0.326261
449.085901	0.370298
449.460369	0.374912
449.834776	0.378274
450.209124	0.357725
450.583412	0.350428
450.957640	0.343405
451.331808	0.354868
451.705917	0.377944
452.079965	0.382994
452.453954	0.370810
452.827883	0.377645
453.201752	0.372753
453.575562	0.383808
453.949311	0.372565
454.323001	0.378602
454.696632	0.374421
455.070202	0.367177
455.443713	0.358912
455.817164	0.353658
456.190556	0.349398
456.563888	0.345943
456.937160	0.343596
457.310373	0.361299
457.683526	0.359503
458.056619	0.365691
458.429653	0.366002
458.802628	0.369566
459.175542	0.363719
459.548398	0.346565
459.921194	0.338778
460.293930	0.338908
460.666607	0.316362
461.039224	0.304735
461.411782	0.300411
461.784280	0.299714
462.156719	0.303837
462.529099	0.308270
462.901419	0.324119
463.273680	0.328490
463.645882	0.328094
464.018024	0.333829
464.390106	0.326632
464.762130	0.311220
465.134094	0.294115
465.505999	0.263294
465.877845	0.233496
466.249631	0.220384
466.621358	0.227787
466.993026	0.242038
467.364634	0.248221
467.736184	0.256665
468.107674	0.265719
468.479105	0.264641
468.850477	0.271742
469.221790	0.278398
469.593043	0.288887
469.964238	0.293596
470.335373	0.292778
470.706449	0.291316
471.077467	0.291314
471.448425	0.253755
471.819324	0.229245
472.190164	0.228685
472.560945	0.257307
472.931667	0.279982
473.302330	0.283986
473.672934	0.296430
474.043479	0.284376
474.413965	0.285987
474.784393	0.289164
475.154761	0.284323
475.525070	0.281456
475.895321	0.287079
476.265513	0.281299
476.635645	0.276836
477.005719	0.276823
477.375734	0.273623
477.745691	0.266401
478.115588	0.262907
478.485427	0.256302
478.855207	0.243241
479.224928	0.225644
479.594591	0.213620
479.964194	0.217260
480.333739	0.218542
480.703226	0.219540
481.072653	0.218288
481.442022	0.213686
481.811333	0.210391
482.180584	0.214025
482.549777	0.219727
482.918912	0.222487
483.287988	0.222476
483.657005	0.222026
484.025964	0.228302
484.394864	0.225778
484.763706	0.226573
485.132489	0.231541
485.501213	0.231978
485.869879	0.230232
486.238487	0.233553
486.607036	0.231638
486.975527	0.236255
487.343959	0.232080
487.712333	0.231371
488.080648	0.232341
488.448905	0.231930
488.817104	0.233073
489.185244	0.227696
489.553326	0.224449
489.921350	0.214211
490.289315	0.196713
490.657222	0.191447
491.025070	0.192941
491.392861	0.194895
491.760593	0.200660
492.128267	0.206306
492.495883	0.212089
492.863440	0.217996
493.230939	0.224675
493.598380	0.226107
493.965763	0.228377
494.333088	0.230287
494.700354	0.232131
495.067563	0.231054
495.434713	0.234294
495.801805	0.232088
496.168839	0.233739
496.535815	0.234868
496.902733	0.235016
497.269593	0.236292
497.636395	0.234207
498.003139	0.234457
498.369825	0.237587
498.736453	0.233885
499.103023	0.235547
499.469535	0.235113
499.835989	0.235246
500.202385	0.235942
500.568723	0.239218
500.935003	0.234484
501.301226	0.238792
501.667390	0.233212
502.033497	0.231056
502.399546	0.233947
502.765537	0.236204
503.131470	0.234422
503.497345	0.230902
503.863163	0.239286
504.228923	0.232185
504.594625	0.230809
504.960269	0.236468
505.325856	0.231935
505.691385	0.236285
506.056856	0.232769
506.422270	0.232263
506.787625	0.234775
507.152924	0.232283
507.518164	0.232405
507.883347	0.234220
508.248472	0.236348
508.613540	0.230955
508.978550	0.233370
509.343503	0.233877
509.708398	0.231745
510.073236	0.229115
510.438016	0.228867
510.802738	0.230121
511.167403	0.229029
511.532010	0.231112
511.896561	0.226538
512.261053	0.225188
512.625488	0.227246
512.989866	0.227857
513.354186	0.227891
513.718449	0.229654
514.082655	0.226006
514.446803	0.228363
514.810894	0.226280
515.174927	0.228754
515.538904	0.228298
515.902822	0.224995
516.266684	0.227248
516.630488	0.228601
516.994235	0.227570
517.357925	0.226528
517.721558	0.224660
518.085133	0.224229
518.448651	0.223848
518.812112	0.226538
519.175516	0.225730
519.538863	0.223573
519.902152	0.225499
520.265385	0.221979
520.628560	0.223867
520.991678	0.224068
521.354739	0.223146
521.717743	0.224511
522.080690	0.224709
522.443580	0.222031
522.806413	0.222955
523.169189	0.222690
523.531908	0.221450
523.894569	0.224842
524.257174	0.224681
524.619722	0.222622
524.982213	0.223591
525.344647	0.222334
525.707025	0.223503
526.069345	0.221610
526.431608	0.223220
526.793815	0.221131
527.155964	0.225501
527.518057	0.224288
527.880093	0.225362
528.242072	0.223958
528.603995	0.225930
528.965860	0.227434
529.327669	0.226446
529.689421	0.227089
530.051117	0.227987
530.412755	0.225997
530.774337	0.228066
531.135862	0.228778
531.497331	0.227488
531.858743	0.231029
532.220098	0.227268
532.581396	0.230069
532.942638	0.230577
533.303824	0.231623
533.664953	0.231152
534.026025	0.233087
534.387040	0.231074
534.747999	0.230642
535.108902	0.229647
535.469748	0.235093
535.830537	0.232660
536.191270	0.233196
536.551947	0.232803
536.912567	0.232401
537.273131	0.234375
537.633638	0.234815
537.994089	0.234769
538.354483	0.235992
538.714821	0.233097
539.075103	0.232805
539.435328	0.233804
539.795497	0.237313
540.155609	0.234155
540.515665	0.232229
540.875665	0.237753
541.235609	0.236430
541.595496	0.236486
541.955328	0.233125
542.315102	0.235829
542.674821	0.236790
543.034483	0.237104
543.394090	0.236478
543.753640	0.238292
544.113134	0.233422
544.472571	0.236867
544.831953	0.233518
545.191278	0.237984
545.550548	0.237288
545.909761	0.234015
546.268918	0.235114
546.628019	0.233117
546.987064	0.235722
547.346053	0.237617
547.704986	0.235607
548.063863	0.236120
548.422684	0.236078
548.781449	0.237826
549.140158	0.235449
549.498811	0.238344
549.857408	0.241284
550.215949	0.236086
550.574434	0.239144
550.932864	0.237262
551.291237	0.236177
551.649555	0.237465
552.007817	0.237122
552.366022	0.237987
552.724173	0.238222
553.082267	0.238438
553.440305	0.235528
553.798288	0.239781
554.156215	0.236366
554.514086	0.236937
554.871902	0.240376
555.229661	0.239301
555.587365	0.239929
555.945014	0.242536
556.302606	0.239360
556.660143	0.242164
557.017625	0.238681
557.375050	0.240765
557.732421	0.237998
558.089735	0.239735
558.446994	0.239542
558.804197	0.238954
559.161345	0.238600
559.518437	0.242263
559.875474	0.240449
560.232455	0.239826
560.589381	0.241055
560.946251	0.241102
561.303065	0.238507
561.659825	0.239946
562.016528	0.241641
562.373177	0.244399
562.729770	0.241481
563.086307	0.243244
563.442789	0.241452
563.799216	0.244034
564.155587	0.242870
564.511904	0.244285
564.868164	0.244473
565.224370	0.244041
565.580520	0.245686
565.936615	0.245862
566.292654	0.248349
566.648638	0.245758
567.004567	0.246607
567.360441	0.246990
567.716260	0.248924
568.072023	0.246885
568.427732	0.247588
568.783385	0.250061
569.138982	0.248169
569.494525	0.247736
569.850013	0.250750
570.205445	0.249100
570.560823	0.251720
570.916145	0.253693
571.271412	0.252287
571.626625	0.253460
571.981782	0.253824
572.336884	0.254601
572.691931	0.254362
573.046923	0.256155
573.401860	0.256954
573.756743	0.258806
574.111570	0.257316
574.466342	0.258011
574.821059	0.256819
575.175722	0.260154
575.530330	0.259830
575.884882	0.260108
576.239380	0.261859
576.593823	0.262613
576.948211	0.261939
577.302544	0.265367
577.656823	0.264853
578.011047	0.264835
578.365216	0.265928
578.719330	0.267560
579.073389	0.267271
579.427394	0.268282
579.781344	0.269126
580.135239	0.270878
580.489080	0.270156
580.842866	0.273446
581.196597	0.273592
581.550273	0.271765
581.903895	0.272788
582.257463	0.271152
582.610975	0.274832
582.964434	0.273895
583.317837	0.276131
583.671186	0.276498
584.024481	0.276719
584.377721	0.279223
584.730906	0.279750
585.084037	0.279086
585.437113	0.280948
585.790135	0.280214
586.143103	0.283579
586.496016	0.284195
586.848874	0.282026
587.201679	0.282374
587.554428	0.285828
587.907124	0.284801
588.259765	0.285471
588.612352	0.286009
588.964884	0.289770
589.317362	0.289253
589.669786	0.289355
590.022155	0.287603
590.374470	0.287237
590.726731	0.289056
591.078937	0.294229
591.431090	0.290569
591.783188	0.294688
592.135232	0.295133
592.487222	0.294916
592.839157	0.292828
593.191038	0.295330
593.542866	0.297290
593.894639	0.300820
594.246358	0.299144
594.598022	0.298725
594.949633	0.301993
595.301190	0.303005
595.652692	0.301888
596.004141	0.297686
596.355535	0.305714
596.706876	0.306724
597.058162	0.309283
597.409395	0.306174
597.760573	0.304005
598.111698	0.307219
598.462768	0.307558
598.813785	0.308935
599.164748	0.310367
599.515657	0.310209
599.866511	0.313996
600.217312	0.309500
600.568060	0.314644
600.918753	0.310966
601.269392	0.312005
601.619978	0.315326
601.970510	0.312821
602.320988	0.312984
602.671412	0.310852
603.021783	0.313139
603.372100	0.314427
603.722363	0.314344
604.072572	0.314854
604.422728	0.314939
604.772830	0.316794
605.122878	0.317139
605.472872	0.317323
605.822813	0.315712
606.172701	0.318089
606.522534	0.315929
606.872314	0.316047
607.222041	0.316704
607.571714	0.314769
607.921333	0.316249
608.270899	0.315710
608.620411	0.312547
608.969870	0.316485
609.319276	0.316606
609.668627	0.316770
610.017926	0.315416
610.367171	0.313835
610.716362	0.314824
611.065500	0.314660
611.414585	0.313462
611.763616	0.313686
612.112594	0.314215
612.461518	0.313662
612.810389	0.311093
613.159207	0.313638
613.507971	0.315354
613.856682	0.311554
614.205340	0.312398
614.553945	0.310004
614.902496	0.313295
615.250994	0.311720
615.599439	0.312731
615.947830	0.311569
616.296169	0.312785
616.644454	0.312826
616.992686	0.311911
617.340864	0.310222
617.688990	0.314151
618.037063	0.310738
618.385082	0.312525
618.733048	0.309237
619.080961	0.311516
619.428821	0.310963
619.776628	0.310489
620.124382	0.312927
620.472083	0.313434
620.819731	0.312475
621.167326	0.316743
621.514868	0.316277
621.862357	0.320094
622.209793	0.319857
622.557176	0.322197
622.904506	0.323335
623.251783	0.326020
623.599007	0.328163
623.946179	0.327374
624.293297	0.329565
624.640363	0.333496
624.987376	0.334102
625.334336	0.336115
625.681243	0.338759
626.028097	0.339498
626.374899	0.340345
626.721647	0.340986
627.068343	0.344240
627.414987	0.345288
627.761577	0.346895
628.108115	0.345325
628.454600	0.351055
628.801032	0.348322
629.147412	0.350341
629.493739	0.351115
629.840014	0.353652
630.186236	0.351130
630.532405	0.357139
630.878521	0.353888
631.224585	0.356800
631.570597	0.360151
631.916556	0.358797
632.262462	0.358602
632.608316	0.360892
632.954117	0.361661
633.299866	0.362894
633.645562	0.363723
633.991206	0.367368
634.336797	0.369980
634.682336	0.372859
635.027823	0.374292
635.373257	0.374971
635.718639	0.378813
636.063968	0.378071
636.409245	0.383985
636.754470	0.384702
637.099642	0.386834
637.444762	0.390477
637.789829	0.389126
638.134845	0.392862
638.479808	0.393990
638.824719	0.393689
639.169577	0.398041
639.514383	0.396904
639.859137	0.401361
640.203839	0.400793
640.548489	0.401619
640.893086	0.402781
641.237632	0.404907
641.582125	0.403541
641.926566	0.404985
642.270955	0.404940
642.615292	0.405181
642.959576	0.404709
643.303809	0.404969
643.647990	0.405280
643.992118	0.405484
644.336195	0.409059
644.680219	0.407345
645.024192	0.408190
645.368112	0.401950
645.711981	0.401150
646.055797	0.396939
646.399562	0.398676
646.743274	0.392128
647.086935	0.388862
647.430544	0.389401
647.774101	0.388429
648.117606	0.388073
648.461059	0.388819
648.804460	0.391132
649.147810	0.396547
649.491108	0.398024
649.834354	0.400195
650.177548	0.405053
650.520690	0.410846
650.863781	0.412332
651.206820	0.411493
651.549807	0.415735
651.892742	0.420649
652.235626	0.420215
652.578458	0.421141
652.921238	0.427422
653.263967	0.425233
653.606644	0.428737
653.949269	0.429483
654.291843	0.433136
654.634365	0.430598
654.976836	0.433538
655.319255	0.434177
655.661622	0.435866
656.003938	0.436547
656.346203	0.438883
656.688416	0.437291
657.030577	0.440505
657.372687	0.443094
657.714746	0.443924
658.056753	0.440984
658.398708	0.444702
658.740612	0.446714
659.082465	0.442600
659.424266	0.443679
659.766016	0.443126
660.107715	0.447116
660.449362	0.445910
660.790958	0.446348
661.132503	0.447644
661.473996	0.445145
661.815438	0.446881
662.156829	0.446867
662.498168	0.448156
662.839456	0.449001
663.180693	0.447706
663.521879	0.447303
663.863013	0.448712
664.204097	0.447791
664.545129	0.444541
664.886110	0.445458
665.227040	0.443669
665.567918	0.445782
665.908746	0.444151
666.249522	0.444497
666.590248	0.446324
666.930922	0.444471
667.271545	0.443953
667.612118	0.443939
667.952639	0.445972
668.293109	0.445265
668.633528	0.448316
668.973896	0.447878
669.314213	0.448865
669.654480	0.451534
669.994695	0.451057
670.334859	0.451833
670.674973	0.453562
671.015035	0.453219
671.355047	0.454347
671.695008	0.455536
672.034918	0.457646
672.374777	0.457405
672.714585	0.458950
673.054342	0.459763
673.394049	0.459688
673.733705	0.458879
674.073310	0.460844
674.412864	0.462600
674.752368	0.464188
675.091820	0.464498
675.431223	0.469430
675.770574	0.469672
676.109875	0.472341
676.449125	0.472652
676.788324	0.475162
677.127473	0.481043
677.466571	0.481122
677.805619	0.483337
678.144616	0.485341
678.483562	0.487054
678.822458	0.489701
679.161303	0.490779
679.500098	0.492164
679.838842	0.493596
680.177535	0.493910
680.516179	0.492328
680.854771	0.492209
681.193314	0.486694
681.531805	0.478656
681.870247	0.469902
682.208638	0.463376
682.546978	0.462749
682.885268	0.464267
683.223508	0.471453
683.561697	0.475573
683.899836	0.478191
684.237925	0.481767
684.575963	0.485512
684.913951	0.488336
685.251889	0.485831
685.589776	0.487940
685.927614	0.490214
686.265401	0.486649
686.603137	0.487765
686.940824	0.484050
687.278460	0.483145
687.616046	0.483748
687.953582	0.479339
688.291068	0.481174
688.628504	0.478407
688.965889	0.481005
689.303224	0.484685
689.640510	0.489422
689.977745	0.494842
690.314930	0.502020
690.652065	0.506987
690.989150	0.512817
691.326185	0.520494
691.663170	0.525016
692.000105	0.531759
692.336990	0.537493
692.673825	0.541711
693.010610	0.547179
693.347345	0.552640
693.684030	0.556435
694.020665	0.560132
694.357251	0.568007
694.693786	0.568778
695.030272	0.572541
695.366707	0.577223
695.703093	0.579057
696.039429	0.578711
696.375716	0.582585
696.711952	0.583754
697.048139	0.585671
697.384276	0.588467
697.720363	0.588676
698.056400	0.588235
698.392388	0.593800
698.728326	0.596077
699.064214	0.598316
699.400053	0.599914
699.735842	0.605233
700.071581	0.606974
700.407270	0.610670
700.742910	0.613370
701.078501	0.618927
701.414042	0.620843
701.749533	0.624320
702.084974	0.630991
702.420366	0.625994
702.755709	0.632567
703.091002	0.639496
703.426246	0.636614
703.761440	0.639871
704.096584	0.642655
704.431679	0.642679
704.766725	0.646118
705.101721	0.648719
705.436668	0.645230
705.771565	0.649973
706.106413	0.646303
706.441212	0.646349
706.775961	0.647072
707.110661	0.646730
707.445311	0.644039
707.779913	0.645626
708.114465	0.643515
708.448967	0.640601
708.783421	0.635333
709.117825	0.631196
709.452180	0.631217
709.786485	0.626884
710.120742	0.619004
710.454949	0.619682
710.789107	0.614411
711.123216	0.607648
711.457275	0.608941
711.791286	0.603758
712.125247	0.605094
712.459159	0.610644
712.793023	0.603141
713.126837	0.613184
713.460602	0.613680
713.794318	0.617247
714.127985	0.618611
714.461602	0.629442
714.795171	0.629904
715.128691	0.638142
715.462162	0.645863
715.795584	0.652310
716.128957	0.655064
716.462281	0.657580
716.795556	0.661707
717.128782	0.668937
717.461960	0.676250
717.795088	0.676380
718.128167	0.682124
718.461198	0.687712
718.794180	0.688019
719.127113	0.692768
719.459997	0.695808
719.792833	0.700148
720.125619	0.701122
720.458357	0.706464
720.791046	0.709203
721.123686	0.711287
721.456278	0.716932
721.788821	0.715643
722.121315	0.719402
722.453761	0.721688
722.786158	0.723457
723.118506	0.720710
723.450805	0.723772
723.783056	0.722926
724.115259	0.723231
724.447412	0.724086
724.779518	0.722141
725.111574	0.722945
725.443582	0.719991
725.775542	0.722405
726.107453	0.717767
726.439315	0.719038
726.771129	0.714731
727.102895	0.711192
727.434612	0.707821
727.766281	0.705367
728.097901	0.704487
728.429473	0.704793
728.760996	0.704140
729.092471	0.703723
729.423897	0.708475
729.755276	0.709374
730.086606	0.708575
730.417887	0.703746
730.749120	0.697567
731.080305	0.694291
731.411442	0.690028
731.742530	0.692070
732.073570	0.692286
732.404562	0.689564
732.735506	0.690718
733.066401	0.694390
733.397249	0.700433
733.728048	0.709963
734.058798	0.723484
734.389501	0.732043
734.720156	0.736893
735.050762	0.743777
735.381320	0.746934
735.711831	0.750947
736.042293	0.755674
736.372707	0.756492
736.703073	0.758663
737.033391	0.758575
737.363661	0.757232
737.693883	0.756420
738.024056	0.754317
738.354182	0.754227
738.684260	0.747959
739.014290	0.745285
739.344272	0.745490
739.674207	0.741318
740.004093	0.740558
740.333931	0.741633
740.663722	0.743171
740.993464	0.743856
741.323159	0.746748
741.652806	0.750716
741.982405	0.755830
742.311956	0.761053
742.641460	0.761818
742.970915	0.764267
743.300323	0.770665
743.629683	0.774080
743.958996	0.777314
744.288260	0.781101
744.617477	0.786010
744.946647	0.787131
745.275768	0.793264
745.604842	0.794029
745.933869	0.798168
746.262847	0.800506
746.591778	0.798584
746.920662	0.802402
747.249498	0.805997
747.578286	0.802969
747.907027	0.798947
748.235720	0.795299
748.564365	0.795670
748.892963	0.797850
749.221514	0.799612
749.550017	0.800552
749.878473	0.802492
750.206881	0.807862
750.535242	0.809313
750.863555	0.808201
751.191821	0.810294
751.520039	0.810557
751.848210	0.813085
752.176334	0.812211
752.504411	0.812832
752.832440	0.816085
753.160421	0.818103
753.488356	0.818964
753.816243	0.819092
754.144082	0.822489
754.471875	0.824220
754.799620	0.823632
755.127318	0.823466
755.454969	0.825474
755.782572	0.826666
756.110129	0.826711
756.437638	0.829351
756.765100	0.829660
757.092515	0.827087
757.419882	0.828031
757.747203	0.829914
758.074477	0.830082
758.401703	0.827569
758.728882	0.826823
759.056014	0.826137
759.383099	0.825241
759.710138	0.823677
760.037129	0.821191
760.364073	0.821868
760.690970	0.822569
761.017820	0.824156
761.344623	0.822830
761.671379	0.818395
761.998088	0.812379
762.324751	0.798249
762.651366	0.766813
762.977935	0.719145
763.304456	0.686883
763.630931	0.686472
763.957359	0.710756
764.283740	0.740366
764.610074	0.762588
764.936362	0.784606
765.262602	0.800817
765.588796	0.814254
765.914943	0.825201
766.241044	0.835280
766.567097	0.841917
766.893104	0.848477
767.219064	0.852399
767.544978	0.857618
767.870845	0.863697
768.196665	0.866455
768.522438	0.868100
768.848165	0.869790
769.173846	0.874937
769.499479	0.877144
769.825066	0.879542
770.150607	0.882625
770.476101	0.882407
770.801548	0.884874
771.126949	0.889206
771.452303	0.890883
771.777611	0.891845
772.102872	0.892572
772.428087	0.895835
772.753256	0.898236
773.078378	0.899678
773.403453	0.902592
773.728482	0.906807
774.053465	0.904457
774.378401	0.906582
774.703291	0.909981
775.028135	0.911422
775.352932	0.910550
775.677683	0.914993
776.002388	0.915541
776.327046	0.914036
776.651658	0.918029
776.976224	0.919328
777.300743	0.919614
777.625216	0.919792
777.949643	0.921653
778.274024	0.920722
778.598359	0.922629
778.922647	0.923013
779.246889	0.924319
779.571086	0.924598
779.895236	0.925646
780.219339	0.925545
780.543397	0.923648
780.867409	0.923688
781.191374	0.924357
781.515294	0.925517
781.839167	0.925433
782.162995	0.926981
782.486776	0.925410
782.810511	0.926198
783.134201	0.928002
783.457844	0.928461
783.781441	0.928998
784.104993	0.931156
784.428498	0.931845
784.751958	0.932699
785.075372	0.933227
785.398739	0.933341
785.722061	0.931102
786.045337	0.931819
786.368568	0.932214
786.691752	0.932830
787.014891	0.927129
787.337983	0.920961
787.661030	0.914279
787.984031	0.905011
788.306987	0.898934
788.629897	0.898108
788.952760	0.903354
789.275579	0.908433
789.598351	0.916255
789.921078	0.923233
790.243759	0.926107
790.566395	0.928716
790.888984	0.933039
791.211529	0.934520
791.534027	0.936786
791.856480	0.938714
792.178888	0.941068
792.501249	0.941989
792.823566	0.944338
793.145836	0.942724
793.468062	0.945011
793.790241	0.945873
794.112375	0.942612
794.434464	0.942205
794.756507	0.942333
795.078505	0.940548
795.400457	0.937172
795.722364	0.932268
796.044226	0.926615
796.366042	0.925521
796.687812	0.926403
797.009538	0.926949
797.331218	0.930391
797.652852	0.932983
797.974442	0.934084
798.295986	0.935944
798.617484	0.935762
798.938938	0.938968
799.260346	0.940962
799.581709	0.941927
799.903026	0.944214
800.224299	0.944695
800.545526	0.946812
800.866708	0.948337
801.187845	0.949771
801.508936	0.950973
801.829983	0.950251
802.150984	0.952927
802.471940	0.953590
802.792851	0.953063
803.113717	0.953540
803.434538	0.954810
803.755314	0.956105
804.076045	0.955116
804.396731	0.955713
804.717372	0.953547
805.037967	0.957166
805.358518	0.955491
805.679024	0.953238
805.999485	0.954882
806.319901	0.953293
806.640272	0.955606
806.960598	0.954360
807.280879	0.952137
807.601115	0.952449
807.921306	0.954286
808.241453	0.953313
808.561554	0.952892
808.881611	0.953521
809.201623	0.953484
809.521590	0.955937
809.841513	0.955732
810.161390	0.954337
810.481223	0.955770
810.801011	0.958273
811.120755	0.959479
811.440453	0.957990
811.760107	0.959361
812.079716	0.958488
812.399281	0.959734
812.718801	0.960903
813.038276	0.961492
813.357707	0.963071
813.677093	0.962991
813.996434	0.963161
814.315731	0.963992
814.634983	0.964073
814.954191	0.964919
815.273354	0.961834
815.592473	0.961180
815.911547	0.961775
816.230577	0.958997
816.549562	0.958898
816.868502	0.957770
817.187399	0.959326
817.506250	0.956726
817.825058	0.956658
818.143821	0.955826
818.462539	0.954332
818.781213	0.950984
819.099843	0.946113
819.418429	0.936515
819.736970	0.929747
820.055466	0.920068
820.373919	0.911858
820.692327	0.900073
821.010691	0.882686
821.329011	0.836848
821.647286	0.760735
821.965517	0.687978
822.283704	0.661373
822.601847	0.665319
822.919945	0.697660
823.237999	0.734442
823.556010	0.768109
823.873976	0.799395
824.191897	0.826491
824.509775	0.849810
824.827609	0.868582
825.145398	0.878975
825.463144	0.879729
825.780845	0.873230
826.098502	0.862995
826.416116	0.838419
826.733685	0.813152
827.051210	0.807613
827.368692	0.821379
827.686129	0.845607
828.003522	0.871462
828.320872	0.891930
828.638177	0.909897
828.955439	0.924203
829.272656	0.932173
829.589830	0.940150
829.906960	0.947657
830.224046	0.951202
830.541088	0.955508
830.858086	0.957297
831.175041	0.961468
831.491952	0.960705
831.808819	0.960107
832.125642	0.958547
832.442421	0.952901
832.759157	0.942283
833.075849	0.920159
833.392497	0.894709
833.709101	0.878116
834.025662	0.882392
834.342179	0.896747
834.658653	0.915113
834.975083	0.928711
835.291469	0.941973
835.607811	0.950269
835.924110	0.955729
836.240366	0.962556
836.556578	0.966947
836.872746	0.970654
837.188871	0.972499
837.504952	0.974726
837.820990	0.975951
838.136984	0.977132
838.452935	0.978095
838.768842	0.978187
839.084706	0.976789
839.400526	0.966866
839.716303	0.947568
840.032037	0.939220
840.347727	0.940755
840.663373	0.950529
840.978977	0.959884
841.294537	0.968063
841.610054	0.973847
841.925527	0.977213
842.240957	0.979952
842.556344	0.981561
842.871687	0.983911
843.186987	0.984689
843.502244	0.986399
843.817458	0.986601
844.132629	0.987509
844.447756	0.988939
844.762840	0.988661
845.077881	0.989961
845.392879	0.988384
845.707833	0.988890
846.022745	0.991505
846.337613	0.991246
846.652438	0.990728
846.967221	0.991382
847.281960	0.991215
847.596656	0.991908
847.911309	0.991859
848.225919	0.991263
848.540485	0.992427
848.855009	0.992282
849.169490	0.992224
849.483928	0.992165
849.798323	0.992575
850.112675	0.993339
850.426984	0.992328
850.741251	0.992839
851.055474	0.993016
851.369654	0.993647
851.683792	0.991779
851.997887	0.992479
852.311938	0.993594
852.625947	0.992573
852.939914	0.991909
853.253837	0.992511
853.567718	0.993864
853.881555	0.994025
854.195350	0.992832
854.509103	0.992012
854.822812	0.993246
855.136479	0.992847
855.450103	0.992478
855.763685	0.992525
856.077224	0.993203
856.390720	0.992123
856.704173	0.993348
857.017584	0.992134
857.330953	0.991980
857.644278	0.991054
857.957561	0.992306
858.270802	0.992216
858.584000	0.992112
858.897155	0.992617
859.210268	0.991804
859.523339	0.993224
859.836367	0.994009
860.149352	0.991991
860.462295	0.992625
860.775195	0.993306
861.088054	0.991867
861.400869	0.993501
861.713642	0.992205
862.026373	0.994252
862.339062	0.994309
862.651708	0.993162
862.964312	0.993021
863.276873	0.993435
863.589392	0.992656
863.901869	0.991558
864.214303	0.991829
864.526696	0.991139
864.839045	0.991363
865.151353	0.990632
865.463619	0.990057
865.775842	0.992188
866.088023	0.992774
866.400162	0.991055
866.712258	0.992912
867.024313	0.991239
867.336325	0.991699
867.648296	0.992179
867.960224	0.991065
868.272110	0.991623
868.583954	0.991456
868.895755	0.992978
869.207515	0.991028
869.519233	0.992715
869.830909	0.991070
870.142542	0.990270
870.454134	0.990855
870.765684	0.990352
871.077191	0.990503
871.388657	0.990132
871.700081	0.990634
872.011463	0.990801
872.322803	0.989788
872.634101	0.988652
872.945357	0.988166
873.256571	0.988018
873.567744	0.987915
873.878874	0.988215
874.189963	0.988324
874.501010	0.990489
874.812015	0.987619
875.122979	0.988360
875.433900	0.988884
875.744780	0.989528
876.055618	0.986895
876.366415	0.988182
876.677169	0.987548
876.987882	0.988083
877.298554	0.989169
877.609183	0.987570
877.919771	0.987381
878.230317	0.986742
878.540822	0.984818
878.851285	0.984507
879.161707	0.982861
879.472087	0.980035
879.782425	0.972397
880.092722	0.963865
880.402977	0.945532
880.713191	0.916228
881.023363	0.879238
881.333494	0.859941
881.643583	0.854421
881.953631	0.861444
882.263637	0.875790
882.573602	0.892039
882.883526	0.905504
883.193408	0.918204
883.503248	0.928799
883.813048	0.937961
884.122806	0.947429
884.432522	0.955146
884.742197	0.962856
885.051831	0.966677
885.361424	0.969626
885.670975	0.974464
885.980485	0.977017
886.289954	0.978924
886.599382	0.979275
886.908768	0.982182
887.218113	0.983648
887.527417	0.985511
887.836680	0.986186
888.145901	0.988358
888.455082	0.987957
888.764221	0.989191
889.073319	0.988956
889.382376	0.990051
889.691392	0.988787
890.000366	0.990598
890.309300	0.989665
890.618193	0.989094
890.927044	0.988180
891.235855	0.988327
891.544625	0.988447
891.853353	0.988520
892.162041	0.987687
892.470687	0.987998
892.779293	0.984804
893.087858	0.982011
893.396381	0.980183
893.704864	0.975460
894.013306	0.969166
894.321707	0.960726
894.630068	0.954079
894.938387	0.952475
895.246665	0.955149
895.554903	0.958483
895.863100	0.965721
896.171256	0.969828
896.479371	0.973817
896.787446	0.977427
897.095480	0.980911
897.403473	0.982144
897.711425	0.983419
898.019336	0.985971
898.327207	0.986471
898.635038	0.986504
898.942827	0.987074
899.250576	0.986936
899.558284	0.988918
899.865952	0.987805
900.173579	0.988855
900.481165	0.989698
900.788711	0.989741
901.096216	0.992071
901.403681	0.992328
901.711105	0.992162
902.018489	0.990844
902.325832	0.991290
902.633135	0.991292
902.940397	0.989739
903.247619	0.986277
903.554800	0.979178
903.861941	0.966042
904.169041	0.951804
904.476101	0.945942
904.783121	0.945217
905.090100	0.952832
905.397039	0.960096
905.703938	0.967276
906.010796	0.974874
906.317614	0.977811
906.624391	0.983111
906.931129	0.985444
907.237826	0.988504
907.544483	0.990336
907.851099	0.990527
908.157675	0.991738
908.464211	0.992682
908.770707	0.993464
909.077163	0.994453
909.383578	0.994978
909.689954	0.993746
909.996289	0.995548
910.302584	0.995911
910.608839	0.997370
910.915054	0.995273
911.221229	0.996944
911.527363	0.994959
911.833458	0.994986
912.139513	0.995641
912.445527	0.996142
912.751502	0.995148
913.057436	0.992319
913.363331	0.994753
913.669186	0.993064
913.975000	0.991044
914.280775	0.988978
914.586510	0.985902
914.892205	0.981053
915.197859	0.975963
915.503475	0.968373
915.809050	0.961340
916.114585	0.955881
916.420081	0.955626
916.725536	0.956158
917.030952	0.960132
917.336328	0.964590
917.641665	0.968427
917.946961	0.972821
918.252218	0.976426
918.557435	0.980042
918.862612	0.982790
919.167750	0.984348
919.472848	0.986749
919.777906	0.989585
920.082925	0.989707
920.387904	0.990260
920.692843	0.991402
920.997743	0.990823
921.302603	0.992469
921.607423	0.993085
921.912204	0.992860
922.216946	0.994301
922.521647	0.995258
922.826310	0.994537
923.130932	0.995587
923.435516	0.996472
923.740059	0.995482
924.044564	0.996234
924.349028	0.996221
924.653454	0.997534
924.957840	0.996976
925.262186	0.997270
925.566493	0.997982
925.870761	0.997880
926.174989	0.997780
926.479178	0.998612
926.783328	0.998803
927.087438	0.997595
927.391509	0.998481
927.695541	0.998735
927.999533	0.998685
928.303486	0.999079
928.607400	0.999092
928.911275	1.000085
929.215110	1.000440
929.518906	0.999397
929.822663	0.999633
930.126381	1.000154
930.430060	0.999592
930.733699	0.998630
931.037299	0.999793
931.340861	1.000672
931.644383	0.998442
931.947866	0.998924
932.251309	0.999219
932.554714	0.998256
932.858080	0.999887
933.161407	0.998371
933.464694	0.999194
933.767943	1.000158
934.071153	0.998637
934.374323	0.999795
934.677455	0.999230
934.980548	1.000456
935.283602	0.999528
935.586617	0.999675
935.889593	1.000487
936.192530	1.000202
936.495428	0.998887
936.798287	0.999331
937.101108	0.999295
937.403890	0.997508
937.706632	0.999714
938.009336	0.999227
938.312002	0.997121
938.614628	0.998398
938.917216	0.997026
939.219765	0.996811
939.522275	0.997392
939.824747	0.996760
940.127179	0.997181
940.429573	0.998872
940.731929	0.996253
941.034246	0.997315
941.336524	0.996578
941.638763	0.997675
941.940964	0.996685
942.243126	0.997274
942.545250	0.999444
942.847335	0.999105
943.149381	0.997687
943.451389	0.997642
943.753359	0.999160
944.055290	0.999579
944.357182	0.999819
944.659036	0.998955
944.960851	0.999433
945.262628	0.999650
945.564367	1.000296
945.866067	0.999243
946.167729	0.999305
946.469352	0.999158
946.770937	0.996826
947.072484	0.999973
947.373992	0.999244
947.675462	0.999029
947.976893	0.999116
948.278286	1.000993
948.579641	0.999788
948.880958	0.999898
949.182236	0.999722
949.483476	1.000089
949.784678	0.999822
950.085841	0.998918
950.386967	0.999222
950.688054	0.999465
950.989103	0.998704
951.290114	0.998360
951.591087	0.999754
951.892021	0.998053
952.192917	0.999868
952.493776	0.998743
952.794596	0.999000
953.095378	0.999168
953.396122	0.998789
953.696828	0.999945
953.997496	0.999329
954.298126	1.000050
954.598718	0.999629
954.899272	1.000128
955.199788	0.998197
955.500266	1.001350
955.800706	1.000646
956.101108	1.000039
956.401472	1.001296
956.701798	1.000672
957.002087	0.998907
957.302337	1.000947
957.602550	1.000637
957.902724	1.000900
958.202861	1.000638
958.502960	1.000347
958.803022	1.001936
959.103045	1.002029
959.403031	1.000946
959.702979	1.002357
960.002889	1.000031
960.302762	1.000758
960.602596	1.002116
960.902393	1.001278
961.202153	1.001964
961.501875	1.000410
961.801559	1.001437
962.101205	1.000242
962.400814	1.002346
962.700385	1.002543
962.999918	1.002317
963.299414	1.000557
963.598873	1.001820
963.898293	1.001352
964.197677	1.000712
964.497022	1.002137
964.796331	1.001609
965.095601	1.001890
965.394835	1.001586
965.694030	1.004082
965.993189	1.000730
966.292309	1.001687
966.591393	1.001431
966.890439	1.003266
967.189447	1.001578
967.488419	1.002095
967.787353	1.002462
968.086249	1.002554
968.385108	1.001287
968.683930	1.002184
968.982714	1.001774
969.281462	1.001383
969.580172	1.002447
969.878844	1.002404
970.177480	1.001807
970.476078	1.003110
970.774639	1.003125
971.073162	1.001153
971.371649	1.002225
971.670098	1.001966
971.968510	1.000994
972.266885	1.002111
972.565223	1.001519
972.863524	1.001316
973.161788	1.002320
973.460014	1.002219
973.758204	1.001012
974.056356	1.001629
974.354471	1.001527
974.652550	1.002181
974.950591	1.002043
975.248595	1.001155
975.546563	1.002834
975.844493	1.002491
976.142386	1.002046
976.440243	1.002268
976.738062	1.002395
977.035845	1.001282
977.333590	1.002883
977.631299	1.000445
977.928971	1.002004
978.226606	1.002496
978.524204	1.002396
978.821765	1.001667
979.119290	1.003456
979.416777	1.002849
979.714228	1.000994
980.011642	1.002947
980.309020	1.001949
980.606360	1.002606
980.903664	1.002355
981.200931	1.000938
981.498162	1.001694
981.795356	1.001547
982.092513	1.001206
982.389633	1.001148
982.686717	0.999922
982.983764	0.999447
983.280775	1.001973
983.577749	1.001140
983.874686	0.998792
984.171587	1.000100
984.468451	1.001012
984.765279	1.000950
985.062070	1.000759
985.358824	1.001991
985.655543	1.003223
985.952224	1.002222
986.248869	1.002668
986.545478	1.002372
986.842050	1.002456
987.138586	1.001438
987.435086	1.002566
987.731549	1.003631
988.027975	1.003498
988.324366	1.002232
988.620719	1.003938
988.917037	1.002589
989.213318	1.003704
989.509563	1.002095
989.805772	1.003084
990.101944	1.003438
990.398080	1.001927
990.694180	1.003557
990.990244	1.002446
991.286271	1.002370
991.582262	1.003162
991.878217	1.004205
992.174136	1.003162
992.470019	1.003031
992.765865	1.003366
993.061676	1.002937
993.357450	1.003311
993.653188	1.004104
993.948890	1.001712
994.244556	1.002943
994.540186	1.002905
994.835780	1.001168
995.131337	1.004496
995.426859	1.002226
995.722345	1.002410
996.017795	1.001262
996.313208	1.002800
996.608586	1.000879
996.903928	1.001724
997.199234	1.001424
997.494504	1.003427
997.789738	1.000163
998.084936	1.003488
998.380099	1.001309
998.675225	1.003697
998.970316	1.002418
999.265371	1.003455
999.560390	1.003339
999.855373	1.003166
1000.150320	1.003690
1000.445232	1.002479
1000.740108	1.002819
1001.034948	1.001764
1001.329752	1.003880
1001.624521	1.003085
1001.919254	1.003404
1002.213951	1.004153
1002.508613	1.001921
1002.803239	1.002715
1003.097829	1.003737
1003.392384	1.003492
1003.686903	1.003354
1003.981386	1.002600
1004.275834	1.004090
1004.570246	1.002475
1004.864623	1.004364
1005.158964	1.003223
1005.453270	1.002642
1005.747540	1.002426
1006.041775	1.002991
1006.335974	1.003375
1006.630138	1.003704
1006.924266	1.002309
1007.218359	1.001252
1007.512416	1.002881
1007.806438	1.003008
1008.100425	1.001663
1008.394376	1.003534
1008.688292	1.002187
1008.982172	1.002093
1009.276017	1.003803
1009.569827	1.004480
1009.863602	1.001627
1010.157341	1.003847
1010.451045	1.003082
1010.744714	1.004035
1011.038347	1.003261
1011.331945	1.002308
1011.625508	1.002640
1011.919036	1.002429
1012.212528	1.003747
1012.505986	1.002735
1012.799408	1.002723
1013.092795	1.003208
1013.386147	1.002953
1013.679464	1.004426
1013.972745	1.003503
1014.265992	1.003412
1014.559204	1.003664
1014.852380	1.003667
1015.145521	1.003215
1015.438628	1.003098
1015.731699	1.004059
1016.024736	1.003994
1016.317737	1.003697
1016.610703	1.003030
1016.903635	1.002985
1017.196531	1.004116
1017.489393	1.002828
1017.782219	1.002136
1018.075011	1.002305
1018.367768	1.002015
1018.660490	1.004048
1018.953177	1.004048
1019.245829	1.004048
