Dividing Wavelength (nm)	Counts (n)	Blue Motor Position (mm): 4.600000	Red Motor Position (mm): 0.000000	
326.493990	1.006183
326.888308	1.006183
327.282561	1.006183
327.676750	1.007041
328.070874	1.006936
328.464933	1.006734
328.858929	1.008461
329.252859	1.007758
329.646726	1.006892
330.040528	1.005930
330.434265	1.005723
330.827938	1.005969
331.221547	1.007587
331.615091	1.007262
332.008571	1.006983
332.401986	1.004956
332.795338	1.005775
333.188625	1.007021
333.581847	1.004937
333.975006	1.006326
334.368100	1.005837
334.761129	1.005427
335.154095	1.005812
335.546996	1.004566
335.939833	0.998779
336.332606	0.999487
336.725315	0.998262
337.117960	1.000527
337.510540	0.998428
337.903056	0.999366
338.295508	1.000986
338.687896	1.001414
339.080220	0.999208
339.472480	0.998135
339.864676	0.999223
340.256807	0.999438
340.648875	0.999887
341.040879	0.999616
341.432818	1.000194
341.824694	0.999031
342.216506	0.999638
342.608253	0.999374
342.999937	1.000124
343.391557	0.999638
343.783113	1.000418
344.174605	0.999471
344.566033	0.997874
344.957397	0.999695
345.348697	0.999786
345.739934	0.998732
346.131106	0.998420
346.522215	0.998507
346.913260	0.999236
347.304241	0.998247
347.695159	0.999250
348.086012	0.998230
348.476802	0.999324
348.867528	0.998431
349.258191	0.998865
349.648789	0.998982
350.039324	0.998974
350.429796	0.998720
350.820203	0.997848
351.210548	0.999614
351.600828	0.999187
351.991045	0.999409
352.381198	0.998085
352.771288	0.998301
353.161314	0.997868
353.551276	0.998455
353.941175	0.997113
354.331010	1.000103
354.720782	0.997916
355.110490	0.998103
355.500135	0.998907
355.889717	0.997871
356.279235	0.998010
356.668689	0.999285
357.058080	0.997958
357.447408	0.997620
357.836672	0.998248
358.225873	0.999186
358.615010	0.997815
359.004084	0.996750
359.393095	0.998728
359.782043	0.997496
360.170927	0.998955
360.559748	0.998120
360.948505	0.997579
361.337199	0.996780
361.725830	0.997842
362.114398	0.997914
362.502903	0.996956
362.891344	0.995515
363.279722	0.997141
363.668037	0.998349
364.056289	0.998140
364.444478	0.998245
364.832603	0.997262
365.220665	0.997108
365.608665	0.996375
365.996601	0.997956
366.384474	0.995971
366.772284	0.997433
367.160031	0.995248
367.547715	0.994683
367.935336	0.995212
368.322893	0.994244
368.710388	0.993501
369.097820	0.991120
369.485189	0.989228
369.872495	0.987149
370.259738	0.985527
370.646918	0.981723
371.034035	0.978858
371.421090	0.976289
371.808081	0.971178
372.195010	0.969393
372.581875	0.964926
372.968678	0.959875
373.355418	0.956473
373.742096	0.948485
374.128710	0.944555
374.515262	0.939151
374.901751	0.933394
375.288177	0.928600
375.674540	0.922240
376.060841	0.915926
376.447079	0.909240
376.833254	0.902786
377.219367	0.898185
377.605417	0.886418
377.991404	0.883487
378.377329	0.876639
378.763191	0.870822
379.148991	0.860613
379.534727	0.854190
379.920402	0.844781
380.306013	0.841770
380.691563	0.828300
381.077049	0.822711
381.462474	0.818585
381.847835	0.807488
382.233134	0.803068
382.618371	0.801877
383.003545	0.784996
383.388657	0.783454
383.773706	0.775658
384.158693	0.771646
384.543618	0.766197
384.928480	0.757416
385.313280	0.747250
385.698017	0.747349
386.082692	0.735538
386.467305	0.734279
386.851856	0.728856
387.236344	0.723328
387.620770	0.717630
388.005133	0.711527
388.389435	0.706286
388.773674	0.703898
389.157851	0.695710
389.541965	0.693701
389.926018	0.700088
390.310008	0.686794
390.693936	0.683611
391.077802	0.675101
391.461606	0.677574
391.845348	0.666445
392.229027	0.666016
392.612645	0.664115
392.996200	0.651273
393.379694	0.643518
393.763125	0.634493
394.146494	0.638998
394.529801	0.629532
394.913047	0.621957
395.296230	0.627054
395.679351	0.619337
396.062410	0.615671
396.445408	0.618410
396.828343	0.614147
397.211217	0.608138
397.594028	0.621109
397.976778	0.611118
398.359466	0.607805
398.742092	0.603345
399.124656	0.615662
399.507158	0.602688
399.889598	0.600750
400.271977	0.591434
400.654294	0.595601
401.036549	0.594094
401.418742	0.599431
401.800874	0.584395
402.182944	0.581702
402.564952	0.573651
402.946898	0.575720
403.328783	0.575303
403.710606	0.586589
404.092367	0.561797
404.474067	0.566948
404.855705	0.565973
405.237282	0.575254
405.618797	0.560970
406.000250	0.556747
406.381642	0.547330
406.762972	0.551758
407.144240	0.550488
407.525447	0.550579
407.906593	0.543094
408.287677	0.538916
408.668700	0.546334
409.049661	0.541162
409.430560	0.535221
409.811399	0.544191
410.192176	0.525948
410.572891	0.533379
410.953545	0.521312
411.334138	0.535024
411.714669	0.527221
412.095139	0.540426
412.475547	0.523660
412.855894	0.525838
413.236180	0.525266
413.616405	0.530157
413.996568	0.520428
414.376670	0.526611
414.756711	0.531653
415.136691	0.528686
415.516609	0.519898
415.896466	0.516244
416.276262	0.512237
416.655997	0.514354
417.035670	0.495416
417.415283	0.487260
417.794834	0.492410
418.174324	0.497624
418.553753	0.506905
418.933121	0.488731
419.312428	0.482888
419.691674	0.488191
420.070859	0.476826
420.449983	0.484547
420.829045	0.474039
421.208047	0.483001
421.586988	0.476128
421.965867	0.474836
422.344686	0.463284
422.723444	0.476702
423.102141	0.493185
423.480777	0.465875
423.859352	0.486787
424.237866	0.463562
424.616319	0.464995
424.994712	0.455827
425.373044	0.465678
425.751314	0.454292
426.129524	0.470675
426.507673	0.453819
426.885762	0.447479
427.263789	0.452873
427.641756	0.462705
428.019662	0.452394
428.397508	0.452442
428.775292	0.457006
429.153016	0.448838
429.530679	0.454860
429.908282	0.448292
430.285824	0.458049
430.663305	0.436548
431.040726	0.458080
431.418086	0.457629
431.795385	0.449587
432.172624	0.448109
432.549802	0.448663
432.926920	0.447423
433.303977	0.447431
433.680974	0.444381
434.057910	0.442839
434.434786	0.442088
434.811601	0.444697
435.188355	0.427398
435.565050	0.436522
435.941683	0.437301
436.318257	0.421726
436.694770	0.422671
437.071222	0.420863
437.447614	0.425433
437.823946	0.431282
438.200218	0.420763
438.576429	0.430221
438.952580	0.423560
439.328670	0.419499
439.704700	0.427197
440.080670	0.428026
440.456580	0.409472
440.832429	0.417326
441.208218	0.428260
441.583947	0.417160
441.959616	0.415866
442.335224	0.422307
442.710773	0.413006
443.086261	0.411179
443.461689	0.424655
443.837057	0.414830
444.212365	0.405031
444.587612	0.412028
444.962800	0.401379
445.337927	0.403111
445.712995	0.429159
446.088002	0.390881
446.462949	0.401865
446.837837	0.406781
447.212664	0.395100
447.587431	0.387131
447.962139	0.356813
448.336786	0.316156
448.711374	0.326597
449.085901	0.370854
449.460369	0.375191
449.834776	0.378441
450.209124	0.357779
450.583412	0.350673
450.957640	0.343352
451.331808	0.354949
451.705917	0.378454
452.079965	0.383094
452.453954	0.371027
452.827883	0.377991
453.201752	0.372762
453.575562	0.384309
453.949311	0.372806
454.323001	0.378708
454.696632	0.374569
455.070202	0.367170
455.443713	0.358991
455.817164	0.353875
456.190556	0.349274
456.563888	0.346664
456.937160	0.343943
457.310373	0.361486
457.683526	0.360050
458.056619	0.366101
458.429653	0.366136
458.802628	0.370281
459.175542	0.363981
459.548398	0.346690
459.921194	0.338971
460.293930	0.339075
460.666607	0.317046
461.039224	0.305211
461.411782	0.300271
461.784280	0.300260
462.156719	0.304167
462.529099	0.308334
462.901419	0.324194
463.273680	0.328968
463.645882	0.328062
464.018024	0.333803
464.390106	0.327154
464.762130	0.311375
465.134094	0.294506
465.505999	0.263669
465.877845	0.233864
466.249631	0.220756
466.621358	0.228123
466.993026	0.242293
467.364634	0.248391
467.736184	0.256964
468.107674	0.266158
468.479105	0.264764
468.850477	0.272029
469.221790	0.278433
469.593043	0.288935
469.964238	0.293260
470.335373	0.293087
470.706449	0.291292
471.077467	0.292213
471.448425	0.253825
471.819324	0.229598
472.190164	0.228963
472.560945	0.257536
472.931667	0.280079
473.302330	0.284309
473.672934	0.296291
474.043479	0.284440
474.413965	0.286173
474.784393	0.289793
475.154761	0.284609
475.525070	0.281860
475.895321	0.287358
476.265513	0.282118
476.635645	0.276948
477.005719	0.276967
477.375734	0.273470
477.745691	0.266700
478.115588	0.263106
478.485427	0.256498
478.855207	0.243555
479.224928	0.225824
479.594591	0.213688
479.964194	0.217298
480.333739	0.218567
480.703226	0.219951
481.072653	0.218175
481.442022	0.214273
481.811333	0.210785
482.180584	0.214150
482.549777	0.219497
482.918912	0.222684
483.287988	0.222412
483.657005	0.222074
484.025964	0.228578
484.394864	0.225973
484.763706	0.226521
485.132489	0.231642
485.501213	0.232423
485.869879	0.230737
486.238487	0.233880
486.607036	0.231873
486.975527	0.236618
487.343959	0.232370
487.712333	0.231226
488.080648	0.232632
488.448905	0.231873
488.817104	0.233255
489.185244	0.227534
489.553326	0.224373
489.921350	0.214521
490.289315	0.196634
490.657222	0.191755
491.025070	0.193057
491.392861	0.195007
491.760593	0.200730
492.128267	0.206523
492.495883	0.211908
492.863440	0.218210
493.230939	0.224815
493.598380	0.226239
493.965763	0.228408
494.333088	0.230636
494.700354	0.232249
495.067563	0.231096
495.434713	0.234619
495.801805	0.232003
496.168839	0.233753
496.535815	0.235196
496.902733	0.234897
497.269593	0.236730
497.636395	0.234432
498.003139	0.234591
498.369825	0.237566
498.736453	0.233970
499.103023	0.235425
499.469535	0.235218
499.835989	0.235251
500.202385	0.236184
500.568723	0.239360
500.935003	0.234788
501.301226	0.238812
501.667390	0.233005
502.033497	0.231217
502.399546	0.234262
502.765537	0.236336
503.131470	0.234552
503.497345	0.230755
503.863163	0.239399
504.228923	0.232572
504.594625	0.231070
504.960269	0.236750
505.325856	0.232192
505.691385	0.236255
506.056856	0.233047
506.422270	0.232504
506.787625	0.234606
507.152924	0.232353
507.518164	0.232864
507.883347	0.234384
508.248472	0.236150
508.613540	0.231019
508.978550	0.233684
509.343503	0.234311
509.708398	0.231881
510.073236	0.229284
510.438016	0.228982
510.802738	0.230120
511.167403	0.229241
511.532010	0.231482
511.896561	0.226586
512.261053	0.225168
512.625488	0.227507
512.989866	0.227609
513.354186	0.227993
513.718449	0.230002
514.082655	0.226295
514.446803	0.228507
514.810894	0.226278
515.174927	0.228726
515.538904	0.228570
515.902822	0.225117
516.266684	0.227497
516.630488	0.228827
516.994235	0.227719
517.357925	0.226413
517.721558	0.224426
518.085133	0.224124
518.448651	0.223888
518.812112	0.226592
519.175516	0.225935
519.538863	0.223661
519.902152	0.225571
520.265385	0.222363
520.628560	0.223981
520.991678	0.224348
521.354739	0.223232
521.717743	0.224785
522.080690	0.224910
522.443580	0.222482
522.806413	0.223257
523.169189	0.222841
523.531908	0.221264
523.894569	0.224869
524.257174	0.224747
524.619722	0.222532
524.982213	0.223647
525.344647	0.222612
525.707025	0.223427
526.069345	0.221522
526.431608	0.223613
526.793815	0.221094
527.155964	0.225383
527.518057	0.224309
527.880093	0.225111
528.242072	0.223794
528.603995	0.225764
528.965860	0.227593
529.327669	0.226302
529.689421	0.227193
530.051117	0.228175
530.412755	0.225860
530.774337	0.228081
531.135862	0.228481
531.497331	0.227771
531.858743	0.230765
532.220098	0.227372
532.581396	0.230061
532.942638	0.230704
533.303824	0.231339
533.664953	0.231126
534.026025	0.232876
534.387040	0.231032
534.747999	0.230851
535.108902	0.229646
535.469748	0.234762
535.830537	0.232528
536.191270	0.233010
536.551947	0.232331
536.912567	0.232426
537.273131	0.234344
537.633638	0.234454
537.994089	0.234668
538.354483	0.235966
538.714821	0.232672
539.075103	0.232806
539.435328	0.233510
539.795497	0.237395
540.155609	0.233796
540.515665	0.231972
540.875665	0.237545
541.235609	0.236124
541.595496	0.236304
541.955328	0.232806
542.315102	0.235080
542.674821	0.236507
543.034483	0.236640
543.394090	0.236497
543.753640	0.237988
544.113134	0.233011
544.472571	0.236264
544.831953	0.233406
545.191278	0.237276
545.550548	0.236716
545.909761	0.233985
546.268918	0.234628
546.628019	0.232598
546.987064	0.235371
547.346053	0.237026
547.704986	0.234847
548.063863	0.235346
548.422684	0.235590
548.781449	0.237367
549.140158	0.235118
549.498811	0.237825
549.857408	0.240720
550.215949	0.235452
550.574434	0.238775
550.932864	0.236750
551.291237	0.235403
551.649555	0.236958
552.007817	0.236683
552.366022	0.237657
552.724173	0.237558
553.082267	0.237710
553.440305	0.234808
553.798288	0.238949
554.156215	0.235629
554.514086	0.236288
554.871902	0.239533
555.229661	0.238843
555.587365	0.239482
555.945014	0.241881
556.302606	0.239055
556.660143	0.241388
557.017625	0.237686
557.375050	0.240219
557.732421	0.237477
558.089735	0.238929
558.446994	0.239268
558.804197	0.238534
559.161345	0.238073
559.518437	0.241490
559.875474	0.239580
560.232455	0.239135
560.589381	0.240264
560.946251	0.240520
561.303065	0.237963
561.659825	0.239268
562.016528	0.240967
562.373177	0.243506
562.729770	0.241092
563.086307	0.242656
563.442789	0.240824
563.799216	0.243196
564.155587	0.242502
564.511904	0.243546
564.868164	0.243652
565.224370	0.243169
565.580520	0.245065
565.936615	0.244828
566.292654	0.247854
566.648638	0.245102
567.004567	0.245915
567.360441	0.246510
567.716260	0.248393
568.072023	0.246196
568.427732	0.247135
568.783385	0.249451
569.138982	0.247516
569.494525	0.247221
569.850013	0.250183
570.205445	0.248408
570.560823	0.251218
570.916145	0.253262
571.271412	0.251221
571.626625	0.252955
571.981782	0.253453
572.336884	0.254248
572.691931	0.254062
573.046923	0.255262
573.401860	0.256199
573.756743	0.258132
574.111570	0.257157
574.466342	0.257437
574.821059	0.256803
575.175722	0.259375
575.530330	0.259067
575.884882	0.259392
576.239380	0.261382
576.593823	0.261986
576.948211	0.261385
577.302544	0.264768
577.656823	0.264309
578.011047	0.264202
578.365216	0.265297
578.719330	0.267263
579.073389	0.266480
579.427394	0.268440
579.781344	0.269114
580.135239	0.270290
580.489080	0.269956
580.842866	0.273019
581.196597	0.273124
581.550273	0.271458
581.903895	0.272749
582.257463	0.270364
582.610975	0.274140
582.964434	0.273616
583.317837	0.275799
583.671186	0.276472
584.024481	0.276337
584.377721	0.278539
584.730906	0.279747
585.084037	0.278995
585.437113	0.280894
585.790135	0.280024
586.143103	0.283246
586.496016	0.283868
586.848874	0.281799
587.201679	0.282541
587.554428	0.285816
587.907124	0.284669
588.259765	0.285364
588.612352	0.285560
588.964884	0.289789
589.317362	0.288794
589.669786	0.288824
590.022155	0.287501
590.374470	0.287074
590.726731	0.288710
591.078937	0.293712
591.431090	0.290560
591.783188	0.294432
592.135232	0.294964
592.487222	0.294673
592.839157	0.292869
593.191038	0.295207
593.542866	0.297249
593.894639	0.300327
594.246358	0.298988
594.598022	0.298248
594.949633	0.301648
595.301190	0.302626
595.652692	0.301727
596.004141	0.297540
596.355535	0.305375
596.706876	0.306279
597.058162	0.308789
597.409395	0.305791
597.760573	0.303668
598.111698	0.306889
598.462768	0.307285
598.813785	0.308871
599.164748	0.310113
599.515657	0.310608
599.866511	0.313768
600.217312	0.309135
600.568060	0.314207
600.918753	0.310541
601.269392	0.311590
601.619978	0.315084
601.970510	0.312364
602.320988	0.312581
602.671412	0.310334
603.021783	0.313148
603.372100	0.314175
603.722363	0.314113
604.072572	0.314563
604.422728	0.314880
604.772830	0.316641
605.122878	0.316732
605.472872	0.316713
605.822813	0.315082
606.172701	0.317979
606.522534	0.315521
606.872314	0.315502
607.222041	0.316409
607.571714	0.314399
607.921333	0.315737
608.270899	0.315632
608.620411	0.311947
608.969870	0.316133
609.319276	0.316765
609.668627	0.316269
610.017926	0.315187
610.367171	0.313255
610.716362	0.313854
611.065500	0.314072
611.414585	0.313012
611.763616	0.313093
612.112594	0.314239
612.461518	0.313139
612.810389	0.311020
613.159207	0.313409
613.507971	0.315076
613.856682	0.311171
614.205340	0.311897
614.553945	0.309398
614.902496	0.313047
615.250994	0.311071
615.599439	0.311687
615.947830	0.311088
616.296169	0.312036
616.644454	0.311621
616.992686	0.311694
617.340864	0.309561
617.688990	0.313308
618.037063	0.309917
618.385082	0.311231
618.733048	0.308235
619.080961	0.311098
619.428821	0.310292
619.776628	0.309856
620.124382	0.312155
620.472083	0.312318
620.819731	0.311933
621.167326	0.315832
621.514868	0.315380
621.862357	0.319637
622.209793	0.319032
622.557176	0.321260
622.904506	0.322523
623.251783	0.325180
623.599007	0.327335
623.946179	0.326790
624.293297	0.329004
624.640363	0.332754
624.987376	0.333181
625.334336	0.335629
625.681243	0.338323
626.028097	0.338480
626.374899	0.339752
626.721647	0.340185
627.068343	0.342802
627.414987	0.344338
627.761577	0.346416
628.108115	0.344678
628.454600	0.349699
628.801032	0.347308
629.147412	0.348960
629.493739	0.350341
629.840014	0.352747
630.186236	0.349719
630.532405	0.355738
630.878521	0.353163
631.224585	0.355669
631.570597	0.358646
631.916556	0.357542
632.262462	0.357409
632.608316	0.359537
632.954117	0.360645
633.299866	0.361226
633.645562	0.361731
633.991206	0.366266
634.336797	0.368671
634.682336	0.371179
635.027823	0.372842
635.373257	0.373830
635.718639	0.377378
636.063968	0.376008
636.409245	0.382161
636.754470	0.382984
637.099642	0.384995
637.444762	0.388556
637.789829	0.388083
638.134845	0.391122
638.479808	0.392032
638.824719	0.391483
639.169577	0.396227
639.514383	0.394683
639.859137	0.398817
640.203839	0.398813
640.548489	0.399420
640.893086	0.400416
641.237632	0.402257
641.582125	0.401131
641.926566	0.402870
642.270955	0.402569
642.615292	0.402403
642.959576	0.401887
643.303809	0.403115
643.647990	0.402691
643.992118	0.402844
644.336195	0.405915
644.680219	0.404327
645.024192	0.405113
645.368112	0.399021
645.711981	0.398014
646.055797	0.393210
646.399562	0.395643
646.743274	0.388391
647.086935	0.385153
647.430544	0.385384
647.774101	0.383881
648.117606	0.384150
648.461059	0.384568
648.804460	0.386970
649.147810	0.391672
649.491108	0.393261
649.834354	0.395618
650.177548	0.400079
650.520690	0.406008
650.863781	0.406692
651.206820	0.406608
651.549807	0.411171
651.892742	0.415338
652.235626	0.414385
652.578458	0.415006
652.921238	0.421905
653.263967	0.418994
653.606644	0.423291
653.949269	0.423188
654.291843	0.426755
654.634365	0.424020
654.976836	0.426931
655.319255	0.427466
655.661622	0.428341
656.003938	0.428755
656.346203	0.431197
656.688416	0.429567
657.030577	0.432641
657.372687	0.435596
657.714746	0.435440
658.056753	0.432842
658.398708	0.436549
658.740612	0.438000
659.082465	0.433500
659.424266	0.434983
659.766016	0.433896
660.107715	0.437135
660.449362	0.435569
660.790958	0.436091
661.132503	0.437580
661.473996	0.434594
661.815438	0.435640
662.156829	0.435760
662.498168	0.436582
662.839456	0.437729
663.180693	0.435450
663.521879	0.435764
663.863013	0.436490
664.204097	0.434205
664.545129	0.431610
664.886110	0.431915
665.227040	0.429003
665.567918	0.432329
665.908746	0.429800
666.249522	0.429919
666.590248	0.430521
666.930922	0.428585
667.271545	0.427638
667.612118	0.427656
667.952639	0.429083
668.293109	0.428140
668.633528	0.430368
668.973896	0.430181
669.314213	0.431415
669.654480	0.432774
669.994695	0.432887
670.334859	0.433108
670.674973	0.434051
671.015035	0.433854
671.355047	0.433850
671.695008	0.435172
672.034918	0.436811
672.374777	0.436058
672.714585	0.437602
673.054342	0.437479
673.394049	0.437959
673.733705	0.435347
674.073310	0.436572
674.412864	0.439135
674.752368	0.439768
675.091820	0.440200
675.431223	0.444531
675.770574	0.444489
676.109875	0.447779
676.449125	0.447117
676.788324	0.449285
677.127473	0.455295
677.466571	0.455086
677.805619	0.456985
678.144616	0.457939
678.483562	0.459919
678.822458	0.462320
679.161303	0.462226
679.500098	0.463451
679.838842	0.464923
680.177535	0.464188
680.516179	0.463093
680.854771	0.461881
681.193314	0.455776
681.531805	0.446598
681.870247	0.435418
682.208638	0.427579
682.546978	0.426613
682.885268	0.428410
683.223508	0.434260
683.561697	0.438527
683.899836	0.440892
684.237925	0.444217
684.575963	0.447256
684.913951	0.450601
685.251889	0.445900
685.589776	0.447631
685.927614	0.449942
686.265401	0.444273
686.603137	0.445831
686.940824	0.439825
687.278460	0.438610
687.616046	0.437359
687.953582	0.432669
688.291068	0.434374
688.628504	0.429011
688.965889	0.431843
689.303224	0.435745
689.640510	0.439761
689.977745	0.445208
690.314930	0.453225
690.652065	0.458398
690.989150	0.465824
691.326185	0.472396
691.663170	0.476900
692.000105	0.484132
692.336990	0.490858
692.673825	0.493868
693.010610	0.500361
693.347345	0.506893
693.684030	0.507205
694.020665	0.511995
694.357251	0.520612
694.693786	0.520866
695.030272	0.524032
695.366707	0.528181
695.703093	0.532058
696.039429	0.529479
696.375716	0.531813
696.711952	0.534173
697.048139	0.535590
697.384276	0.537981
697.720363	0.536996
698.056400	0.535314
698.392388	0.540878
698.728326	0.543619
699.064214	0.546816
699.400053	0.546896
699.735842	0.551118
700.071581	0.553099
700.407270	0.556575
700.742910	0.559446
701.078501	0.565848
701.414042	0.566268
701.749533	0.569093
702.084974	0.579491
702.420366	0.571366
702.755709	0.578685
703.091002	0.585909
703.426246	0.579409
703.761440	0.585281
704.096584	0.589733
704.431679	0.587377
704.766725	0.589629
705.101721	0.591815
705.436668	0.586995
705.771565	0.594008
706.106413	0.589848
706.441212	0.586102
706.775961	0.585748
707.110661	0.587521
707.445311	0.584247
707.779913	0.581313
708.114465	0.579836
708.448967	0.575958
708.783421	0.568642
709.117825	0.563333
709.452180	0.563139
709.786485	0.557477
710.120742	0.547125
710.454949	0.548190
710.789107	0.540283
711.123216	0.530982
711.457275	0.532865
711.791286	0.524127
712.125247	0.523348
712.459159	0.534244
712.793023	0.525440
713.126837	0.530562
713.460602	0.530962
713.794318	0.539444
714.127985	0.538902
714.461602	0.548907
714.795171	0.552353
715.128691	0.560229
715.462162	0.568222
715.795584	0.574039
716.128957	0.576413
716.462281	0.583037
716.795556	0.585933
717.128782	0.591996
717.461960	0.601641
717.795088	0.600074
718.128167	0.605833
718.461198	0.614405
718.794180	0.615492
719.127113	0.618079
719.459997	0.621178
719.792833	0.627134
720.125619	0.629206
720.458357	0.634748
720.791046	0.634551
721.123686	0.638641
721.456278	0.645157
721.788821	0.641119
722.121315	0.647776
722.453761	0.650968
722.786158	0.647871
723.118506	0.645084
723.450805	0.653133
723.783056	0.649562
724.115259	0.645707
724.447412	0.646656
724.779518	0.647330
725.111574	0.646052
725.443582	0.641518
725.775542	0.643770
726.107453	0.635900
726.439315	0.636474
726.771129	0.634607
727.102895	0.627790
727.434612	0.620670
727.766281	0.618342
728.097901	0.617892
728.429473	0.616789
728.760996	0.615323
729.092471	0.615640
729.423897	0.620116
729.755276	0.617940
730.086606	0.618456
730.417887	0.613694
730.749120	0.603313
731.080305	0.595299
731.411442	0.591075
731.742530	0.594874
732.073570	0.594899
732.404562	0.587478
732.735506	0.588028
733.066401	0.593296
733.397249	0.602097
733.728048	0.613719
734.058798	0.626758
734.389501	0.637662
734.720156	0.648223
735.050762	0.655842
735.381320	0.656547
735.711831	0.664287
736.042293	0.669733
736.372707	0.666408
736.703073	0.670573
737.033391	0.672931
737.363661	0.669857
737.693883	0.664650
738.024056	0.663887
738.354182	0.664215
738.684260	0.652626
739.014290	0.649718
739.344272	0.651350
739.674207	0.643504
740.004093	0.643259
740.333931	0.644165
740.663722	0.643418
740.993464	0.644053
741.323159	0.648146
741.652806	0.653060
741.982405	0.658025
742.311956	0.663270
742.641460	0.664352
742.970915	0.668533
743.300323	0.675988
743.629683	0.681334
743.958996	0.684576
744.288260	0.688448
744.617477	0.694974
744.946647	0.696531
745.275768	0.701668
745.604842	0.701554
745.933869	0.711337
746.262847	0.713308
746.591778	0.705949
746.920662	0.712458
747.249498	0.719978
747.578286	0.710065
747.907027	0.705739
748.235720	0.706507
748.564365	0.702087
748.892963	0.701152
749.221514	0.705077
749.550017	0.709221
749.878473	0.710246
750.206881	0.716680
750.535242	0.716314
750.863555	0.716225
751.191821	0.716916
751.520039	0.721088
751.848210	0.725066
752.176334	0.717847
752.504411	0.716838
752.832440	0.725020
753.160421	0.729375
753.488356	0.727759
753.816243	0.724571
754.144082	0.733195
754.471875	0.736580
754.799620	0.732946
755.127318	0.734168
755.454969	0.734433
755.782572	0.734568
756.110129	0.738176
756.437638	0.740406
756.765100	0.738162
757.092515	0.735377
757.419882	0.734392
757.747203	0.739919
758.074477	0.739451
758.401703	0.736082
758.728882	0.730710
759.056014	0.729515
759.383099	0.728486
759.710138	0.729843
760.037129	0.726494
760.364073	0.720373
760.690970	0.723278
761.017820	0.727427
761.344623	0.724914
761.671379	0.715114
761.998088	0.702770
762.324751	0.680263
762.651366	0.637114
762.977935	0.569890
763.304456	0.517697
763.630931	0.507660
763.957359	0.546766
764.283740	0.591467
764.610074	0.619824
764.936362	0.651079
765.262602	0.678545
765.588796	0.699510
765.914943	0.717106
766.241044	0.736243
766.567097	0.741557
766.893104	0.752521
767.219064	0.759011
767.544978	0.765513
767.870845	0.779018
768.196665	0.783333
768.522438	0.780871
768.848165	0.782948
769.173846	0.791799
769.499479	0.797140
769.825066	0.799669
770.150607	0.804603
770.476101	0.800397
770.801548	0.802300
771.126949	0.813225
771.452303	0.817266
771.777611	0.815579
772.102872	0.814302
772.428087	0.820073
772.753256	0.823085
773.078378	0.825618
773.403453	0.834033
773.728482	0.839024
774.053465	0.832912
774.378401	0.835066
774.703291	0.844515
775.028135	0.845205
775.352932	0.844876
775.677683	0.848697
776.002388	0.849747
776.327046	0.849205
776.651658	0.853900
776.976224	0.855925
777.300743	0.855954
777.625216	0.856661
777.949643	0.860116
778.274024	0.858247
778.598359	0.861086
778.922647	0.858933
779.246889	0.861062
779.571086	0.863921
779.895236	0.867139
780.219339	0.864773
780.543397	0.859844
780.867409	0.859007
781.191374	0.861277
781.515294	0.863122
781.839167	0.861694
782.162995	0.865132
782.486776	0.861749
782.810511	0.863336
783.134201	0.867671
783.457844	0.866527
783.781441	0.868319
784.104993	0.873720
784.428498	0.874563
784.751958	0.870430
785.075372	0.870875
785.398739	0.875054
785.722061	0.869933
786.045337	0.867521
786.368568	0.872551
786.691752	0.875162
787.014891	0.859949
787.337983	0.850461
787.661030	0.844067
787.984031	0.825397
788.306987	0.813536
788.629897	0.813795
788.952760	0.818595
789.275579	0.823273
789.598351	0.839450
789.921078	0.851981
790.243759	0.854034
790.566395	0.859467
790.888984	0.866646
791.211529	0.871571
791.534027	0.875047
791.856480	0.877563
792.178888	0.882808
792.501249	0.884596
792.823566	0.887054
793.145836	0.885331
793.468062	0.886894
793.790241	0.888882
794.112375	0.886024
794.434464	0.883296
794.756507	0.881372
795.078505	0.880023
795.400457	0.875018
795.722364	0.863082
796.044226	0.856731
796.366042	0.854727
796.687812	0.856603
797.009538	0.853274
797.331218	0.857972
797.652852	0.861692
797.974442	0.866890
798.295986	0.868414
798.617484	0.868424
798.938938	0.874159
799.260346	0.878439
799.581709	0.880116
799.903026	0.882369
800.224299	0.883748
800.545526	0.887879
800.866708	0.891387
801.187845	0.894880
801.508936	0.894454
801.829983	0.891829
802.150984	0.896169
802.471940	0.900718
802.792851	0.900399
803.113717	0.901878
803.434538	0.898956
803.755314	0.902158
804.076045	0.903356
804.396731	0.902705
804.717372	0.901229
805.037967	0.905484
805.358518	0.902906
805.679024	0.897860
805.999485	0.900154
806.319901	0.898259
806.640272	0.902231
806.960598	0.899866
807.280879	0.897170
807.601115	0.895290
807.921306	0.899698
808.241453	0.900305
808.561554	0.896874
808.881611	0.897380
809.201623	0.898893
809.521590	0.899464
809.841513	0.900573
810.161390	0.898382
810.481223	0.900972
810.801011	0.905055
811.120755	0.906164
811.440453	0.904736
811.760107	0.905352
812.079716	0.903742
812.399281	0.907070
812.718801	0.908914
813.038276	0.909616
813.357707	0.909464
813.677093	0.908072
813.996434	0.909748
814.315731	0.912249
814.634983	0.913471
814.954191	0.912347
815.273354	0.906935
815.592473	0.904314
815.911547	0.904790
816.230577	0.900815
816.549562	0.898208
816.868502	0.897560
817.187399	0.896124
817.506250	0.890957
817.825058	0.891636
818.143821	0.888619
818.462539	0.884481
818.781213	0.876049
819.099843	0.865915
819.418429	0.848066
819.736970	0.830621
820.055466	0.811109
820.373919	0.784271
820.692327	0.751099
821.010691	0.715785
821.329011	0.634225
821.647286	0.517425
821.965517	0.402454
822.283704	0.359755
822.601847	0.360152
822.919945	0.396020
823.237999	0.430701
823.556010	0.479637
823.873976	0.535514
824.191897	0.587107
824.509775	0.630783
824.827609	0.677453
825.145398	0.700624
825.463144	0.701339
825.780845	0.685000
826.098502	0.665866
826.416116	0.619627
826.733685	0.574768
827.051210	0.565392
827.368692	0.581441
827.686129	0.618927
828.003522	0.673930
828.320872	0.723083
828.638177	0.766259
828.955439	0.800155
829.272656	0.821418
829.589830	0.839453
829.906960	0.855559
830.224046	0.868505
830.541088	0.879331
830.858086	0.884059
831.175041	0.891293
831.491952	0.888702
831.808819	0.885693
832.125642	0.877639
832.442421	0.865845
832.759157	0.840705
833.075849	0.793901
833.392497	0.729048
833.709101	0.687628
834.025662	0.697286
834.342179	0.729662
834.658653	0.769508
834.975083	0.806954
835.291469	0.832973
835.607811	0.855851
835.924110	0.873514
836.240366	0.890285
836.556578	0.903129
836.872746	0.911732
837.188871	0.919270
837.504952	0.924106
837.820990	0.926700
838.136984	0.930401
838.452935	0.934494
838.768842	0.935495
839.084706	0.927674
839.400526	0.902361
839.716303	0.859373
840.032037	0.838367
840.347727	0.841569
840.663373	0.860368
840.978977	0.882183
841.294537	0.906840
841.610054	0.922079
841.925527	0.928153
842.240957	0.936317
842.556344	0.945491
842.871687	0.949074
843.186987	0.953479
843.502244	0.954912
843.817458	0.956172
844.132629	0.960172
844.447756	0.964640
844.762840	0.964300
845.077881	0.965834
845.392879	0.963442
845.707833	0.966195
846.022745	0.968420
846.337613	0.969125
846.652438	0.969720
846.967221	0.969156
847.281960	0.970073
847.596656	0.972144
847.911309	0.971176
848.225919	0.971334
848.540485	0.973604
848.855009	0.973999
849.169490	0.972633
849.483928	0.972766
849.798323	0.972333
850.112675	0.974663
850.426984	0.975117
850.741251	0.975171
851.055474	0.974704
851.369654	0.973588
851.683792	0.971952
851.997887	0.973912
852.311938	0.974975
852.625947	0.974775
852.939914	0.972636
853.253837	0.974769
853.567718	0.974855
853.881555	0.974438
854.195350	0.973751
854.509103	0.975198
854.822812	0.976298
855.136479	0.974049
855.450103	0.974271
855.763685	0.974824
856.077224	0.973847
856.390720	0.976378
856.704173	0.975504
857.017584	0.973126
857.330953	0.971554
857.644278	0.970874
857.957561	0.973462
858.270802	0.972577
858.584000	0.973106
858.897155	0.970905
859.210268	0.971442
859.523339	0.973571
859.836367	0.975493
860.149352	0.973899
860.462295	0.975082
860.775195	0.974046
861.088054	0.973389
861.400869	0.975755
861.713642	0.975368
862.026373	0.975289
862.339062	0.975045
862.651708	0.972738
862.964312	0.974051
863.276873	0.973463
863.589392	0.972682
863.901869	0.969038
864.214303	0.969146
864.526696	0.968697
864.839045	0.967584
865.151353	0.967096
865.463619	0.966904
865.775842	0.967020
866.088023	0.967353
866.400162	0.967135
866.712258	0.967991
867.024313	0.966410
867.336325	0.970189
867.648296	0.967811
867.960224	0.964827
868.272110	0.967364
868.583954	0.969375
868.895755	0.968672
869.207515	0.965317
869.519233	0.965590
869.830909	0.964235
870.142542	0.965938
870.454134	0.965811
870.765684	0.963609
871.077191	0.964558
871.388657	0.963235
871.700081	0.963567
872.011463	0.964785
872.322803	0.962612
872.634101	0.960903
872.945357	0.958814
873.256571	0.956292
873.567744	0.957709
873.878874	0.958424
874.189963	0.956655
874.501010	0.957758
874.812015	0.954258
875.122979	0.954018
875.433900	0.956586
875.744780	0.957365
876.055618	0.954390
876.366415	0.954402
876.677169	0.953865
876.987882	0.953886
877.298554	0.954438
877.609183	0.950590
877.919771	0.948608
878.230317	0.946867
878.540822	0.943623
878.851285	0.938981
879.161707	0.929032
879.472087	0.918410
879.782425	0.899883
880.092722	0.865344
880.402977	0.811336
880.713191	0.747803
881.023363	0.685834
881.333494	0.652051
881.643583	0.624250
881.953631	0.624478
882.263637	0.652040
882.573602	0.692318
882.883526	0.718670
883.193408	0.743464
883.503248	0.767416
883.813048	0.795924
884.122806	0.826946
884.432522	0.850590
884.742197	0.870626
885.051831	0.882099
885.361424	0.892763
885.670975	0.905634
885.980485	0.915227
886.289954	0.921724
886.599382	0.925236
886.908768	0.931226
887.218113	0.936450
887.527417	0.941917
887.836680	0.945169
888.145901	0.947130
888.455082	0.950864
888.764221	0.952896
889.073319	0.955992
889.382376	0.957175
889.691392	0.955891
890.000366	0.956641
890.309300	0.957355
890.618193	0.957722
890.927044	0.955132
891.235855	0.955677
891.544625	0.956559
891.853353	0.955771
892.162041	0.951908
892.470687	0.946260
892.779293	0.941694
893.087858	0.936266
893.396381	0.928309
893.704864	0.913915
894.013306	0.890084
894.321707	0.863616
894.630068	0.847656
894.938387	0.842298
895.246665	0.842758
895.554903	0.856307
895.863100	0.871497
896.171256	0.887808
896.479371	0.908315
896.787446	0.920727
897.095480	0.927682
897.403473	0.930341
897.711425	0.936013
898.019336	0.942508
898.327207	0.947857
898.635038	0.947779
898.942827	0.949124
899.250576	0.951498
899.558284	0.955761
899.865952	0.958456
900.173579	0.958636
900.481165	0.959134
900.788711	0.961983
901.096216	0.964272
901.403681	0.966782
901.711105	0.965081
902.018489	0.967154
902.325832	0.966162
902.633135	0.964204
902.940397	0.959276
903.247619	0.945848
903.554800	0.920571
903.861941	0.878718
904.169041	0.840717
904.476101	0.823162
904.783121	0.824640
905.090100	0.841052
905.397039	0.863822
905.703938	0.886277
906.010796	0.906760
906.317614	0.924954
906.624391	0.938181
906.931129	0.948535
907.237826	0.955709
907.544483	0.963132
907.851099	0.966923
908.157675	0.971129
908.464211	0.974361
908.770707	0.974579
909.077163	0.978950
909.383578	0.979356
909.689954	0.979635
909.996289	0.981039
910.302584	0.983591
910.608839	0.983985
910.915054	0.983762
911.221229	0.983242
911.527363	0.980953
911.833458	0.982178
912.139513	0.982240
912.445527	0.981269
912.751502	0.978368
913.057436	0.974872
913.363331	0.974199
913.669186	0.970451
913.975000	0.965655
914.280775	0.958903
914.586510	0.951528
914.892205	0.938238
915.197859	0.915003
915.503475	0.886516
915.809050	0.865732
916.114585	0.859959
916.420081	0.857030
916.725536	0.854095
917.030952	0.861922
917.336328	0.876152
917.641665	0.891233
917.946961	0.908484
918.252218	0.919378
918.557435	0.929393
918.862612	0.937974
919.167750	0.943278
919.472848	0.950455
919.777906	0.957319
920.082925	0.961263
920.387904	0.964967
920.692843	0.966815
920.997743	0.966529
921.302603	0.971555
921.607423	0.973401
921.912204	0.976638
922.216946	0.977737
922.521647	0.978263
922.826310	0.979895
923.130932	0.981599
923.435516	0.983068
923.740059	0.982949
924.044564	0.984234
924.349028	0.985062
924.653454	0.987352
924.957840	0.988736
925.262186	0.988702
925.566493	0.989619
925.870761	0.989045
926.174989	0.990644
926.479178	0.992250
926.783328	0.992633
927.087438	0.993176
927.391509	0.992360
927.695541	0.993915
927.999533	0.995385
928.303486	0.994167
928.607400	0.995084
928.911275	0.994695
929.215110	0.996712
929.518906	0.995877
929.822663	0.996001
930.126381	0.996151
930.430060	0.995961
930.733699	0.996340
931.037299	0.995547
931.340861	0.995766
931.644383	0.993805
931.947866	0.995364
932.251309	0.996231
932.554714	0.996346
932.858080	0.995482
933.161407	0.994196
933.464694	0.996753
933.767943	0.995546
934.071153	0.996845
934.374323	0.996826
934.677455	0.995801
934.980548	0.995404
935.283602	0.997066
935.586617	0.996282
935.889593	0.997335
936.192530	0.998036
936.495428	0.997072
936.798287	0.995570
937.101108	0.995748
937.403890	0.994099
937.706632	0.994248
938.009336	0.991326
938.312002	0.989282
938.614628	0.990208
938.917216	0.988147
939.219765	0.985971
939.522275	0.987303
939.824747	0.987652
940.127179	0.988015
940.429573	0.990044
940.731929	0.988353
941.034246	0.988643
941.336524	0.989913
941.638763	0.990296
941.940964	0.990378
942.243126	0.990951
942.545250	0.992638
942.847335	0.992906
943.149381	0.993997
943.451389	0.992278
943.753359	0.995101
944.055290	0.995489
944.357182	0.994063
944.659036	0.995452
944.960851	0.996174
945.262628	0.995624
945.564367	0.995563
945.866067	0.993983
946.167729	0.994535
946.469352	0.995811
946.770937	0.993426
947.072484	0.994974
947.373992	0.995020
947.675462	0.995008
947.976893	0.994602
948.278286	0.997348
948.579641	0.996165
948.880958	0.994877
949.182236	0.996593
949.483476	0.996642
949.784678	0.996180
950.085841	0.995356
950.386967	0.996607
950.688054	0.995930
950.989103	0.995443
951.290114	0.995127
951.591087	0.994725
951.892021	0.993642
952.192917	0.993700
952.493776	0.993556
952.794596	0.993176
953.095378	0.991997
953.396122	0.992558
953.696828	0.993241
953.997496	0.994238
954.298126	0.995748
954.598718	0.994885
954.899272	0.996156
955.199788	0.994240
955.500266	0.996969
955.800706	0.997856
956.101108	0.997132
956.401472	0.999658
956.701798	0.998114
957.002087	0.998811
957.302337	0.998020
957.602550	0.999856
957.902724	0.999386
958.202861	1.000437
958.502960	1.000578
958.803022	1.000477
959.103045	1.000126
959.403031	1.002000
959.702979	1.001968
960.002889	1.000468
960.302762	0.999941
960.602596	1.001316
960.902393	1.001597
961.202153	1.001704
961.501875	1.002039
961.801559	1.001263
962.101205	1.001859
962.400814	1.003020
962.700385	1.002343
962.999918	1.002505
963.299414	1.001274
963.598873	1.002135
963.898293	1.002025
964.197677	1.001951
964.497022	1.002162
964.796331	1.001686
965.095601	1.003106
965.394835	1.001750
965.694030	1.002930
965.993189	1.002379
966.292309	1.001979
966.591393	1.001559
966.890439	1.003076
967.189447	1.001550
967.488419	1.001142
967.787353	1.002544
968.086249	1.002820
968.385108	1.002400
968.683930	1.003201
968.982714	1.002251
969.281462	1.002496
969.580172	1.002371
969.878844	1.002373
970.177480	1.002212
970.476078	1.003113
970.774639	1.002464
971.073162	1.002442
971.371649	1.003324
971.670098	1.002657
971.968510	1.002622
972.266885	1.002174
972.565223	1.001644
972.863524	0.999280
973.161788	1.001690
973.460014	1.003157
973.758204	1.000155
974.056356	1.001577
974.354471	1.002200
974.652550	1.002201
974.950591	1.001052
975.248595	1.001397
975.546563	1.003502
975.844493	1.002917
976.142386	1.002106
976.440243	1.002812
976.738062	1.001990
977.035845	1.001821
977.333590	1.003287
977.631299	1.002104
977.928971	1.002843
978.226606	1.001498
978.524204	1.001116
978.821765	1.002932
979.119290	1.003797
979.416777	1.003603
979.714228	1.002198
980.011642	1.004254
980.309020	1.001947
980.606360	1.003232
980.903664	1.001761
981.200931	1.001725
981.498162	1.001350
981.795356	1.001289
982.092513	0.999523
982.389633	0.998840
982.686717	0.995886
982.983764	0.996338
983.280775	0.996263
983.577749	0.997711
983.874686	0.995824
984.171587	0.997540
984.468451	0.998597
984.765279	1.000718
985.062070	1.000647
985.358824	1.001230
985.655543	1.001731
985.952224	1.002147
986.248869	1.001918
986.545478	1.003700
986.842050	1.003070
987.138586	1.002687
987.435086	1.001844
987.731549	1.004728
988.027975	1.003920
988.324366	1.003139
988.620719	1.005105
988.917037	1.004852
989.213318	1.004263
989.509563	1.003306
989.805772	1.003855
990.101944	1.005504
990.398080	1.003895
990.694180	1.003764
990.990244	1.003877
991.286271	1.003262
991.582262	1.004811
991.878217	1.003598
992.174136	1.003896
992.470019	1.003528
992.765865	1.004504
993.061676	1.003385
993.357450	1.003738
993.653188	1.004587
993.948890	1.003635
994.244556	1.003511
994.540186	1.003202
994.835780	1.003211
995.131337	1.004186
995.426859	1.002002
995.722345	1.002849
996.017795	1.002880
996.313208	1.002109
996.608586	1.002321
996.903928	1.001697
997.199234	1.000769
997.494504	1.003145
997.789738	1.002235
998.084936	1.003265
998.380099	1.001544
998.675225	1.004680
998.970316	1.003009
999.265371	1.003960
999.560390	1.002966
999.855373	1.003442
1000.150320	1.003400
1000.445232	1.004958
1000.740108	1.002584
1001.034948	1.002815
1001.329752	1.004417
1001.624521	1.003900
1001.919254	1.003193
1002.213951	1.003883
1002.508613	1.003939
1002.803239	1.003581
1003.097829	1.005472
1003.392384	1.003008
1003.686903	1.004239
1003.981386	1.003931
1004.275834	1.005781
1004.570246	1.002941
1004.864623	1.005417
1005.158964	1.003951
1005.453270	1.004446
1005.747540	1.004230
1006.041775	1.004526
1006.335974	1.003822
1006.630138	1.004947
1006.924266	1.004153
1007.218359	1.002722
1007.512416	1.004408
1007.806438	1.004041
1008.100425	1.004864
1008.394376	1.005238
1008.688292	1.003969
1008.982172	1.003884
1009.276017	1.005992
1009.569827	1.003631
1009.863602	1.003414
1010.157341	1.005187
1010.451045	1.004192
1010.744714	1.006269
1011.038347	1.004460
1011.331945	1.003808
1011.625508	1.005116
1011.919036	1.004380
1012.212528	1.004463
1012.505986	1.004665
1012.799408	1.005082
1013.092795	1.003214
1013.386147	1.005020
1013.679464	1.005525
1013.972745	1.005171
1014.265992	1.004601
1014.559204	1.004575
1014.852380	1.005120
1015.145521	1.004494
1015.438628	1.003779
1015.731699	1.004263
1016.024736	1.006257
1016.317737	1.003673
1016.610703	1.004521
1016.903635	1.004902
1017.196531	1.004087
1017.489393	1.003580
1017.782219	1.004318
1018.075011	1.004105
1018.367768	1.003270
1018.660490	1.004728
1018.953177	1.004728
1019.245829	1.004728
