Dividing Wavelength (nm)	Counts (n)	Blue Motor Position (mm): 14.500000	Red Motor Position (mm): 0.000000	
326.493990	1.001636
326.888308	1.001636
327.282561	1.001636
327.676750	1.003326
328.070874	1.003152
328.464933	1.003564
328.858929	1.004698
329.252859	1.002591
329.646726	1.002816
330.040528	1.002874
330.434265	1.002273
330.827938	1.001616
331.221547	1.002388
331.615091	1.002487
332.008571	1.004725
332.401986	1.001749
332.795338	1.001454
333.188625	1.003730
333.581847	1.001148
333.975006	1.003076
334.368100	1.003068
334.761129	1.001631
335.154095	1.002917
335.546996	1.001619
335.939833	0.998279
336.332606	0.998763
336.725315	0.997925
337.117960	0.998859
337.510540	0.997792
337.903056	0.998691
338.295508	0.999349
338.687896	0.999143
339.080220	0.998765
339.472480	0.997467
339.864676	1.000475
340.256807	0.998416
340.648875	0.999013
341.040879	0.999096
341.432818	0.999610
341.824694	0.998422
342.216506	1.000200
342.608253	0.997948
342.999937	0.997838
343.391557	0.998603
343.783113	0.999130
344.174605	0.998496
344.566033	0.998008
344.957397	0.999045
345.348697	0.999642
345.739934	0.998203
346.131106	0.997006
346.522215	0.998194
346.913260	0.998098
347.304241	0.998099
347.695159	0.998335
348.086012	0.997458
348.476802	0.997918
348.867528	0.997974
349.258191	0.998721
349.648789	0.998352
350.039324	0.999053
350.429796	0.997680
350.820203	0.996992
351.210548	0.998638
351.600828	0.999342
351.991045	0.997850
352.381198	0.998329
352.771288	0.997528
353.161314	0.997862
353.551276	0.998750
353.941175	0.995992
354.331010	0.998525
354.720782	0.996263
355.110490	0.997333
355.500135	0.998439
355.889717	0.997158
356.279235	0.997590
356.668689	0.997984
357.058080	0.996930
357.447408	0.996618
357.836672	0.997789
358.225873	0.997839
358.615010	0.997716
359.004084	0.996451
359.393095	0.997972
359.782043	0.995890
360.170927	0.998396
360.559748	0.996910
360.948505	0.996817
361.337199	0.997079
361.725830	0.996424
362.114398	0.996774
362.502903	0.996448
362.891344	0.995180
363.279722	0.996536
363.668037	0.996500
364.056289	0.996798
364.444478	0.998093
364.832603	0.996483
365.220665	0.997579
365.608665	0.995364
365.996601	0.997281
366.384474	0.994921
366.772284	0.995869
367.160031	0.994697
367.547715	0.995054
367.935336	0.993713
368.322893	0.992187
368.710388	0.993232
369.097820	0.989810
369.485189	0.987400
369.872495	0.985951
370.259738	0.983614
370.646918	0.981246
371.034035	0.978491
371.421090	0.976280
371.808081	0.970980
372.195010	0.969213
372.581875	0.963212
372.968678	0.958120
373.355418	0.955228
373.742096	0.947746
374.128710	0.943239
374.515262	0.938552
374.901751	0.934265
375.288177	0.927923
375.674540	0.921804
376.060841	0.915870
376.447079	0.909002
376.833254	0.901471
377.219367	0.897042
377.605417	0.885426
377.991404	0.881830
378.377329	0.875611
378.763191	0.869772
379.148991	0.860957
379.534727	0.853727
379.920402	0.844855
380.306013	0.840983
380.691563	0.827805
381.077049	0.821772
381.462474	0.818064
381.847835	0.806312
382.233134	0.801848
382.618371	0.801965
383.003545	0.784381
383.388657	0.781844
383.773706	0.774816
384.158693	0.771207
384.543618	0.764508
384.928480	0.757196
385.313280	0.746804
385.698017	0.746247
386.082692	0.734995
386.467305	0.733322
386.851856	0.727783
387.236344	0.722981
387.620770	0.716785
388.005133	0.711683
388.389435	0.705515
388.773674	0.703347
389.157851	0.694690
389.541965	0.693015
389.926018	0.699519
390.310008	0.686044
390.693936	0.683150
391.077802	0.674579
391.461606	0.676903
391.845348	0.666181
392.229027	0.665001
392.612645	0.663492
392.996200	0.650869
393.379694	0.643328
393.763125	0.634390
394.146494	0.638166
394.529801	0.629056
394.913047	0.620646
395.296230	0.627445
395.679351	0.618422
396.062410	0.615345
396.445408	0.618013
396.828343	0.613901
397.211217	0.608136
397.594028	0.620412
397.976778	0.611106
398.359466	0.606528
398.742092	0.602316
399.124656	0.614515
399.507158	0.602842
399.889598	0.600580
400.271977	0.590927
400.654294	0.595515
401.036549	0.594698
401.418742	0.598327
401.800874	0.584120
402.182944	0.580782
402.564952	0.572310
402.946898	0.574995
403.328783	0.575365
403.710606	0.586752
404.092367	0.561700
404.474067	0.566234
404.855705	0.565584
405.237282	0.573848
405.618797	0.560523
406.000250	0.556141
406.381642	0.546091
406.762972	0.551069
407.144240	0.550050
407.525447	0.549746
407.906593	0.542193
408.287677	0.537912
408.668700	0.546852
409.049661	0.540859
409.430560	0.536012
409.811399	0.544009
410.192176	0.526166
410.572891	0.533857
410.953545	0.520848
411.334138	0.534705
411.714669	0.526981
412.095139	0.539416
412.475547	0.523750
412.855894	0.525677
413.236180	0.524768
413.616405	0.529707
413.996568	0.519634
414.376670	0.525827
414.756711	0.531668
415.136691	0.528014
415.516609	0.519123
415.896466	0.516266
416.276262	0.512225
416.655997	0.513479
417.035670	0.495264
417.415283	0.487046
417.794834	0.491593
418.174324	0.497382
418.553753	0.506028
418.933121	0.488259
419.312428	0.482364
419.691674	0.488224
420.070859	0.476351
420.449983	0.483745
420.829045	0.473595
421.208047	0.482254
421.586988	0.475732
421.965867	0.474250
422.344686	0.463061
422.723444	0.475551
423.102141	0.492886
423.480777	0.465262
423.859352	0.486202
424.237866	0.463268
424.616319	0.463987
424.994712	0.455390
425.373044	0.465200
425.751314	0.453620
426.129524	0.470486
426.507673	0.453326
426.885762	0.446711
427.263789	0.452032
427.641756	0.462288
428.019662	0.452524
428.397508	0.452110
428.775292	0.456552
429.153016	0.448061
429.530679	0.454250
429.908282	0.447462
430.285824	0.457771
430.663305	0.436978
431.040726	0.457107
431.418086	0.457035
431.795385	0.449010
432.172624	0.447793
432.549802	0.448198
432.926920	0.447387
433.303977	0.447112
433.680974	0.443597
434.057910	0.442333
434.434786	0.441476
434.811601	0.444467
435.188355	0.426784
435.565050	0.435941
435.941683	0.437651
436.318257	0.421654
436.694770	0.422792
437.071222	0.420289
437.447614	0.424771
437.823946	0.431045
438.200218	0.420872
438.576429	0.430044
438.952580	0.423660
439.328670	0.419888
439.704700	0.426418
440.080670	0.428030
440.456580	0.409012
440.832429	0.417092
441.208218	0.427629
441.583947	0.416907
441.959616	0.416153
442.335224	0.422282
442.710773	0.412400
443.086261	0.410647
443.461689	0.424971
443.837057	0.414288
444.212365	0.404420
444.587612	0.411402
444.962800	0.401121
445.337927	0.403202
445.712995	0.429262
446.088002	0.390594
446.462949	0.401375
446.837837	0.406723
447.212664	0.394641
447.587431	0.386624
447.962139	0.356666
448.336786	0.315458
448.711374	0.325854
449.085901	0.370854
449.460369	0.374628
449.834776	0.378573
450.209124	0.357311
450.583412	0.350254
450.957640	0.343336
451.331808	0.354962
451.705917	0.377878
452.079965	0.382968
452.453954	0.371191
452.827883	0.377331
453.201752	0.372588
453.575562	0.383797
453.949311	0.372346
454.323001	0.378655
454.696632	0.375047
455.070202	0.366941
455.443713	0.358846
455.817164	0.353324
456.190556	0.349229
456.563888	0.346354
456.937160	0.343925
457.310373	0.361132
457.683526	0.359719
458.056619	0.365583
458.429653	0.366026
458.802628	0.369633
459.175542	0.364134
459.548398	0.346457
459.921194	0.339022
460.293930	0.339059
460.666607	0.316699
461.039224	0.305017
461.411782	0.300523
461.784280	0.299601
462.156719	0.303708
462.529099	0.308184
462.901419	0.324165
463.273680	0.328896
463.645882	0.328336
464.018024	0.333885
464.390106	0.327158
464.762130	0.311140
465.134094	0.294721
465.505999	0.263160
465.877845	0.233733
466.249631	0.220702
466.621358	0.228149
466.993026	0.242032
467.364634	0.248169
467.736184	0.257093
468.107674	0.266005
468.479105	0.265096
468.850477	0.272013
469.221790	0.278766
469.593043	0.288787
469.964238	0.293310
470.335373	0.293048
470.706449	0.291140
471.077467	0.292027
471.448425	0.253946
471.819324	0.229188
472.190164	0.228929
472.560945	0.257894
472.931667	0.280171
473.302330	0.284360
473.672934	0.296712
474.043479	0.284254
474.413965	0.286224
474.784393	0.289315
475.154761	0.284597
475.525070	0.281569
475.895321	0.287313
476.265513	0.281589
476.635645	0.276917
477.005719	0.276826
477.375734	0.273500
477.745691	0.266568
478.115588	0.263121
478.485427	0.256315
478.855207	0.243805
479.224928	0.225665
479.594591	0.213953
479.964194	0.217482
480.333739	0.218671
480.703226	0.219745
481.072653	0.218232
481.442022	0.214057
481.811333	0.210709
482.180584	0.214415
482.549777	0.219428
482.918912	0.222742
483.287988	0.222846
483.657005	0.222436
484.025964	0.228586
484.394864	0.226163
484.763706	0.226812
485.132489	0.231495
485.501213	0.232359
485.869879	0.230699
486.238487	0.233717
486.607036	0.232007
486.975527	0.236440
487.343959	0.232058
487.712333	0.231566
488.080648	0.232849
488.448905	0.232029
488.817104	0.233387
489.185244	0.227680
489.553326	0.224548
489.921350	0.214536
490.289315	0.196879
490.657222	0.191906
491.025070	0.193054
491.392861	0.195215
491.760593	0.200936
492.128267	0.206732
492.495883	0.212154
492.863440	0.218483
493.230939	0.224665
493.598380	0.226206
493.965763	0.228300
494.333088	0.230520
494.700354	0.232527
495.067563	0.231345
495.434713	0.234473
495.801805	0.232166
496.168839	0.234185
496.535815	0.235416
496.902733	0.235190
497.269593	0.236753
497.636395	0.234482
498.003139	0.234848
498.369825	0.237737
498.736453	0.234331
499.103023	0.235700
499.469535	0.235404
499.835989	0.235632
500.202385	0.236283
500.568723	0.239536
500.935003	0.234852
501.301226	0.238786
501.667390	0.233140
502.033497	0.231385
502.399546	0.234054
502.765537	0.236339
503.131470	0.234795
503.497345	0.231235
503.863163	0.239846
504.228923	0.232850
504.594625	0.231459
504.960269	0.236848
505.325856	0.232465
505.691385	0.236453
506.056856	0.233286
506.422270	0.232699
506.787625	0.235127
507.152924	0.232763
507.518164	0.233022
507.883347	0.234704
508.248472	0.236713
508.613540	0.231408
508.978550	0.234152
509.343503	0.234633
509.708398	0.232259
510.073236	0.229942
510.438016	0.229456
510.802738	0.230707
511.167403	0.229796
511.532010	0.231855
511.896561	0.227117
512.261053	0.225630
512.625488	0.227846
512.989866	0.228216
513.354186	0.228543
513.718449	0.230588
514.082655	0.226876
514.446803	0.228986
514.810894	0.226796
515.174927	0.229487
515.538904	0.229135
515.902822	0.226056
516.266684	0.228396
516.630488	0.229527
516.994235	0.228654
517.357925	0.227149
517.721558	0.225444
518.085133	0.225267
518.448651	0.225290
518.812112	0.227350
519.175516	0.227236
519.538863	0.225016
519.902152	0.226725
520.265385	0.223319
520.628560	0.225026
520.991678	0.225399
521.354739	0.224377
521.717743	0.225700
522.080690	0.225890
522.443580	0.223580
522.806413	0.224332
523.169189	0.223879
523.531908	0.222725
523.894569	0.226331
524.257174	0.226190
524.619722	0.223739
524.982213	0.225064
525.344647	0.223868
525.707025	0.224809
526.069345	0.223046
526.431608	0.224578
526.793815	0.222622
527.155964	0.227134
527.518057	0.226054
527.880093	0.226955
528.242072	0.225671
528.603995	0.227335
528.965860	0.228833
529.327669	0.228254
529.689421	0.229097
530.051117	0.229886
530.412755	0.227644
530.774337	0.229880
531.135862	0.230749
531.497331	0.229825
531.858743	0.232673
532.220098	0.229433
532.581396	0.232321
532.942638	0.232339
533.303824	0.233400
533.664953	0.233152
534.026025	0.235115
534.387040	0.233347
534.747999	0.232951
535.108902	0.232106
535.469748	0.237149
535.830537	0.234991
536.191270	0.235462
536.551947	0.234973
536.912567	0.234761
537.273131	0.236678
537.633638	0.237092
537.994089	0.237639
538.354483	0.238815
538.714821	0.235848
539.075103	0.235630
539.435328	0.236040
539.795497	0.240054
540.155609	0.236887
540.515665	0.235088
540.875665	0.240616
541.235609	0.239305
541.595496	0.239217
541.955328	0.236293
542.315102	0.238860
542.674821	0.240036
543.034483	0.240089
543.394090	0.239731
543.753640	0.241676
544.113134	0.236974
544.472571	0.240449
544.831953	0.237182
545.191278	0.241702
545.550548	0.241006
545.909761	0.238233
546.268918	0.239038
546.628019	0.237399
546.987064	0.240417
547.346053	0.242062
547.704986	0.240030
548.063863	0.240405
548.422684	0.241252
548.781449	0.243177
549.140158	0.240884
549.498811	0.243646
549.857408	0.246984
550.215949	0.241822
550.574434	0.245384
550.932864	0.243564
551.291237	0.242111
551.649555	0.244197
552.007817	0.244109
552.366022	0.244960
552.724173	0.245488
553.082267	0.245863
553.440305	0.243292
553.798288	0.247729
554.156215	0.244447
554.514086	0.245728
554.871902	0.248862
555.229661	0.248397
555.587365	0.249412
555.945014	0.252120
556.302606	0.249495
556.660143	0.252444
557.017625	0.249784
557.375050	0.252391
557.732421	0.249563
558.089735	0.252112
558.446994	0.252053
558.804197	0.251927
559.161345	0.252108
559.518437	0.256002
559.875474	0.254821
560.232455	0.254724
560.589381	0.256123
560.946251	0.257053
561.303065	0.254825
561.659825	0.256886
562.016528	0.259144
562.373177	0.262004
562.729770	0.260089
563.086307	0.262412
563.442789	0.260982
563.799216	0.264616
564.155587	0.264147
564.511904	0.266124
564.868164	0.266396
565.224370	0.267026
565.580520	0.269925
565.936615	0.270035
566.292654	0.274389
566.648638	0.271890
567.004567	0.274171
567.360441	0.274917
567.716260	0.278092
568.072023	0.276485
568.427732	0.278849
568.783385	0.281785
569.138982	0.281283
569.494525	0.281870
569.850013	0.285634
570.205445	0.285096
570.560823	0.288051
570.916145	0.291610
571.271412	0.291203
571.626625	0.293763
571.981782	0.295455
572.336884	0.297831
572.691931	0.298139
573.046923	0.301153
573.401860	0.303415
573.756743	0.306544
574.111570	0.306623
574.466342	0.308251
574.821059	0.309075
575.175722	0.313317
575.530330	0.314509
575.884882	0.315896
576.239380	0.319662
576.593823	0.320797
576.948211	0.322568
577.302544	0.326223
577.656823	0.328528
578.011047	0.329284
578.365216	0.332907
578.719330	0.335803
579.073389	0.337267
579.427394	0.339863
579.781344	0.342605
580.135239	0.345254
580.489080	0.347343
580.842866	0.352160
581.196597	0.353799
581.550273	0.354896
581.903895	0.358161
582.257463	0.358029
582.610975	0.363913
582.964434	0.364520
583.317837	0.369552
583.671186	0.371329
584.024481	0.373761
584.377721	0.377862
584.730906	0.380646
585.084037	0.382551
585.437113	0.386393
585.790135	0.388144
586.143103	0.392936
586.496016	0.395738
586.848874	0.396240
587.201679	0.398908
587.554428	0.404315
587.907124	0.405889
588.259765	0.408145
588.612352	0.412340
588.964884	0.417566
589.317362	0.419124
589.669786	0.421838
590.022155	0.422039
590.374470	0.424707
590.726731	0.428190
591.078937	0.435730
591.431090	0.435295
591.783188	0.440240
592.135232	0.444330
592.487222	0.445535
592.839157	0.447309
593.191038	0.451200
593.542866	0.455802
593.894639	0.461068
594.246358	0.462225
594.598022	0.464577
594.949633	0.470214
595.301190	0.473145
595.652692	0.475147
596.004141	0.475679
596.355535	0.483255
596.706876	0.486691
597.058162	0.491828
597.409395	0.492041
597.760573	0.492715
598.111698	0.497984
598.462768	0.500657
598.813785	0.503675
599.164748	0.508978
599.515657	0.510794
599.866511	0.517477
600.217312	0.515621
600.568060	0.521879
600.918753	0.521943
601.269392	0.525923
601.619978	0.531171
601.970510	0.532705
602.320988	0.534476
602.671412	0.536830
603.021783	0.541178
603.372100	0.544846
603.722363	0.548247
604.072572	0.551186
604.422728	0.553907
604.772830	0.558462
605.122878	0.561833
605.472872	0.564021
605.822813	0.566391
606.172701	0.570385
606.522534	0.572083
606.872314	0.574956
607.222041	0.578592
607.571714	0.579778
607.921333	0.584418
608.270899	0.586999
608.620411	0.587347
608.969870	0.593534
609.319276	0.595850
609.668627	0.599776
610.017926	0.600884
610.367171	0.603856
610.716362	0.606508
611.065500	0.610171
611.414585	0.612924
611.763616	0.614921
612.112594	0.618958
612.461518	0.620993
612.810389	0.622601
613.159207	0.627145
613.507971	0.630187
613.856682	0.632262
614.205340	0.634448
614.553945	0.635990
614.902496	0.641911
615.250994	0.643401
615.599439	0.646860
615.947830	0.649901
616.296169	0.652584
616.644454	0.655347
616.992686	0.658235
617.340864	0.659811
617.688990	0.664806
618.037063	0.665026
618.385082	0.668360
618.733048	0.670670
619.080961	0.673603
619.428821	0.676600
619.776628	0.679353
620.124382	0.683523
620.472083	0.687568
620.819731	0.689243
621.167326	0.695038
621.514868	0.696425
621.862357	0.701393
622.209793	0.703414
622.557176	0.707117
622.904506	0.710655
623.251783	0.714409
623.599007	0.719019
623.946179	0.720682
624.293297	0.725066
624.640363	0.729677
624.987376	0.732106
625.334336	0.735596
625.681243	0.739686
626.028097	0.742879
626.374899	0.745355
626.721647	0.750319
627.068343	0.752191
627.414987	0.755600
627.761577	0.758250
628.108115	0.759911
628.454600	0.765599
628.801032	0.766943
629.147412	0.768583
629.493739	0.772538
629.840014	0.774947
630.186236	0.776356
630.532405	0.781254
630.878521	0.781215
631.224585	0.785527
631.570597	0.787829
631.916556	0.790629
632.262462	0.791550
632.608316	0.794988
632.954117	0.797118
633.299866	0.798976
633.645562	0.802117
633.991206	0.806161
634.336797	0.808756
634.682336	0.813008
635.027823	0.815392
635.373257	0.816836
635.718639	0.821541
636.063968	0.822199
636.409245	0.826102
636.754470	0.829152
637.099642	0.831444
637.444762	0.835203
637.789829	0.836715
638.134845	0.839178
638.479808	0.842295
638.824719	0.844383
639.169577	0.846184
639.514383	0.848668
639.859137	0.851619
640.203839	0.852491
640.548489	0.855499
640.893086	0.857013
641.237632	0.859726
641.582125	0.861284
641.926566	0.863218
642.270955	0.865325
642.615292	0.866684
642.959576	0.868865
643.303809	0.869941
643.647990	0.872016
643.992118	0.873563
644.336195	0.874098
644.680219	0.877185
645.024192	0.877408
645.368112	0.877447
645.711981	0.879012
646.055797	0.879288
646.399562	0.881057
646.743274	0.881217
647.086935	0.881036
647.430544	0.882825
647.774101	0.883313
648.117606	0.885285
648.461059	0.887747
648.804460	0.889150
649.147810	0.890987
649.491108	0.892538
649.834354	0.895578
650.177548	0.897960
650.520690	0.899872
650.863781	0.901427
651.206820	0.903610
651.549807	0.904548
651.892742	0.907555
652.235626	0.908658
652.578458	0.910658
652.921238	0.912188
653.263967	0.913374
653.606644	0.914265
653.949269	0.916457
654.291843	0.916932
654.634365	0.918028
654.976836	0.919455
655.319255	0.920815
655.661622	0.921742
656.003938	0.923199
656.346203	0.923466
656.688416	0.926191
657.030577	0.926259
657.372687	0.928542
657.714746	0.929098
658.056753	0.929747
658.398708	0.931404
658.740612	0.932825
659.082465	0.933089
659.424266	0.934426
659.766016	0.934169
660.107715	0.937547
660.449362	0.936242
660.790958	0.937558
661.132503	0.938964
661.473996	0.939155
661.815438	0.941378
662.156829	0.941274
662.498168	0.943201
662.839456	0.942829
663.180693	0.944598
663.521879	0.944805
663.863013	0.945484
664.204097	0.946246
664.545129	0.946172
664.886110	0.947725
665.227040	0.947480
665.567918	0.947952
665.908746	0.948529
666.249522	0.949229
666.590248	0.950165
666.930922	0.950166
667.271545	0.951766
667.612118	0.952316
667.952639	0.952794
668.293109	0.953858
668.633528	0.953418
668.973896	0.955222
669.314213	0.955334
669.654480	0.956518
669.994695	0.956580
670.334859	0.957721
670.674973	0.958072
671.015035	0.959574
671.355047	0.959992
671.695008	0.960072
672.034918	0.960462
672.374777	0.961189
672.714585	0.960458
673.054342	0.962857
673.394049	0.962056
673.733705	0.962311
674.073310	0.963471
674.412864	0.964435
674.752368	0.964605
675.091820	0.965818
675.431223	0.966456
675.770574	0.965917
676.109875	0.967327
676.449125	0.967735
676.788324	0.967659
677.127473	0.969825
677.466571	0.970059
677.805619	0.969652
678.144616	0.971892
678.483562	0.970813
678.822458	0.972777
679.161303	0.971884
679.500098	0.973338
679.838842	0.973661
680.177535	0.973733
680.516179	0.973272
680.854771	0.974002
681.193314	0.974400
681.531805	0.973965
681.870247	0.973030
682.208638	0.972454
682.546978	0.973179
682.885268	0.973692
683.223508	0.974201
683.561697	0.974905
683.899836	0.975025
684.237925	0.975165
684.575963	0.976205
684.913951	0.976098
685.251889	0.976384
685.589776	0.976886
685.927614	0.976039
686.265401	0.976406
686.603137	0.976555
686.940824	0.976846
687.278460	0.976259
687.616046	0.976182
687.953582	0.976041
688.291068	0.976838
688.628504	0.976307
688.965889	0.975222
689.303224	0.975863
689.640510	0.977468
689.977745	0.977256
690.314930	0.979115
690.652065	0.979179
690.989150	0.978936
691.326185	0.979960
691.663170	0.980884
692.000105	0.981257
692.336990	0.982166
692.673825	0.981821
693.010610	0.981732
693.347345	0.983025
693.684030	0.983226
694.020665	0.983333
694.357251	0.983549
694.693786	0.983796
695.030272	0.982926
695.366707	0.983938
695.703093	0.983268
696.039429	0.984530
696.375716	0.985732
696.711952	0.984264
697.048139	0.986096
697.384276	0.986089
697.720363	0.985034
698.056400	0.984814
698.392388	0.985096
698.728326	0.986058
699.064214	0.987446
699.400053	0.985663
699.735842	0.987023
700.071581	0.986694
700.407270	0.986216
700.742910	0.988038
701.078501	0.986951
701.414042	0.988372
701.749533	0.987254
702.084974	0.987848
702.420366	0.988156
702.755709	0.987741
703.091002	0.989065
703.426246	0.989200
703.761440	0.988292
704.096584	0.988235
704.431679	0.988435
704.766725	0.989549
705.101721	0.990423
705.436668	0.988759
705.771565	0.989007
706.106413	0.988218
706.441212	0.989668
706.775961	0.989230
707.110661	0.989063
707.445311	0.989045
707.779913	0.989980
708.114465	0.990690
708.448967	0.990206
708.783421	0.989326
709.117825	0.989383
709.452180	0.988993
709.786485	0.988802
710.120742	0.988699
710.454949	0.989396
710.789107	0.989319
711.123216	0.987778
711.457275	0.987174
711.791286	0.987508
712.125247	0.989169
712.459159	0.988045
712.793023	0.987759
713.126837	0.989217
713.460602	0.988230
713.794318	0.987284
714.127985	0.988183
714.461602	0.989528
714.795171	0.988489
715.128691	0.988903
715.462162	0.989468
715.795584	0.988090
716.128957	0.990020
716.462281	0.989217
716.795556	0.988229
717.128782	0.991050
717.461960	0.990856
717.795088	0.991160
718.128167	0.991229
718.461198	0.990393
718.794180	0.991388
719.127113	0.991278
719.459997	0.989900
719.792833	0.990253
720.125619	0.990276
720.458357	0.990923
720.791046	0.990609
721.123686	0.991840
721.456278	0.991681
721.788821	0.991048
722.121315	0.993151
722.453761	0.991334
722.786158	0.991620
723.118506	0.990961
723.450805	0.989811
723.783056	0.992845
724.115259	0.990808
724.447412	0.991726
724.779518	0.992619
725.111574	0.991298
725.443582	0.991690
725.775542	0.990987
726.107453	0.991734
726.439315	0.991539
726.771129	0.991454
727.102895	0.991539
727.434612	0.991263
727.766281	0.990803
728.097901	0.990265
728.429473	0.991242
728.760996	0.990478
729.092471	0.990316
729.423897	0.991236
729.755276	0.990689
730.086606	0.990207
730.417887	0.991756
730.749120	0.990936
731.080305	0.990320
731.411442	0.989623
731.742530	0.990219
732.073570	0.990625
732.404562	0.990578
732.735506	0.989961
733.066401	0.989273
733.397249	0.990257
733.728048	0.990280
734.058798	0.990695
734.389501	0.992608
734.720156	0.991665
735.050762	0.992124
735.381320	0.992187
735.711831	0.991326
736.042293	0.991877
736.372707	0.992464
736.703073	0.991116
737.033391	0.991839
737.363661	0.992616
737.693883	0.992116
738.024056	0.991833
738.354182	0.992083
738.684260	0.992018
739.014290	0.990972
739.344272	0.991972
739.674207	0.991999
740.004093	0.991901
740.333931	0.991576
740.663722	0.991145
740.993464	0.991945
741.323159	0.991714
741.652806	0.990818
741.982405	0.992582
742.311956	0.992041
742.641460	0.992265
742.970915	0.991681
743.300323	0.991851
743.629683	0.991917
743.958996	0.993369
744.288260	0.992214
744.617477	0.992201
744.946647	0.992355
745.275768	0.992471
745.604842	0.992438
745.933869	0.992779
746.262847	0.993895
746.591778	0.991708
746.920662	0.993135
747.249498	0.993796
747.578286	0.994791
747.907027	0.993157
748.235720	0.992822
748.564365	0.992251
748.892963	0.991794
749.221514	0.992729
749.550017	0.992434
749.878473	0.993031
750.206881	0.994242
750.535242	0.992270
750.863555	0.992860
751.191821	0.993056
751.520039	0.991977
751.848210	0.992053
752.176334	0.992818
752.504411	0.992873
752.832440	0.992353
753.160421	0.992558
753.488356	0.993287
753.816243	0.992044
754.144082	0.992498
754.471875	0.993421
754.799620	0.993931
755.127318	0.993606
755.454969	0.993591
755.782572	0.993963
756.110129	0.992842
756.437638	0.994108
756.765100	0.993270
757.092515	0.992349
757.419882	0.993719
757.747203	0.992686
758.074477	0.993896
758.401703	0.994180
758.728882	0.993009
759.056014	0.992414
759.383099	0.993246
759.710138	0.993607
760.037129	0.991917
760.364073	0.992536
760.690970	0.992309
761.017820	0.991827
761.344623	0.993342
761.671379	0.993096
761.998088	0.992872
762.324751	0.992318
762.651366	0.991739
762.977935	0.989966
763.304456	0.988760
763.630931	0.986000
763.957359	0.985615
764.283740	0.987130
764.610074	0.988913
764.936362	0.989569
765.262602	0.990221
765.588796	0.991618
765.914943	0.992354
766.241044	0.992658
766.567097	0.992742
766.893104	0.993241
767.219064	0.992496
767.544978	0.993071
767.870845	0.994069
768.196665	0.993876
768.522438	0.994708
768.848165	0.993659
769.173846	0.995055
769.499479	0.995315
769.825066	0.995894
770.150607	0.994795
770.476101	0.994675
770.801548	0.994694
771.126949	0.995556
771.452303	0.994677
771.777611	0.995888
772.102872	0.995329
772.428087	0.993851
772.753256	0.994854
773.078378	0.994937
773.403453	0.994226
773.728482	0.996294
774.053465	0.994972
774.378401	0.995329
774.703291	0.996579
775.028135	0.996741
775.352932	0.994329
775.677683	0.995752
776.002388	0.995170
776.327046	0.994682
776.651658	0.996960
776.976224	0.996719
777.300743	0.995422
777.625216	0.994973
777.949643	0.996199
778.274024	0.994692
778.598359	0.995635
778.922647	0.996544
779.246889	0.997013
779.571086	0.996284
779.895236	0.996200
780.219339	0.996998
780.543397	0.995250
780.867409	0.995313
781.191374	0.995072
781.515294	0.997219
781.839167	0.996149
782.162995	0.996479
782.486776	0.995583
782.810511	0.996016
783.134201	0.997579
783.457844	0.996344
783.781441	0.995712
784.104993	0.995016
784.428498	0.996211
784.751958	0.997783
785.075372	0.997219
785.398739	0.996503
785.722061	0.995372
786.045337	0.997043
786.368568	0.995923
786.691752	0.996719
787.014891	0.996204
787.337983	0.994908
787.661030	0.995148
787.984031	0.995693
788.306987	0.995396
788.629897	0.992734
788.952760	0.994952
789.275579	0.994542
789.598351	0.994666
789.921078	0.996246
790.243759	0.995178
790.566395	0.994494
790.888984	0.996282
791.211529	0.995322
791.534027	0.996125
791.856480	0.996059
792.178888	0.995998
792.501249	0.996037
792.823566	0.997301
793.145836	0.996525
793.468062	0.997107
793.790241	0.997413
794.112375	0.994535
794.434464	0.996745
794.756507	0.996766
795.078505	0.996917
795.400457	0.996177
795.722364	0.995149
796.044226	0.996659
796.366042	0.995243
796.687812	0.994562
797.009538	0.994951
797.331218	0.995526
797.652852	0.996639
797.974442	0.994859
798.295986	0.995055
798.617484	0.995535
798.938938	0.996066
799.260346	0.994873
799.581709	0.995229
799.903026	0.996098
800.224299	0.995236
800.545526	0.995823
800.866708	0.995486
801.187845	0.997207
801.508936	0.996884
801.829983	0.996024
802.150984	0.995908
802.471940	0.997509
802.792851	0.995825
803.113717	0.996864
803.434538	0.997298
803.755314	0.997965
804.076045	0.996245
804.396731	0.996067
804.717372	0.994571
805.037967	0.996945
805.358518	0.997489
805.679024	0.995797
805.999485	0.996383
806.319901	0.997027
806.640272	0.997018
806.960598	0.996723
807.280879	0.996885
807.601115	0.997563
807.921306	0.997230
808.241453	0.995766
808.561554	0.996180
808.881611	0.996003
809.201623	0.995921
809.521590	0.996574
809.841513	0.995830
810.161390	0.995915
810.481223	0.996639
810.801011	0.996371
811.120755	0.996536
811.440453	0.996444
811.760107	0.996275
812.079716	0.996785
812.399281	0.996641
812.718801	0.996026
813.038276	0.996193
813.357707	0.997548
813.677093	0.997098
813.996434	0.997274
814.315731	0.997878
814.634983	0.997357
814.954191	0.996283
815.273354	0.996078
815.592473	0.996152
815.911547	0.996946
816.230577	0.996496
816.549562	0.996768
816.868502	0.995134
817.187399	0.996659
817.506250	0.996091
817.825058	0.994957
818.143821	0.995678
818.462539	0.995840
818.781213	0.994626
819.099843	0.995731
819.418429	0.994146
819.736970	0.993548
820.055466	0.992122
820.373919	0.991726
820.692327	0.989423
821.010691	0.988331
821.329011	0.984504
821.647286	0.980675
821.965517	0.976520
822.283704	0.971188
822.601847	0.968970
822.919945	0.970321
823.237999	0.972348
823.556010	0.975063
823.873976	0.976632
824.191897	0.980487
824.509775	0.983486
824.827609	0.984110
825.145398	0.986159
825.463144	0.985101
825.780845	0.985033
826.098502	0.985650
826.416116	0.985047
826.733685	0.981684
827.051210	0.978146
827.368692	0.979012
827.686129	0.980743
828.003522	0.984419
828.320872	0.986053
828.638177	0.988189
828.955439	0.990617
829.272656	0.990788
829.589830	0.992034
829.906960	0.993909
830.224046	0.993307
830.541088	0.994449
830.858086	0.993827
831.175041	0.995098
831.491952	0.994456
831.808819	0.994759
832.125642	0.994598
832.442421	0.993979
832.759157	0.993478
833.075849	0.990426
833.392497	0.989006
833.709101	0.985717
834.025662	0.985659
834.342179	0.986639
834.658653	0.989441
834.975083	0.990686
835.291469	0.991058
835.607811	0.993251
835.924110	0.993909
836.240366	0.995966
836.556578	0.995838
836.872746	0.995516
837.188871	0.995118
837.504952	0.995493
837.820990	0.997363
838.136984	0.996375
838.452935	0.997021
838.768842	0.997392
839.084706	0.997430
839.400526	0.996388
839.716303	0.992717
840.032037	0.993161
840.347727	0.992376
840.663373	0.993545
840.978977	0.993521
841.294537	0.995245
841.610054	0.997335
841.925527	0.997757
842.240957	0.997327
842.556344	0.997601
842.871687	0.997157
843.186987	0.997984
843.502244	0.999275
843.817458	0.998065
844.132629	0.998026
844.447756	0.997891
844.762840	0.998620
845.077881	0.998585
845.392879	0.998264
845.707833	0.998178
846.022745	0.998594
846.337613	1.000166
846.652438	0.998839
846.967221	0.999596
847.281960	0.998711
847.596656	0.998903
847.911309	0.998880
848.225919	0.998369
848.540485	0.998614
848.855009	0.999194
849.169490	0.999291
849.483928	0.998834
849.798323	0.997690
850.112675	0.999316
850.426984	0.999105
850.741251	0.998472
851.055474	0.998199
851.369654	0.999017
851.683792	0.998805
851.997887	0.998507
852.311938	0.999005
852.625947	0.998612
852.939914	0.998701
853.253837	0.999668
853.567718	0.999707
853.881555	0.999115
854.195350	0.997937
854.509103	0.999423
854.822812	0.999759
855.136479	0.998687
855.450103	0.999098
855.763685	0.999145
856.077224	0.999323
856.390720	0.998900
856.704173	0.999700
857.017584	1.000065
857.330953	0.998073
857.644278	0.998737
857.957561	0.999650
858.270802	0.999237
858.584000	0.999398
858.897155	0.998423
859.210268	0.998353
859.523339	1.000388
859.836367	0.998926
860.149352	0.998089
860.462295	0.998233
860.775195	0.998732
861.088054	0.997579
861.400869	0.999433
861.713642	0.997672
862.026373	0.999102
862.339062	1.000142
862.651708	0.998292
862.964312	0.998990
863.276873	0.998455
863.589392	0.998714
863.901869	0.998370
864.214303	0.998665
864.526696	0.997796
864.839045	0.997980
865.151353	0.997340
865.463619	0.997449
865.775842	0.998572
866.088023	0.999535
866.400162	0.998380
866.712258	0.999691
867.024313	0.999225
867.336325	0.999579
867.648296	0.998317
867.960224	0.999073
868.272110	0.998352
868.583954	0.998477
868.895755	0.998927
869.207515	0.998351
869.519233	0.998730
869.830909	0.997476
870.142542	0.997095
870.454134	0.998085
870.765684	0.998350
871.077191	0.998702
871.388657	0.998320
871.700081	0.997778
872.011463	0.998849
872.322803	0.998278
872.634101	0.996978
872.945357	0.997801
873.256571	0.997970
873.567744	0.998534
873.878874	0.997808
874.189963	0.996966
874.501010	0.998839
874.812015	0.998197
875.122979	0.997720
875.433900	0.997126
875.744780	0.998237
876.055618	0.996260
876.366415	0.997715
876.677169	0.996996
876.987882	0.996583
877.298554	0.997127
877.609183	0.997248
877.919771	0.996693
878.230317	0.998475
878.540822	0.995390
878.851285	0.995364
879.161707	0.995489
879.472087	0.995430
879.782425	0.991922
880.092722	0.990195
880.402977	0.985513
880.713191	0.981726
881.023363	0.976996
881.333494	0.973677
881.643583	0.973190
881.953631	0.973398
882.263637	0.972761
882.573602	0.974550
882.883526	0.977449
883.193408	0.979435
883.503248	0.981251
883.813048	0.983111
884.122806	0.985358
884.432522	0.987281
884.742197	0.990061
885.051831	0.990447
885.361424	0.991843
885.670975	0.993025
885.980485	0.992806
886.289954	0.994215
886.599382	0.993615
886.908768	0.995080
887.218113	0.995560
887.527417	0.994258
887.836680	0.996268
888.145901	0.996423
888.455082	0.997618
888.764221	0.997435
889.073319	0.995869
889.382376	0.997333
889.691392	0.996669
890.000366	0.996859
890.309300	0.996460
890.618193	0.995948
890.927044	0.996123
891.235855	0.996137
891.544625	0.996762
891.853353	0.997713
892.162041	0.996643
892.470687	0.997035
892.779293	0.994442
893.087858	0.993485
893.396381	0.993319
893.704864	0.993375
894.013306	0.992415
894.321707	0.990090
894.630068	0.987704
894.938387	0.985538
895.246665	0.986026
895.554903	0.986855
895.863100	0.989275
896.171256	0.989868
896.479371	0.991044
896.787446	0.991106
897.095480	0.993112
897.403473	0.994799
897.711425	0.994695
898.019336	0.995701
898.327207	0.995706
898.635038	0.995608
898.942827	0.995805
899.250576	0.995516
899.558284	0.995299
899.865952	0.995328
900.173579	0.996938
900.481165	0.996814
900.788711	0.996513
901.096216	0.997302
901.403681	0.997309
901.711105	0.997349
902.018489	0.997267
902.325832	0.997380
902.633135	0.995731
902.940397	0.997351
903.247619	0.994940
903.554800	0.993663
903.861941	0.989511
904.169041	0.985262
904.476101	0.984194
904.783121	0.983060
905.090100	0.984764
905.397039	0.987211
905.703938	0.987342
906.010796	0.990002
906.317614	0.993676
906.624391	0.994190
906.931129	0.995304
907.237826	0.995782
907.544483	0.997233
907.851099	0.996399
908.157675	0.996191
908.464211	0.997924
908.770707	0.996414
909.077163	0.998578
909.383578	0.998515
909.689954	0.998125
909.996289	0.999120
910.302584	0.998115
910.608839	0.998905
910.915054	0.997359
911.221229	0.999720
911.527363	0.998377
911.833458	0.998421
912.139513	0.998061
912.445527	0.998555
912.751502	0.998660
913.057436	0.998192
913.363331	0.997049
913.669186	0.998915
913.975000	0.996337
914.280775	0.996670
914.586510	0.995255
914.892205	0.992596
915.197859	0.990133
915.503475	0.990391
915.809050	0.986357
916.114585	0.983757
916.420081	0.984103
916.725536	0.984686
917.030952	0.984916
917.336328	0.986641
917.641665	0.987422
917.946961	0.989187
918.252218	0.989742
918.557435	0.991395
918.862612	0.992742
919.167750	0.994007
919.472848	0.994713
919.777906	0.995344
920.082925	0.995833
920.387904	0.997491
920.692843	0.996396
920.997743	0.996204
921.302603	0.996537
921.607423	0.996738
921.912204	0.997000
922.216946	0.998758
922.521647	0.999040
922.826310	0.997273
923.130932	0.998588
923.435516	0.998387
923.740059	0.998571
924.044564	0.998275
924.349028	0.997423
924.653454	0.999576
924.957840	0.998605
925.262186	0.999051
925.566493	0.998102
925.870761	0.999158
926.174989	0.999716
926.479178	1.000898
926.783328	0.999793
927.087438	0.999606
927.391509	0.998591
927.695541	0.999577
927.999533	1.000170
928.303486	0.998893
928.607400	0.999726
928.911275	1.000316
929.215110	1.000814
929.518906	1.000294
929.822663	1.001919
930.126381	1.001062
930.430060	1.001072
930.733699	1.000083
931.037299	1.000623
931.340861	0.999777
931.644383	0.998466
931.947866	1.000027
932.251309	1.000235
932.554714	1.000279
932.858080	1.000324
933.161407	0.999850
933.464694	1.000365
933.767943	0.999964
934.071153	1.000332
934.374323	0.999877
934.677455	0.999548
934.980548	0.999232
935.283602	1.000863
935.586617	0.999715
935.889593	1.000842
936.192530	1.000032
936.495428	0.999798
936.798287	1.000267
937.101108	1.001348
937.403890	0.999264
937.706632	1.000152
938.009336	0.999521
938.312002	0.998627
938.614628	1.000185
938.917216	0.997982
939.219765	0.997983
939.522275	0.999523
939.824747	0.999613
940.127179	0.999062
940.429573	1.000465
940.731929	0.998378
941.034246	0.999447
941.336524	0.997788
941.638763	0.998338
941.940964	0.999198
942.243126	0.998975
942.545250	0.999398
942.847335	0.999101
943.149381	1.000077
943.451389	0.999133
943.753359	0.999083
944.055290	1.001290
944.357182	1.000277
944.659036	0.998996
944.960851	0.999790
945.262628	1.000401
945.564367	1.000295
945.866067	0.998795
946.167729	0.998808
946.469352	0.999690
946.770937	0.996901
947.072484	1.000717
947.373992	0.999925
947.675462	0.999241
947.976893	0.999124
948.278286	1.001869
948.579641	1.000851
948.880958	0.999523
949.182236	1.000120
949.483476	1.000258
949.784678	0.999979
950.085841	0.998386
950.386967	0.999184
950.688054	1.000577
950.989103	0.999093
951.290114	0.998590
951.591087	0.998225
951.892021	0.998592
952.192917	1.000474
952.493776	1.000412
952.794596	1.000272
953.095378	0.998648
953.396122	0.998278
953.696828	0.999766
953.997496	0.999758
954.298126	1.000036
954.598718	0.999267
954.899272	0.999607
955.199788	0.999540
955.500266	1.000595
955.800706	1.000192
956.101108	0.999581
956.401472	1.000371
956.701798	0.999311
957.002087	0.999096
957.302337	0.999203
957.602550	1.000338
957.902724	0.999968
958.202861	1.000096
958.502960	0.999170
958.803022	1.002367
959.103045	1.000477
959.403031	1.001153
959.702979	1.001209
960.002889	0.999753
960.302762	1.000325
960.602596	1.000489
960.902393	1.001542
961.202153	1.000532
961.501875	1.001768
961.801559	1.001337
962.101205	1.000030
962.400814	1.000990
962.700385	1.000854
962.999918	1.001780
963.299414	1.000674
963.598873	1.001940
963.898293	1.000877
964.197677	1.000681
964.497022	1.000900
964.796331	1.001551
965.095601	1.002536
965.394835	1.001412
965.694030	1.001820
965.993189	1.000721
966.292309	1.001086
966.591393	1.000101
966.890439	1.002181
967.189447	1.000960
967.488419	1.000231
967.787353	1.000324
968.086249	1.001673
968.385108	1.001383
968.683930	1.001762
968.982714	1.001892
969.281462	1.002010
969.580172	1.001198
969.878844	1.001906
970.177480	1.001836
970.476078	1.001449
970.774639	1.001872
971.073162	1.000118
971.371649	1.001486
971.670098	1.000629
971.968510	1.000561
972.266885	1.000595
972.565223	1.000464
972.863524	1.000216
973.161788	1.000270
973.460014	1.001590
973.758204	1.000743
974.056356	1.000665
974.354471	1.000917
974.652550	1.001524
974.950591	1.000503
975.248595	1.000101
975.546563	1.001839
975.844493	1.001421
976.142386	0.999899
976.440243	1.001862
976.738062	1.002570
977.035845	1.000382
977.333590	1.001784
977.631299	1.001638
977.928971	1.001172
978.226606	1.000654
978.524204	1.000345
978.821765	1.001823
979.119290	1.002537
979.416777	1.000817
979.714228	1.001174
980.011642	1.001341
980.309020	1.000855
980.606360	1.001236
980.903664	1.001051
981.200931	1.000414
981.498162	1.001059
981.795356	1.001048
982.092513	1.000695
982.389633	1.001939
982.686717	0.999534
982.983764	1.001245
983.280775	1.000252
983.577749	1.000675
983.874686	0.999742
984.171587	0.999786
984.468451	1.000947
984.765279	1.002369
985.062070	1.001291
985.358824	0.999703
985.655543	1.000463
985.952224	1.001549
986.248869	1.001064
986.545478	1.002919
986.842050	1.000687
987.138586	1.001242
987.435086	1.000616
987.731549	1.002417
988.027975	1.002953
988.324366	1.000613
988.620719	1.002791
988.917037	1.000899
989.213318	1.002190
989.509563	1.001528
989.805772	1.001899
990.101944	1.002305
990.398080	1.002204
990.694180	1.002304
990.990244	1.000288
991.286271	0.999774
991.582262	1.002270
991.878217	1.000869
992.174136	1.002001
992.470019	1.001309
992.765865	1.002148
993.061676	1.000895
993.357450	1.002243
993.653188	1.002925
993.948890	1.002206
994.244556	1.001733
994.540186	1.001027
994.835780	1.001298
995.131337	1.002503
995.426859	1.001801
995.722345	1.001028
996.017795	0.999918
996.313208	1.000991
996.608586	1.000964
996.903928	1.001039
997.199234	1.001046
997.494504	1.002797
997.789738	1.000723
998.084936	1.002831
998.380099	1.000552
998.675225	1.003414
998.970316	1.002648
999.265371	1.001341
999.560390	1.002036
999.855373	1.001443
1000.150320	1.001022
1000.445232	1.001514
1000.740108	1.001958
1001.034948	1.001269
1001.329752	1.002424
1001.624521	1.001667
1001.919254	1.001092
1002.213951	1.001570
1002.508613	1.001250
1002.803239	1.001706
1003.097829	1.001604
1003.392384	1.003376
1003.686903	1.002782
1003.981386	1.001979
1004.275834	1.002390
1004.570246	1.000449
1004.864623	1.001719
1005.158964	1.001957
1005.453270	1.001551
1005.747540	1.001768
1006.041775	1.002759
1006.335974	1.001837
1006.630138	1.002055
1006.924266	0.998800
1007.218359	0.999656
1007.512416	1.003067
1007.806438	1.002067
1008.100425	1.002765
1008.394376	1.001961
1008.688292	1.000808
1008.982172	1.001499
1009.276017	1.003016
1009.569827	1.002841
1009.863602	1.000611
1010.157341	1.001339
1010.451045	1.001717
1010.744714	1.003229
1011.038347	1.003498
1011.331945	1.000841
1011.625508	1.002407
1011.919036	1.000837
1012.212528	1.002273
1012.505986	1.002322
1012.799408	1.001700
1013.092795	1.002297
1013.386147	1.002454
1013.679464	1.002193
1013.972745	1.001500
1014.265992	1.002241
1014.559204	1.001806
1014.852380	1.002569
1015.145521	1.001745
1015.438628	1.001439
1015.731699	1.001913
1016.024736	1.003134
1016.317737	1.001897
1016.610703	1.002382
1016.903635	1.002253
1017.196531	1.000783
1017.489393	1.001077
1017.782219	1.000648
1018.075011	1.001600
1018.367768	1.001284
1018.660490	1.002540
1018.953177	1.002540
1019.245829	1.002540
