Dividing Wavelength (nm)	Counts (n)	Blue Motor Position (mm): 16.700000	Red Motor Position (mm): 0.000000	
326.493990	1.001164
326.888308	1.001164
327.282561	1.001164
327.676750	1.003540
328.070874	1.002341
328.464933	1.003613
328.858929	1.002896
329.252859	1.002203
329.646726	1.002342
330.040528	1.003301
330.434265	1.002579
330.827938	1.002289
331.221547	1.002393
331.615091	1.003459
332.008571	1.003190
332.401986	1.003207
332.795338	1.002238
333.188625	1.002489
333.581847	1.001748
333.975006	1.001302
334.368100	1.003157
334.761129	1.001175
335.154095	1.002459
335.546996	1.001665
335.939833	0.998941
336.332606	0.999994
336.725315	0.997727
337.117960	0.998560
337.510540	0.997203
337.903056	0.998973
338.295508	1.000151
338.687896	0.999627
339.080220	0.999903
339.472480	0.998620
339.864676	0.998254
340.256807	0.998142
340.648875	0.999796
341.040879	0.998635
341.432818	0.998876
341.824694	0.998449
342.216506	0.999286
342.608253	0.998506
342.999937	0.998616
343.391557	0.999552
343.783113	1.000796
344.174605	0.999161
344.566033	0.998381
344.957397	1.000594
345.348697	0.998508
345.739934	0.999548
346.131106	0.997369
346.522215	0.999177
346.913260	0.998727
347.304241	0.997777
347.695159	0.998907
348.086012	0.998670
348.476802	0.999621
348.867528	0.997307
349.258191	0.998370
349.648789	1.000034
350.039324	0.998618
350.429796	0.997781
350.820203	0.997941
351.210548	0.998219
351.600828	0.998944
351.991045	0.998909
352.381198	0.997384
352.771288	0.998107
353.161314	0.999108
353.551276	0.998100
353.941175	0.996869
354.331010	0.998567
354.720782	0.997389
355.110490	0.997218
355.500135	0.998160
355.889717	0.997937
356.279235	0.997673
356.668689	0.998800
357.058080	0.998085
357.447408	0.996809
357.836672	0.998257
358.225873	0.996990
358.615010	0.997607
359.004084	0.997318
359.393095	0.998720
359.782043	0.996888
360.170927	0.998056
360.559748	0.996902
360.948505	0.996025
361.337199	0.996275
361.725830	0.998568
362.114398	0.996825
362.502903	0.997508
362.891344	0.996550
363.279722	0.996759
363.668037	0.997826
364.056289	0.996307
364.444478	0.997720
364.832603	0.995326
365.220665	0.997448
365.608665	0.995202
365.996601	0.996163
366.384474	0.994200
366.772284	0.996236
367.160031	0.995888
367.547715	0.994601
367.935336	0.994010
368.322893	0.993813
368.710388	0.992335
369.097820	0.991126
369.485189	0.987843
369.872495	0.986046
370.259738	0.984238
370.646918	0.981213
371.034035	0.979321
371.421090	0.976544
371.808081	0.971554
372.195010	0.968849
372.581875	0.964097
372.968678	0.959237
373.355418	0.954671
373.742096	0.947715
374.128710	0.944300
374.515262	0.938488
374.901751	0.932844
375.288177	0.928306
375.674540	0.921381
376.060841	0.915904
376.447079	0.909191
376.833254	0.902063
377.219367	0.896620
377.605417	0.886870
377.991404	0.882325
378.377329	0.875731
378.763191	0.869982
379.148991	0.861569
379.534727	0.853914
379.920402	0.844953
380.306013	0.841981
380.691563	0.829020
381.077049	0.823134
381.462474	0.817913
381.847835	0.806221
382.233134	0.802381
382.618371	0.803091
383.003545	0.785280
383.388657	0.783664
383.773706	0.775912
384.158693	0.770463
384.543618	0.766876
384.928480	0.757083
385.313280	0.746826
385.698017	0.746234
386.082692	0.735843
386.467305	0.732849
386.851856	0.728767
387.236344	0.723475
387.620770	0.717398
388.005133	0.711507
388.389435	0.706483
388.773674	0.703489
389.157851	0.695159
389.541965	0.692639
389.926018	0.699800
390.310008	0.686061
390.693936	0.683365
391.077802	0.676246
391.461606	0.675678
391.845348	0.666777
392.229027	0.665237
392.612645	0.664076
392.996200	0.651526
393.379694	0.643874
393.763125	0.634614
394.146494	0.638911
394.529801	0.629572
394.913047	0.621162
395.296230	0.627146
395.679351	0.618441
396.062410	0.616036
396.445408	0.618292
396.828343	0.613685
397.211217	0.608452
397.594028	0.621201
397.976778	0.611279
398.359466	0.607306
398.742092	0.602739
399.124656	0.614863
399.507158	0.603073
399.889598	0.599975
400.271977	0.591404
400.654294	0.595466
401.036549	0.594514
401.418742	0.598689
401.800874	0.584205
402.182944	0.581943
402.564952	0.573275
402.946898	0.575409
403.328783	0.576027
403.710606	0.587037
404.092367	0.561826
404.474067	0.567315
404.855705	0.565542
405.237282	0.574925
405.618797	0.560651
406.000250	0.556899
406.381642	0.546579
406.762972	0.551646
407.144240	0.550174
407.525447	0.550253
407.906593	0.543322
408.287677	0.538428
408.668700	0.546961
409.049661	0.540555
409.430560	0.535542
409.811399	0.544560
410.192176	0.526516
410.572891	0.534049
410.953545	0.521025
411.334138	0.535205
411.714669	0.527652
412.095139	0.539379
412.475547	0.523691
412.855894	0.525349
413.236180	0.524947
413.616405	0.529971
413.996568	0.520757
414.376670	0.526456
414.756711	0.531554
415.136691	0.528412
415.516609	0.519180
415.896466	0.516228
416.276262	0.512439
416.655997	0.513871
417.035670	0.495339
417.415283	0.486955
417.794834	0.491902
418.174324	0.496801
418.553753	0.506613
418.933121	0.488650
419.312428	0.482841
419.691674	0.488077
420.070859	0.476662
420.449983	0.484408
420.829045	0.473652
421.208047	0.482736
421.586988	0.475650
421.965867	0.474579
422.344686	0.463536
422.723444	0.475760
423.102141	0.493079
423.480777	0.465058
423.859352	0.487005
424.237866	0.463893
424.616319	0.464500
424.994712	0.455040
425.373044	0.465263
425.751314	0.453643
426.129524	0.470903
426.507673	0.454025
426.885762	0.447502
427.263789	0.452773
427.641756	0.462535
428.019662	0.452687
428.397508	0.452388
428.775292	0.456743
429.153016	0.448048
429.530679	0.454933
429.908282	0.447839
430.285824	0.458032
430.663305	0.436144
431.040726	0.457071
431.418086	0.457344
431.795385	0.448841
432.172624	0.448102
432.549802	0.448417
432.926920	0.447119
433.303977	0.446934
433.680974	0.443661
434.057910	0.442205
434.434786	0.441416
434.811601	0.444629
435.188355	0.426787
435.565050	0.436224
435.941683	0.437440
436.318257	0.421364
436.694770	0.422463
437.071222	0.420704
437.447614	0.424996
437.823946	0.431605
438.200218	0.420692
438.576429	0.430984
438.952580	0.423245
439.328670	0.420038
439.704700	0.426181
440.080670	0.427691
440.456580	0.409409
440.832429	0.417535
441.208218	0.428059
441.583947	0.416901
441.959616	0.416473
442.335224	0.421814
442.710773	0.412837
443.086261	0.410937
443.461689	0.424566
443.837057	0.414565
444.212365	0.404839
444.587612	0.411693
444.962800	0.401401
445.337927	0.403017
445.712995	0.429244
446.088002	0.390851
446.462949	0.401531
446.837837	0.406179
447.212664	0.395011
447.587431	0.386792
447.962139	0.356851
448.336786	0.316129
448.711374	0.326477
449.085901	0.370935
449.460369	0.374888
449.834776	0.378812
450.209124	0.357662
450.583412	0.350769
450.957640	0.343366
451.331808	0.355159
451.705917	0.378198
452.079965	0.383087
452.453954	0.371387
452.827883	0.377712
453.201752	0.372874
453.575562	0.384367
453.949311	0.372662
454.323001	0.378562
454.696632	0.374659
455.070202	0.367030
455.443713	0.358953
455.817164	0.353565
456.190556	0.349458
456.563888	0.346607
456.937160	0.343760
457.310373	0.361590
457.683526	0.360225
458.056619	0.365846
458.429653	0.366325
458.802628	0.369629
459.175542	0.364037
459.548398	0.346791
459.921194	0.339116
460.293930	0.339184
460.666607	0.316866
461.039224	0.305104
461.411782	0.300808
461.784280	0.300121
462.156719	0.304161
462.529099	0.308455
462.901419	0.324663
463.273680	0.328767
463.645882	0.328503
464.018024	0.334413
464.390106	0.327244
464.762130	0.311674
465.134094	0.294599
465.505999	0.263567
465.877845	0.233842
466.249631	0.220756
466.621358	0.228317
466.993026	0.242357
467.364634	0.248625
467.736184	0.257459
468.107674	0.265999
468.479105	0.265147
468.850477	0.272016
469.221790	0.278817
469.593043	0.288767
469.964238	0.293611
470.335373	0.293410
470.706449	0.291352
471.077467	0.292062
471.448425	0.254136
471.819324	0.229628
472.190164	0.229202
472.560945	0.258046
472.931667	0.280685
473.302330	0.284380
473.672934	0.296119
474.043479	0.284529
474.413965	0.286245
474.784393	0.289895
475.154761	0.284875
475.525070	0.282128
475.895321	0.287750
476.265513	0.282047
476.635645	0.277358
477.005719	0.276768
477.375734	0.273614
477.745691	0.267047
478.115588	0.263443
478.485427	0.256554
478.855207	0.243573
479.224928	0.226100
479.594591	0.214227
479.964194	0.217694
480.333739	0.218911
480.703226	0.220188
481.072653	0.218523
481.442022	0.214639
481.811333	0.211059
482.180584	0.214728
482.549777	0.219980
482.918912	0.223325
483.287988	0.222854
483.657005	0.222456
484.025964	0.228801
484.394864	0.226241
484.763706	0.227024
485.132489	0.231751
485.501213	0.232605
485.869879	0.231085
486.238487	0.234222
486.607036	0.232422
486.975527	0.236933
487.343959	0.232381
487.712333	0.231781
488.080648	0.233218
488.448905	0.232291
488.817104	0.233378
489.185244	0.227982
489.553326	0.224983
489.921350	0.214801
490.289315	0.197126
490.657222	0.192263
491.025070	0.193545
491.392861	0.195539
491.760593	0.201343
492.128267	0.206861
492.495883	0.212296
492.863440	0.219010
493.230939	0.225222
493.598380	0.226994
493.965763	0.228627
494.333088	0.230923
494.700354	0.232717
495.067563	0.231594
495.434713	0.234980
495.801805	0.232580
496.168839	0.234213
496.535815	0.235791
496.902733	0.235492
497.269593	0.237372
497.636395	0.234860
498.003139	0.235202
498.369825	0.238312
498.736453	0.234731
499.103023	0.236236
499.469535	0.235973
499.835989	0.236049
500.202385	0.236690
500.568723	0.239943
500.935003	0.235374
501.301226	0.239655
501.667390	0.234180
502.033497	0.232036
502.399546	0.235062
502.765537	0.237152
503.131470	0.235522
503.497345	0.231655
503.863163	0.240236
504.228923	0.233224
504.594625	0.232211
504.960269	0.237451
505.325856	0.232875
505.691385	0.237223
506.056856	0.234050
506.422270	0.233282
506.787625	0.236279
507.152924	0.233435
507.518164	0.233761
507.883347	0.235281
508.248472	0.237076
508.613540	0.232118
508.978550	0.235030
509.343503	0.235430
509.708398	0.232939
510.073236	0.230498
510.438016	0.230557
510.802738	0.231474
511.167403	0.230635
511.532010	0.232741
511.896561	0.228163
512.261053	0.226701
512.625488	0.229027
512.989866	0.229527
513.354186	0.229740
513.718449	0.231713
514.082655	0.228077
514.446803	0.230457
514.810894	0.228122
515.174927	0.230961
515.538904	0.230376
515.902822	0.227433
516.266684	0.229694
516.630488	0.231181
516.994235	0.230024
517.357925	0.229062
517.721558	0.227405
518.085133	0.227027
518.448651	0.227060
518.812112	0.229529
519.175516	0.229367
519.538863	0.227116
519.902152	0.228948
520.265385	0.226036
520.628560	0.227989
520.991678	0.228376
521.354739	0.227473
521.717743	0.229022
522.080690	0.229790
522.443580	0.227129
522.806413	0.228492
523.169189	0.227942
523.531908	0.227082
523.894569	0.230872
524.257174	0.231125
524.619722	0.229091
524.982213	0.230390
525.344647	0.229718
525.707025	0.231147
526.069345	0.229463
526.431608	0.231743
526.793815	0.229649
527.155964	0.234575
527.518057	0.233893
527.880093	0.235121
528.242072	0.234128
528.603995	0.236609
528.965860	0.238600
529.327669	0.238068
529.689421	0.239647
530.051117	0.240762
530.412755	0.239334
530.774337	0.242009
531.135862	0.243485
531.497331	0.243128
531.858743	0.246902
532.220098	0.244138
532.581396	0.247218
532.942638	0.248374
533.303824	0.250390
533.664953	0.250880
534.026025	0.253810
534.387040	0.252445
534.747999	0.252942
535.108902	0.252443
535.469748	0.258674
535.830537	0.257072
536.191270	0.258452
536.551947	0.259107
536.912567	0.260369
537.273131	0.263133
537.633638	0.264418
537.994089	0.266116
538.354483	0.268442
538.714821	0.266369
539.075103	0.267323
539.435328	0.269414
539.795497	0.274245
540.155609	0.272748
540.515665	0.272160
540.875665	0.279058
541.235609	0.279204
541.595496	0.280187
541.955328	0.278872
542.315102	0.282949
542.674821	0.285728
543.034483	0.287353
543.394090	0.288422
543.753640	0.292108
544.113134	0.289150
544.472571	0.294055
544.831953	0.293373
545.191278	0.299074
545.550548	0.300006
545.909761	0.299072
546.268918	0.302124
546.628019	0.302188
546.987064	0.307169
547.346053	0.310263
547.704986	0.311066
548.063863	0.313160
548.422684	0.315019
548.781449	0.319448
549.140158	0.319497
549.498811	0.324720
549.857408	0.329108
550.215949	0.327739
550.574434	0.333148
550.932864	0.334237
551.291237	0.334315
551.649555	0.339794
552.007817	0.341466
552.366022	0.344404
552.724173	0.348206
553.082267	0.350682
553.440305	0.351915
553.798288	0.357504
554.156215	0.358103
554.514086	0.361670
554.871902	0.367579
555.229661	0.369760
555.587365	0.373329
555.945014	0.378076
556.302606	0.379401
556.660143	0.383915
557.017625	0.385579
557.375050	0.390146
557.732421	0.390898
558.089735	0.396255
558.446994	0.399054
558.804197	0.402181
559.161345	0.405408
559.518437	0.410624
559.875474	0.413545
560.232455	0.416764
560.589381	0.420629
560.946251	0.425890
561.303065	0.425063
561.659825	0.430963
562.016528	0.435743
562.373177	0.440115
562.729770	0.443680
563.086307	0.447739
563.442789	0.449989
563.799216	0.456949
564.155587	0.458962
564.511904	0.463796
564.868164	0.467252
565.224370	0.470087
565.580520	0.476906
565.936615	0.478214
566.292654	0.486233
566.648638	0.486475
567.004567	0.491864
567.360441	0.495545
567.716260	0.501795
568.072023	0.502981
568.427732	0.508802
568.783385	0.512428
569.138982	0.516815
569.494525	0.519505
569.850013	0.525890
570.205445	0.529389
570.560823	0.533192
570.916145	0.539642
571.271412	0.542665
571.626625	0.547916
571.981782	0.551311
572.336884	0.556328
572.691931	0.559136
573.046923	0.565530
573.401860	0.569405
573.756743	0.575114
574.111570	0.577880
574.466342	0.581815
574.821059	0.585583
575.175722	0.591409
575.530330	0.595549
575.884882	0.598495
576.239380	0.604327
576.593823	0.607953
576.948211	0.613072
577.302544	0.617066
577.656823	0.621936
578.011047	0.624997
578.365216	0.630440
578.719330	0.634208
579.073389	0.638664
579.427394	0.642556
579.781344	0.646479
580.135239	0.650810
580.489080	0.654629
580.842866	0.661066
581.196597	0.664241
581.550273	0.666778
581.903895	0.672477
582.257463	0.673930
582.610975	0.680418
582.964434	0.682760
583.317837	0.688418
583.671186	0.690994
584.024481	0.695839
584.377721	0.699854
584.730906	0.703907
585.084037	0.707470
585.437113	0.711240
585.790135	0.715021
586.143103	0.719074
586.496016	0.722322
586.848874	0.726040
587.201679	0.728717
587.554428	0.734202
587.907124	0.738038
588.259765	0.740703
588.612352	0.745319
588.964884	0.748779
589.317362	0.752435
589.669786	0.755410
590.022155	0.757406
590.374470	0.761587
590.726731	0.764764
591.078937	0.770753
591.431090	0.773181
591.783188	0.776903
592.135232	0.782234
592.487222	0.783047
592.839157	0.786027
593.191038	0.789632
593.542866	0.793197
593.894639	0.796836
594.246358	0.800458
594.598022	0.802820
594.949633	0.806717
595.301190	0.809542
595.652692	0.812513
596.004141	0.814699
596.355535	0.819760
596.706876	0.822133
597.058162	0.826351
597.409395	0.827419
597.760573	0.829295
598.111698	0.833897
598.462768	0.836493
598.813785	0.838269
599.164748	0.842502
599.515657	0.844131
599.866511	0.849397
600.217312	0.850018
600.568060	0.853629
600.918753	0.856130
601.269392	0.857915
601.619978	0.861602
601.970510	0.863645
602.320988	0.865742
602.671412	0.868096
603.021783	0.871090
603.372100	0.874418
603.722363	0.876277
604.072572	0.877209
604.422728	0.880012
604.772830	0.882157
605.122878	0.884546
605.472872	0.887078
605.822813	0.888257
606.172701	0.890562
606.522534	0.893242
606.872314	0.894786
607.222041	0.896746
607.571714	0.898249
607.921333	0.899627
608.270899	0.902181
608.620411	0.903328
608.969870	0.906325
609.319276	0.906823
609.668627	0.909745
610.017926	0.910259
610.367171	0.911642
610.716362	0.913527
611.065500	0.915320
611.414585	0.917031
611.763616	0.917648
612.112594	0.919607
612.461518	0.920474
612.810389	0.921715
613.159207	0.924553
613.507971	0.924426
613.856682	0.927366
614.205340	0.926072
614.553945	0.928595
614.902496	0.930225
615.250994	0.931803
615.599439	0.933484
615.947830	0.934084
616.296169	0.935743
616.644454	0.936424
616.992686	0.937229
617.340864	0.938969
617.688990	0.939199
618.037063	0.940834
618.385082	0.941370
618.733048	0.942200
619.080961	0.943420
619.428821	0.945493
619.776628	0.945661
620.124382	0.947279
620.472083	0.948537
620.819731	0.950653
621.167326	0.950331
621.514868	0.951729
621.862357	0.952081
622.209793	0.953942
622.557176	0.955546
622.904506	0.956684
623.251783	0.957348
623.599007	0.958655
623.946179	0.958422
624.293297	0.961060
624.640363	0.961943
624.987376	0.961473
625.334336	0.962923
625.681243	0.963985
626.028097	0.965263
626.374899	0.965544
626.721647	0.967569
627.068343	0.967265
627.414987	0.967690
627.761577	0.968566
628.108115	0.968796
628.454600	0.970718
628.801032	0.971032
629.147412	0.970627
629.493739	0.972091
629.840014	0.971995
630.186236	0.972463
630.532405	0.973051
630.878521	0.973074
631.224585	0.974025
631.570597	0.974056
631.916556	0.974685
632.262462	0.973949
632.608316	0.976669
632.954117	0.976010
633.299866	0.975869
633.645562	0.976963
633.991206	0.977673
634.336797	0.979085
634.682336	0.979582
635.027823	0.979221
635.373257	0.980056
635.718639	0.981431
636.063968	0.980539
636.409245	0.981640
636.754470	0.981936
637.099642	0.982024
637.444762	0.983118
637.789829	0.983333
638.134845	0.983250
638.479808	0.982991
638.824719	0.984444
639.169577	0.984499
639.514383	0.984829
639.859137	0.985124
640.203839	0.984746
640.548489	0.984444
640.893086	0.984742
641.237632	0.985919
641.582125	0.985789
641.926566	0.986504
642.270955	0.986439
642.615292	0.986880
642.959576	0.986052
643.303809	0.986865
643.647990	0.986156
643.992118	0.987386
644.336195	0.986878
644.680219	0.987811
645.024192	0.987733
645.368112	0.987680
645.711981	0.987073
646.055797	0.987649
646.399562	0.986816
646.743274	0.988425
647.086935	0.987667
647.430544	0.987557
647.774101	0.987496
648.117606	0.988348
648.461059	0.988807
648.804460	0.988304
649.147810	0.988809
649.491108	0.988229
649.834354	0.989124
650.177548	0.988480
650.520690	0.988990
650.863781	0.988967
651.206820	0.989107
651.549807	0.988870
651.892742	0.990164
652.235626	0.990166
652.578458	0.989935
652.921238	0.990856
653.263967	0.990510
653.606644	0.989612
653.949269	0.991164
654.291843	0.988936
654.634365	0.990680
654.976836	0.989300
655.319255	0.990393
655.661622	0.990529
656.003938	0.990816
656.346203	0.990231
656.688416	0.991699
657.030577	0.991091
657.372687	0.991034
657.714746	0.990564
658.056753	0.990726
658.398708	0.989985
658.740612	0.991114
659.082465	0.990490
659.424266	0.991012
659.766016	0.990861
660.107715	0.991663
660.449362	0.991344
660.790958	0.991442
661.132503	0.991646
661.473996	0.991473
661.815438	0.991771
662.156829	0.991348
662.498168	0.992433
662.839456	0.990768
663.180693	0.992294
663.521879	0.991982
663.863013	0.992383
664.204097	0.991976
664.545129	0.991865
664.886110	0.992482
665.227040	0.992244
665.567918	0.991380
665.908746	0.991344
666.249522	0.990594
666.590248	0.991621
666.930922	0.991376
667.271545	0.991829
667.612118	0.992339
667.952639	0.991704
668.293109	0.991262
668.633528	0.991078
668.973896	0.991245
669.314213	0.991833
669.654480	0.991530
669.994695	0.990341
670.334859	0.991441
670.674973	0.991843
671.015035	0.991666
671.355047	0.992274
671.695008	0.991383
672.034918	0.991129
672.374777	0.992103
672.714585	0.991992
673.054342	0.992917
673.394049	0.991443
673.733705	0.991891
674.073310	0.992008
674.412864	0.990808
674.752368	0.992071
675.091820	0.992216
675.431223	0.992502
675.770574	0.991379
676.109875	0.992468
676.449125	0.991634
676.788324	0.991130
677.127473	0.992565
677.466571	0.992402
677.805619	0.991125
678.144616	0.993153
678.483562	0.992722
678.822458	0.992862
679.161303	0.991701
679.500098	0.992204
679.838842	0.992566
680.177535	0.991984
680.516179	0.991583
680.854771	0.992455
681.193314	0.991857
681.531805	0.992297
681.870247	0.992535
682.208638	0.991542
682.546978	0.991348
682.885268	0.991970
683.223508	0.991609
683.561697	0.991637
683.899836	0.991983
684.237925	0.991811
684.575963	0.992202
684.913951	0.991974
685.251889	0.991920
685.589776	0.991875
685.927614	0.991919
686.265401	0.991038
686.603137	0.991072
686.940824	0.991962
687.278460	0.992579
687.616046	0.992351
687.953582	0.991816
688.291068	0.991595
688.628504	0.991841
688.965889	0.991697
689.303224	0.990135
689.640510	0.991531
689.977745	0.991718
690.314930	0.991456
690.652065	0.991859
690.989150	0.992217
691.326185	0.991892
691.663170	0.992190
692.000105	0.992319
692.336990	0.993217
692.673825	0.991964
693.010610	0.992674
693.347345	0.992282
693.684030	0.992438
694.020665	0.992297
694.357251	0.992480
694.693786	0.993595
695.030272	0.991745
695.366707	0.992229
695.703093	0.991987
696.039429	0.992081
696.375716	0.993442
696.711952	0.992221
697.048139	0.993133
697.384276	0.993452
697.720363	0.992248
698.056400	0.990954
698.392388	0.992654
698.728326	0.992715
699.064214	0.993481
699.400053	0.991870
699.735842	0.993696
700.071581	0.992576
700.407270	0.992878
700.742910	0.993936
701.078501	0.992665
701.414042	0.995356
701.749533	0.992252
702.084974	0.993257
702.420366	0.993684
702.755709	0.992671
703.091002	0.993568
703.426246	0.994612
703.761440	0.993756
704.096584	0.992905
704.431679	0.992319
704.766725	0.993959
705.101721	0.993565
705.436668	0.993798
705.771565	0.992694
706.106413	0.992276
706.441212	0.993684
706.775961	0.993543
707.110661	0.993168
707.445311	0.993668
707.779913	0.994357
708.114465	0.993657
708.448967	0.993468
708.783421	0.994005
709.117825	0.993341
709.452180	0.993811
709.786485	0.993112
710.120742	0.991970
710.454949	0.992009
710.789107	0.992480
711.123216	0.991184
711.457275	0.991177
711.791286	0.992109
712.125247	0.994050
712.459159	0.991260
712.793023	0.992201
713.126837	0.993497
713.460602	0.991720
713.794318	0.992361
714.127985	0.991405
714.461602	0.992256
714.795171	0.991919
715.128691	0.992762
715.462162	0.992429
715.795584	0.993068
716.128957	0.992853
716.462281	0.992841
716.795556	0.992979
717.128782	0.992784
717.461960	0.992625
717.795088	0.992920
718.128167	0.994254
718.461198	0.993549
718.794180	0.993409
719.127113	0.993611
719.459997	0.992982
719.792833	0.993423
720.125619	0.993117
720.458357	0.993185
720.791046	0.995202
721.123686	0.993235
721.456278	0.994121
721.788821	0.993749
722.121315	0.994622
722.453761	0.993174
722.786158	0.992696
723.118506	0.993602
723.450805	0.993309
723.783056	0.994429
724.115259	0.992955
724.447412	0.994300
724.779518	0.993756
725.111574	0.993190
725.443582	0.994177
725.775542	0.993585
726.107453	0.994121
726.439315	0.995150
726.771129	0.993315
727.102895	0.993457
727.434612	0.993051
727.766281	0.993175
728.097901	0.992876
728.429473	0.993321
728.760996	0.992738
729.092471	0.992288
729.423897	0.993197
729.755276	0.992748
730.086606	0.992426
730.417887	0.993200
730.749120	0.992429
731.080305	0.993007
731.411442	0.991650
731.742530	0.991923
732.073570	0.992512
732.404562	0.992960
732.735506	0.992097
733.066401	0.991865
733.397249	0.992181
733.728048	0.992117
734.058798	0.993449
734.389501	0.993722
734.720156	0.993299
735.050762	0.994123
735.381320	0.993435
735.711831	0.992829
736.042293	0.993530
736.372707	0.994285
736.703073	0.993067
737.033391	0.994409
737.363661	0.993238
737.693883	0.993964
738.024056	0.992845
738.354182	0.993936
738.684260	0.993683
739.014290	0.993231
739.344272	0.993205
739.674207	0.993787
740.004093	0.994232
740.333931	0.993647
740.663722	0.992882
740.993464	0.993480
741.323159	0.992857
741.652806	0.993409
741.982405	0.992500
742.311956	0.993389
742.641460	0.994074
742.970915	0.993479
743.300323	0.992882
743.629683	0.992981
743.958996	0.993540
744.288260	0.993342
744.617477	0.992787
744.946647	0.993066
745.275768	0.994540
745.604842	0.993341
745.933869	0.993622
746.262847	0.994894
746.591778	0.993397
746.920662	0.993930
747.249498	0.994513
747.578286	0.995298
747.907027	0.993855
748.235720	0.994683
748.564365	0.994996
748.892963	0.993614
749.221514	0.993116
749.550017	0.993789
749.878473	0.993458
750.206881	0.994790
750.535242	0.993665
750.863555	0.993239
751.191821	0.994179
751.520039	0.993438
751.848210	0.993008
752.176334	0.993241
752.504411	0.993429
752.832440	0.993897
753.160421	0.993404
753.488356	0.995513
753.816243	0.994075
754.144082	0.993123
754.471875	0.994169
754.799620	0.994892
755.127318	0.994176
755.454969	0.994166
755.782572	0.996015
756.110129	0.994226
756.437638	0.995026
756.765100	0.994753
757.092515	0.994120
757.419882	0.994482
757.747203	0.993174
758.074477	0.994974
758.401703	0.994797
758.728882	0.994023
759.056014	0.994069
759.383099	0.994451
759.710138	0.993684
760.037129	0.993895
760.364073	0.995187
760.690970	0.994320
761.017820	0.993714
761.344623	0.994355
761.671379	0.994393
761.998088	0.993260
762.324751	0.994136
762.651366	0.992786
762.977935	0.990822
763.304456	0.989885
763.630931	0.987510
763.957359	0.987662
764.283740	0.988948
764.610074	0.990748
764.936362	0.992297
765.262602	0.992128
765.588796	0.992188
765.914943	0.993346
766.241044	0.993166
766.567097	0.993671
766.893104	0.993755
767.219064	0.994097
767.544978	0.994371
767.870845	0.994431
768.196665	0.994543
768.522438	0.995953
768.848165	0.995152
769.173846	0.994675
769.499479	0.995282
769.825066	0.996048
770.150607	0.995832
770.476101	0.995406
770.801548	0.995590
771.126949	0.995428
771.452303	0.995278
771.777611	0.996676
772.102872	0.996182
772.428087	0.995323
772.753256	0.995737
773.078378	0.996258
773.403453	0.995149
773.728482	0.996741
774.053465	0.996064
774.378401	0.996688
774.703291	0.995629
775.028135	0.997444
775.352932	0.994270
775.677683	0.997739
776.002388	0.996916
776.327046	0.996466
776.651658	0.997116
776.976224	0.996116
777.300743	0.996953
777.625216	0.996316
777.949643	0.996767
778.274024	0.995797
778.598359	0.997376
778.922647	0.996539
779.246889	0.997259
779.571086	0.997026
779.895236	0.996062
780.219339	0.997699
780.543397	0.995734
780.867409	0.997009
781.191374	0.996727
781.515294	0.996904
781.839167	0.996767
782.162995	0.996621
782.486776	0.995798
782.810511	0.996492
783.134201	0.997494
783.457844	0.996757
783.781441	0.995907
784.104993	0.995343
784.428498	0.997821
784.751958	0.997190
785.075372	0.998070
785.398739	0.996078
785.722061	0.996025
786.045337	0.996409
786.368568	0.995800
786.691752	0.996761
787.014891	0.996193
787.337983	0.995501
787.661030	0.996342
787.984031	0.996068
788.306987	0.995229
788.629897	0.993860
788.952760	0.995041
789.275579	0.995660
789.598351	0.994526
789.921078	0.997163
790.243759	0.996419
790.566395	0.996531
790.888984	0.996534
791.211529	0.996546
791.534027	0.996767
791.856480	0.996225
792.178888	0.997146
792.501249	0.996621
792.823566	0.997527
793.145836	0.996467
793.468062	0.997081
793.790241	0.997298
794.112375	0.996355
794.434464	0.997237
794.756507	0.997427
795.078505	0.997036
795.400457	0.997759
795.722364	0.996489
796.044226	0.996123
796.366042	0.995034
796.687812	0.995029
797.009538	0.995824
797.331218	0.996161
797.652852	0.997109
797.974442	0.995563
798.295986	0.996838
798.617484	0.994985
798.938938	0.995916
799.260346	0.996000
799.581709	0.995676
799.903026	0.996869
800.224299	0.996279
800.545526	0.996819
800.866708	0.995384
801.187845	0.997502
801.508936	0.996979
801.829983	0.996786
802.150984	0.997185
802.471940	0.997300
802.792851	0.995347
803.113717	0.997193
803.434538	0.996852
803.755314	0.998039
804.076045	0.997018
804.396731	0.996961
804.717372	0.996652
805.037967	0.997980
805.358518	0.996804
805.679024	0.996841
805.999485	0.996807
806.319901	0.997752
806.640272	0.998315
806.960598	0.998391
807.280879	0.996300
807.601115	0.997750
807.921306	0.997328
808.241453	0.996468
808.561554	0.996844
808.881611	0.996895
809.201623	0.997227
809.521590	0.996826
809.841513	0.996845
810.161390	0.996384
810.481223	0.996777
810.801011	0.998348
811.120755	0.998176
811.440453	0.998339
811.760107	0.996694
812.079716	0.998170
812.399281	0.997324
812.718801	0.996440
813.038276	0.996909
813.357707	0.997202
813.677093	0.997625
813.996434	0.997647
814.315731	0.998327
814.634983	0.997686
814.954191	0.997826
815.273354	0.997228
815.592473	0.995952
815.911547	0.998024
816.230577	0.996722
816.549562	0.996682
816.868502	0.995842
817.187399	0.997796
817.506250	0.996855
817.825058	0.994965
818.143821	0.996280
818.462539	0.995861
818.781213	0.996307
819.099843	0.996110
819.418429	0.994689
819.736970	0.994683
820.055466	0.992118
820.373919	0.991394
820.692327	0.990347
821.010691	0.989045
821.329011	0.985727
821.647286	0.982697
821.965517	0.978218
822.283704	0.973518
822.601847	0.971132
822.919945	0.972338
823.237999	0.974933
823.556010	0.976726
823.873976	0.979563
824.191897	0.981015
824.509775	0.984362
824.827609	0.985630
825.145398	0.987346
825.463144	0.986686
825.780845	0.986500
826.098502	0.986598
826.416116	0.987897
826.733685	0.983400
827.051210	0.979982
827.368692	0.981067
827.686129	0.982770
828.003522	0.986546
828.320872	0.987048
828.638177	0.989658
828.955439	0.992259
829.272656	0.991604
829.589830	0.993318
829.906960	0.994907
830.224046	0.994062
830.541088	0.994709
830.858086	0.995079
831.175041	0.996227
831.491952	0.994971
831.808819	0.995279
832.125642	0.994928
832.442421	0.995843
832.759157	0.993598
833.075849	0.992788
833.392497	0.990110
833.709101	0.987333
834.025662	0.987153
834.342179	0.987573
834.658653	0.990951
834.975083	0.991531
835.291469	0.991940
835.607811	0.993405
835.924110	0.994479
836.240366	0.996059
836.556578	0.996019
836.872746	0.996780
837.188871	0.997167
837.504952	0.996105
837.820990	0.997067
838.136984	0.996278
838.452935	0.996981
838.768842	0.997607
839.084706	0.997472
839.400526	0.997338
839.716303	0.994935
840.032037	0.993369
840.347727	0.993413
840.663373	0.994307
840.978977	0.994488
841.294537	0.995739
841.610054	0.996294
841.925527	0.997593
842.240957	0.997709
842.556344	0.997043
842.871687	0.997330
843.186987	0.997841
843.502244	0.998928
843.817458	0.996830
844.132629	0.998175
844.447756	0.998574
844.762840	0.998543
845.077881	0.999524
845.392879	0.997383
845.707833	0.999123
846.022745	0.998648
846.337613	1.000069
846.652438	0.998823
846.967221	0.999565
847.281960	0.999576
847.596656	1.000139
847.911309	0.999294
848.225919	0.999389
848.540485	0.999078
848.855009	1.000755
849.169490	0.999219
849.483928	0.999544
849.798323	0.998071
850.112675	0.999621
850.426984	0.999243
850.741251	0.999276
851.055474	0.999032
851.369654	0.998875
851.683792	0.999852
851.997887	0.999508
852.311938	0.999386
852.625947	0.998069
852.939914	0.998676
853.253837	1.000040
853.567718	1.000480
853.881555	0.998361
854.195350	1.000020
854.509103	0.999701
854.822812	1.000848
855.136479	1.000020
855.450103	1.000609
855.763685	0.999839
856.077224	0.999343
856.390720	0.999403
856.704173	1.000059
857.017584	1.000511
857.330953	0.999488
857.644278	0.999931
857.957561	0.999807
858.270802	0.999960
858.584000	0.999515
858.897155	0.999215
859.210268	0.999640
859.523339	1.000854
859.836367	0.999627
860.149352	1.000223
860.462295	0.999334
860.775195	0.999617
861.088054	0.997698
861.400869	0.999518
861.713642	0.999105
862.026373	0.999812
862.339062	1.000869
862.651708	1.000243
862.964312	1.000620
863.276873	0.998923
863.589392	1.000019
863.901869	0.998629
864.214303	0.999645
864.526696	0.999723
864.839045	0.999516
865.151353	0.999448
865.463619	0.998749
865.775842	0.999172
866.088023	0.999788
866.400162	0.999589
866.712258	1.000069
867.024313	0.998369
867.336325	0.999141
867.648296	0.999474
867.960224	0.999749
868.272110	1.000109
868.583954	0.999780
868.895755	0.999799
869.207515	0.999112
869.519233	0.999706
869.830909	0.998276
870.142542	0.998026
870.454134	0.998759
870.765684	0.998268
871.077191	0.999157
871.388657	0.998789
871.700081	0.999254
872.011463	0.999520
872.322803	0.998412
872.634101	0.997650
872.945357	0.998452
873.256571	0.998253
873.567744	0.999303
873.878874	0.998174
874.189963	0.997528
874.501010	0.999074
874.812015	0.997612
875.122979	0.998697
875.433900	0.997827
875.744780	0.998358
876.055618	0.996782
876.366415	0.998274
876.677169	0.996789
876.987882	0.997263
877.298554	0.998164
877.609183	0.997019
877.919771	0.997374
878.230317	0.997635
878.540822	0.996342
878.851285	0.996332
879.161707	0.996233
879.472087	0.996092
879.782425	0.992842
880.092722	0.991269
880.402977	0.987622
880.713191	0.983696
881.023363	0.978286
881.333494	0.975082
881.643583	0.975972
881.953631	0.975458
882.263637	0.974646
882.573602	0.976048
882.883526	0.979280
883.193408	0.981954
883.503248	0.983833
883.813048	0.985214
884.122806	0.987420
884.432522	0.989047
884.742197	0.990867
885.051831	0.991287
885.361424	0.993467
885.670975	0.994470
885.980485	0.994736
886.289954	0.994296
886.599382	0.994038
886.908768	0.995749
887.218113	0.995863
887.527417	0.996582
887.836680	0.997791
888.145901	0.997013
888.455082	0.997966
888.764221	0.998598
889.073319	0.996729
889.382376	0.998027
889.691392	0.996324
890.000366	0.998497
890.309300	0.997577
890.618193	0.997709
890.927044	0.997081
891.235855	0.997447
891.544625	0.997351
891.853353	0.997614
892.162041	0.997398
892.470687	0.997216
892.779293	0.996025
893.087858	0.994240
893.396381	0.995148
893.704864	0.993381
894.013306	0.993594
894.321707	0.990390
894.630068	0.987733
894.938387	0.987562
895.246665	0.988187
895.554903	0.988053
895.863100	0.990467
896.171256	0.992051
896.479371	0.991905
896.787446	0.992436
897.095480	0.994165
897.403473	0.995758
897.711425	0.994884
898.019336	0.996127
898.327207	0.996643
898.635038	0.995748
898.942827	0.996552
899.250576	0.995961
899.558284	0.998524
899.865952	0.996841
900.173579	0.997737
900.481165	0.997339
900.788711	0.997085
901.096216	0.997472
901.403681	0.998984
901.711105	0.997743
902.018489	0.997976
902.325832	0.998807
902.633135	0.997277
902.940397	0.997321
903.247619	0.996167
903.554800	0.993964
903.861941	0.990859
904.169041	0.988108
904.476101	0.985270
904.783121	0.984228
905.090100	0.985240
905.397039	0.986741
905.703938	0.990034
906.010796	0.992038
906.317614	0.993601
906.624391	0.994886
906.931129	0.995536
907.237826	0.996508
907.544483	0.997369
907.851099	0.997474
908.157675	0.997930
908.464211	0.999567
908.770707	0.997201
909.077163	0.998311
909.383578	0.999520
909.689954	0.998710
909.996289	0.998327
910.302584	0.999968
910.608839	1.000339
910.915054	0.998959
911.221229	1.000049
911.527363	0.998377
911.833458	1.000399
912.139513	0.998782
912.445527	0.999320
912.751502	0.999470
913.057436	0.997283
913.363331	0.998778
913.669186	0.998429
913.975000	0.997864
914.280775	0.996830
914.586510	0.994047
914.892205	0.994000
915.197859	0.992089
915.503475	0.990276
915.809050	0.987642
916.114585	0.984461
916.420081	0.985593
916.725536	0.986023
917.030952	0.987095
917.336328	0.987108
917.641665	0.988200
917.946961	0.990805
918.252218	0.991629
918.557435	0.992594
918.862612	0.994825
919.167750	0.995032
919.472848	0.995675
919.777906	0.997180
920.082925	0.997241
920.387904	0.997119
920.692843	0.997674
920.997743	0.996858
921.302603	0.998340
921.607423	0.996824
921.912204	0.998382
922.216946	0.998805
922.521647	0.999296
922.826310	0.998399
923.130932	0.999915
923.435516	0.998867
923.740059	0.999113
924.044564	0.998248
924.349028	0.998118
924.653454	0.999463
924.957840	0.998798
925.262186	1.000122
925.566493	0.999147
925.870761	0.999028
926.174989	0.997530
926.479178	1.000578
926.783328	1.000249
927.087438	1.000974
927.391509	0.999665
927.695541	0.999959
927.999533	1.000843
928.303486	1.000506
928.607400	1.000544
928.911275	1.001214
929.215110	1.001056
929.518906	1.000749
929.822663	1.001132
930.126381	1.001056
930.430060	1.000074
930.733699	1.001601
931.037299	0.999891
931.340861	1.001142
931.644383	0.999178
931.947866	1.000446
932.251309	1.001371
932.554714	0.999266
932.858080	1.001163
933.161407	0.999813
933.464694	1.001001
933.767943	1.001001
934.071153	0.999833
934.374323	0.999938
934.677455	1.000857
934.980548	0.999349
935.283602	1.001304
935.586617	1.001456
935.889593	1.000738
936.192530	1.001412
936.495428	0.999597
936.798287	0.999239
937.101108	1.000584
937.403890	0.999598
937.706632	1.001252
938.009336	1.000540
938.312002	0.998766
938.614628	0.999378
938.917216	0.998969
939.219765	0.998975
939.522275	1.000309
939.824747	0.999875
940.127179	0.999808
940.429573	1.000365
940.731929	0.999058
941.034246	0.999144
941.336524	0.998170
941.638763	0.999049
941.940964	0.999707
942.243126	0.998673
942.545250	0.999688
942.847335	1.000355
943.149381	0.999143
943.451389	1.000050
943.753359	0.999869
944.055290	1.001462
944.357182	1.000062
944.659036	1.001344
944.960851	0.999842
945.262628	1.000286
945.564367	1.000401
945.866067	1.000676
946.167729	0.999855
946.469352	1.001445
946.770937	0.998977
947.072484	1.000555
947.373992	1.001192
947.675462	1.000006
947.976893	1.000518
948.278286	1.002006
948.579641	1.001982
948.880958	1.000252
949.182236	1.000655
949.483476	1.001533
949.784678	1.000182
950.085841	0.999220
950.386967	0.999787
950.688054	1.001000
950.989103	0.999322
951.290114	0.999013
951.591087	1.000639
951.892021	1.000962
952.192917	1.000508
952.493776	1.001245
952.794596	1.000633
953.095378	1.000638
953.396122	1.000140
953.696828	1.000507
953.997496	1.000860
954.298126	1.001038
954.598718	0.999379
954.899272	1.000771
955.199788	0.999960
955.500266	1.001774
955.800706	1.001240
956.101108	1.000904
956.401472	1.002015
956.701798	1.001112
957.002087	1.001132
957.302337	1.001722
957.602550	1.001316
957.902724	1.000811
958.202861	1.000594
958.502960	1.001018
958.803022	1.001980
959.103045	1.001502
959.403031	1.001382
959.702979	1.002704
960.002889	1.001145
960.302762	1.001148
960.602596	1.002055
960.902393	1.001499
961.202153	1.001282
961.501875	1.001815
961.801559	1.002148
962.101205	1.001478
962.400814	1.001555
962.700385	1.001314
962.999918	1.002805
963.299414	1.000270
963.598873	1.001906
963.898293	1.002358
964.197677	1.000506
964.497022	1.001738
964.796331	1.001454
965.095601	1.001902
965.394835	1.001354
965.694030	1.002231
965.993189	1.001581
966.292309	1.001325
966.591393	1.000472
966.890439	1.001579
967.189447	1.001534
967.488419	1.000988
967.787353	1.000017
968.086249	1.002588
968.385108	1.001314
968.683930	1.003186
968.982714	1.002256
969.281462	1.002119
969.580172	1.000436
969.878844	1.002695
970.177480	1.001589
970.476078	1.002643
970.774639	1.001375
971.073162	1.001562
971.371649	1.001632
971.670098	1.000590
971.968510	1.001575
972.266885	1.001160
972.565223	1.001545
972.863524	0.999636
973.161788	1.001323
973.460014	1.003200
973.758204	1.001469
974.056356	1.002252
974.354471	1.000090
974.652550	1.002495
974.950591	1.001458
975.248595	1.000997
975.546563	1.002046
975.844493	1.001988
976.142386	1.000863
976.440243	1.002596
976.738062	1.000463
977.035845	1.000907
977.333590	1.001944
977.631299	1.001828
977.928971	1.001290
978.226606	1.000468
978.524204	1.000885
978.821765	1.002262
979.119290	1.002617
979.416777	1.001951
979.714228	1.002057
980.011642	1.002000
980.309020	1.000539
980.606360	1.001916
980.903664	1.002311
981.200931	1.000974
981.498162	1.001139
981.795356	1.001101
982.092513	1.001215
982.389633	1.002698
982.686717	0.999249
982.983764	1.000570
983.280775	1.000993
983.577749	1.001633
983.874686	1.000913
984.171587	1.000648
984.468451	1.001096
984.765279	1.001909
985.062070	1.002318
985.358824	1.001106
985.655543	1.001970
985.952224	1.002452
986.248869	1.001634
986.545478	1.003013
986.842050	1.001454
987.138586	1.001724
987.435086	1.001223
987.731549	1.002491
988.027975	1.003602
988.324366	1.001796
988.620719	1.003260
988.917037	1.002049
989.213318	1.002691
989.509563	1.000614
989.805772	1.002410
990.101944	1.002282
990.398080	1.002771
990.694180	1.002032
990.990244	1.001795
991.286271	1.002003
991.582262	1.001918
991.878217	1.001435
992.174136	1.003226
992.470019	1.002348
992.765865	1.003704
993.061676	1.001645
993.357450	1.002177
993.653188	1.003014
993.948890	1.002158
994.244556	1.001106
994.540186	1.002009
994.835780	1.000796
995.131337	1.002323
995.426859	1.002663
995.722345	1.001901
996.017795	1.001581
996.313208	1.001445
996.608586	1.002449
996.903928	1.001052
997.199234	1.001203
997.494504	1.002155
997.789738	1.001548
998.084936	1.002053
998.380099	1.000714
998.675225	1.002934
998.970316	1.001681
999.265371	1.002675
999.560390	1.001687
999.855373	1.001123
1000.150320	1.002311
1000.445232	1.002272
1000.740108	1.002375
1001.034948	1.001959
1001.329752	1.002319
1001.624521	1.001681
1001.919254	1.000647
1002.213951	1.002726
1002.508613	1.001412
1002.803239	1.000435
1003.097829	1.001798
1003.392384	1.002346
1003.686903	1.001673
1003.981386	1.002394
1004.275834	1.002426
1004.570246	1.000613
1004.864623	1.002290
1005.158964	1.001683
1005.453270	1.001920
1005.747540	1.002256
1006.041775	1.001220
1006.335974	1.002361
1006.630138	1.002337
1006.924266	1.000940
1007.218359	1.001620
1007.512416	1.003134
1007.806438	1.000322
1008.100425	1.001939
1008.394376	1.001924
1008.688292	1.001172
1008.982172	1.002093
1009.276017	1.002724
1009.569827	1.003153
1009.863602	1.000843
1010.157341	1.002849
1010.451045	1.002723
1010.744714	1.003271
1011.038347	1.002328
1011.331945	1.001448
1011.625508	1.001049
1011.919036	1.001336
1012.212528	1.002418
1012.505986	1.002276
1012.799408	1.003555
1013.092795	1.002785
1013.386147	1.001900
1013.679464	1.002526
1013.972745	1.002328
1014.265992	1.002237
1014.559204	1.002110
1014.852380	1.003288
1015.145521	1.002856
1015.438628	1.001581
1015.731699	1.002400
1016.024736	1.002051
1016.317737	1.002313
1016.610703	1.002747
1016.903635	1.002653
1017.196531	1.001661
1017.489393	1.000912
1017.782219	1.001384
1018.075011	1.001308
1018.367768	0.999738
1018.660490	1.003005
1018.953177	1.003005
1019.245829	1.003005
