Dividing Wavelength (nm)	Counts (n)	Blue Motor Position (mm): 42.000000	Red Motor Position (mm): 0.000000	
326.493990	1.000129
326.888308	1.000129
327.282561	1.000129
327.676750	1.000650
328.070874	1.001374
328.464933	1.001695
328.858929	1.000850
329.252859	0.999868
329.646726	0.999389
330.040528	0.999967
330.434265	1.001621
330.827938	0.998664
331.221547	1.000510
331.615091	1.000063
332.008571	1.001356
332.401986	0.999969
332.795338	0.999733
333.188625	1.000628
333.581847	1.000646
333.975006	1.000254
334.368100	1.001542
334.761129	0.999445
335.154095	1.000509
335.546996	1.001256
335.939833	0.998800
336.332606	1.000523
336.725315	0.998152
337.117960	1.001134
337.510540	0.998299
337.903056	1.000934
338.295508	1.000304
338.687896	1.000597
339.080220	0.999630
339.472480	0.999419
339.864676	1.001057
340.256807	0.999159
340.648875	0.999893
341.040879	1.001282
341.432818	1.001029
341.824694	0.999839
342.216506	1.000344
342.608253	0.999482
342.999937	1.001120
343.391557	1.000551
343.783113	1.001992
344.174605	1.000488
344.566033	0.999285
344.957397	1.000322
345.348697	1.000262
345.739934	1.000394
346.131106	1.000092
346.522215	1.000091
346.913260	0.999354
347.304241	0.999668
347.695159	0.999959
348.086012	1.000607
348.476802	1.000311
348.867528	0.999470
349.258191	1.001006
349.648789	1.000266
350.039324	0.999683
350.429796	0.998522
350.820203	0.999487
351.210548	1.001456
351.600828	1.001163
351.991045	0.999403
352.381198	1.000398
352.771288	0.999964
353.161314	1.000458
353.551276	0.998937
353.941175	0.998256
354.331010	1.000286
354.720782	0.999298
355.110490	0.998524
355.500135	0.999819
355.889717	0.998816
356.279235	0.998905
356.668689	0.999903
357.058080	1.000078
357.447408	0.999949
357.836672	1.000185
358.225873	0.999256
358.615010	1.000177
359.004084	0.998969
359.393095	0.999182
359.782043	0.999543
360.170927	0.999533
360.559748	0.999382
360.948505	0.998086
361.337199	0.999647
361.725830	0.999515
362.114398	1.000181
362.502903	0.998838
362.891344	0.998034
363.279722	0.999156
363.668037	0.999813
364.056289	0.999434
364.444478	1.000463
364.832603	0.999034
365.220665	0.999359
365.608665	0.998969
365.996601	0.998577
366.384474	0.997281
366.772284	0.998297
367.160031	0.996839
367.547715	0.997836
367.935336	0.996808
368.322893	0.995766
368.710388	0.995116
369.097820	0.993716
369.485189	0.990772
369.872495	0.988984
370.259738	0.987399
370.646918	0.984152
371.034035	0.982723
371.421090	0.979689
371.808081	0.974598
372.195010	0.972545
372.581875	0.965119
372.968678	0.962536
373.355418	0.959544
373.742096	0.951213
374.128710	0.946725
374.515262	0.941996
374.901751	0.937711
375.288177	0.931291
375.674540	0.925159
376.060841	0.918901
376.447079	0.913950
376.833254	0.904930
377.219367	0.899907
377.605417	0.889312
377.991404	0.887010
378.377329	0.880081
378.763191	0.873791
379.148991	0.865544
379.534727	0.856310
379.920402	0.849487
380.306013	0.844568
380.691563	0.833788
381.077049	0.826822
381.462474	0.823457
381.847835	0.812454
382.233134	0.808989
382.618371	0.809783
383.003545	0.794177
383.388657	0.794087
383.773706	0.788797
384.158693	0.786510
384.543618	0.783616
384.928480	0.777774
385.313280	0.771376
385.698017	0.775228
386.082692	0.767928
386.467305	0.769370
386.851856	0.768897
387.236344	0.768599
387.620770	0.768555
388.005133	0.768239
388.389435	0.768242
388.773674	0.771026
389.157851	0.770548
389.541965	0.773994
389.926018	0.783970
390.310008	0.781154
390.693936	0.785369
391.077802	0.786359
391.461606	0.794606
391.845348	0.795091
392.229027	0.801338
392.612645	0.807939
392.996200	0.807221
393.379694	0.810380
393.763125	0.813941
394.146494	0.824356
394.529801	0.827009
394.913047	0.831449
395.296230	0.841953
395.679351	0.846149
396.062410	0.854137
396.445408	0.863045
396.828343	0.868542
397.211217	0.875243
397.594028	0.886590
397.976778	0.891698
398.359466	0.897635
398.742092	0.904184
399.124656	0.912587
399.507158	0.915587
399.889598	0.922843
400.271977	0.926654
400.654294	0.932441
401.036549	0.939151
401.418742	0.944279
401.800874	0.947872
402.182944	0.951334
402.564952	0.954825
402.946898	0.959511
403.328783	0.964353
403.710606	0.968240
404.092367	0.969439
404.474067	0.973535
404.855705	0.976197
405.237282	0.978846
405.618797	0.980524
406.000250	0.982555
406.381642	0.983260
406.762972	0.986868
407.144240	0.988151
407.525447	0.988772
407.906593	0.991105
408.287677	0.991590
408.668700	0.992850
409.049661	0.992935
409.430560	0.993644
409.811399	0.994486
410.192176	0.995523
410.572891	0.995747
410.953545	0.996205
411.334138	0.996169
411.714669	0.996619
412.095139	0.997824
412.475547	0.997046
412.855894	0.996935
413.236180	0.997321
413.616405	0.998075
413.996568	0.997390
414.376670	0.998483
414.756711	0.998052
415.136691	0.998154
415.516609	0.997771
415.896466	0.998993
416.276262	0.999028
416.655997	0.998111
417.035670	0.999106
417.415283	0.998686
417.794834	0.999099
418.174324	0.998945
418.553753	0.999168
418.933121	0.999523
419.312428	1.000268
419.691674	0.998557
420.070859	0.999228
420.449983	0.999320
420.829045	0.999601
421.208047	0.999277
421.586988	0.998771
421.965867	0.997618
422.344686	0.999460
422.723444	0.998934
423.102141	0.999380
423.480777	0.998986
423.859352	0.999076
424.237866	0.998875
424.616319	0.999923
424.994712	0.999215
425.373044	0.999778
425.751314	0.999558
426.129524	0.999092
426.507673	0.997631
426.885762	0.999512
427.263789	0.998831
427.641756	0.998876
428.019662	0.999012
428.397508	0.999420
428.775292	0.998782
429.153016	0.998961
429.530679	0.999682
429.908282	0.999192
430.285824	0.998682
430.663305	0.999097
431.040726	0.999465
431.418086	0.998594
431.795385	0.999780
432.172624	1.000494
432.549802	0.999347
432.926920	0.999313
433.303977	0.999547
433.680974	0.999595
434.057910	0.999866
434.434786	0.998179
434.811601	0.998850
435.188355	0.999315
435.565050	0.999535
435.941683	0.999169
436.318257	0.998559
436.694770	1.000061
437.071222	1.000077
437.447614	0.998877
437.823946	0.999191
438.200218	0.999416
438.576429	0.999111
438.952580	0.999528
439.328670	0.998970
439.704700	0.998409
440.080670	0.999342
440.456580	0.999057
440.832429	0.999466
441.208218	0.999819
441.583947	0.999433
441.959616	0.998712
442.335224	1.000207
442.710773	0.999927
443.086261	0.999286
443.461689	0.998838
443.837057	0.999189
444.212365	0.999614
444.587612	1.000826
444.962800	0.999205
445.337927	0.999418
445.712995	0.999373
446.088002	0.999172
446.462949	0.999532
446.837837	1.000114
447.212664	0.998805
447.587431	0.999740
447.962139	0.999681
448.336786	0.998500
448.711374	0.999294
449.085901	0.998887
449.460369	0.999980
449.834776	0.998882
450.209124	0.999585
450.583412	1.000001
450.957640	1.000113
451.331808	1.000051
451.705917	1.000238
452.079965	0.999918
452.453954	0.999081
452.827883	0.999636
453.201752	0.998983
453.575562	0.998951
453.949311	0.999615
454.323001	0.998848
454.696632	0.999899
455.070202	0.999179
455.443713	0.999648
455.817164	0.999496
456.190556	0.999916
456.563888	1.000418
456.937160	0.998806
457.310373	0.999467
457.683526	0.999587
458.056619	0.999601
458.429653	0.998426
458.802628	0.999105
459.175542	0.999064
459.548398	0.998652
459.921194	0.999910
460.293930	0.999873
460.666607	0.999880
461.039224	0.998967
461.411782	0.999278
461.784280	0.998317
462.156719	0.999644
462.529099	0.999781
462.901419	0.999106
463.273680	0.998811
463.645882	0.998891
464.018024	0.999614
464.390106	0.998742
464.762130	0.999032
465.134094	0.998863
465.505999	0.999044
465.877845	0.999127
466.249631	0.998944
466.621358	0.998434
466.993026	0.998915
467.364634	0.999489
467.736184	0.999315
468.107674	0.998610
468.479105	0.998568
468.850477	0.998974
469.221790	0.999502
469.593043	0.999144
469.964238	0.999181
470.335373	0.998535
470.706449	0.999149
471.077467	0.998698
471.448425	0.999401
471.819324	0.999153
472.190164	0.999163
472.560945	0.999233
472.931667	0.999184
473.302330	0.999886
473.672934	0.999629
474.043479	0.999079
474.413965	0.999109
474.784393	0.999551
475.154761	0.998494
475.525070	0.998932
475.895321	0.999293
476.265513	0.999649
476.635645	0.999947
477.005719	0.999173
477.375734	0.998967
477.745691	0.999006
478.115588	0.998827
478.485427	0.999253
478.855207	0.999481
479.224928	0.998961
479.594591	0.999544
479.964194	0.999580
480.333739	0.998865
480.703226	0.999014
481.072653	0.999172
481.442022	0.999790
481.811333	0.999037
482.180584	0.999084
482.549777	0.999121
482.918912	0.998916
483.287988	0.999243
483.657005	0.999264
484.025964	0.999198
484.394864	0.998740
484.763706	0.999480
485.132489	0.999448
485.501213	0.999002
485.869879	0.999217
486.238487	0.998053
486.607036	0.999911
486.975527	0.999074
487.343959	0.998627
487.712333	0.999551
488.080648	0.998787
488.448905	0.999281
488.817104	0.998457
489.185244	0.999375
489.553326	0.999998
489.921350	0.999152
490.289315	0.999157
490.657222	0.998599
491.025070	0.999297
491.392861	0.998963
491.760593	0.999046
492.128267	0.999036
492.495883	0.998749
492.863440	0.999237
493.230939	0.998898
493.598380	0.999565
493.965763	0.998876
494.333088	0.998495
494.700354	0.998749
495.067563	0.999297
495.434713	0.999533
495.801805	0.998977
496.168839	0.998787
496.535815	0.998854
496.902733	0.998625
497.269593	0.998776
497.636395	0.999103
498.003139	0.998203
498.369825	0.999640
498.736453	0.999532
499.103023	0.999463
499.469535	0.999338
499.835989	0.999072
500.202385	0.998662
500.568723	0.998751
500.935003	0.998735
501.301226	0.999305
501.667390	0.998583
502.033497	0.999333
502.399546	0.999085
502.765537	0.998561
503.131470	0.998822
503.497345	0.998963
503.863163	0.999224
504.228923	0.998695
504.594625	0.998455
504.960269	0.999013
505.325856	0.999799
505.691385	0.999644
506.056856	0.999130
506.422270	0.999087
506.787625	0.999402
507.152924	0.999440
507.518164	0.998857
507.883347	0.999743
508.248472	0.998794
508.613540	0.998246
508.978550	0.999572
509.343503	0.999300
509.708398	0.998981
510.073236	0.999406
510.438016	0.998793
510.802738	0.998886
511.167403	0.998840
511.532010	0.999636
511.896561	0.998898
512.261053	0.998928
512.625488	0.998683
512.989866	0.998878
513.354186	0.998606
513.718449	0.999550
514.082655	0.999008
514.446803	0.998977
514.810894	0.999366
515.174927	0.998554
515.538904	0.999032
515.902822	0.999177
516.266684	0.999111
516.630488	0.999536
516.994235	0.999358
517.357925	0.999168
517.721558	0.998924
518.085133	0.998462
518.448651	0.999391
518.812112	0.999342
519.175516	0.999349
519.538863	0.999250
519.902152	0.999439
520.265385	0.998923
520.628560	0.997853
520.991678	0.998536
521.354739	0.999658
521.717743	1.000107
522.080690	0.998726
522.443580	0.999967
522.806413	0.998749
523.169189	0.999600
523.531908	0.999038
523.894569	0.999314
524.257174	0.999011
524.619722	0.999161
524.982213	0.999197
525.344647	0.998828
525.707025	0.998382
526.069345	0.998491
526.431608	0.999297
526.793815	0.999228
527.155964	0.999670
527.518057	0.999711
527.880093	0.999008
528.242072	0.998915
528.603995	0.998808
528.965860	0.999121
529.327669	0.999307
529.689421	0.998362
530.051117	0.999292
530.412755	0.999011
530.774337	0.998438
531.135862	0.999874
531.497331	0.998284
531.858743	0.999725
532.220098	0.999046
532.581396	0.998942
532.942638	0.999387
533.303824	0.999962
533.664953	0.998877
534.026025	0.999621
534.387040	0.998665
534.747999	0.999393
535.108902	0.999094
535.469748	0.999774
535.830537	0.999364
536.191270	0.998643
536.551947	0.999010
536.912567	0.998548
537.273131	1.000129
537.633638	0.998671
537.994089	0.999103
538.354483	0.999706
538.714821	0.999073
539.075103	0.999302
539.435328	0.999908
539.795497	0.999457
540.155609	0.999260
540.515665	0.999824
540.875665	0.998969
541.235609	1.000042
541.595496	0.998844
541.955328	0.999298
542.315102	0.999308
542.674821	0.999480
543.034483	0.999290
543.394090	0.998191
543.753640	0.999085
544.113134	0.998300
544.472571	0.999624
544.831953	0.999444
545.191278	0.999440
545.550548	0.998912
545.909761	0.998889
546.268918	0.999893
546.628019	0.999500
546.987064	0.999349
547.346053	0.998863
547.704986	0.999158
548.063863	0.998731
548.422684	0.999638
548.781449	0.999611
549.140158	0.999719
549.498811	0.999005
549.857408	0.998945
550.215949	0.998552
550.574434	0.999122
550.932864	0.999624
551.291237	0.998487
551.649555	0.999204
552.007817	0.999225
552.366022	0.999559
552.724173	0.999627
553.082267	0.999058
553.440305	0.998826
553.798288	0.998279
554.156215	0.999287
554.514086	0.999355
554.871902	0.998789
555.229661	0.998533
555.587365	0.998979
555.945014	0.999796
556.302606	0.998838
556.660143	0.999165
557.017625	0.999035
557.375050	0.998379
557.732421	0.999071
558.089735	0.998201
558.446994	0.998351
558.804197	0.999030
559.161345	0.998290
559.518437	0.998918
559.875474	0.998934
560.232455	0.999387
560.589381	0.999060
560.946251	0.999102
561.303065	0.999636
561.659825	0.998973
562.016528	0.999183
562.373177	0.998580
562.729770	0.999115
563.086307	0.998165
563.442789	0.999305
563.799216	0.998709
564.155587	0.999597
564.511904	0.999679
564.868164	0.998550
565.224370	0.999127
565.580520	0.999501
565.936615	0.999503
566.292654	0.999459
566.648638	0.999772
567.004567	0.998630
567.360441	0.999230
567.716260	0.998636
568.072023	0.998555
568.427732	0.999339
568.783385	0.998879
569.138982	0.999232
569.494525	0.998965
569.850013	0.999040
570.205445	0.999473
570.560823	0.998806
570.916145	0.998535
571.271412	0.999041
571.626625	0.999189
571.981782	0.999181
572.336884	0.999105
572.691931	0.999276
573.046923	0.999310
573.401860	0.998795
573.756743	0.999236
574.111570	0.998711
574.466342	0.999735
574.821059	0.999362
575.175722	0.999698
575.530330	0.999288
575.884882	0.999302
576.239380	0.999033
576.593823	0.999006
576.948211	0.999234
577.302544	0.999164
577.656823	0.999839
578.011047	0.998748
578.365216	0.999907
578.719330	0.999508
579.073389	0.998236
579.427394	0.999604
579.781344	1.000034
580.135239	0.998226
580.489080	0.998912
580.842866	0.999318
581.196597	0.998576
581.550273	0.998755
581.903895	0.999220
582.257463	0.998712
582.610975	0.999197
582.964434	0.999084
583.317837	0.999624
583.671186	0.999288
584.024481	0.999179
584.377721	0.998599
584.730906	0.999500
585.084037	0.999614
585.437113	0.999762
585.790135	0.998590
586.143103	0.999534
586.496016	0.999117
586.848874	0.999109
587.201679	0.998834
587.554428	0.999345
587.907124	0.999409
588.259765	0.999468
588.612352	0.999340
588.964884	1.000125
589.317362	0.998714
589.669786	0.998787
590.022155	0.999119
590.374470	0.999511
590.726731	0.998526
591.078937	0.999866
591.431090	0.999198
591.783188	0.998847
592.135232	0.999592
592.487222	0.999016
592.839157	0.999075
593.191038	0.999328
593.542866	0.999094
593.894639	0.998632
594.246358	0.999009
594.598022	0.999284
594.949633	0.999814
595.301190	0.998818
595.652692	0.998478
596.004141	0.998630
596.355535	0.999406
596.706876	0.999333
597.058162	0.999060
597.409395	0.999163
597.760573	0.999256
598.111698	0.998750
598.462768	0.998159
598.813785	0.998260
599.164748	0.999138
599.515657	0.999075
599.866511	0.999054
600.217312	0.999684
600.568060	0.998631
600.918753	0.999290
601.269392	0.998803
601.619978	0.998455
601.970510	0.999113
602.320988	0.998580
602.671412	0.999023
603.021783	0.999032
603.372100	0.999493
603.722363	0.999571
604.072572	0.999939
604.422728	0.999358
604.772830	0.998983
605.122878	0.999380
605.472872	0.999133
605.822813	0.998688
606.172701	0.998296
606.522534	0.999374
606.872314	1.000313
607.222041	0.999130
607.571714	0.999127
607.921333	0.999482
608.270899	0.998968
608.620411	0.999331
608.969870	1.000079
609.319276	0.998748
609.668627	0.999951
610.017926	0.998691
610.367171	0.999627
610.716362	0.999009
611.065500	0.998439
611.414585	0.999031
611.763616	0.998150
612.112594	0.998988
612.461518	0.997966
612.810389	0.999307
613.159207	0.999404
613.507971	0.998723
613.856682	0.999217
614.205340	0.998031
614.553945	0.999228
614.902496	0.999101
615.250994	0.999379
615.599439	0.999204
615.947830	0.999416
616.296169	0.999695
616.644454	0.999203
616.992686	0.999116
617.340864	0.999671
617.688990	0.998565
618.037063	0.999653
618.385082	0.999161
618.733048	0.999224
619.080961	0.998997
619.428821	0.999776
619.776628	0.998598
620.124382	0.999992
620.472083	0.999723
620.819731	1.000653
621.167326	0.999935
621.514868	0.999379
621.862357	0.999369
622.209793	0.998908
622.557176	0.997986
622.904506	0.999348
623.251783	0.999346
623.599007	0.999923
623.946179	0.998275
624.293297	0.999511
624.640363	0.999576
624.987376	0.998236
625.334336	0.999001
625.681243	0.999315
626.028097	0.998693
626.374899	0.999289
626.721647	0.999889
627.068343	0.998351
627.414987	0.999174
627.761577	0.998306
628.108115	0.998417
628.454600	0.999258
628.801032	0.998838
629.147412	0.999506
629.493739	0.999953
629.840014	0.998723
630.186236	0.998689
630.532405	0.999068
630.878521	0.998056
631.224585	0.999288
631.570597	0.999080
631.916556	0.998474
632.262462	0.998735
632.608316	0.999097
632.954117	0.998726
633.299866	0.998438
633.645562	0.999456
633.991206	0.999399
634.336797	0.998518
634.682336	0.999712
635.027823	0.999282
635.373257	0.999755
635.718639	0.999235
636.063968	0.999025
636.409245	0.998941
636.754470	0.998995
637.099642	0.999632
637.444762	0.999592
637.789829	0.999584
638.134845	0.998715
638.479808	0.999239
638.824719	0.999814
639.169577	0.999046
639.514383	0.999206
639.859137	0.998943
640.203839	0.998441
640.548489	0.998271
640.893086	0.998922
641.237632	0.998867
641.582125	0.999131
641.926566	1.000659
642.270955	0.999512
642.615292	0.998983
642.959576	0.999257
643.303809	0.998981
643.647990	0.999165
643.992118	0.999683
644.336195	0.998710
644.680219	0.998833
645.024192	0.998842
645.368112	0.998507
645.711981	0.999406
646.055797	0.999174
646.399562	0.998233
646.743274	0.999268
647.086935	0.998959
647.430544	0.998539
647.774101	0.998616
648.117606	0.999276
648.461059	1.000248
648.804460	0.998601
649.147810	0.998560
649.491108	0.998900
649.834354	0.998773
650.177548	0.999315
650.520690	0.999651
650.863781	0.998587
651.206820	0.999229
651.549807	0.998066
651.892742	0.999655
652.235626	0.999073
652.578458	0.998883
652.921238	0.999391
653.263967	0.999434
653.606644	0.998659
653.949269	0.999205
654.291843	0.998494
654.634365	0.999494
654.976836	0.998399
655.319255	0.999971
655.661622	0.999533
656.003938	0.998432
656.346203	0.998762
656.688416	1.000402
657.030577	0.998771
657.372687	0.999654
657.714746	0.998731
658.056753	0.998426
658.398708	0.998583
658.740612	1.000468
659.082465	0.997938
659.424266	0.998957
659.766016	0.998699
660.107715	0.998954
660.449362	0.999662
660.790958	0.998652
661.132503	0.999351
661.473996	0.998434
661.815438	0.998945
662.156829	0.999692
662.498168	0.999141
662.839456	0.998430
663.180693	0.999243
663.521879	0.998878
663.863013	0.998785
664.204097	0.998449
664.545129	0.999252
664.886110	0.999319
665.227040	0.998825
665.567918	0.998712
665.908746	0.998429
666.249522	0.998507
666.590248	0.998406
666.930922	0.998039
667.271545	0.999095
667.612118	0.999185
667.952639	0.998807
668.293109	0.999055
668.633528	0.998593
668.973896	0.999457
669.314213	0.997455
669.654480	0.998170
669.994695	0.997649
670.334859	0.998961
670.674973	0.999011
671.015035	0.998854
671.355047	0.998564
671.695008	0.998327
672.034918	0.998555
672.374777	0.999178
672.714585	0.998630
673.054342	0.999895
673.394049	0.998844
673.733705	0.998522
674.073310	0.998950
674.412864	0.999920
674.752368	0.998889
675.091820	0.999044
675.431223	0.999555
675.770574	0.997756
676.109875	0.998993
676.449125	0.999004
676.788324	0.998328
677.127473	0.999015
677.466571	0.998254
677.805619	0.998615
678.144616	0.998678
678.483562	0.998756
678.822458	0.999080
679.161303	0.998671
679.500098	0.999946
679.838842	0.999176
680.177535	0.998360
680.516179	0.998437
680.854771	0.998365
681.193314	0.998577
681.531805	0.998765
681.870247	0.998890
682.208638	0.998834
682.546978	0.998238
682.885268	0.998268
683.223508	0.998498
683.561697	0.999050
683.899836	0.998823
684.237925	0.998395
684.575963	0.999540
684.913951	0.999345
685.251889	0.998689
685.589776	0.998360
685.927614	0.998843
686.265401	0.998955
686.603137	0.999141
686.940824	0.998989
687.278460	0.999491
687.616046	0.998080
687.953582	0.998826
688.291068	0.998822
688.628504	0.998891
688.965889	0.998121
689.303224	0.997183
689.640510	0.997916
689.977745	0.998305
690.314930	0.998253
690.652065	0.999334
690.989150	0.998976
691.326185	0.999323
691.663170	0.997910
692.000105	0.998736
692.336990	0.998588
692.673825	0.998237
693.010610	0.998600
693.347345	0.999601
693.684030	0.998334
694.020665	0.998179
694.357251	0.999286
694.693786	0.998813
695.030272	0.998058
695.366707	0.997951
695.703093	0.998249
696.039429	0.998578
696.375716	0.998621
696.711952	0.998284
697.048139	0.999012
697.384276	0.998164
697.720363	0.998244
698.056400	0.998041
698.392388	0.998075
698.728326	0.998179
699.064214	0.998977
699.400053	0.998069
699.735842	0.998653
700.071581	0.997765
700.407270	0.998383
700.742910	0.999181
701.078501	0.998694
701.414042	0.999023
701.749533	0.997447
702.084974	0.998250
702.420366	0.999093
702.755709	0.997194
703.091002	0.999054
703.426246	0.999223
703.761440	0.998683
704.096584	0.998437
704.431679	0.997493
704.766725	0.998230
705.101721	0.999121
705.436668	0.998750
705.771565	0.997997
706.106413	0.998084
706.441212	0.998278
706.775961	0.999163
707.110661	0.998552
707.445311	0.998834
707.779913	0.999006
708.114465	0.999371
708.448967	1.000291
708.783421	0.999052
709.117825	0.998493
709.452180	0.998820
709.786485	0.998994
710.120742	0.998360
710.454949	0.998106
710.789107	0.999003
711.123216	0.997347
711.457275	0.997906
711.791286	0.998317
712.125247	1.000082
712.459159	0.998957
712.793023	0.998417
713.126837	0.999792
713.460602	0.998341
713.794318	0.998384
714.127985	0.997728
714.461602	0.998884
714.795171	0.999030
715.128691	0.998593
715.462162	0.998834
715.795584	0.998357
716.128957	0.998240
716.462281	0.998627
716.795556	0.997682
717.128782	0.998622
717.461960	0.997261
717.795088	0.998026
718.128167	0.999085
718.461198	0.997877
718.794180	0.998639
719.127113	0.998258
719.459997	0.997896
719.792833	0.998522
720.125619	0.997777
720.458357	0.997746
720.791046	0.999614
721.123686	0.998441
721.456278	0.998573
721.788821	0.998545
722.121315	0.998839
722.453761	0.998643
722.786158	0.997800
723.118506	0.998939
723.450805	0.997760
723.783056	0.998866
724.115259	0.998156
724.447412	0.999730
724.779518	0.998295
725.111574	0.998139
725.443582	0.999063
725.775542	0.999614
726.107453	0.999360
726.439315	0.998901
726.771129	0.998531
727.102895	0.998837
727.434612	0.998857
727.766281	0.998399
728.097901	0.998394
728.429473	0.999268
728.760996	0.998312
729.092471	0.999618
729.423897	0.998959
729.755276	0.998863
730.086606	0.997826
730.417887	0.998046
730.749120	0.997772
731.080305	0.998542
731.411442	0.998139
731.742530	0.998519
732.073570	0.999274
732.404562	0.998538
732.735506	0.998193
733.066401	0.998446
733.397249	0.998994
733.728048	0.998389
734.058798	0.997519
734.389501	0.999361
734.720156	0.998058
735.050762	0.998817
735.381320	0.998976
735.711831	0.998483
736.042293	0.997768
736.372707	0.999836
736.703073	0.997379
737.033391	0.998974
737.363661	0.999007
737.693883	0.999420
738.024056	0.998321
738.354182	0.998337
738.684260	0.998515
739.014290	0.999899
739.344272	0.998646
739.674207	0.997695
740.004093	0.998937
740.333931	0.998595
740.663722	0.998327
740.993464	0.998668
741.323159	0.999167
741.652806	0.999141
741.982405	0.999002
742.311956	0.999412
742.641460	0.999105
742.970915	0.998078
743.300323	0.997857
743.629683	0.998246
743.958996	1.000077
744.288260	0.997716
744.617477	0.998331
744.946647	0.997475
745.275768	1.000717
745.604842	0.998111
745.933869	0.999489
746.262847	0.999410
746.591778	0.997431
746.920662	0.999616
747.249498	0.999269
747.578286	1.000326
747.907027	0.999142
748.235720	0.998929
748.564365	0.998881
748.892963	0.999025
749.221514	0.999183
749.550017	0.998912
749.878473	0.998287
750.206881	0.999885
750.535242	0.998983
750.863555	0.998591
751.191821	0.998886
751.520039	0.998364
751.848210	0.997285
752.176334	0.998128
752.504411	0.998074
752.832440	0.998419
753.160421	0.999418
753.488356	0.998517
753.816243	0.998611
754.144082	0.998177
754.471875	0.999300
754.799620	0.999023
755.127318	0.997631
755.454969	0.998241
755.782572	1.000123
756.110129	0.997721
756.437638	1.000160
756.765100	0.999419
757.092515	0.998340
757.419882	0.998876
757.747203	0.999576
758.074477	1.000059
758.401703	0.998063
758.728882	0.999153
759.056014	0.998764
759.383099	0.998993
759.710138	0.999220
760.037129	0.999195
760.364073	0.999717
760.690970	0.998883
761.017820	0.998225
761.344623	0.999249
761.671379	1.001051
761.998088	0.998573
762.324751	0.999919
762.651366	0.997572
762.977935	0.998449
763.304456	0.999107
763.630931	0.997428
763.957359	0.996886
764.283740	0.998115
764.610074	0.998148
764.936362	0.998178
765.262602	0.999092
765.588796	0.999067
765.914943	0.999277
766.241044	0.999206
766.567097	0.998520
766.893104	0.999001
767.219064	0.998665
767.544978	0.998672
767.870845	0.999446
768.196665	0.999248
768.522438	0.998622
768.848165	0.998682
769.173846	0.998717
769.499479	1.000349
769.825066	0.999014
770.150607	0.999920
770.476101	0.999026
770.801548	0.999996
771.126949	1.000015
771.452303	0.999697
771.777611	0.998493
772.102872	0.999159
772.428087	0.997974
772.753256	0.998822
773.078378	0.998789
773.403453	0.997932
773.728482	1.000956
774.053465	0.998409
774.378401	0.999497
774.703291	0.999260
775.028135	1.000042
775.352932	0.997767
775.677683	0.999343
776.002388	0.998984
776.327046	0.998998
776.651658	1.000717
776.976224	0.999829
777.300743	0.998364
777.625216	0.998783
777.949643	0.999574
778.274024	0.998810
778.598359	0.999505
778.922647	0.999407
779.246889	0.999640
779.571086	0.999727
779.895236	0.998759
780.219339	0.999256
780.543397	0.998982
780.867409	0.999052
781.191374	0.999037
781.515294	1.001067
781.839167	0.999398
782.162995	1.000143
782.486776	1.000297
782.810511	0.999597
783.134201	1.000327
783.457844	1.000135
783.781441	0.999379
784.104993	0.998576
784.428498	0.999566
784.751958	0.999738
785.075372	1.000796
785.398739	0.998843
785.722061	0.998632
786.045337	0.999355
786.368568	0.999481
786.691752	0.999729
787.014891	0.999124
787.337983	0.998472
787.661030	0.999027
787.984031	1.000616
788.306987	0.999561
788.629897	0.997823
788.952760	0.999160
789.275579	0.999090
789.598351	0.998371
789.921078	0.999835
790.243759	0.999213
790.566395	0.998528
790.888984	0.999323
791.211529	0.999516
791.534027	0.999614
791.856480	1.000055
792.178888	0.999444
792.501249	0.999356
792.823566	0.999520
793.145836	1.000043
793.468062	0.999257
793.790241	1.000049
794.112375	0.998215
794.434464	0.999731
794.756507	0.999528
795.078505	1.000800
795.400457	0.999666
795.722364	1.000584
796.044226	1.000018
796.366042	0.999769
796.687812	0.997834
797.009538	0.998998
797.331218	1.000549
797.652852	1.000031
797.974442	0.998890
798.295986	0.999969
798.617484	0.998753
798.938938	0.999093
799.260346	0.999005
799.581709	0.999530
799.903026	1.000949
800.224299	0.998718
800.545526	0.999241
800.866708	0.998240
801.187845	0.999252
801.508936	0.998848
801.829983	1.000130
802.150984	0.999890
802.471940	0.999389
802.792851	0.998750
803.113717	1.000375
803.434538	1.000101
803.755314	1.000085
804.076045	0.999621
804.396731	0.998701
804.717372	0.998637
805.037967	1.000771
805.358518	0.999749
805.679024	0.999052
805.999485	0.999288
806.319901	1.000231
806.640272	1.000751
806.960598	0.999964
807.280879	0.999712
807.601115	1.000469
807.921306	1.001487
808.241453	0.999754
808.561554	0.999224
808.881611	0.999257
809.201623	0.999526
809.521590	1.000173
809.841513	1.000694
810.161390	0.998397
810.481223	0.999122
810.801011	1.000715
811.120755	1.000854
811.440453	0.999078
811.760107	0.999272
812.079716	0.998966
812.399281	0.999730
812.718801	0.999399
813.038276	0.999935
813.357707	0.998762
813.677093	1.000525
813.996434	0.999806
814.315731	1.000707
814.634983	0.999773
814.954191	1.000270
815.273354	0.999041
815.592473	0.999127
815.911547	0.999338
816.230577	0.999359
816.549562	0.999683
816.868502	0.998457
817.187399	1.000601
817.506250	0.999736
817.825058	0.997279
818.143821	0.999641
818.462539	0.999495
818.781213	0.999595
819.099843	1.000027
819.418429	0.999274
819.736970	1.000462
820.055466	0.998790
820.373919	0.999609
820.692327	0.998178
821.010691	0.998581
821.329011	0.997046
821.647286	0.996397
821.965517	0.996195
822.283704	0.996014
822.601847	0.995072
822.919945	0.994902
823.237999	0.996293
823.556010	0.995568
823.873976	0.996122
824.191897	0.997375
824.509775	0.997833
824.827609	0.996914
825.145398	0.998531
825.463144	0.996734
825.780845	0.996737
826.098502	0.997059
826.416116	0.997797
826.733685	0.997664
827.051210	0.996712
827.368692	0.997126
827.686129	0.996734
828.003522	0.998518
828.320872	0.998106
828.638177	0.997652
828.955439	1.000102
829.272656	0.999324
829.589830	0.998935
829.906960	1.000236
830.224046	0.998030
830.541088	0.998908
830.858086	0.999721
831.175041	1.000322
831.491952	0.998558
831.808819	0.999255
832.125642	0.998771
832.442421	1.000260
832.759157	1.000371
833.075849	0.997799
833.392497	0.998549
833.709101	0.998691
834.025662	0.998272
834.342179	0.997878
834.658653	0.999268
834.975083	0.998825
835.291469	0.999779
835.607811	0.998661
835.924110	0.998772
836.240366	0.999471
836.556578	0.998929
836.872746	0.999702
837.188871	1.000098
837.504952	0.999652
837.820990	1.000983
838.136984	0.999835
838.452935	0.999154
838.768842	1.000460
839.084706	1.000127
839.400526	1.000413
839.716303	0.999287
840.032037	0.999160
840.347727	0.999824
840.663373	0.999554
840.978977	0.999432
841.294537	0.999574
841.610054	0.999638
841.925527	1.000024
842.240957	1.000202
842.556344	0.999570
842.871687	1.000023
843.186987	0.999082
843.502244	0.999489
843.817458	0.999710
844.132629	0.999738
844.447756	1.000073
844.762840	0.999317
845.077881	1.000173
845.392879	0.999440
845.707833	1.000648
846.022745	1.000039
846.337613	1.000528
846.652438	0.999730
846.967221	0.999061
847.281960	0.999683
847.596656	1.000550
847.911309	0.999419
848.225919	1.000194
848.540485	0.999415
848.855009	1.000946
849.169490	1.000413
849.483928	0.999017
849.798323	0.998858
850.112675	1.000793
850.426984	0.999719
850.741251	0.999588
851.055474	0.999938
851.369654	1.001087
851.683792	0.999265
851.997887	0.999949
852.311938	1.000168
852.625947	0.998546
852.939914	0.999201
853.253837	1.001307
853.567718	0.999718
853.881555	1.000660
854.195350	0.999627
854.509103	1.000853
854.822812	0.999731
855.136479	0.999629
855.450103	1.000134
855.763685	1.000816
856.077224	0.999567
856.390720	1.000297
856.704173	1.000173
857.017584	1.000591
857.330953	0.999954
857.644278	0.998930
857.957561	1.000060
858.270802	0.999288
858.584000	0.999243
858.897155	1.000478
859.210268	1.000862
859.523339	1.000943
859.836367	1.000258
860.149352	0.999524
860.462295	1.000219
860.775195	1.000375
861.088054	0.998832
861.400869	1.000279
861.713642	0.999582
862.026373	1.000763
862.339062	1.001814
862.651708	1.000254
862.964312	0.999876
863.276873	0.999986
863.589392	0.999686
863.901869	1.000013
864.214303	1.000626
864.526696	0.999847
864.839045	1.000260
865.151353	0.998851
865.463619	0.999542
865.775842	1.001326
866.088023	1.000953
866.400162	1.000469
866.712258	1.001140
867.024313	1.000048
867.336325	1.001525
867.648296	1.000513
867.960224	1.000204
868.272110	1.000268
868.583954	1.000655
868.895755	1.000182
869.207515	0.998649
869.519233	1.000522
869.830909	0.998694
870.142542	0.998557
870.454134	1.000469
870.765684	0.999640
871.077191	1.001413
871.388657	1.000204
871.700081	1.000649
872.011463	1.000636
872.322803	0.999294
872.634101	0.999445
872.945357	0.998298
873.256571	1.000694
873.567744	0.999806
873.878874	0.999432
874.189963	1.000124
874.501010	1.002239
874.812015	0.999916
875.122979	1.000696
875.433900	0.999648
875.744780	1.000541
876.055618	0.999406
876.366415	1.000808
876.677169	0.999075
876.987882	0.999712
877.298554	1.000800
877.609183	0.999684
877.919771	0.999942
878.230317	0.999705
878.540822	0.999556
878.851285	0.999692
879.161707	0.999207
879.472087	1.000728
879.782425	0.999304
880.092722	0.999897
880.402977	0.998077
880.713191	0.997448
881.023363	0.997536
881.333494	0.996104
881.643583	0.997348
881.953631	0.997557
882.263637	0.996029
882.573602	0.996440
882.883526	0.996657
883.193408	0.998171
883.503248	0.997209
883.813048	0.997134
884.122806	0.998908
884.432522	0.998901
884.742197	1.000174
885.051831	0.998759
885.361424	0.999003
885.670975	1.000628
885.980485	0.998924
886.289954	0.998675
886.599382	0.999348
886.908768	1.000005
887.218113	0.998768
887.527417	0.999618
887.836680	1.000489
888.145901	1.000838
888.455082	1.001317
888.764221	1.000650
889.073319	0.999577
889.382376	1.000891
889.691392	0.998942
890.000366	1.000956
890.309300	0.999832
890.618193	1.000395
890.927044	0.999520
891.235855	0.999762
891.544625	1.000043
891.853353	0.999970
892.162041	0.999157
892.470687	1.000690
892.779293	0.999269
893.087858	0.998451
893.396381	0.999086
893.704864	0.999096
894.013306	0.998713
894.321707	0.999232
894.630068	0.998918
894.938387	0.998699
895.246665	0.998880
895.554903	0.998706
895.863100	0.999062
896.171256	1.000275
896.479371	0.999004
896.787446	0.999415
897.095480	1.000598
897.403473	0.999818
897.711425	1.000246
898.019336	0.999333
898.327207	1.000201
898.635038	0.999748
898.942827	1.001289
899.250576	0.999286
899.558284	1.001393
899.865952	0.998963
900.173579	1.000172
900.481165	1.000532
900.788711	1.000026
901.096216	1.000025
901.403681	0.999628
901.711105	0.999549
902.018489	0.998997
902.325832	0.999747
902.633135	0.999296
902.940397	1.001100
903.247619	0.999464
903.554800	0.999298
903.861941	1.000024
904.169041	0.999057
904.476101	0.999703
904.783121	0.998694
905.090100	0.999508
905.397039	0.998394
905.703938	0.998674
906.010796	0.998778
906.317614	0.999509
906.624391	0.999580
906.931129	0.999936
907.237826	1.000969
907.544483	0.999307
907.851099	1.000131
908.157675	0.999176
908.464211	1.000667
908.770707	0.999886
909.077163	1.000200
909.383578	0.999402
909.689954	0.999171
909.996289	0.999427
910.302584	1.000760
910.608839	1.000630
910.915054	1.000461
911.221229	1.000446
911.527363	0.998770
911.833458	1.000389
912.139513	1.000028
912.445527	1.000644
912.751502	1.000491
913.057436	0.999967
913.363331	1.001411
913.669186	0.999941
913.975000	0.999213
914.280775	1.000453
914.586510	0.999270
914.892205	0.999490
915.197859	0.998685
915.503475	0.999312
915.809050	0.997975
916.114585	0.997755
916.420081	0.998679
916.725536	0.999084
917.030952	0.998429
917.336328	0.998728
917.641665	0.997795
917.946961	0.997794
918.252218	0.998814
918.557435	0.998895
918.862612	1.000059
919.167750	0.998800
919.472848	1.000250
919.777906	0.999863
920.082925	1.001002
920.387904	1.000387
920.692843	0.999226
920.997743	0.998545
921.302603	1.001505
921.607423	0.999960
921.912204	1.000569
922.216946	1.001404
922.521647	0.999481
922.826310	0.999383
923.130932	1.001535
923.435516	1.000470
923.740059	0.999525
924.044564	0.999897
924.349028	0.998922
924.653454	1.001272
924.957840	1.000200
925.262186	0.999787
925.566493	1.000282
925.870761	1.000563
926.174989	1.000619
926.479178	1.001184
926.783328	1.000266
927.087438	0.999696
927.391509	0.999066
927.695541	1.000197
927.999533	1.000094
928.303486	0.999473
928.607400	1.000874
928.911275	0.999803
929.215110	1.000032
929.518906	1.000092
929.822663	1.002383
930.126381	1.001017
930.430060	0.999978
930.733699	1.000228
931.037299	1.000879
931.340861	0.999967
931.644383	0.999504
931.947866	0.999537
932.251309	1.000632
932.554714	0.998341
932.858080	1.001441
933.161407	0.999539
933.464694	1.000335
933.767943	1.000610
934.071153	0.999887
934.374323	1.000918
934.677455	1.000681
934.980548	0.999379
935.283602	1.000345
935.586617	0.999373
935.889593	0.999792
936.192530	0.999721
936.495428	0.999987
936.798287	1.000369
937.101108	0.998973
937.403890	1.000096
937.706632	1.001254
938.009336	1.000738
938.312002	0.999505
938.614628	1.000677
938.917216	1.000201
939.219765	0.999686
939.522275	1.000702
939.824747	1.000267
940.127179	0.999934
940.429573	1.001023
940.731929	0.999051
941.034246	0.999769
941.336524	0.999614
941.638763	0.999811
941.940964	0.999827
942.243126	0.999848
942.545250	1.002533
942.847335	1.000925
943.149381	1.001301
943.451389	0.999696
943.753359	0.998977
944.055290	1.001512
944.357182	1.000961
944.659036	1.001124
944.960851	1.000100
945.262628	0.999884
945.564367	0.999329
945.866067	1.000704
946.167729	1.000433
946.469352	0.999896
946.770937	0.998341
947.072484	1.001052
947.373992	0.999425
947.675462	0.999929
947.976893	0.999002
948.278286	1.001240
948.579641	1.000434
948.880958	0.999235
949.182236	1.000370
949.483476	1.000696
949.784678	1.000252
950.085841	1.000100
950.386967	1.000402
950.688054	1.000250
950.989103	0.998488
951.290114	0.999962
951.591087	1.000237
951.892021	1.000285
952.192917	1.000787
952.493776	0.999796
952.794596	1.000552
953.095378	0.999083
953.396122	0.999152
953.696828	1.000714
953.997496	1.000384
954.298126	1.001338
954.598718	0.998695
954.899272	1.000071
955.199788	0.999389
955.500266	1.000701
955.800706	1.000352
956.101108	1.000214
956.401472	1.001481
956.701798	0.999324
957.002087	0.999690
957.302337	0.999764
957.602550	0.999732
957.902724	0.999327
958.202861	0.999684
958.502960	0.998643
958.803022	1.001335
959.103045	0.999442
959.403031	1.001070
959.702979	1.000851
960.002889	1.000594
960.302762	0.998368
960.602596	0.999444
960.902393	0.999853
961.202153	1.000654
961.501875	1.000381
961.801559	0.999812
962.101205	0.999370
962.400814	1.000256
962.700385	1.000434
962.999918	1.000885
963.299414	0.999702
963.598873	1.000506
963.898293	0.999907
964.197677	0.999868
964.497022	1.000072
964.796331	1.000551
965.095601	1.001633
965.394835	1.000031
965.694030	1.000855
965.993189	1.000200
966.292309	1.000621
966.591393	0.998910
966.890439	1.000189
967.189447	0.999735
967.488419	1.000808
967.787353	0.999210
968.086249	1.000747
968.385108	1.000078
968.683930	1.000268
968.982714	0.999756
969.281462	0.999692
969.580172	1.000183
969.878844	1.001939
970.177480	1.000548
970.476078	1.001222
970.774639	1.000494
971.073162	0.999854
971.371649	0.999043
971.670098	0.999122
971.968510	1.000100
972.266885	1.000122
972.565223	1.000621
972.863524	0.999488
973.161788	1.000258
973.460014	1.001643
973.758204	0.999083
974.056356	1.000468
974.354471	0.999626
974.652550	1.001311
974.950591	0.999347
975.248595	0.999973
975.546563	1.000988
975.844493	1.000148
976.142386	1.000419
976.440243	0.999455
976.738062	1.001929
977.035845	0.999524
977.333590	1.000806
977.631299	0.999314
977.928971	0.999934
978.226606	0.999316
978.524204	0.999172
978.821765	1.000871
979.119290	1.002310
979.416777	1.000271
979.714228	1.000534
980.011642	1.001448
980.309020	1.000107
980.606360	1.000680
980.903664	1.000924
981.200931	0.999135
981.498162	1.000295
981.795356	1.000238
982.092513	1.000819
982.389633	1.001166
982.686717	0.999582
982.983764	1.000944
983.280775	1.000629
983.577749	1.001734
983.874686	0.998765
984.171587	0.998376
984.468451	0.999205
984.765279	1.000834
985.062070	1.000364
985.358824	0.999054
985.655543	1.000774
985.952224	1.000557
986.248869	1.000798
986.545478	1.001381
986.842050	1.000055
987.138586	0.999964
987.435086	0.998912
987.731549	1.001244
988.027975	0.999747
988.324366	0.999085
988.620719	1.001557
988.917037	0.999429
989.213318	1.000895
989.509563	0.999973
989.805772	1.000541
990.101944	1.000243
990.398080	0.999999
990.694180	1.001173
990.990244	0.999214
991.286271	0.999863
991.582262	1.001033
991.878217	0.999482
992.174136	1.002164
992.470019	1.001497
992.765865	1.002673
993.061676	1.000295
993.357450	1.000223
993.653188	1.000997
993.948890	1.000440
994.244556	0.999381
994.540186	1.000179
994.835780	0.999549
995.131337	1.000751
995.426859	0.999507
995.722345	1.000450
996.017795	0.999308
996.313208	1.000155
996.608586	1.000482
996.903928	1.001119
997.199234	0.999859
997.494504	1.001668
997.789738	0.999900
998.084936	0.999829
998.380099	0.998978
998.675225	1.000699
998.970316	1.000314
999.265371	1.000666
999.560390	1.000803
999.855373	0.999895
1000.150320	1.000396
1000.445232	1.001353
1000.740108	1.000157
1001.034948	1.000705
1001.329752	1.000556
1001.624521	1.001868
1001.919254	0.999408
1002.213951	1.000834
1002.508613	1.000080
1002.803239	1.000265
1003.097829	1.001006
1003.392384	1.000294
1003.686903	1.000833
1003.981386	0.999523
1004.275834	1.001313
1004.570246	0.998111
1004.864623	1.001519
1005.158964	1.000197
1005.453270	0.998276
1005.747540	1.000417
1006.041775	1.001379
1006.335974	1.000341
1006.630138	1.000666
1006.924266	1.000093
1007.218359	0.998854
1007.512416	1.001177
1007.806438	1.001418
1008.100425	1.000555
1008.394376	1.001747
1008.688292	0.999149
1008.982172	1.000142
1009.276017	1.001074
1009.569827	1.000350
1009.863602	0.999782
1010.157341	1.000847
1010.451045	1.000029
1010.744714	1.001029
1011.038347	1.000751
1011.331945	1.000261
1011.625508	1.000353
1011.919036	0.999884
1012.212528	1.001598
1012.505986	1.000508
1012.799408	1.001859
1013.092795	1.000340
1013.386147	1.000891
1013.679464	1.001406
1013.972745	1.000210
1014.265992	0.999778
1014.559204	1.000276
1014.852380	1.000411
1015.145521	0.999963
1015.438628	1.000432
1015.731699	0.999963
1016.024736	1.000550
1016.317737	1.000116
1016.610703	1.000819
1016.903635	0.999647
1017.196531	1.000948
1017.489393	1.000114
1017.782219	0.999678
1018.075011	1.000037
1018.367768	0.999568
1018.660490	1.001000
1018.953177	1.001000
1019.245829	1.001000
