Dividing Wavelength (nm)	Counts (n)	Blue Motor Position (mm): 35.400000	Red Motor Position (mm): 0.000000	
326.493990	0.999217
326.888308	0.999217
327.282561	0.999217
327.676750	1.000933
328.070874	1.001628
328.464933	1.001559
328.858929	1.001602
329.252859	1.001012
329.646726	1.000630
330.040528	1.001337
330.434265	1.001231
330.827938	1.000029
331.221547	1.001688
331.615091	1.001080
332.008571	1.001383
332.401986	0.999403
332.795338	0.999262
333.188625	1.000777
333.581847	1.001077
333.975006	1.000350
334.368100	1.001527
334.761129	0.999789
335.154095	1.000708
335.546996	0.999627
335.939833	0.998565
336.332606	1.000360
336.725315	0.999436
337.117960	1.000793
337.510540	0.998792
337.903056	1.000414
338.295508	1.000415
338.687896	1.000691
339.080220	0.999934
339.472480	0.999263
339.864676	0.999986
340.256807	0.998016
340.648875	0.999401
341.040879	0.999739
341.432818	1.001823
341.824694	0.999491
342.216506	1.000218
342.608253	1.000515
342.999937	0.999580
343.391557	0.998928
343.783113	1.000750
344.174605	1.000349
344.566033	0.999840
344.957397	1.000340
345.348697	1.000616
345.739934	1.000064
346.131106	0.999461
346.522215	0.999891
346.913260	0.999829
347.304241	0.999336
347.695159	0.999815
348.086012	0.999627
348.476802	1.000514
348.867528	0.998731
349.258191	1.000400
349.648789	1.000638
350.039324	0.999556
350.429796	1.000473
350.820203	0.998528
351.210548	1.000302
351.600828	0.999180
351.991045	0.999757
352.381198	1.000609
352.771288	0.999230
353.161314	1.000095
353.551276	0.997944
353.941175	0.998503
354.331010	0.999875
354.720782	0.999533
355.110490	0.999604
355.500135	0.998832
355.889717	0.998385
356.279235	0.997590
356.668689	0.999475
357.058080	0.997658
357.447408	0.999010
357.836672	0.999802
358.225873	0.998822
358.615010	0.998641
359.004084	0.998275
359.393095	0.999040
359.782043	0.998602
360.170927	0.999137
360.559748	0.999446
360.948505	0.997657
361.337199	0.998395
361.725830	0.998335
362.114398	0.998624
362.502903	0.996196
362.891344	0.997937
363.279722	0.996925
363.668037	0.998906
364.056289	0.997154
364.444478	0.999796
364.832603	0.997431
365.220665	0.999241
365.608665	0.997442
365.996601	0.997743
366.384474	0.996085
366.772284	0.997352
367.160031	0.995387
367.547715	0.996084
367.935336	0.994426
368.322893	0.994231
368.710388	0.993253
369.097820	0.992064
369.485189	0.989612
369.872495	0.988158
370.259738	0.985482
370.646918	0.982830
371.034035	0.981754
371.421090	0.978036
371.808081	0.972384
372.195010	0.970077
372.581875	0.965721
372.968678	0.961608
373.355418	0.957811
373.742096	0.948733
374.128710	0.943805
374.515262	0.941332
374.901751	0.935909
375.288177	0.930327
375.674540	0.922161
376.060841	0.917449
376.447079	0.909970
376.833254	0.903793
377.219367	0.898350
377.605417	0.887257
377.991404	0.884017
378.377329	0.878545
378.763191	0.871199
379.148991	0.862755
379.534727	0.855091
379.920402	0.846975
380.306013	0.842962
380.691563	0.829186
381.077049	0.824039
381.462474	0.819232
381.847835	0.808090
382.233134	0.803837
382.618371	0.804268
383.003545	0.787454
383.388657	0.784258
383.773706	0.777079
384.158693	0.773184
384.543618	0.768760
384.928480	0.759105
385.313280	0.748439
385.698017	0.748263
386.082692	0.737038
386.467305	0.735633
386.851856	0.730547
387.236344	0.725277
387.620770	0.719842
388.005133	0.713509
388.389435	0.707548
388.773674	0.706750
389.157851	0.697342
389.541965	0.694725
389.926018	0.701734
390.310008	0.688280
390.693936	0.684685
391.077802	0.677565
391.461606	0.679040
391.845348	0.668587
392.229027	0.668283
392.612645	0.666642
392.996200	0.653006
393.379694	0.646698
393.763125	0.636160
394.146494	0.641009
394.529801	0.632545
394.913047	0.624470
395.296230	0.630201
395.679351	0.621083
396.062410	0.618668
396.445408	0.620901
396.828343	0.615897
397.211217	0.611098
397.594028	0.623253
397.976778	0.614025
398.359466	0.610662
398.742092	0.605517
399.124656	0.617723
399.507158	0.606462
399.889598	0.603299
400.271977	0.595418
400.654294	0.598802
401.036549	0.598369
401.418742	0.602884
401.800874	0.589868
402.182944	0.586819
402.564952	0.578988
402.946898	0.582260
403.328783	0.583802
403.710606	0.595450
404.092367	0.573152
404.474067	0.579349
404.855705	0.580252
405.237282	0.590616
405.618797	0.579852
406.000250	0.577891
406.381642	0.570979
406.762972	0.579206
407.144240	0.581471
407.525447	0.583567
407.906593	0.580420
408.287677	0.580237
408.668700	0.591725
409.049661	0.590782
409.430560	0.590613
409.811399	0.602884
410.192176	0.591350
410.572891	0.603006
410.953545	0.597763
411.334138	0.614671
411.714669	0.614522
412.095139	0.630407
412.475547	0.624094
412.855894	0.632220
413.236180	0.637732
413.616405	0.648467
413.996568	0.648455
414.376670	0.659990
414.756711	0.670446
415.136691	0.675490
415.516609	0.677291
415.896466	0.682416
416.276262	0.688049
416.655997	0.698425
417.035670	0.694661
417.415283	0.698509
417.794834	0.709644
418.174324	0.721019
418.553753	0.734793
418.933121	0.733496
419.312428	0.740558
419.691674	0.753023
420.070859	0.755803
420.449983	0.768895
420.829045	0.772401
421.208047	0.785417
421.586988	0.791515
421.965867	0.799197
422.344686	0.804534
422.723444	0.817030
423.102141	0.831197
423.480777	0.829390
423.859352	0.845253
424.237866	0.847088
424.616319	0.854623
424.994712	0.860086
425.373044	0.869965
425.751314	0.875181
426.129524	0.885847
426.507673	0.888492
426.885762	0.893463
427.263789	0.902269
427.641756	0.909074
428.019662	0.913245
428.397508	0.918463
428.775292	0.924614
429.153016	0.929417
429.530679	0.935221
429.908282	0.939411
430.285824	0.944236
430.663305	0.947240
431.040726	0.952869
431.418086	0.956158
431.795385	0.960388
432.172624	0.963943
432.549802	0.965532
432.926920	0.968967
433.303977	0.971495
433.680974	0.975195
434.057910	0.977160
434.434786	0.978755
434.811601	0.981625
435.188355	0.982073
435.565050	0.984110
435.941683	0.985251
436.318257	0.985899
436.694770	0.988459
437.071222	0.989717
437.447614	0.990007
437.823946	0.991153
438.200218	0.992673
438.576429	0.993032
438.952580	0.993870
439.328670	0.993823
439.704700	0.994643
440.080670	0.995581
440.456580	0.995651
440.832429	0.995866
441.208218	0.997036
441.583947	0.996356
441.959616	0.996555
442.335224	0.998230
442.710773	0.997293
443.086261	0.997889
443.461689	0.997528
443.837057	0.998029
444.212365	0.998041
444.587612	0.998717
444.962800	0.997837
445.337927	0.998624
445.712995	0.998860
446.088002	0.997954
446.462949	0.997728
446.837837	0.999505
447.212664	0.998558
447.587431	0.998550
447.962139	0.997936
448.336786	0.997841
448.711374	0.997971
449.085901	0.998885
449.460369	0.999494
449.834776	0.997746
450.209124	0.998325
450.583412	0.999050
450.957640	0.999086
451.331808	0.999581
451.705917	0.998383
452.079965	0.999439
452.453954	0.999713
452.827883	0.999688
453.201752	0.999223
453.575562	0.999210
453.949311	0.999839
454.323001	0.998850
454.696632	0.999740
455.070202	0.999089
455.443713	0.999414
455.817164	0.999110
456.190556	0.999414
456.563888	0.999828
456.937160	0.998870
457.310373	0.999778
457.683526	0.998834
458.056619	0.999791
458.429653	0.998873
458.802628	0.999284
459.175542	0.999262
459.548398	0.999933
459.921194	0.999837
460.293930	0.999478
460.666607	0.999449
461.039224	0.998806
461.411782	0.999451
461.784280	0.998849
462.156719	1.000005
462.529099	0.999070
462.901419	0.999259
463.273680	0.998962
463.645882	0.999007
464.018024	0.999602
464.390106	0.998897
464.762130	0.999099
465.134094	0.998811
465.505999	0.998929
465.877845	0.998627
466.249631	0.998436
466.621358	0.997967
466.993026	0.998316
467.364634	0.998497
467.736184	0.999365
468.107674	0.998351
468.479105	0.998567
468.850477	0.998717
469.221790	0.998534
469.593043	0.998904
469.964238	0.998348
470.335373	0.998602
470.706449	0.998026
471.077467	0.998524
471.448425	0.998901
471.819324	0.998386
472.190164	0.998105
472.560945	0.998052
472.931667	0.998649
473.302330	0.998739
473.672934	0.998984
474.043479	0.998424
474.413965	0.998093
474.784393	0.998555
475.154761	0.997920
475.525070	0.998110
475.895321	0.998141
476.265513	0.998873
476.635645	0.998716
477.005719	0.998261
477.375734	0.998495
477.745691	0.997795
478.115588	0.997786
478.485427	0.998114
478.855207	0.998257
479.224928	0.998476
479.594591	0.997716
479.964194	0.998132
480.333739	0.997770
480.703226	0.997626
481.072653	0.998136
481.442022	0.998102
481.811333	0.998425
482.180584	0.998377
482.549777	0.998566
482.918912	0.997799
483.287988	0.997873
483.657005	0.997964
484.025964	0.997784
484.394864	0.997729
484.763706	0.998133
485.132489	0.998203
485.501213	0.998105
485.869879	0.998862
486.238487	0.997823
486.607036	0.999053
486.975527	0.998454
487.343959	0.997670
487.712333	0.997652
488.080648	0.997676
488.448905	0.998232
488.817104	0.998085
489.185244	0.998271
489.553326	0.998466
489.921350	0.998191
490.289315	0.997707
490.657222	0.997711
491.025070	0.998150
491.392861	0.998907
491.760593	0.998306
492.128267	0.997856
492.495883	0.997740
492.863440	0.998237
493.230939	0.998094
493.598380	0.999000
493.965763	0.998445
494.333088	0.998088
494.700354	0.998272
495.067563	0.997860
495.434713	0.998069
495.801805	0.998324
496.168839	0.998918
496.535815	0.998798
496.902733	0.997864
497.269593	0.997851
497.636395	0.997442
498.003139	0.997879
498.369825	0.998999
498.736453	0.998374
499.103023	0.998005
499.469535	0.998576
499.835989	0.998681
500.202385	0.998005
500.568723	0.998753
500.935003	0.998716
501.301226	0.998471
501.667390	0.998180
502.033497	0.998227
502.399546	0.998355
502.765537	0.997679
503.131470	0.998779
503.497345	0.998334
503.863163	0.997958
504.228923	0.997781
504.594625	0.997877
504.960269	0.998092
505.325856	0.999209
505.691385	0.998549
506.056856	0.998847
506.422270	0.998173
506.787625	0.998379
507.152924	0.998357
507.518164	0.998422
507.883347	0.998300
508.248472	0.998445
508.613540	0.998401
508.978550	0.998952
509.343503	0.997941
509.708398	0.998733
510.073236	0.998553
510.438016	0.997869
510.802738	0.997777
511.167403	0.997952
511.532010	0.998337
511.896561	0.997934
512.261053	0.998586
512.625488	0.997656
512.989866	0.997884
513.354186	0.997365
513.718449	0.998241
514.082655	0.997762
514.446803	0.998088
514.810894	0.998820
515.174927	0.998027
515.538904	0.998577
515.902822	0.998085
516.266684	0.998349
516.630488	0.998246
516.994235	0.998578
517.357925	0.998916
517.721558	0.998191
518.085133	0.998131
518.448651	0.998069
518.812112	0.998931
519.175516	0.998568
519.538863	0.997662
519.902152	0.998869
520.265385	0.998311
520.628560	0.998338
520.991678	0.997907
521.354739	0.998877
521.717743	0.998861
522.080690	0.997579
522.443580	0.998513
522.806413	0.998160
523.169189	0.998795
523.531908	0.997643
523.894569	0.998656
524.257174	0.998434
524.619722	0.997904
524.982213	0.998367
525.344647	0.997940
525.707025	0.997566
526.069345	0.997620
526.431608	0.998658
526.793815	0.998284
527.155964	0.998374
527.518057	0.998481
527.880093	0.997938
528.242072	0.998536
528.603995	0.998081
528.965860	0.998769
529.327669	0.998869
529.689421	0.997526
530.051117	0.998162
530.412755	0.998562
530.774337	0.998039
531.135862	0.998915
531.497331	0.998741
531.858743	0.999350
532.220098	0.998201
532.581396	0.998597
532.942638	0.998729
533.303824	0.999225
533.664953	0.998489
534.026025	0.999386
534.387040	0.998368
534.747999	0.998198
535.108902	0.998296
535.469748	0.999195
535.830537	0.999070
536.191270	0.998677
536.551947	0.998650
536.912567	0.998256
537.273131	0.998670
537.633638	0.998599
537.994089	0.998118
538.354483	0.998457
538.714821	0.998660
539.075103	0.998873
539.435328	0.999144
539.795497	0.998518
540.155609	0.998277
540.515665	0.998730
540.875665	0.998282
541.235609	0.998634
541.595496	0.998010
541.955328	0.998146
542.315102	0.998614
542.674821	0.999168
543.034483	0.998523
543.394090	0.997665
543.753640	0.998441
544.113134	0.997651
544.472571	0.999198
544.831953	0.998192
545.191278	0.999198
545.550548	0.997870
545.909761	0.998578
546.268918	0.999595
546.628019	0.999115
546.987064	0.998445
547.346053	0.997795
547.704986	0.998579
548.063863	0.998026
548.422684	0.998689
548.781449	0.998198
549.140158	0.998802
549.498811	0.997894
549.857408	0.998009
550.215949	0.998195
550.574434	0.997540
550.932864	0.998570
551.291237	0.998475
551.649555	0.999410
552.007817	0.998422
552.366022	0.998480
552.724173	0.999263
553.082267	0.998012
553.440305	0.997973
553.798288	0.997600
554.156215	0.998781
554.514086	0.998565
554.871902	0.998808
555.229661	0.998146
555.587365	0.998697
555.945014	0.999134
556.302606	0.998190
556.660143	0.999388
557.017625	0.999068
557.375050	0.998074
557.732421	0.998919
558.089735	0.997733
558.446994	0.998712
558.804197	0.998848
559.161345	0.997758
559.518437	0.998076
559.875474	0.998791
560.232455	0.999097
560.589381	0.998919
560.946251	0.998435
561.303065	0.998942
561.659825	0.998351
562.016528	0.999766
562.373177	0.998990
562.729770	0.998936
563.086307	0.998366
563.442789	0.998938
563.799216	0.998554
564.155587	0.998841
564.511904	0.999446
564.868164	0.997580
565.224370	0.998484
565.580520	0.998477
565.936615	0.998914
566.292654	0.998930
566.648638	0.999551
567.004567	0.998646
567.360441	0.998796
567.716260	0.998071
568.072023	0.998292
568.427732	0.998895
568.783385	0.998720
569.138982	0.998226
569.494525	0.998612
569.850013	0.998954
570.205445	0.999161
570.560823	0.997930
570.916145	0.998128
571.271412	0.998398
571.626625	0.998501
571.981782	0.998751
572.336884	0.999417
572.691931	0.998795
573.046923	0.998822
573.401860	0.998633
573.756743	0.999389
574.111570	0.998752
574.466342	0.999778
574.821059	0.998105
575.175722	0.999183
575.530330	0.998776
575.884882	0.998817
576.239380	0.999162
576.593823	0.998872
576.948211	0.998744
577.302544	0.998312
577.656823	0.998782
578.011047	0.998655
578.365216	0.999358
578.719330	0.998685
579.073389	0.997797
579.427394	0.998634
579.781344	0.999459
580.135239	0.997922
580.489080	0.999520
580.842866	0.998538
581.196597	0.999123
581.550273	0.998598
581.903895	0.999390
582.257463	0.998810
582.610975	0.998171
582.964434	0.999144
583.317837	0.998976
583.671186	0.998640
584.024481	0.998998
584.377721	0.998177
584.730906	0.999754
585.084037	0.999233
585.437113	0.999209
585.790135	0.999592
586.143103	0.998387
586.496016	0.999217
586.848874	0.999175
587.201679	0.998499
587.554428	0.998419
587.907124	0.999134
588.259765	0.998812
588.612352	0.999710
588.964884	0.999111
589.317362	0.998858
589.669786	0.999268
590.022155	0.998074
590.374470	0.999197
590.726731	0.998617
591.078937	0.998844
591.431090	0.999358
591.783188	0.998442
592.135232	0.999426
592.487222	0.998995
592.839157	0.999274
593.191038	0.999207
593.542866	0.998810
593.894639	0.998210
594.246358	0.999004
594.598022	0.999354
594.949633	0.999404
595.301190	0.998500
595.652692	0.998687
596.004141	0.999113
596.355535	0.998508
596.706876	0.999342
597.058162	0.998546
597.409395	0.998567
597.760573	0.998530
598.111698	0.999044
598.462768	0.998513
598.813785	0.998168
599.164748	0.998944
599.515657	0.998276
599.866511	0.999103
600.217312	0.999508
600.568060	0.998351
600.918753	0.999219
601.269392	0.999239
601.619978	0.999297
601.970510	0.998408
602.320988	0.998897
602.671412	0.998832
603.021783	0.998906
603.372100	0.999672
603.722363	0.999857
604.072572	0.998849
604.422728	0.999500
604.772830	0.998877
605.122878	0.998877
605.472872	0.999240
605.822813	0.998624
606.172701	0.999620
606.522534	0.999188
606.872314	0.999613
607.222041	0.999069
607.571714	0.999581
607.921333	0.999447
608.270899	0.998927
608.620411	0.999480
608.969870	0.999452
609.319276	0.999166
609.668627	0.999803
610.017926	0.999308
610.367171	0.998936
610.716362	0.999299
611.065500	0.998527
611.414585	0.999319
611.763616	0.998048
612.112594	0.999163
612.461518	0.998564
612.810389	0.998971
613.159207	0.998506
613.507971	0.998845
613.856682	1.000093
614.205340	0.998475
614.553945	0.999506
614.902496	0.998803
615.250994	0.999728
615.599439	0.998741
615.947830	0.998337
616.296169	0.998850
616.644454	0.999141
616.992686	0.999190
617.340864	1.000011
617.688990	0.998795
618.037063	0.999586
618.385082	0.999354
618.733048	0.998799
619.080961	0.998416
619.428821	0.999639
619.776628	0.998583
620.124382	0.999433
620.472083	0.999217
620.819731	1.000218
621.167326	0.999029
621.514868	0.999192
621.862357	0.998774
622.209793	0.998780
622.557176	0.999058
622.904506	0.999012
623.251783	0.999764
623.599007	0.999446
623.946179	0.998540
624.293297	0.999231
624.640363	0.999182
624.987376	0.998381
625.334336	0.998964
625.681243	0.999314
626.028097	0.999709
626.374899	0.999089
626.721647	1.000190
627.068343	0.999222
627.414987	0.999057
627.761577	0.999423
628.108115	0.999132
628.454600	0.999526
628.801032	0.999175
629.147412	0.999247
629.493739	0.999790
629.840014	0.999022
630.186236	0.998528
630.532405	0.999190
630.878521	0.998621
631.224585	0.999285
631.570597	0.998690
631.916556	0.999398
632.262462	0.998085
632.608316	0.999478
632.954117	0.998556
633.299866	0.998919
633.645562	0.998945
633.991206	0.999638
634.336797	0.999014
634.682336	0.999486
635.027823	0.998985
635.373257	0.999519
635.718639	0.999547
636.063968	0.998730
636.409245	0.998710
636.754470	0.999410
637.099642	0.999409
637.444762	1.000275
637.789829	0.998227
638.134845	0.998580
638.479808	0.999165
638.824719	1.000067
639.169577	0.999296
639.514383	0.999052
639.859137	0.999302
640.203839	0.999045
640.548489	0.998379
640.893086	0.998422
641.237632	0.999261
641.582125	1.000181
641.926566	0.999666
642.270955	0.999162
642.615292	0.999572
642.959576	0.999759
643.303809	0.999733
643.647990	0.999204
643.992118	0.999870
644.336195	0.999097
644.680219	0.999372
645.024192	0.999080
645.368112	0.998799
645.711981	0.999410
646.055797	0.998770
646.399562	0.997985
646.743274	1.000030
647.086935	0.999539
647.430544	0.998691
647.774101	0.998655
648.117606	0.999779
648.461059	0.999699
648.804460	0.999250
649.147810	0.998367
649.491108	0.998826
649.834354	0.999110
650.177548	0.999248
650.520690	0.999563
650.863781	0.998052
651.206820	0.999249
651.549807	0.999723
651.892742	0.999985
652.235626	0.999468
652.578458	0.999067
652.921238	0.999577
653.263967	0.999596
653.606644	0.999323
653.949269	0.999831
654.291843	0.998974
654.634365	0.999725
654.976836	0.998942
655.319255	1.000641
655.661622	0.999677
656.003938	0.998512
656.346203	0.998556
656.688416	0.999456
657.030577	0.998828
657.372687	0.999155
657.714746	0.999033
658.056753	0.998295
658.398708	0.998588
658.740612	0.999604
659.082465	0.998825
659.424266	0.999109
659.766016	0.997867
660.107715	0.999876
660.449362	0.999387
660.790958	0.998943
661.132503	0.999470
661.473996	0.998428
661.815438	0.999539
662.156829	0.999129
662.498168	0.999833
662.839456	0.998886
663.180693	1.000003
663.521879	0.998957
663.863013	0.999498
664.204097	0.998542
664.545129	0.999084
664.886110	0.998630
665.227040	0.998990
665.567918	0.998832
665.908746	0.998500
666.249522	0.998434
666.590248	0.998496
666.930922	0.998445
667.271545	0.998966
667.612118	0.998878
667.952639	0.998808
668.293109	0.999068
668.633528	0.998222
668.973896	0.999520
669.314213	0.998763
669.654480	0.999584
669.994695	0.998115
670.334859	0.998283
670.674973	0.999090
671.015035	0.999294
671.355047	0.998497
671.695008	0.998481
672.034918	0.998715
672.374777	0.998368
672.714585	0.999220
673.054342	0.999628
673.394049	0.998712
673.733705	0.999078
674.073310	0.998778
674.412864	0.998615
674.752368	0.998868
675.091820	0.999852
675.431223	0.999389
675.770574	0.998309
676.109875	0.999296
676.449125	0.997700
676.788324	0.998809
677.127473	0.999227
677.466571	0.998584
677.805619	0.999463
678.144616	0.999681
678.483562	0.999077
678.822458	0.998580
679.161303	0.998053
679.500098	0.999160
679.838842	0.998514
680.177535	0.999305
680.516179	0.997665
680.854771	0.998138
681.193314	0.999292
681.531805	0.998455
681.870247	0.998362
682.208638	0.998774
682.546978	0.997716
682.885268	0.998545
683.223508	0.998365
683.561697	0.998655
683.899836	0.998798
684.237925	0.997845
684.575963	0.998506
684.913951	0.998341
685.251889	0.998771
685.589776	0.998156
685.927614	0.998223
686.265401	0.997856
686.603137	0.997752
686.940824	0.998480
687.278460	0.999235
687.616046	0.997881
687.953582	0.998404
688.291068	0.999190
688.628504	0.997809
688.965889	0.998532
689.303224	0.997178
689.640510	0.998992
689.977745	0.997082
690.314930	0.998358
690.652065	0.997800
690.989150	0.997691
691.326185	0.998079
691.663170	0.998181
692.000105	0.998486
692.336990	0.998654
692.673825	0.998396
693.010610	0.998464
693.347345	0.998157
693.684030	0.998346
694.020665	0.998844
694.357251	0.997881
694.693786	0.998487
695.030272	0.997753
695.366707	0.998386
695.703093	0.998656
696.039429	0.997072
696.375716	0.998676
696.711952	0.998620
697.048139	0.998692
697.384276	0.998678
697.720363	0.998400
698.056400	0.996776
698.392388	0.997434
698.728326	0.998309
699.064214	0.998657
699.400053	0.997825
699.735842	0.998364
700.071581	0.997718
700.407270	0.998103
700.742910	0.998257
701.078501	0.998354
701.414042	0.999135
701.749533	0.997360
702.084974	0.998205
702.420366	0.998379
702.755709	0.997379
703.091002	0.998487
703.426246	0.998437
703.761440	0.998490
704.096584	0.997662
704.431679	0.997627
704.766725	0.998965
705.101721	0.999024
705.436668	0.998141
705.771565	0.997818
706.106413	0.997475
706.441212	0.999242
706.775961	0.997750
707.110661	0.998399
707.445311	0.997994
707.779913	0.999051
708.114465	0.998290
708.448967	0.998301
708.783421	0.998149
709.117825	0.998306
709.452180	0.998881
709.786485	0.998676
710.120742	0.998384
710.454949	0.996761
710.789107	0.998209
711.123216	0.998023
711.457275	0.997511
711.791286	0.998802
712.125247	0.999128
712.459159	0.998283
712.793023	0.998351
713.126837	0.997560
713.460602	0.997352
713.794318	0.996986
714.127985	0.997059
714.461602	0.997918
714.795171	0.997125
715.128691	0.997221
715.462162	0.997580
715.795584	0.998453
716.128957	0.998978
716.462281	0.998362
716.795556	0.997608
717.128782	0.998582
717.461960	0.998084
717.795088	0.998480
718.128167	0.998546
718.461198	0.997839
718.794180	0.997860
719.127113	0.998134
719.459997	0.997178
719.792833	0.997230
720.125619	0.996900
720.458357	0.998408
720.791046	0.998400
721.123686	0.998003
721.456278	0.997737
721.788821	0.997590
722.121315	0.999609
722.453761	0.999030
722.786158	0.996912
723.118506	0.997673
723.450805	0.997516
723.783056	0.998736
724.115259	0.996809
724.447412	0.997830
724.779518	0.997756
725.111574	0.996149
725.443582	0.998206
725.775542	0.998338
726.107453	0.997917
726.439315	0.998611
726.771129	0.997990
727.102895	0.998254
727.434612	0.998145
727.766281	0.997946
728.097901	0.997224
728.429473	0.998873
728.760996	0.996916
729.092471	0.997556
729.423897	0.998451
729.755276	0.997489
730.086606	0.997513
730.417887	0.998799
730.749120	0.998210
731.080305	0.997725
731.411442	0.997059
731.742530	0.997497
732.073570	0.998309
732.404562	0.997835
732.735506	0.997451
733.066401	0.997704
733.397249	0.997528
733.728048	0.997874
734.058798	0.997883
734.389501	0.998162
734.720156	0.998410
735.050762	0.998184
735.381320	0.997574
735.711831	0.997412
736.042293	0.997386
736.372707	0.998956
736.703073	0.997041
737.033391	0.998308
737.363661	0.997877
737.693883	0.997424
738.024056	0.996999
738.354182	0.998615
738.684260	0.997546
739.014290	0.998270
739.344272	0.997759
739.674207	0.998526
740.004093	0.997615
740.333931	0.997340
740.663722	0.997783
740.993464	0.998358
741.323159	0.997721
741.652806	0.997447
741.982405	0.997175
742.311956	0.998123
742.641460	0.997978
742.970915	0.997127
743.300323	0.997323
743.629683	0.997566
743.958996	0.998067
744.288260	0.998309
744.617477	0.997859
744.946647	0.997715
745.275768	0.998822
745.604842	0.997166
745.933869	0.997436
746.262847	0.997902
746.591778	0.997429
746.920662	0.998710
747.249498	0.998593
747.578286	0.999535
747.907027	0.998367
748.235720	0.997294
748.564365	0.998861
748.892963	0.996930
749.221514	0.999261
749.550017	0.997408
749.878473	0.997774
750.206881	0.999206
750.535242	0.997616
750.863555	0.997961
751.191821	0.998195
751.520039	0.997684
751.848210	0.997001
752.176334	0.997886
752.504411	0.998020
752.832440	0.997047
753.160421	0.997958
753.488356	0.998252
753.816243	0.997943
754.144082	0.997119
754.471875	0.998093
754.799620	0.997649
755.127318	0.997339
755.454969	0.997768
755.782572	0.998795
756.110129	0.997757
756.437638	0.999241
756.765100	0.998351
757.092515	0.997607
757.419882	0.998051
757.747203	0.998243
758.074477	0.998995
758.401703	0.997782
758.728882	0.998331
759.056014	0.998491
759.383099	0.997742
759.710138	0.997746
760.037129	0.997541
760.364073	0.997359
760.690970	0.999058
761.017820	0.997102
761.344623	0.997665
761.671379	0.998088
761.998088	0.997860
762.324751	0.998200
762.651366	0.996951
762.977935	0.996912
763.304456	0.996148
763.630931	0.995223
763.957359	0.995788
764.283740	0.996492
764.610074	0.996158
764.936362	0.997001
765.262602	0.996560
765.588796	0.997134
765.914943	0.997513
766.241044	0.997275
766.567097	0.998237
766.893104	0.997661
767.219064	0.996845
767.544978	0.997883
767.870845	0.998642
768.196665	0.998458
768.522438	0.999112
768.848165	0.997689
769.173846	0.999295
769.499479	0.999969
769.825066	0.999002
770.150607	0.998917
770.476101	0.998239
770.801548	0.999011
771.126949	0.999064
771.452303	0.998085
771.777611	0.998514
772.102872	0.998314
772.428087	0.998183
772.753256	0.998571
773.078378	0.998789
773.403453	0.997621
773.728482	0.999210
774.053465	0.997536
774.378401	0.998844
774.703291	0.999479
775.028135	0.999253
775.352932	0.997076
775.677683	0.999131
776.002388	0.998301
776.327046	0.997755
776.651658	0.999858
776.976224	0.998898
777.300743	0.998886
777.625216	0.997659
777.949643	0.997930
778.274024	0.997708
778.598359	0.998321
778.922647	0.998230
779.246889	0.999189
779.571086	0.999101
779.895236	0.998524
780.219339	0.998972
780.543397	0.997685
780.867409	0.999557
781.191374	0.998841
781.515294	0.999531
781.839167	0.998910
782.162995	0.998132
782.486776	0.997906
782.810511	0.998415
783.134201	0.999544
783.457844	0.998142
783.781441	0.998006
784.104993	0.997538
784.428498	0.999005
784.751958	0.999442
785.075372	0.998717
785.398739	0.997900
785.722061	0.997536
786.045337	0.999109
786.368568	0.998286
786.691752	0.998675
787.014891	0.998484
787.337983	0.998240
787.661030	0.998137
787.984031	0.998663
788.306987	0.999402
788.629897	0.996683
788.952760	0.998008
789.275579	0.999094
789.598351	0.998076
789.921078	0.999495
790.243759	0.998395
790.566395	0.997876
790.888984	0.998718
791.211529	0.999033
791.534027	0.998758
791.856480	0.998968
792.178888	0.998140
792.501249	0.998602
792.823566	0.999729
793.145836	0.998240
793.468062	0.999648
793.790241	0.999695
794.112375	0.998179
794.434464	0.998442
794.756507	0.999191
795.078505	0.998623
795.400457	0.999147
795.722364	0.998705
796.044226	0.998497
796.366042	0.998907
796.687812	0.997586
797.009538	0.997281
797.331218	0.998716
797.652852	1.000059
797.974442	0.998981
798.295986	0.999365
798.617484	0.997092
798.938938	0.998754
799.260346	0.997897
799.581709	0.998098
799.903026	0.998275
800.224299	0.998286
800.545526	0.998467
800.866708	0.998634
801.187845	0.999014
801.508936	0.998625
801.829983	0.997716
802.150984	0.998743
802.471940	0.999533
802.792851	0.998592
803.113717	0.999927
803.434538	0.998798
803.755314	0.999851
804.076045	0.998579
804.396731	0.997805
804.717372	0.996929
805.037967	0.999127
805.358518	0.998165
805.679024	0.997769
805.999485	0.998039
806.319901	0.998747
806.640272	0.999628
806.960598	1.000255
807.280879	0.998607
807.601115	0.999161
807.921306	0.999995
808.241453	0.998527
808.561554	0.998975
808.881611	0.997960
809.201623	0.998328
809.521590	0.997903
809.841513	0.997936
810.161390	0.997285
810.481223	0.997706
810.801011	0.998575
811.120755	1.000729
811.440453	0.998319
811.760107	0.999185
812.079716	0.997873
812.399281	0.998808
812.718801	0.998400
813.038276	0.998189
813.357707	0.998158
813.677093	0.999961
813.996434	0.999155
814.315731	1.000690
814.634983	1.000171
814.954191	0.999678
815.273354	0.999295
815.592473	0.999046
815.911547	0.999043
816.230577	0.997901
816.549562	0.998389
816.868502	0.997382
817.187399	0.999372
817.506250	0.999304
817.825058	0.997402
818.143821	0.999059
818.462539	0.997611
818.781213	0.998687
819.099843	0.998781
819.418429	0.997206
819.736970	0.998298
820.055466	0.996354
820.373919	0.996007
820.692327	0.996523
821.010691	0.994322
821.329011	0.993806
821.647286	0.991896
821.965517	0.990122
822.283704	0.988613
822.601847	0.988222
822.919945	0.988814
823.237999	0.989923
823.556010	0.990860
823.873976	0.991384
824.191897	0.992765
824.509775	0.993438
824.827609	0.994247
825.145398	0.995582
825.463144	0.993167
825.780845	0.993173
826.098502	0.994761
826.416116	0.994018
826.733685	0.992789
827.051210	0.991634
827.368692	0.992257
827.686129	0.992930
828.003522	0.995006
828.320872	0.994375
828.638177	0.996243
828.955439	0.996978
829.272656	0.996173
829.589830	0.998230
829.906960	0.998232
830.224046	0.997735
830.541088	0.996659
830.858086	0.998023
831.175041	0.999002
831.491952	0.997567
831.808819	0.997701
832.125642	0.997659
832.442421	0.998067
832.759157	0.998538
833.075849	0.996943
833.392497	0.994904
833.709101	0.994142
834.025662	0.994188
834.342179	0.994361
834.658653	0.996317
834.975083	0.995824
835.291469	0.996715
835.607811	0.996767
835.924110	0.997637
836.240366	0.998773
836.556578	0.997873
836.872746	0.999198
837.188871	0.998446
837.504952	0.998631
837.820990	0.998942
838.136984	0.998268
838.452935	0.998648
838.768842	0.999784
839.084706	0.999701
839.400526	0.998173
839.716303	0.996097
840.032037	0.997921
840.347727	0.996949
840.663373	0.997343
840.978977	0.998034
841.294537	0.999242
841.610054	0.998916
841.925527	0.999669
842.240957	0.999269
842.556344	0.999401
842.871687	0.999581
843.186987	0.999235
843.502244	0.999987
843.817458	0.998811
844.132629	0.998572
844.447756	0.999553
844.762840	0.999858
845.077881	0.999880
845.392879	0.998655
845.707833	0.999187
846.022745	0.998478
846.337613	0.999671
846.652438	0.998905
846.967221	0.999163
847.281960	0.999519
847.596656	1.000556
847.911309	0.999970
848.225919	0.998949
848.540485	0.999523
848.855009	1.000397
849.169490	0.999679
849.483928	0.999351
849.798323	0.997934
850.112675	1.000701
850.426984	0.999719
850.741251	0.998517
851.055474	0.999614
851.369654	0.999515
851.683792	0.999622
851.997887	0.999287
852.311938	0.999631
852.625947	0.999408
852.939914	0.998338
853.253837	0.999763
853.567718	1.000149
853.881555	0.999362
854.195350	0.998730
854.509103	0.999496
854.822812	1.000402
855.136479	0.999450
855.450103	0.999158
855.763685	0.999594
856.077224	0.999886
856.390720	0.999148
856.704173	1.000230
857.017584	1.000567
857.330953	1.001100
857.644278	0.999607
857.957561	1.000075
858.270802	0.998846
858.584000	0.999133
858.897155	0.999065
859.210268	1.000253
859.523339	1.000765
859.836367	0.999031
860.149352	0.999325
860.462295	0.999959
860.775195	0.999959
861.088054	0.998171
861.400869	0.999829
861.713642	0.998949
862.026373	1.000132
862.339062	1.000325
862.651708	0.999432
862.964312	1.000896
863.276873	0.998296
863.589392	0.999674
863.901869	0.999294
864.214303	0.999875
864.526696	1.000026
864.839045	0.999880
865.151353	0.999136
865.463619	0.998869
865.775842	0.999712
866.088023	0.999574
866.400162	0.999751
866.712258	1.000386
867.024313	0.999829
867.336325	1.000588
867.648296	0.999149
867.960224	0.999543
868.272110	1.000511
868.583954	0.999334
868.895755	1.000512
869.207515	0.999926
869.519233	0.998889
869.830909	0.998545
870.142542	0.999074
870.454134	0.998980
870.765684	0.999075
871.077191	1.000385
871.388657	0.999474
871.700081	1.000416
872.011463	0.999526
872.322803	0.998737
872.634101	0.998431
872.945357	0.998799
873.256571	0.998551
873.567744	0.999079
873.878874	0.999406
874.189963	0.998567
874.501010	1.000749
874.812015	0.998477
875.122979	0.998969
875.433900	0.999307
875.744780	0.999518
876.055618	0.997843
876.366415	0.997990
876.677169	0.999551
876.987882	0.998779
877.298554	0.998919
877.609183	0.998951
877.919771	0.999421
878.230317	0.999474
878.540822	0.998278
878.851285	0.998091
879.161707	0.997342
879.472087	0.998960
879.782425	0.996282
880.092722	0.995498
880.402977	0.995071
880.713191	0.991873
881.023363	0.989721
881.333494	0.988003
881.643583	0.990053
881.953631	0.988289
882.263637	0.989073
882.573602	0.989928
882.883526	0.990036
883.193408	0.991960
883.503248	0.992787
883.813048	0.992928
884.122806	0.994572
884.432522	0.995022
884.742197	0.995129
885.051831	0.995760
885.361424	0.996457
885.670975	0.997393
885.980485	0.996391
886.289954	0.996609
886.599382	0.996689
886.908768	0.997768
887.218113	0.997171
887.527417	0.997979
887.836680	0.999831
888.145901	0.998628
888.455082	0.999771
888.764221	0.999482
889.073319	0.999099
889.382376	1.000040
889.691392	0.998179
890.000366	0.998925
890.309300	0.999590
890.618193	0.999585
890.927044	0.999513
891.235855	0.998959
891.544625	0.998061
891.853353	0.998239
892.162041	0.998250
892.470687	0.998627
892.779293	0.998465
893.087858	0.996487
893.396381	0.997630
893.704864	0.997224
894.013306	0.996532
894.321707	0.995499
894.630068	0.994417
894.938387	0.994338
895.246665	0.993821
895.554903	0.994163
895.863100	0.996869
896.171256	0.996240
896.479371	0.995861
896.787446	0.997366
897.095480	0.997498
897.403473	0.997118
897.711425	0.998104
898.019336	0.997416
898.327207	0.998867
898.635038	0.997239
898.942827	0.998869
899.250576	0.998740
899.558284	0.998825
899.865952	0.997334
900.173579	0.998991
900.481165	0.997990
900.788711	0.998927
901.096216	0.997864
901.403681	0.998170
901.711105	0.998374
902.018489	0.997851
902.325832	0.997865
902.633135	0.998964
902.940397	0.999323
903.247619	0.998664
903.554800	0.997188
903.861941	0.995401
904.169041	0.994368
904.476101	0.993543
904.783121	0.992468
905.090100	0.994006
905.397039	0.994807
905.703938	0.995833
906.010796	0.995941
906.317614	0.997080
906.624391	0.997616
906.931129	0.998643
907.237826	0.997432
907.544483	0.997728
907.851099	0.999332
908.157675	0.998317
908.464211	0.999873
908.770707	0.998884
909.077163	0.998744
909.383578	0.999806
909.689954	0.997753
909.996289	0.999698
910.302584	1.000111
910.608839	1.000237
910.915054	0.999399
911.221229	1.000391
911.527363	0.997932
911.833458	0.999365
912.139513	0.999243
912.445527	0.999890
912.751502	0.998269
913.057436	0.998557
913.363331	0.999448
913.669186	0.999171
913.975000	0.998687
914.280775	0.999027
914.586510	0.997465
914.892205	0.996878
915.197859	0.995905
915.503475	0.996015
915.809050	0.994908
916.114585	0.992957
916.420081	0.993771
916.725536	0.994086
917.030952	0.993959
917.336328	0.993673
917.641665	0.994130
917.946961	0.995632
918.252218	0.994858
918.557435	0.995883
918.862612	0.997183
919.167750	0.996822
919.472848	0.998300
919.777906	0.998729
920.082925	0.998997
920.387904	0.998184
920.692843	0.997880
920.997743	0.997840
921.302603	0.998987
921.607423	0.998646
921.912204	0.998608
922.216946	1.000692
922.521647	1.000507
922.826310	0.998803
923.130932	1.000767
923.435516	0.998931
923.740059	0.999225
924.044564	0.997610
924.349028	0.998703
924.653454	0.999037
924.957840	0.998586
925.262186	0.998459
925.566493	0.998774
925.870761	0.999556
926.174989	0.999443
926.479178	0.999867
926.783328	1.000005
927.087438	0.999627
927.391509	0.999801
927.695541	0.999048
927.999533	0.999834
928.303486	0.999425
928.607400	1.000067
928.911275	0.999625
929.215110	1.000019
929.518906	0.999893
929.822663	1.001091
930.126381	1.001379
930.430060	0.999479
930.733699	1.000794
931.037299	1.001257
931.340861	1.000668
931.644383	0.998048
931.947866	0.999944
932.251309	1.000872
932.554714	0.999516
932.858080	1.000687
933.161407	0.998796
933.464694	1.000597
933.767943	0.999190
934.071153	1.001073
934.374323	1.000231
934.677455	1.000269
934.980548	1.000387
935.283602	1.000031
935.586617	0.999882
935.889593	1.000341
936.192530	1.000369
936.495428	0.999210
936.798287	0.999160
937.101108	1.001185
937.403890	0.998979
937.706632	1.000678
938.009336	0.998700
938.312002	0.998596
938.614628	0.999814
938.917216	0.998507
939.219765	0.999449
939.522275	1.000139
939.824747	1.000033
940.127179	0.999624
940.429573	1.000495
940.731929	0.998456
941.034246	0.999165
941.336524	0.997913
941.638763	0.999555
941.940964	0.998492
942.243126	0.999704
942.545250	1.001059
942.847335	0.999401
943.149381	1.000634
943.451389	0.998738
943.753359	0.999084
944.055290	1.000593
944.357182	1.001147
944.659036	0.999824
944.960851	1.000395
945.262628	0.998951
945.564367	1.000447
945.866067	0.999925
946.167729	1.000548
946.469352	1.000821
946.770937	0.998337
947.072484	1.000349
947.373992	1.000691
947.675462	0.999727
947.976893	0.998884
948.278286	1.000522
948.579641	1.000780
948.880958	0.999642
949.182236	0.999949
949.483476	1.001403
949.784678	0.999987
950.085841	1.000231
950.386967	0.998914
950.688054	0.998966
950.989103	0.999845
951.290114	0.998943
951.591087	0.999683
951.892021	1.000215
952.192917	0.999091
952.493776	1.000058
952.794596	1.000333
953.095378	0.999525
953.396122	0.999860
953.696828	1.000431
953.997496	0.999669
954.298126	0.999298
954.598718	0.999158
954.899272	0.999727
955.199788	0.998667
955.500266	1.000598
955.800706	0.999278
956.101108	0.999420
956.401472	1.000456
956.701798	0.998944
957.002087	0.999147
957.302337	0.998861
957.602550	0.999103
957.902724	1.000295
958.202861	0.999747
958.502960	0.999605
958.803022	0.999746
959.103045	1.000328
959.403031	1.001314
959.702979	1.001293
960.002889	0.999987
960.302762	0.999133
960.602596	1.001075
960.902393	1.001063
961.202153	1.001317
961.501875	0.999868
961.801559	1.000268
962.101205	0.999217
962.400814	1.001005
962.700385	1.000730
962.999918	1.001391
963.299414	1.000395
963.598873	1.000293
963.898293	1.000419
964.197677	1.000362
964.497022	1.000303
964.796331	1.000339
965.095601	1.000117
965.394835	1.001096
965.694030	1.000442
965.993189	1.000241
966.292309	1.001161
966.591393	0.998884
966.890439	1.000885
967.189447	1.000460
967.488419	1.000042
967.787353	0.999764
968.086249	1.001483
968.385108	0.999419
968.683930	1.000880
968.982714	1.000540
969.281462	1.000104
969.580172	0.999706
969.878844	1.001526
970.177480	1.000821
970.476078	1.000904
970.774639	0.999616
971.073162	1.000199
971.371649	1.000560
971.670098	0.999470
971.968510	1.000657
972.266885	1.000440
972.565223	0.999999
972.863524	0.999460
973.161788	0.999518
973.460014	1.000528
973.758204	0.999171
974.056356	0.999877
974.354471	0.999536
974.652550	1.000732
974.950591	0.999677
975.248595	1.000130
975.546563	1.000787
975.844493	1.000666
976.142386	0.999953
976.440243	0.999419
976.738062	1.001100
977.035845	0.999655
977.333590	1.001269
977.631299	0.999166
977.928971	0.999342
978.226606	0.999793
978.524204	1.000360
978.821765	1.000569
979.119290	1.001007
979.416777	1.000196
979.714228	0.999496
980.011642	0.999594
980.309020	1.000072
980.606360	0.999976
980.903664	1.000192
981.200931	1.000508
981.498162	1.000797
981.795356	1.000642
982.092513	0.999603
982.389633	1.000673
982.686717	1.000032
982.983764	0.999975
983.280775	0.999547
983.577749	1.000654
983.874686	1.000171
984.171587	1.000050
984.468451	1.000700
984.765279	1.001158
985.062070	1.000406
985.358824	1.001579
985.655543	1.000635
985.952224	1.001224
986.248869	0.999858
986.545478	1.002914
986.842050	1.000589
987.138586	0.999529
987.435086	0.999915
987.731549	1.001170
988.027975	1.001711
988.324366	1.000338
988.620719	1.000582
988.917037	1.000259
989.213318	1.000043
989.509563	1.000145
989.805772	0.999488
990.101944	1.000721
990.398080	1.000792
990.694180	1.000751
990.990244	0.999921
991.286271	1.000035
991.582262	1.001314
991.878217	0.999728
992.174136	1.001372
992.470019	1.000505
992.765865	1.001037
993.061676	0.999892
993.357450	1.001011
993.653188	1.001313
993.948890	0.999661
994.244556	1.000789
994.540186	1.000511
994.835780	0.999842
995.131337	1.001435
995.426859	1.000460
995.722345	1.000325
996.017795	0.999884
996.313208	1.000133
996.608586	0.999908
996.903928	1.001626
997.199234	0.999521
997.494504	1.000751
997.789738	0.999076
998.084936	1.000869
998.380099	0.999589
998.675225	1.002108
998.970316	1.000632
999.265371	1.001436
999.560390	1.000330
999.855373	1.000878
1000.150320	1.000556
1000.445232	0.999661
1000.740108	0.999456
1001.034948	1.000050
1001.329752	0.999902
1001.624521	1.000387
1001.919254	1.000364
1002.213951	1.000684
1002.508613	0.999981
1002.803239	0.999802
1003.097829	1.001004
1003.392384	1.000977
1003.686903	1.000454
1003.981386	1.000553
1004.275834	1.001058
1004.570246	0.999566
1004.864623	1.000370
1005.158964	1.001309
1005.453270	1.000909
1005.747540	0.999496
1006.041775	0.999523
1006.335974	1.001044
1006.630138	1.000872
1006.924266	1.000660
1007.218359	0.998948
1007.512416	1.001576
1007.806438	0.999680
1008.100425	1.001120
1008.394376	1.002186
1008.688292	0.999466
1008.982172	1.000414
1009.276017	1.000319
1009.569827	1.001340
1009.863602	0.999091
1010.157341	1.001350
1010.451045	1.000657
1010.744714	1.001929
1011.038347	1.001359
1011.331945	0.999497
1011.625508	1.000320
1011.919036	1.000873
1012.212528	1.000625
1012.505986	1.000941
1012.799408	0.999459
1013.092795	1.000960
1013.386147	1.001622
1013.679464	1.001027
1013.972745	1.000345
1014.265992	1.000205
1014.559204	1.000496
1014.852380	1.000805
1015.145521	1.001122
1015.438628	1.000496
1015.731699	1.000766
1016.024736	1.001372
1016.317737	1.000709
1016.610703	1.001155
1016.903635	0.999954
1017.196531	0.998937
1017.489393	1.000497
1017.782219	1.000817
1018.075011	1.000977
1018.367768	1.000055
1018.660490	1.000821
1018.953177	1.000821
1019.245829	1.000821
