Dividing Wavelength (nm)	Counts (n)	Blue Motor Position (mm): 36.200000	Red Motor Position (mm): 0.000000	
326.493990	0.999886
326.888308	0.999886
327.282561	0.999886
327.676750	1.001029
328.070874	1.001604
328.464933	1.000317
328.858929	1.000485
329.252859	0.999918
329.646726	0.999397
330.040528	1.000044
330.434265	0.999873
330.827938	0.999983
331.221547	1.000259
331.615091	1.001295
332.008571	1.002882
332.401986	0.998282
332.795338	0.999250
333.188625	1.000618
333.581847	0.999420
333.975006	0.999641
334.368100	1.000314
334.761129	0.998685
335.154095	1.000382
335.546996	1.000776
335.939833	0.998362
336.332606	0.999355
336.725315	0.999501
337.117960	1.000297
337.510540	0.998622
337.903056	1.000041
338.295508	1.001051
338.687896	1.001070
339.080220	1.000851
339.472480	0.998303
339.864676	1.000052
340.256807	0.998879
340.648875	0.999658
341.040879	0.999422
341.432818	1.000784
341.824694	0.999022
342.216506	1.000846
342.608253	0.998892
342.999937	0.998597
343.391557	0.998747
343.783113	1.000799
344.174605	1.000404
344.566033	0.998632
344.957397	1.000200
345.348697	0.999879
345.739934	0.999689
346.131106	0.999805
346.522215	0.999538
346.913260	0.999702
347.304241	0.998357
347.695159	0.999858
348.086012	0.999122
348.476802	0.998094
348.867528	0.998815
349.258191	1.000724
349.648789	0.999798
350.039324	0.998786
350.429796	0.999610
350.820203	0.998563
351.210548	0.999679
351.600828	0.999376
351.991045	0.999767
352.381198	0.999727
352.771288	0.998300
353.161314	0.998930
353.551276	0.998795
353.941175	0.996663
354.331010	0.999858
354.720782	0.998619
355.110490	0.998107
355.500135	0.998583
355.889717	0.997583
356.279235	0.998752
356.668689	0.999512
357.058080	0.998388
357.447408	0.997986
357.836672	0.999551
358.225873	0.998543
358.615010	0.997628
359.004084	0.996971
359.393095	0.999413
359.782043	0.999249
360.170927	0.999260
360.559748	0.998848
360.948505	0.999110
361.337199	0.997689
361.725830	0.998355
362.114398	0.998101
362.502903	0.995914
362.891344	0.997923
363.279722	0.997823
363.668037	0.998679
364.056289	0.997409
364.444478	0.998948
364.832603	0.999088
365.220665	0.997971
365.608665	0.996846
365.996601	0.997680
366.384474	0.996313
366.772284	0.997745
367.160031	0.995944
367.547715	0.996320
367.935336	0.995472
368.322893	0.994757
368.710388	0.993548
369.097820	0.991550
369.485189	0.988413
369.872495	0.988461
370.259738	0.985918
370.646918	0.981047
371.034035	0.980548
371.421090	0.977807
371.808081	0.973252
372.195010	0.969911
372.581875	0.964857
372.968678	0.960729
373.355418	0.957351
373.742096	0.948992
374.128710	0.944931
374.515262	0.941711
374.901751	0.934904
375.288177	0.930087
375.674540	0.923022
376.060841	0.917029
376.447079	0.911589
376.833254	0.904498
377.219367	0.898447
377.605417	0.886955
377.991404	0.884763
378.377329	0.878021
378.763191	0.870617
379.148991	0.862878
379.534727	0.855176
379.920402	0.847265
380.306013	0.842144
380.691563	0.830587
381.077049	0.823864
381.462474	0.820045
381.847835	0.809581
382.233134	0.803420
382.618371	0.803609
383.003545	0.786619
383.388657	0.784512
383.773706	0.777540
384.158693	0.772570
384.543618	0.768697
384.928480	0.758915
385.313280	0.748866
385.698017	0.748295
386.082692	0.736639
386.467305	0.736091
386.851856	0.730500
387.236344	0.724939
387.620770	0.719573
388.005133	0.713073
388.389435	0.708494
388.773674	0.705871
389.157851	0.697395
389.541965	0.694762
389.926018	0.702945
390.310008	0.688213
390.693936	0.686271
391.077802	0.677904
391.461606	0.678787
391.845348	0.668695
392.229027	0.668632
392.612645	0.666529
392.996200	0.653168
393.379694	0.646954
393.763125	0.637127
394.146494	0.641506
394.529801	0.632581
394.913047	0.624368
395.296230	0.629390
395.679351	0.621205
396.062410	0.618440
396.445408	0.621386
396.828343	0.617043
397.211217	0.612038
397.594028	0.624103
397.976778	0.614599
398.359466	0.611834
398.742092	0.607576
399.124656	0.619345
399.507158	0.608025
399.889598	0.605766
400.271977	0.598931
400.654294	0.603356
401.036549	0.604302
401.418742	0.610130
401.800874	0.597559
402.182944	0.597140
402.564952	0.591150
402.946898	0.595013
403.328783	0.598259
403.710606	0.612529
404.092367	0.591366
404.474067	0.599820
404.855705	0.602699
405.237282	0.614247
405.618797	0.604932
406.000250	0.606121
406.381642	0.601934
406.762972	0.611220
407.144240	0.614866
407.525447	0.619035
407.906593	0.619163
408.287677	0.621466
408.668700	0.634187
409.049661	0.635915
409.430560	0.637851
409.811399	0.651749
410.192176	0.644544
410.572891	0.656777
410.953545	0.655131
411.334138	0.672477
411.714669	0.674613
412.095139	0.691178
412.475547	0.688489
412.855894	0.697866
413.236180	0.705671
413.616405	0.716850
413.996568	0.719692
414.376670	0.731300
414.756711	0.742108
415.136691	0.749776
415.516609	0.753754
415.896466	0.759712
416.276262	0.766912
416.655997	0.776808
417.035670	0.777539
417.415283	0.782217
417.794834	0.793011
418.174324	0.803199
418.553753	0.815335
418.933121	0.816803
419.312428	0.824557
419.691674	0.834943
420.070859	0.839900
420.449983	0.849518
420.829045	0.854038
421.208047	0.864934
421.586988	0.870684
421.965867	0.877361
422.344686	0.882502
422.723444	0.891902
423.102141	0.901899
423.480777	0.901101
423.859352	0.912424
424.237866	0.914830
424.616319	0.920107
424.994712	0.925007
425.373044	0.930768
425.751314	0.935631
426.129524	0.942310
426.507673	0.943915
426.885762	0.948077
427.263789	0.952542
427.641756	0.956789
428.019662	0.960227
428.397508	0.962905
428.775292	0.966442
429.153016	0.968915
429.530679	0.972156
429.908282	0.975068
430.285824	0.977107
430.663305	0.978812
431.040726	0.981984
431.418086	0.982776
431.795385	0.984743
432.172624	0.986898
432.549802	0.987156
432.926920	0.988536
433.303977	0.989588
433.680974	0.991122
434.057910	0.991917
434.434786	0.992026
434.811601	0.992997
435.188355	0.994064
435.565050	0.995152
435.941683	0.994397
436.318257	0.994946
436.694770	0.995363
437.071222	0.996218
437.447614	0.995961
437.823946	0.996907
438.200218	0.996147
438.576429	0.996441
438.952580	0.996974
439.328670	0.996675
439.704700	0.996082
440.080670	0.997511
440.456580	0.996946
440.832429	0.997449
441.208218	0.998183
441.583947	0.997673
441.959616	0.996339
442.335224	0.998238
442.710773	0.998597
443.086261	0.998633
443.461689	0.997891
443.837057	0.997800
444.212365	0.997782
444.587612	0.998277
444.962800	0.998714
445.337927	0.999126
445.712995	0.997795
446.088002	0.997444
446.462949	0.997719
446.837837	0.999652
447.212664	0.998167
447.587431	0.999202
447.962139	0.997726
448.336786	0.997884
448.711374	0.997838
449.085901	0.999022
449.460369	0.998285
449.834776	0.997675
450.209124	0.999274
450.583412	0.999387
450.957640	0.997388
451.331808	0.998731
451.705917	0.997466
452.079965	0.998557
452.453954	0.998639
452.827883	0.998679
453.201752	0.998765
453.575562	0.997932
453.949311	0.998422
454.323001	0.998215
454.696632	0.999045
455.070202	0.998535
455.443713	0.997764
455.817164	0.998675
456.190556	0.997934
456.563888	0.998679
456.937160	0.998841
457.310373	0.997977
457.683526	0.998520
458.056619	0.998378
458.429653	0.998216
458.802628	0.998018
459.175542	0.998343
459.548398	0.997836
459.921194	0.998966
460.293930	0.999092
460.666607	0.999204
461.039224	0.998529
461.411782	0.998273
461.784280	0.998580
462.156719	0.998838
462.529099	0.998562
462.901419	0.998121
463.273680	0.997406
463.645882	0.998106
464.018024	0.998695
464.390106	0.997846
464.762130	0.998302
465.134094	0.998156
465.505999	0.998246
465.877845	0.997421
466.249631	0.998494
466.621358	0.997511
466.993026	0.997747
467.364634	0.997931
467.736184	0.997719
468.107674	0.997846
468.479105	0.998058
468.850477	0.997987
469.221790	0.998202
469.593043	0.997240
469.964238	0.997843
470.335373	0.997579
470.706449	0.997190
471.077467	0.997461
471.448425	0.997944
471.819324	0.998576
472.190164	0.997343
472.560945	0.997537
472.931667	0.997489
473.302330	0.997312
473.672934	0.998223
474.043479	0.997059
474.413965	0.997660
474.784393	0.997502
475.154761	0.997880
475.525070	0.998038
475.895321	0.997795
476.265513	0.997693
476.635645	0.997692
477.005719	0.997800
477.375734	0.997222
477.745691	0.996671
478.115588	0.997139
478.485427	0.997349
478.855207	0.997373
479.224928	0.997453
479.594591	0.997644
479.964194	0.997331
480.333739	0.997368
480.703226	0.996675
481.072653	0.997036
481.442022	0.997566
481.811333	0.997373
482.180584	0.997501
482.549777	0.997297
482.918912	0.997045
483.287988	0.996869
483.657005	0.996552
484.025964	0.997273
484.394864	0.997174
484.763706	0.997169
485.132489	0.998116
485.501213	0.997626
485.869879	0.997979
486.238487	0.996612
486.607036	0.997636
486.975527	0.998005
487.343959	0.997090
487.712333	0.997523
488.080648	0.997011
488.448905	0.997748
488.817104	0.996782
489.185244	0.997650
489.553326	0.998199
489.921350	0.998031
490.289315	0.997796
490.657222	0.996936
491.025070	0.998120
491.392861	0.997561
491.760593	0.997711
492.128267	0.997739
492.495883	0.996599
492.863440	0.997585
493.230939	0.998099
493.598380	0.997491
493.965763	0.997746
494.333088	0.996903
494.700354	0.997408
495.067563	0.997482
495.434713	0.998417
495.801805	0.998054
496.168839	0.997941
496.535815	0.997702
496.902733	0.997996
497.269593	0.997476
497.636395	0.996532
498.003139	0.996910
498.369825	0.998249
498.736453	0.997436
499.103023	0.997839
499.469535	0.997123
499.835989	0.997966
500.202385	0.997338
500.568723	0.998288
500.935003	0.997565
501.301226	0.998037
501.667390	0.996604
502.033497	0.997480
502.399546	0.997313
502.765537	0.997702
503.131470	0.998112
503.497345	0.998020
503.863163	0.997354
504.228923	0.997479
504.594625	0.997480
504.960269	0.997570
505.325856	0.998159
505.691385	0.997552
506.056856	0.998149
506.422270	0.998424
506.787625	0.997362
507.152924	0.998025
507.518164	0.998065
507.883347	0.997851
508.248472	0.998087
508.613540	0.997515
508.978550	0.997339
509.343503	0.997752
509.708398	0.998365
510.073236	0.997452
510.438016	0.997041
510.802738	0.997792
511.167403	0.997396
511.532010	0.997403
511.896561	0.998444
512.261053	0.997263
512.625488	0.997785
512.989866	0.997489
513.354186	0.996531
513.718449	0.997498
514.082655	0.997485
514.446803	0.997579
514.810894	0.997995
515.174927	0.997754
515.538904	0.997987
515.902822	0.997621
516.266684	0.998232
516.630488	0.997938
516.994235	0.998294
517.357925	0.998514
517.721558	0.998033
518.085133	0.997245
518.448651	0.997642
518.812112	0.998124
519.175516	0.997892
519.538863	0.996944
519.902152	0.997794
520.265385	0.997137
520.628560	0.997178
520.991678	0.997231
521.354739	0.998004
521.717743	0.997429
522.080690	0.997653
522.443580	0.997981
522.806413	0.997187
523.169189	0.998612
523.531908	0.997624
523.894569	0.997750
524.257174	0.997122
524.619722	0.997854
524.982213	0.997958
525.344647	0.997482
525.707025	0.996706
526.069345	0.997189
526.431608	0.998338
526.793815	0.997941
527.155964	0.998061
527.518057	0.997612
527.880093	0.997486
528.242072	0.997268
528.603995	0.997897
528.965860	0.998236
529.327669	0.997768
529.689421	0.997336
530.051117	0.998231
530.412755	0.997933
530.774337	0.997838
531.135862	0.998496
531.497331	0.997520
531.858743	0.998650
532.220098	0.997340
532.581396	0.997806
532.942638	0.997891
533.303824	0.998783
533.664953	0.997692
534.026025	0.998386
534.387040	0.998226
534.747999	0.997529
535.108902	0.998055
535.469748	0.998379
535.830537	0.998415
536.191270	0.997845
536.551947	0.997307
536.912567	0.998167
537.273131	0.997697
537.633638	0.997582
537.994089	0.997859
538.354483	0.997896
538.714821	0.997414
539.075103	0.997951
539.435328	0.998122
539.795497	0.998583
540.155609	0.997800
540.515665	0.998337
540.875665	0.997846
541.235609	0.997990
541.595496	0.996953
541.955328	0.997428
542.315102	0.998483
542.674821	0.998182
543.034483	0.998269
543.394090	0.997136
543.753640	0.997806
544.113134	0.997960
544.472571	0.998197
544.831953	0.998213
545.191278	0.998101
545.550548	0.997730
545.909761	0.997861
546.268918	0.998882
546.628019	0.997883
546.987064	0.998312
547.346053	0.996909
547.704986	0.997986
548.063863	0.997535
548.422684	0.997897
548.781449	0.998092
549.140158	0.998022
549.498811	0.997696
549.857408	0.997282
550.215949	0.998062
550.574434	0.997365
550.932864	0.998118
551.291237	0.997488
551.649555	0.997875
552.007817	0.998075
552.366022	0.998140
552.724173	0.998611
553.082267	0.998444
553.440305	0.997509
553.798288	0.997319
554.156215	0.997328
554.514086	0.997519
554.871902	0.998140
555.229661	0.997960
555.587365	0.998156
555.945014	0.998654
556.302606	0.997236
556.660143	0.998557
557.017625	0.998379
557.375050	0.997327
557.732421	0.997851
558.089735	0.997029
558.446994	0.997506
558.804197	0.998672
559.161345	0.997325
559.518437	0.997309
559.875474	0.998219
560.232455	0.998695
560.589381	0.997940
560.946251	0.998135
561.303065	0.998006
561.659825	0.997552
562.016528	0.998419
562.373177	0.998296
562.729770	0.997686
563.086307	0.997556
563.442789	0.997974
563.799216	0.997498
564.155587	0.997650
564.511904	0.998153
564.868164	0.996724
565.224370	0.997589
565.580520	0.996986
565.936615	0.997873
566.292654	0.998170
566.648638	0.998314
567.004567	0.997733
567.360441	0.997862
567.716260	0.997542
568.072023	0.997722
568.427732	0.997994
568.783385	0.998286
569.138982	0.997908
569.494525	0.997271
569.850013	0.998114
570.205445	0.997969
570.560823	0.998153
570.916145	0.998034
571.271412	0.998021
571.626625	0.998438
571.981782	0.997688
572.336884	0.997800
572.691931	0.998457
573.046923	0.998795
573.401860	0.997821
573.756743	0.997625
574.111570	0.997613
574.466342	0.998595
574.821059	0.998648
575.175722	0.998872
575.530330	0.998176
575.884882	0.997739
576.239380	0.998096
576.593823	0.997748
576.948211	0.997888
577.302544	0.998026
577.656823	0.998519
578.011047	0.997576
578.365216	0.999034
578.719330	0.997516
579.073389	0.997798
579.427394	0.997593
579.781344	0.998391
580.135239	0.997453
580.489080	0.997850
580.842866	0.998175
581.196597	0.997911
581.550273	0.996936
581.903895	0.998173
582.257463	0.997660
582.610975	0.997529
582.964434	0.998278
583.317837	0.998701
583.671186	0.998624
584.024481	0.997860
584.377721	0.997514
584.730906	0.998116
585.084037	0.998802
585.437113	0.998318
585.790135	0.998154
586.143103	0.998118
586.496016	0.997868
586.848874	0.998605
587.201679	0.997359
587.554428	0.998004
587.907124	0.998233
588.259765	0.998289
588.612352	0.998981
588.964884	0.998339
589.317362	0.998161
589.669786	0.997829
590.022155	0.997760
590.374470	0.998296
590.726731	0.997273
591.078937	0.998360
591.431090	0.998767
591.783188	0.997841
592.135232	0.998781
592.487222	0.997755
592.839157	0.998079
593.191038	0.998044
593.542866	0.997942
593.894639	0.997511
594.246358	0.998673
594.598022	0.998261
594.949633	0.998656
595.301190	0.998509
595.652692	0.997544
596.004141	0.997783
596.355535	0.998142
596.706876	0.998397
597.058162	0.998467
597.409395	0.998221
597.760573	0.997826
598.111698	0.998125
598.462768	0.997421
598.813785	0.996913
599.164748	0.997419
599.515657	0.997348
599.866511	0.998738
600.217312	0.998147
600.568060	0.997125
600.918753	0.998318
601.269392	0.997975
601.619978	0.998138
601.970510	0.997935
602.320988	0.998623
602.671412	0.998076
603.021783	0.998305
603.372100	0.998679
603.722363	0.998732
604.072572	0.998105
604.422728	0.997126
604.772830	0.998026
605.122878	0.998297
605.472872	0.998315
605.822813	0.997795
606.172701	0.998581
606.522534	0.998818
606.872314	0.999305
607.222041	0.996761
607.571714	0.997898
607.921333	0.998217
608.270899	0.997547
608.620411	0.998524
608.969870	0.998903
609.319276	0.997783
609.668627	0.999127
610.017926	0.998153
610.367171	0.998055
610.716362	0.997655
611.065500	0.998237
611.414585	0.997644
611.763616	0.997739
612.112594	0.997994
612.461518	0.997238
612.810389	0.998793
613.159207	0.998038
613.507971	0.997170
613.856682	0.998825
614.205340	0.996853
614.553945	0.997849
614.902496	0.998050
615.250994	0.997953
615.599439	0.998729
615.947830	0.997308
616.296169	0.998091
616.644454	0.998353
616.992686	0.998309
617.340864	0.998565
617.688990	0.997602
618.037063	0.997981
618.385082	0.997723
618.733048	0.997732
619.080961	0.997948
619.428821	0.998153
619.776628	0.997842
620.124382	0.999031
620.472083	0.997943
620.819731	0.998844
621.167326	0.998065
621.514868	0.997686
621.862357	0.998546
622.209793	0.997998
622.557176	0.998077
622.904506	0.997944
623.251783	0.998100
623.599007	0.998070
623.946179	0.997617
624.293297	0.998749
624.640363	0.998481
624.987376	0.997675
625.334336	0.997506
625.681243	0.998428
626.028097	0.998468
626.374899	0.997653
626.721647	0.998928
627.068343	0.997515
627.414987	0.997700
627.761577	0.997382
628.108115	0.997887
628.454600	0.997900
628.801032	0.998330
629.147412	0.998708
629.493739	0.998738
629.840014	0.998235
630.186236	0.997878
630.532405	0.997881
630.878521	0.997654
631.224585	0.998174
631.570597	0.997897
631.916556	0.997947
632.262462	0.997174
632.608316	0.998487
632.954117	0.997661
633.299866	0.998646
633.645562	0.998212
633.991206	0.997827
634.336797	0.997614
634.682336	0.998307
635.027823	0.997717
635.373257	0.998502
635.718639	0.998619
636.063968	0.997583
636.409245	0.998031
636.754470	0.998082
637.099642	0.997927
637.444762	0.998655
637.789829	0.997659
638.134845	0.997587
638.479808	0.997766
638.824719	0.997353
639.169577	0.997110
639.514383	0.998386
639.859137	0.997904
640.203839	0.998412
640.548489	0.997584
640.893086	0.998309
641.237632	0.998569
641.582125	0.997765
641.926566	0.999018
642.270955	0.998691
642.615292	0.997123
642.959576	0.998276
643.303809	0.998982
643.647990	0.997758
643.992118	0.998255
644.336195	0.998173
644.680219	0.998436
645.024192	0.997674
645.368112	0.997542
645.711981	0.997494
646.055797	0.998427
646.399562	0.997149
646.743274	0.999023
647.086935	0.997140
647.430544	0.997003
647.774101	0.997821
648.117606	0.998697
648.461059	0.998965
648.804460	0.998151
649.147810	0.998213
649.491108	0.997793
649.834354	0.997785
650.177548	0.997652
650.520690	0.997914
650.863781	0.997865
651.206820	0.997946
651.549807	0.998060
651.892742	0.998196
652.235626	0.997810
652.578458	0.998388
652.921238	0.997800
653.263967	0.998304
653.606644	0.997565
653.949269	0.998244
654.291843	0.997717
654.634365	0.998756
654.976836	0.997089
655.319255	0.999246
655.661622	0.998519
656.003938	0.998433
656.346203	0.997868
656.688416	0.999365
657.030577	0.997807
657.372687	0.997528
657.714746	0.998185
658.056753	0.997795
658.398708	0.998517
658.740612	0.999210
659.082465	0.997785
659.424266	0.998020
659.766016	0.996722
660.107715	0.998779
660.449362	0.998159
660.790958	0.997392
661.132503	0.997762
661.473996	0.997286
661.815438	0.998182
662.156829	0.998236
662.498168	0.999154
662.839456	0.997822
663.180693	0.998581
663.521879	0.998370
663.863013	0.998427
664.204097	0.997383
664.545129	0.997958
664.886110	0.997978
665.227040	0.998342
665.567918	0.997903
665.908746	0.997035
666.249522	0.997612
666.590248	0.998247
666.930922	0.997739
667.271545	0.997657
667.612118	0.997723
667.952639	0.998116
668.293109	0.997617
668.633528	0.997255
668.973896	0.997786
669.314213	0.997098
669.654480	0.999029
669.994695	0.997399
670.334859	0.997251
670.674973	0.997728
671.015035	0.998593
671.355047	0.998519
671.695008	0.997375
672.034918	0.997296
672.374777	0.998091
672.714585	0.997634
673.054342	0.998557
673.394049	0.997203
673.733705	0.997725
674.073310	0.997332
674.412864	0.998563
674.752368	0.997447
675.091820	0.998258
675.431223	0.998104
675.770574	0.996830
676.109875	0.997669
676.449125	0.997253
676.788324	0.997745
677.127473	0.998742
677.466571	0.997770
677.805619	0.998006
678.144616	0.998759
678.483562	0.998532
678.822458	0.998441
679.161303	0.997652
679.500098	0.997746
679.838842	0.997843
680.177535	0.997192
680.516179	0.996501
680.854771	0.997009
681.193314	0.997597
681.531805	0.997901
681.870247	0.998419
682.208638	0.997608
682.546978	0.997690
682.885268	0.997690
683.223508	0.997185
683.561697	0.998382
683.899836	0.997979
684.237925	0.997536
684.575963	0.997637
684.913951	0.998098
685.251889	0.997480
685.589776	0.997133
685.927614	0.997373
686.265401	0.998022
686.603137	0.997062
686.940824	0.997240
687.278460	0.998795
687.616046	0.997634
687.953582	0.997503
688.291068	0.997819
688.628504	0.997684
688.965889	0.997532
689.303224	0.996253
689.640510	0.996797
689.977745	0.997644
690.314930	0.997365
690.652065	0.996686
690.989150	0.997225
691.326185	0.998000
691.663170	0.997487
692.000105	0.997635
692.336990	0.997021
692.673825	0.997739
693.010610	0.997967
693.347345	0.997559
693.684030	0.996885
694.020665	0.997452
694.357251	0.997370
694.693786	0.998782
695.030272	0.996374
695.366707	0.997142
695.703093	0.998044
696.039429	0.996369
696.375716	0.997565
696.711952	0.996675
697.048139	0.997359
697.384276	0.998239
697.720363	0.998201
698.056400	0.996483
698.392388	0.996843
698.728326	0.997152
699.064214	0.998560
699.400053	0.997400
699.735842	0.997960
700.071581	0.997462
700.407270	0.997824
700.742910	0.998147
701.078501	0.997776
701.414042	0.997931
701.749533	0.996682
702.084974	0.997534
702.420366	0.998003
702.755709	0.997013
703.091002	0.998042
703.426246	0.997966
703.761440	0.997393
704.096584	0.996260
704.431679	0.996674
704.766725	0.997829
705.101721	0.997774
705.436668	0.997937
705.771565	0.996857
706.106413	0.996424
706.441212	0.997211
706.775961	0.997280
707.110661	0.997900
707.445311	0.998232
707.779913	0.998844
708.114465	0.999087
708.448967	0.997586
708.783421	0.998113
709.117825	0.997682
709.452180	0.997886
709.786485	0.998061
710.120742	0.997129
710.454949	0.997376
710.789107	0.998221
711.123216	0.996020
711.457275	0.996383
711.791286	0.998111
712.125247	0.998729
712.459159	0.996440
712.793023	0.997593
713.126837	0.997389
713.460602	0.997023
713.794318	0.996332
714.127985	0.995315
714.461602	0.997203
714.795171	0.997551
715.128691	0.997006
715.462162	0.997793
715.795584	0.996668
716.128957	0.998225
716.462281	0.997946
716.795556	0.996546
717.128782	0.998127
717.461960	0.996937
717.795088	0.997617
718.128167	0.998869
718.461198	0.997428
718.794180	0.998615
719.127113	0.996489
719.459997	0.997640
719.792833	0.997345
720.125619	0.997096
720.458357	0.997566
720.791046	0.998171
721.123686	0.997482
721.456278	0.997620
721.788821	0.998001
722.121315	0.998976
722.453761	0.997348
722.786158	0.996677
723.118506	0.997678
723.450805	0.996935
723.783056	0.997763
724.115259	0.997019
724.447412	0.997980
724.779518	0.997357
725.111574	0.996685
725.443582	0.997505
725.775542	0.997554
726.107453	0.997357
726.439315	0.997588
726.771129	0.997572
727.102895	0.997471
727.434612	0.998287
727.766281	0.997474
728.097901	0.996524
728.429473	0.998314
728.760996	0.996793
729.092471	0.997361
729.423897	0.998068
729.755276	0.997447
730.086606	0.997789
730.417887	0.997892
730.749120	0.997742
731.080305	0.997624
731.411442	0.997138
731.742530	0.996655
732.073570	0.996468
732.404562	0.998215
732.735506	0.997177
733.066401	0.996965
733.397249	0.996560
733.728048	0.996936
734.058798	0.997048
734.389501	0.998446
734.720156	0.997317
735.050762	0.997710
735.381320	0.997691
735.711831	0.997058
736.042293	0.997715
736.372707	0.998024
736.703073	0.996821
737.033391	0.997659
737.363661	0.998188
737.693883	0.998137
738.024056	0.996498
738.354182	0.998139
738.684260	0.997826
739.014290	0.997749
739.344272	0.997668
739.674207	0.997760
740.004093	0.998045
740.333931	0.998423
740.663722	0.997398
740.993464	0.998003
741.323159	0.997086
741.652806	0.997881
741.982405	0.997189
742.311956	0.998123
742.641460	0.998052
742.970915	0.997194
743.300323	0.997566
743.629683	0.997246
743.958996	0.998562
744.288260	0.996609
744.617477	0.997833
744.946647	0.998173
745.275768	0.998691
745.604842	0.997594
745.933869	0.997942
746.262847	0.997618
746.591778	0.997210
746.920662	0.999170
747.249498	0.998226
747.578286	0.999495
747.907027	0.997929
748.235720	0.998525
748.564365	0.997743
748.892963	0.996493
749.221514	0.998236
749.550017	0.997371
749.878473	0.997707
750.206881	0.998215
750.535242	0.997933
750.863555	0.996905
751.191821	0.997799
751.520039	0.998365
751.848210	0.996539
752.176334	0.997656
752.504411	0.997086
752.832440	0.997966
753.160421	0.998283
753.488356	0.997893
753.816243	0.997793
754.144082	0.997236
754.471875	0.998180
754.799620	0.998354
755.127318	0.998477
755.454969	0.997308
755.782572	0.999964
756.110129	0.997017
756.437638	0.999351
756.765100	0.998144
757.092515	0.997560
757.419882	0.998526
757.747203	0.997567
758.074477	0.997532
758.401703	0.997780
758.728882	0.998231
759.056014	0.997502
759.383099	0.998141
759.710138	0.997709
760.037129	0.998299
760.364073	0.998065
760.690970	0.997756
761.017820	0.996856
761.344623	0.997964
761.671379	0.997692
761.998088	0.997355
762.324751	0.997811
762.651366	0.996218
762.977935	0.996425
763.304456	0.997141
763.630931	0.996183
763.957359	0.995489
764.283740	0.996289
764.610074	0.997095
764.936362	0.996681
765.262602	0.997460
765.588796	0.998057
765.914943	0.996911
766.241044	0.998767
766.567097	0.997405
766.893104	0.997891
767.219064	0.996073
767.544978	0.997550
767.870845	0.998235
768.196665	0.997995
768.522438	0.998232
768.848165	0.998649
769.173846	0.997955
769.499479	0.998383
769.825066	0.999664
770.150607	0.999702
770.476101	0.998311
770.801548	0.999093
771.126949	0.999946
771.452303	0.997604
771.777611	0.997792
772.102872	0.998079
772.428087	0.998399
772.753256	0.999259
773.078378	0.998711
773.403453	0.998048
773.728482	0.999131
774.053465	0.997906
774.378401	0.998405
774.703291	0.998925
775.028135	0.999696
775.352932	0.997275
775.677683	0.998649
776.002388	0.998605
776.327046	0.997602
776.651658	0.999992
776.976224	0.998333
777.300743	0.999030
777.625216	0.997851
777.949643	0.997967
778.274024	0.998203
778.598359	0.999396
778.922647	0.998059
779.246889	0.998847
779.571086	0.998708
779.895236	0.997770
780.219339	0.999608
780.543397	0.998301
780.867409	0.999577
781.191374	0.998771
781.515294	0.999327
781.839167	0.999660
782.162995	0.998982
782.486776	0.997788
782.810511	0.999380
783.134201	0.998890
783.457844	0.999066
783.781441	0.997918
784.104993	0.998250
784.428498	0.998272
784.751958	1.000152
785.075372	0.999010
785.398739	0.998333
785.722061	0.998801
786.045337	0.998252
786.368568	0.998067
786.691752	0.998726
787.014891	0.998445
787.337983	0.997521
787.661030	0.998073
787.984031	0.998747
788.306987	0.998769
788.629897	0.996719
788.952760	0.998104
789.275579	0.998706
789.598351	0.997769
789.921078	0.999341
790.243759	0.997846
790.566395	0.997632
790.888984	0.998626
791.211529	0.997594
791.534027	0.997629
791.856480	0.998796
792.178888	0.999125
792.501249	0.997863
792.823566	0.999069
793.145836	0.999402
793.468062	0.999052
793.790241	0.999611
794.112375	0.997655
794.434464	0.998502
794.756507	0.998982
795.078505	0.998400
795.400457	0.998999
795.722364	0.998838
796.044226	0.998415
796.366042	0.998885
796.687812	0.997749
797.009538	0.998889
797.331218	1.000449
797.652852	0.999217
797.974442	0.998347
798.295986	0.998298
798.617484	0.998251
798.938938	0.998587
799.260346	0.997848
799.581709	0.997797
799.903026	0.998869
800.224299	0.998793
800.545526	0.998174
800.866708	0.998081
801.187845	0.999286
801.508936	0.998662
801.829983	0.998305
802.150984	0.997834
802.471940	0.998811
802.792851	0.998526
803.113717	1.000094
803.434538	0.998524
803.755314	1.000075
804.076045	0.998966
804.396731	0.998496
804.717372	0.997356
805.037967	0.999232
805.358518	0.999518
805.679024	0.998418
805.999485	0.999618
806.319901	0.998439
806.640272	0.999864
806.960598	0.999219
807.280879	0.998835
807.601115	1.000175
807.921306	0.999142
808.241453	0.999276
808.561554	0.998350
808.881611	0.998390
809.201623	0.999066
809.521590	0.998291
809.841513	0.999570
810.161390	0.997842
810.481223	0.998648
810.801011	0.998688
811.120755	0.999617
811.440453	0.997284
811.760107	0.998582
812.079716	0.999552
812.399281	0.998341
812.718801	0.998775
813.038276	0.998218
813.357707	0.998591
813.677093	0.999231
813.996434	0.998929
814.315731	0.999765
814.634983	0.998777
814.954191	0.999408
815.273354	0.998512
815.592473	0.998341
815.911547	0.999441
816.230577	0.998832
816.549562	0.998773
816.868502	0.997310
817.187399	0.999946
817.506250	0.999802
817.825058	0.996821
818.143821	0.998395
818.462539	0.998080
818.781213	0.998725
819.099843	0.998336
819.418429	0.997497
819.736970	0.997985
820.055466	0.997246
820.373919	0.997151
820.692327	0.995100
821.010691	0.996824
821.329011	0.994575
821.647286	0.993136
821.965517	0.991823
822.283704	0.991499
822.601847	0.990266
822.919945	0.990236
823.237999	0.991045
823.556010	0.992178
823.873976	0.993099
824.191897	0.993746
824.509775	0.994771
824.827609	0.994382
825.145398	0.996189
825.463144	0.993289
825.780845	0.994533
826.098502	0.994943
826.416116	0.995277
826.733685	0.994159
827.051210	0.994068
827.368692	0.993166
827.686129	0.993319
828.003522	0.994474
828.320872	0.995418
828.638177	0.996432
828.955439	0.997706
829.272656	0.998866
829.589830	0.997362
829.906960	0.998207
830.224046	0.996802
830.541088	0.998236
830.858086	0.998671
831.175041	0.999218
831.491952	0.998745
831.808819	0.998553
832.125642	0.998347
832.442421	0.998266
832.759157	0.998009
833.075849	0.996421
833.392497	0.997320
833.709101	0.994800
834.025662	0.996310
834.342179	0.995273
834.658653	0.997661
834.975083	0.997816
835.291469	0.998020
835.607811	0.998008
835.924110	0.998479
836.240366	0.998468
836.556578	0.998425
836.872746	0.998493
837.188871	0.998404
837.504952	0.998278
837.820990	0.999751
838.136984	0.996989
838.452935	0.998777
838.768842	0.998689
839.084706	0.999881
839.400526	0.998637
839.716303	0.996387
840.032037	0.998486
840.347727	0.997628
840.663373	0.997411
840.978977	0.998136
841.294537	0.997706
841.610054	0.999392
841.925527	0.999443
842.240957	0.998576
842.556344	0.997721
842.871687	0.997646
843.186987	0.998956
843.502244	1.000618
843.817458	0.998584
844.132629	0.999392
844.447756	0.999250
844.762840	0.999398
845.077881	0.999979
845.392879	0.998200
845.707833	0.998112
846.022745	0.999071
846.337613	0.999822
846.652438	0.999449
846.967221	1.000103
847.281960	0.999058
847.596656	0.999853
847.911309	1.000251
848.225919	0.999949
848.540485	0.999908
848.855009	1.000224
849.169490	0.998801
849.483928	0.998689
849.798323	0.998332
850.112675	1.000720
850.426984	0.998974
850.741251	0.998817
851.055474	0.998542
851.369654	0.999904
851.683792	0.998511
851.997887	1.000330
852.311938	1.000242
852.625947	0.999448
852.939914	0.998467
853.253837	1.000265
853.567718	0.999598
853.881555	0.999429
854.195350	0.999034
854.509103	0.998891
854.822812	0.999761
855.136479	0.999375
855.450103	1.000295
855.763685	0.999496
856.077224	0.998890
856.390720	0.999282
856.704173	1.000412
857.017584	0.999676
857.330953	0.998936
857.644278	0.999974
857.957561	1.000445
858.270802	0.999092
858.584000	0.999614
858.897155	0.999255
859.210268	1.000186
859.523339	1.000484
859.836367	0.999252
860.149352	0.999670
860.462295	0.999807
860.775195	1.000171
861.088054	0.997764
861.400869	0.999813
861.713642	0.999244
862.026373	0.999664
862.339062	1.000420
862.651708	0.999589
862.964312	1.000176
863.276873	0.998797
863.589392	0.999621
863.901869	0.999271
864.214303	0.999690
864.526696	0.999289
864.839045	0.999125
865.151353	0.998952
865.463619	0.998587
865.775842	0.999431
866.088023	1.000742
866.400162	0.999551
866.712258	0.999540
867.024313	1.000068
867.336325	0.999468
867.648296	0.999300
867.960224	0.998644
868.272110	0.999606
868.583954	0.999771
868.895755	1.000110
869.207515	0.998620
869.519233	0.999243
869.830909	0.998787
870.142542	0.998165
870.454134	0.999169
870.765684	0.998231
871.077191	0.998583
871.388657	0.999545
871.700081	0.999220
872.011463	0.999359
872.322803	0.999832
872.634101	0.998018
872.945357	0.999122
873.256571	0.998324
873.567744	0.999598
873.878874	0.998841
874.189963	0.999095
874.501010	1.001192
874.812015	0.998941
875.122979	1.000726
875.433900	0.998353
875.744780	0.999582
876.055618	0.997572
876.366415	0.998405
876.677169	0.998895
876.987882	0.998517
877.298554	1.000080
877.609183	0.999436
877.919771	0.999543
878.230317	0.999560
878.540822	0.997991
878.851285	0.998916
879.161707	0.998706
879.472087	0.999659
879.782425	0.996539
880.092722	0.996886
880.402977	0.995039
880.713191	0.993321
881.023363	0.992959
881.333494	0.991474
881.643583	0.992186
881.953631	0.991627
882.263637	0.991525
882.573602	0.992173
882.883526	0.992362
883.193408	0.994331
883.503248	0.993805
883.813048	0.994971
884.122806	0.995899
884.432522	0.994919
884.742197	0.996806
885.051831	0.998246
885.361424	0.997605
885.670975	0.999190
885.980485	0.996961
886.289954	0.997543
886.599382	0.996747
886.908768	0.998749
887.218113	0.997744
887.527417	0.999230
887.836680	0.998498
888.145901	0.999466
888.455082	0.999950
888.764221	1.000415
889.073319	0.999747
889.382376	1.000007
889.691392	0.998346
890.000366	1.000301
890.309300	0.998258
890.618193	0.998998
890.927044	0.998996
891.235855	0.998762
891.544625	0.999064
891.853353	0.998150
892.162041	0.998990
892.470687	0.999094
892.779293	0.998503
893.087858	0.997455
893.396381	0.998177
893.704864	0.997411
894.013306	0.996816
894.321707	0.997211
894.630068	0.995037
894.938387	0.995268
895.246665	0.995351
895.554903	0.995588
895.863100	0.995904
896.171256	0.996745
896.479371	0.997243
896.787446	0.997010
897.095480	0.997706
897.403473	0.998200
897.711425	0.998774
898.019336	0.998616
898.327207	0.998762
898.635038	0.997695
898.942827	0.999487
899.250576	0.997698
899.558284	0.998527
899.865952	0.998246
900.173579	0.998258
900.481165	0.998898
900.788711	0.998052
901.096216	0.998994
901.403681	1.000132
901.711105	0.998923
902.018489	0.999096
902.325832	0.998495
902.633135	0.998912
902.940397	0.999471
903.247619	0.997355
903.554800	0.997082
903.861941	0.997802
904.169041	0.995895
904.476101	0.994476
904.783121	0.995460
905.090100	0.995376
905.397039	0.995199
905.703938	0.996230
906.010796	0.995988
906.317614	0.997510
906.624391	0.998219
906.931129	0.998821
907.237826	0.999842
907.544483	0.998386
907.851099	0.998513
908.157675	0.998410
908.464211	0.999176
908.770707	0.997163
909.077163	0.999794
909.383578	0.999025
909.689954	0.998094
909.996289	0.998804
910.302584	0.998887
910.608839	1.001194
910.915054	0.999429
911.221229	0.999789
911.527363	0.998204
911.833458	0.998494
912.139513	0.998333
912.445527	1.000003
912.751502	0.999697
913.057436	0.998838
913.363331	1.000051
913.669186	0.999746
913.975000	0.999828
914.280775	0.998245
914.586510	0.998200
914.892205	0.998023
915.197859	0.997262
915.503475	0.997121
915.809050	0.995479
916.114585	0.993427
916.420081	0.995400
916.725536	0.996044
917.030952	0.994774
917.336328	0.995264
917.641665	0.993921
917.946961	0.994917
918.252218	0.996357
918.557435	0.996278
918.862612	0.998101
919.167750	0.997913
919.472848	0.998270
919.777906	0.999254
920.082925	0.998588
920.387904	0.998918
920.692843	0.998422
920.997743	0.998134
921.302603	0.999903
921.607423	0.998043
921.912204	0.998662
922.216946	0.999020
922.521647	0.998492
922.826310	0.999239
923.130932	0.999871
923.435516	0.999116
923.740059	0.998342
924.044564	0.999617
924.349028	0.999702
924.653454	0.998858
924.957840	0.998940
925.262186	0.998667
925.566493	0.998705
925.870761	1.000476
926.174989	0.998676
926.479178	1.000455
926.783328	0.999007
927.087438	1.000112
927.391509	0.997882
927.695541	0.999617
927.999533	1.000571
928.303486	0.998817
928.607400	0.999411
928.911275	0.999634
929.215110	0.999915
929.518906	1.000033
929.822663	1.000021
930.126381	1.000626
930.430060	0.999398
930.733699	1.000278
931.037299	1.000141
931.340861	1.000187
931.644383	0.998820
931.947866	0.999891
932.251309	1.000589
932.554714	0.999271
932.858080	1.000109
933.161407	1.000601
933.464694	0.999689
933.767943	1.001389
934.071153	1.000263
934.374323	0.999965
934.677455	0.997797
934.980548	1.000195
935.283602	1.000369
935.586617	0.999824
935.889593	1.000740
936.192530	0.999842
936.495428	1.000355
936.798287	0.998595
937.101108	0.999239
937.403890	0.999182
937.706632	1.000413
938.009336	0.999421
938.312002	0.999397
938.614628	0.999551
938.917216	0.999835
939.219765	0.999187
939.522275	1.000442
939.824747	0.999686
940.127179	0.999139
940.429573	1.001739
940.731929	0.998888
941.034246	0.998696
941.336524	0.997824
941.638763	1.000012
941.940964	0.998458
942.243126	0.999107
942.545250	1.000611
942.847335	0.999980
943.149381	1.000697
943.451389	0.998773
943.753359	0.998919
944.055290	1.000494
944.357182	0.999289
944.659036	1.000060
944.960851	1.000690
945.262628	0.999798
945.564367	0.999470
945.866067	0.998667
946.167729	0.999004
946.469352	1.000684
946.770937	0.998135
947.072484	0.999863
947.373992	0.998865
947.675462	0.999020
947.976893	0.999582
948.278286	1.000966
948.579641	1.000240
948.880958	0.999961
949.182236	0.998957
949.483476	1.000287
949.784678	1.000412
950.085841	0.999923
950.386967	0.998639
950.688054	0.998862
950.989103	0.997915
951.290114	0.999229
951.591087	1.000234
951.892021	0.998720
952.192917	1.000200
952.493776	0.998987
952.794596	0.999968
953.095378	0.999024
953.396122	0.999505
953.696828	1.000523
953.997496	1.000289
954.298126	0.999726
954.598718	1.000107
954.899272	0.999894
955.199788	0.999170
955.500266	1.000712
955.800706	0.999014
956.101108	0.999008
956.401472	1.001972
956.701798	0.998230
957.002087	0.999256
957.302337	0.998895
957.602550	1.000497
957.902724	0.999684
958.202861	0.998972
958.502960	0.998064
958.803022	1.000109
959.103045	0.999415
959.403031	1.000128
959.702979	1.001014
960.002889	1.000173
960.302762	0.999683
960.602596	1.000996
960.902393	0.999892
961.202153	1.001086
961.501875	1.000234
961.801559	1.000001
962.101205	0.998626
962.400814	1.001089
962.700385	1.000846
962.999918	1.000045
963.299414	0.999232
963.598873	0.999661
963.898293	1.000347
964.197677	0.999717
964.497022	1.000515
964.796331	0.999088
965.095601	1.001165
965.394835	0.999076
965.694030	1.000579
965.993189	0.999507
966.292309	1.000556
966.591393	0.997989
966.890439	1.000498
967.189447	0.998741
967.488419	1.001450
967.787353	0.999883
968.086249	1.000422
968.385108	1.000004
968.683930	1.000488
968.982714	1.000523
969.281462	0.999694
969.580172	0.999579
969.878844	1.001332
970.177480	0.999704
970.476078	1.000036
970.774639	1.000921
971.073162	0.999604
971.371649	0.999912
971.670098	0.999542
971.968510	1.000156
972.266885	0.999855
972.565223	1.000396
972.863524	0.999415
973.161788	0.999129
973.460014	1.000245
973.758204	0.998892
974.056356	1.000533
974.354471	1.000698
974.652550	1.000687
974.950591	0.999394
975.248595	0.999721
975.546563	1.000315
975.844493	0.999243
976.142386	1.000213
976.440243	1.000483
976.738062	1.001552
977.035845	0.999271
977.333590	1.000124
977.631299	0.999780
977.928971	1.000210
978.226606	1.000207
978.524204	0.999605
978.821765	1.000816
979.119290	1.000879
979.416777	1.000737
979.714228	1.000022
980.011642	1.001003
980.309020	0.999669
980.606360	0.999695
980.903664	0.999119
981.200931	1.000151
981.498162	0.999698
981.795356	0.999047
982.092513	1.000242
982.389633	1.000673
982.686717	0.999423
982.983764	0.999784
983.280775	1.000490
983.577749	1.000673
983.874686	0.999367
984.171587	0.999258
984.468451	0.999757
984.765279	1.000881
985.062070	1.000336
985.358824	0.999246
985.655543	0.999871
985.952224	1.001604
986.248869	0.999264
986.545478	1.001689
986.842050	0.998530
987.138586	0.999251
987.435086	0.999413
987.731549	1.000198
988.027975	1.000719
988.324366	1.000110
988.620719	1.001013
988.917037	0.999921
989.213318	0.999986
989.509563	1.000445
989.805772	1.000560
990.101944	0.999202
990.398080	0.999799
990.694180	1.000282
990.990244	0.999708
991.286271	0.999825
991.582262	1.000946
991.878217	0.999963
992.174136	1.000656
992.470019	0.999122
992.765865	1.000198
993.061676	0.999967
993.357450	1.000395
993.653188	1.000817
993.948890	0.999486
994.244556	0.999826
994.540186	1.000557
994.835780	0.999583
995.131337	1.000431
995.426859	1.000008
995.722345	0.999637
996.017795	0.999769
996.313208	1.000965
996.608586	0.999302
996.903928	1.000927
997.199234	1.000499
997.494504	1.000820
997.789738	0.998908
998.084936	1.000725
998.380099	1.000194
998.675225	1.001153
998.970316	1.000239
999.265371	1.000135
999.560390	1.000052
999.855373	1.000323
1000.150320	1.000534
1000.445232	1.000191
1000.740108	1.000088
1001.034948	0.999841
1001.329752	1.000048
1001.624521	0.999520
1001.919254	0.999197
1002.213951	0.999922
1002.508613	1.000285
1002.803239	0.999331
1003.097829	1.001030
1003.392384	0.999956
1003.686903	1.000809
1003.981386	1.000484
1004.275834	1.001841
1004.570246	0.999345
1004.864623	0.999137
1005.158964	1.000969
1005.453270	0.999911
1005.747540	1.000142
1006.041775	1.001115
1006.335974	1.000573
1006.630138	1.000386
1006.924266	1.000201
1007.218359	0.998203
1007.512416	1.001608
1007.806438	0.998907
1008.100425	0.998639
1008.394376	1.001216
1008.688292	0.998443
1008.982172	0.999309
1009.276017	1.000450
1009.569827	1.001661
1009.863602	0.998866
1010.157341	1.000797
1010.451045	1.000568
1010.744714	1.001595
1011.038347	1.001033
1011.331945	1.000100
1011.625508	1.000207
1011.919036	0.999508
1012.212528	1.001007
1012.505986	0.998922
1012.799408	1.000907
1013.092795	0.999550
1013.386147	0.999891
1013.679464	1.002078
1013.972745	1.000251
1014.265992	0.999486
1014.559204	1.000391
1014.852380	1.000739
1015.145521	1.000548
1015.438628	0.999946
1015.731699	0.999622
1016.024736	1.000122
1016.317737	0.999942
1016.610703	1.001608
1016.903635	0.999442
1017.196531	1.000384
1017.489393	0.999391
1017.782219	0.999609
1018.075011	0.999312
1018.367768	0.999742
1018.660490	0.999300
1018.953177	0.999300
1019.245829	0.999300
