Dividing Wavelength (nm)	Counts (n)	Blue Motor Position (mm): 23.300000	Red Motor Position (mm): 0.000000	
326.493990	1.001281
326.888308	1.001281
327.282561	1.001281
327.676750	1.002611
328.070874	1.003009
328.464933	1.002413
328.858929	1.003023
329.252859	1.002295
329.646726	1.002099
330.040528	1.001031
330.434265	1.001287
330.827938	1.000515
331.221547	1.001777
331.615091	1.002217
332.008571	1.003780
332.401986	1.000970
332.795338	1.000651
333.188625	1.001673
333.581847	1.001406
333.975006	1.001408
334.368100	1.001855
334.761129	1.000896
335.154095	1.001497
335.546996	1.002767
335.939833	0.998324
336.332606	1.000051
336.725315	0.998927
337.117960	0.999356
337.510540	0.998757
337.903056	0.998988
338.295508	1.000605
338.687896	1.000378
339.080220	0.999711
339.472480	0.999725
339.864676	1.000056
340.256807	0.998332
340.648875	1.000245
341.040879	0.998678
341.432818	1.001527
341.824694	0.999290
342.216506	1.000575
342.608253	1.000032
342.999937	0.998867
343.391557	0.998536
343.783113	1.000455
344.174605	0.999866
344.566033	0.998887
344.957397	1.001196
345.348697	0.999803
345.739934	1.000013
346.131106	0.999298
346.522215	0.999013
346.913260	0.999914
347.304241	0.999358
347.695159	0.999515
348.086012	0.999212
348.476802	0.999353
348.867528	0.999417
349.258191	1.000088
349.648789	0.998933
350.039324	0.998426
350.429796	0.998607
350.820203	0.998684
351.210548	0.998919
351.600828	0.997829
351.991045	0.998720
352.381198	0.999615
352.771288	0.999718
353.161314	0.999680
353.551276	0.998364
353.941175	0.997783
354.331010	0.999575
354.720782	0.998988
355.110490	0.999379
355.500135	0.999343
355.889717	0.997782
356.279235	0.998286
356.668689	0.998946
357.058080	0.998059
357.447408	0.997566
357.836672	0.997490
358.225873	0.999267
358.615010	0.999350
359.004084	0.996960
359.393095	0.997615
359.782043	0.997836
360.170927	0.998833
360.559748	0.997502
360.948505	0.998452
361.337199	0.997144
361.725830	0.997722
362.114398	0.998134
362.502903	0.997044
362.891344	0.997015
363.279722	0.997403
363.668037	0.997895
364.056289	0.997818
364.444478	0.998891
364.832603	0.998316
365.220665	0.998115
365.608665	0.997473
365.996601	0.996781
366.384474	0.996840
366.772284	0.996888
367.160031	0.995396
367.547715	0.995246
367.935336	0.995337
368.322893	0.994227
368.710388	0.991901
369.097820	0.991143
369.485189	0.989367
369.872495	0.987537
370.259738	0.984878
370.646918	0.982249
371.034035	0.980462
371.421090	0.976779
371.808081	0.972366
372.195010	0.970267
372.581875	0.964768
372.968678	0.959393
373.355418	0.956079
373.742096	0.948985
374.128710	0.943877
374.515262	0.938500
374.901751	0.934235
375.288177	0.929767
375.674540	0.922444
376.060841	0.917241
376.447079	0.909593
376.833254	0.903036
377.219367	0.898588
377.605417	0.886811
377.991404	0.884141
378.377329	0.876453
378.763191	0.871406
379.148991	0.862046
379.534727	0.854054
379.920402	0.845134
380.306013	0.842058
380.691563	0.829773
381.077049	0.822588
381.462474	0.818550
381.847835	0.807921
382.233134	0.801943
382.618371	0.803476
383.003545	0.785750
383.388657	0.784331
383.773706	0.775575
384.158693	0.771709
384.543618	0.766414
384.928480	0.758023
385.313280	0.747447
385.698017	0.747236
386.082692	0.736060
386.467305	0.734426
386.851856	0.729573
387.236344	0.723759
387.620770	0.718342
388.005133	0.712348
388.389435	0.706808
388.773674	0.704022
389.157851	0.695889
389.541965	0.693555
389.926018	0.700408
390.310008	0.686873
390.693936	0.684200
391.077802	0.676319
391.461606	0.677933
391.845348	0.667024
392.229027	0.666456
392.612645	0.665046
392.996200	0.652219
393.379694	0.644751
393.763125	0.634693
394.146494	0.639181
394.529801	0.630806
394.913047	0.621842
395.296230	0.627375
395.679351	0.619264
396.062410	0.616080
396.445408	0.618660
396.828343	0.614109
397.211217	0.609402
397.594028	0.621224
397.976778	0.611867
398.359466	0.607390
398.742092	0.603625
399.124656	0.615446
399.507158	0.603400
399.889598	0.601182
400.271977	0.592174
400.654294	0.595878
401.036549	0.595476
401.418742	0.600102
401.800874	0.585530
402.182944	0.582418
402.564952	0.573889
402.946898	0.575631
403.328783	0.576678
403.710606	0.588248
404.092367	0.562790
404.474067	0.567669
404.855705	0.566146
405.237282	0.574890
405.618797	0.561462
406.000250	0.556707
406.381642	0.547025
406.762972	0.552811
407.144240	0.550501
407.525447	0.550882
407.906593	0.542942
408.287677	0.539263
408.668700	0.547267
409.049661	0.541621
409.430560	0.535673
409.811399	0.545074
410.192176	0.526595
410.572891	0.534193
410.953545	0.522215
411.334138	0.535421
411.714669	0.527946
412.095139	0.540121
412.475547	0.523274
412.855894	0.526488
413.236180	0.525517
413.616405	0.530675
413.996568	0.520794
414.376670	0.527549
414.756711	0.532401
415.136691	0.528955
415.516609	0.520409
415.896466	0.516604
416.276262	0.513016
416.655997	0.514640
417.035670	0.496023
417.415283	0.487672
417.794834	0.492742
418.174324	0.498132
418.553753	0.506911
418.933121	0.489710
419.312428	0.484027
419.691674	0.488651
420.070859	0.477555
420.449983	0.485465
420.829045	0.474362
421.208047	0.483294
421.586988	0.476451
421.965867	0.475815
422.344686	0.464035
422.723444	0.476816
423.102141	0.493832
423.480777	0.466125
423.859352	0.487537
424.237866	0.464534
424.616319	0.465472
424.994712	0.456265
425.373044	0.466399
425.751314	0.454665
426.129524	0.471534
426.507673	0.454417
426.885762	0.447899
427.263789	0.453835
427.641756	0.462867
428.019662	0.453640
428.397508	0.453094
428.775292	0.457036
429.153016	0.449072
429.530679	0.455438
429.908282	0.448128
430.285824	0.458424
430.663305	0.437083
431.040726	0.457945
431.418086	0.457610
431.795385	0.450035
432.172624	0.449276
432.549802	0.449285
432.926920	0.447995
433.303977	0.447652
433.680974	0.444610
434.057910	0.443573
434.434786	0.442407
434.811601	0.445027
435.188355	0.427948
435.565050	0.437383
435.941683	0.438408
436.318257	0.421911
436.694770	0.423696
437.071222	0.421447
437.447614	0.425735
437.823946	0.432012
438.200218	0.421891
438.576429	0.431264
438.952580	0.424126
439.328670	0.421211
439.704700	0.427413
440.080670	0.428977
440.456580	0.410051
440.832429	0.418362
441.208218	0.428778
441.583947	0.418226
441.959616	0.417494
442.335224	0.423282
442.710773	0.413648
443.086261	0.411669
443.461689	0.425850
443.837057	0.415636
444.212365	0.405584
444.587612	0.412710
444.962800	0.402550
445.337927	0.404151
445.712995	0.430389
446.088002	0.392078
446.462949	0.402969
446.837837	0.407126
447.212664	0.396236
447.587431	0.387665
447.962139	0.358117
448.336786	0.316880
448.711374	0.327616
449.085901	0.372301
449.460369	0.376203
449.834776	0.379516
450.209124	0.358707
450.583412	0.351669
450.957640	0.344257
451.331808	0.356142
451.705917	0.379410
452.079965	0.384444
452.453954	0.372540
452.827883	0.379342
453.201752	0.374346
453.575562	0.385640
453.949311	0.374358
454.323001	0.380138
454.696632	0.375911
455.070202	0.368636
455.443713	0.360975
455.817164	0.355187
456.190556	0.351255
456.563888	0.348291
456.937160	0.345543
457.310373	0.363439
457.683526	0.362221
458.056619	0.367759
458.429653	0.368433
458.802628	0.372245
459.175542	0.366421
459.548398	0.348631
459.921194	0.341737
460.293930	0.342028
460.666607	0.319808
461.039224	0.308395
461.411782	0.304015
461.784280	0.303332
462.156719	0.307816
462.529099	0.312633
462.901419	0.328984
463.273680	0.333964
463.645882	0.333477
464.018024	0.339953
464.390106	0.333307
464.762130	0.318155
465.134094	0.302506
465.505999	0.272707
465.877845	0.244247
466.249631	0.231820
466.621358	0.239539
466.993026	0.254103
467.364634	0.260704
467.736184	0.270424
468.107674	0.280431
468.479105	0.280432
468.850477	0.287950
469.221790	0.295873
469.593043	0.306850
469.964238	0.312909
470.335373	0.313428
470.706449	0.312936
471.077467	0.315102
471.448425	0.280209
471.819324	0.257964
472.190164	0.258782
472.560945	0.288121
472.931667	0.311800
473.302330	0.317401
473.672934	0.330487
474.043479	0.321147
474.413965	0.324664
474.784393	0.331077
475.154761	0.328039
475.525070	0.327894
475.895321	0.335423
476.265513	0.332657
476.635645	0.330469
477.005719	0.333854
477.375734	0.333282
477.745691	0.329323
478.115588	0.329773
478.485427	0.327182
478.855207	0.319188
479.224928	0.308230
479.594591	0.300701
479.964194	0.307025
480.333739	0.310481
480.703226	0.316325
481.072653	0.319271
481.442022	0.321526
481.811333	0.322210
482.180584	0.329380
482.549777	0.338980
482.918912	0.346392
483.287988	0.351534
483.657005	0.355783
484.025964	0.366696
484.394864	0.368678
484.763706	0.374970
485.132489	0.383809
485.501213	0.390157
485.869879	0.393293
486.238487	0.403450
486.607036	0.406086
486.975527	0.416902
487.343959	0.418708
487.712333	0.425010
488.080648	0.431195
488.448905	0.437905
488.817104	0.444104
489.185244	0.446518
489.553326	0.451564
489.921350	0.451247
490.289315	0.445549
490.657222	0.447396
491.025070	0.456127
491.392861	0.463599
491.760593	0.475046
492.128267	0.486102
492.495883	0.496383
492.863440	0.508007
493.230939	0.519927
493.598380	0.527773
493.965763	0.537580
494.333088	0.543848
494.700354	0.553515
495.067563	0.558390
495.434713	0.568574
495.801805	0.573976
496.168839	0.581954
496.535815	0.591064
496.902733	0.597102
497.269593	0.606186
497.636395	0.610997
498.003139	0.619958
498.369825	0.627396
498.736453	0.633308
499.103023	0.640398
499.469535	0.647671
499.835989	0.654464
500.202385	0.662457
500.568723	0.670634
500.935003	0.674016
501.301226	0.686167
501.667390	0.688388
502.033497	0.695834
502.399546	0.703010
502.765537	0.711413
503.131470	0.717774
503.497345	0.723497
503.863163	0.732266
504.228923	0.737060
504.594625	0.742651
504.960269	0.751518
505.325856	0.756321
505.691385	0.764001
506.056856	0.768096
506.422270	0.775262
506.787625	0.781215
507.152924	0.786973
507.518164	0.791957
507.883347	0.798825
508.248472	0.804671
508.613540	0.808536
508.978550	0.815539
509.343503	0.820752
509.708398	0.825682
510.073236	0.830272
510.438016	0.834705
510.802738	0.840269
511.167403	0.845062
511.532010	0.851279
511.896561	0.854280
512.261053	0.858195
512.625488	0.864004
512.989866	0.868166
513.354186	0.872721
513.718449	0.877726
514.082655	0.880738
514.446803	0.885747
514.810894	0.889269
515.174927	0.893887
515.538904	0.898325
515.902822	0.901435
516.266684	0.904684
516.630488	0.908725
516.994235	0.911591
517.357925	0.915354
517.721558	0.917995
518.085133	0.920494
518.448651	0.924092
518.812112	0.926863
519.175516	0.930330
519.538863	0.932549
519.902152	0.935436
520.265385	0.937961
520.628560	0.939855
520.991678	0.943004
521.354739	0.945713
521.717743	0.947343
522.080690	0.949192
522.443580	0.951992
522.806413	0.953231
523.169189	0.956320
523.531908	0.957128
523.894569	0.960077
524.257174	0.961840
524.619722	0.963179
524.982213	0.963799
525.344647	0.965734
525.707025	0.967226
526.069345	0.968044
526.431608	0.970787
526.793815	0.971622
527.155964	0.972811
527.518057	0.974520
527.880093	0.975066
528.242072	0.976124
528.603995	0.977454
528.965860	0.978566
529.327669	0.978831
529.689421	0.979922
530.051117	0.981022
530.412755	0.982164
530.774337	0.982256
531.135862	0.983418
531.497331	0.983036
531.858743	0.984728
532.220098	0.984044
532.581396	0.985720
532.942638	0.985908
533.303824	0.986814
533.664953	0.986742
534.026025	0.988688
534.387040	0.987557
534.747999	0.987993
535.108902	0.988094
535.469748	0.989253
535.830537	0.989917
536.191270	0.989764
536.551947	0.990058
536.912567	0.989192
537.273131	0.990467
537.633638	0.990531
537.994089	0.991084
538.354483	0.991507
538.714821	0.991380
539.075103	0.991835
539.435328	0.992333
539.795497	0.991772
540.155609	0.992117
540.515665	0.991926
540.875665	0.991933
541.235609	0.992709
541.595496	0.992080
541.955328	0.992807
542.315102	0.993687
542.674821	0.993825
543.034483	0.993442
543.394090	0.992832
543.753640	0.993171
544.113134	0.992832
544.472571	0.994020
544.831953	0.993134
545.191278	0.993787
545.550548	0.993350
545.909761	0.993304
546.268918	0.994734
546.628019	0.994224
546.987064	0.994285
547.346053	0.993430
547.704986	0.993511
548.063863	0.994128
548.422684	0.994348
548.781449	0.993741
549.140158	0.994750
549.498811	0.993697
549.857408	0.993999
550.215949	0.993628
550.574434	0.994033
550.932864	0.994560
551.291237	0.993280
551.649555	0.995447
552.007817	0.994663
552.366022	0.995547
552.724173	0.994796
553.082267	0.994185
553.440305	0.994431
553.798288	0.993835
554.156215	0.994323
554.514086	0.994803
554.871902	0.994027
555.229661	0.993805
555.587365	0.994669
555.945014	0.995357
556.302606	0.993896
556.660143	0.995451
557.017625	0.995398
557.375050	0.994128
557.732421	0.994813
558.089735	0.994209
558.446994	0.994669
558.804197	0.995156
559.161345	0.994389
559.518437	0.994484
559.875474	0.994878
560.232455	0.994673
560.589381	0.995251
560.946251	0.994121
561.303065	0.995196
561.659825	0.994206
562.016528	0.995537
562.373177	0.995183
562.729770	0.994804
563.086307	0.994536
563.442789	0.994672
563.799216	0.994629
564.155587	0.995103
564.511904	0.995509
564.868164	0.994287
565.224370	0.995049
565.580520	0.995198
565.936615	0.994952
566.292654	0.994924
566.648638	0.995296
567.004567	0.994507
567.360441	0.995050
567.716260	0.995631
568.072023	0.993946
568.427732	0.994611
568.783385	0.994799
569.138982	0.994836
569.494525	0.994854
569.850013	0.995428
570.205445	0.996268
570.560823	0.995246
570.916145	0.995039
571.271412	0.995217
571.626625	0.995134
571.981782	0.994638
572.336884	0.995388
572.691931	0.995016
573.046923	0.995869
573.401860	0.994586
573.756743	0.995418
574.111570	0.995349
574.466342	0.995326
574.821059	0.995005
575.175722	0.996203
575.530330	0.994675
575.884882	0.994937
576.239380	0.995690
576.593823	0.994828
576.948211	0.995353
577.302544	0.995008
577.656823	0.995541
578.011047	0.994681
578.365216	0.995910
578.719330	0.995210
579.073389	0.994552
579.427394	0.994761
579.781344	0.995237
580.135239	0.994675
580.489080	0.995175
580.842866	0.995193
581.196597	0.994638
581.550273	0.994751
581.903895	0.995351
582.257463	0.995290
582.610975	0.994366
582.964434	0.995213
583.317837	0.995183
583.671186	0.994669
584.024481	0.995021
584.377721	0.994399
584.730906	0.995212
585.084037	0.996168
585.437113	0.995745
585.790135	0.995176
586.143103	0.995453
586.496016	0.994887
586.848874	0.995015
587.201679	0.994973
587.554428	0.994752
587.907124	0.995415
588.259765	0.995179
588.612352	0.995796
588.964884	0.995227
589.317362	0.995347
589.669786	0.994467
590.022155	0.994895
590.374470	0.994761
590.726731	0.994885
591.078937	0.995632
591.431090	0.994977
591.783188	0.995016
592.135232	0.995980
592.487222	0.995412
592.839157	0.994690
593.191038	0.994773
593.542866	0.995261
593.894639	0.994730
594.246358	0.995191
594.598022	0.995861
594.949633	0.995569
595.301190	0.995509
595.652692	0.995478
596.004141	0.994148
596.355535	0.994891
596.706876	0.996047
597.058162	0.995272
597.409395	0.994898
597.760573	0.994945
598.111698	0.995426
598.462768	0.994990
598.813785	0.994726
599.164748	0.995031
599.515657	0.995198
599.866511	0.995614
600.217312	0.995294
600.568060	0.994253
600.918753	0.995038
601.269392	0.995544
601.619978	0.994907
601.970510	0.994676
602.320988	0.994865
602.671412	0.994825
603.021783	0.994898
603.372100	0.995328
603.722363	0.995316
604.072572	0.995386
604.422728	0.995273
604.772830	0.994562
605.122878	0.995632
605.472872	0.995983
605.822813	0.995026
606.172701	0.995211
606.522534	0.995054
606.872314	0.996121
607.222041	0.995182
607.571714	0.994681
607.921333	0.995355
608.270899	0.995005
608.620411	0.995198
608.969870	0.995804
609.319276	0.995072
609.668627	0.995860
610.017926	0.995242
610.367171	0.994741
610.716362	0.995485
611.065500	0.994819
611.414585	0.995603
611.763616	0.994696
612.112594	0.995147
612.461518	0.994085
612.810389	0.994894
613.159207	0.995110
613.507971	0.994195
613.856682	0.995736
614.205340	0.995055
614.553945	0.994568
614.902496	0.994694
615.250994	0.995225
615.599439	0.994889
615.947830	0.994732
616.296169	0.994662
616.644454	0.994977
616.992686	0.994912
617.340864	0.995297
617.688990	0.994585
618.037063	0.994844
618.385082	0.994811
618.733048	0.993850
619.080961	0.994228
619.428821	0.995177
619.776628	0.994809
620.124382	0.996497
620.472083	0.995075
620.819731	0.995506
621.167326	0.995259
621.514868	0.994749
621.862357	0.995270
622.209793	0.995553
622.557176	0.994180
622.904506	0.993852
623.251783	0.995403
623.599007	0.995446
623.946179	0.993760
624.293297	0.995662
624.640363	0.996008
624.987376	0.994326
625.334336	0.994949
625.681243	0.995636
626.028097	0.995038
626.374899	0.994709
626.721647	0.995232
627.068343	0.995275
627.414987	0.994314
627.761577	0.994412
628.108115	0.994682
628.454600	0.995797
628.801032	0.995415
629.147412	0.995468
629.493739	0.995863
629.840014	0.994867
630.186236	0.994956
630.532405	0.995049
630.878521	0.994688
631.224585	0.995362
631.570597	0.994448
631.916556	0.995303
632.262462	0.993825
632.608316	0.995130
632.954117	0.993406
633.299866	0.995010
633.645562	0.995066
633.991206	0.995130
634.336797	0.994215
634.682336	0.995300
635.027823	0.995123
635.373257	0.995005
635.718639	0.995586
636.063968	0.994278
636.409245	0.995068
636.754470	0.994520
637.099642	0.995600
637.444762	0.995068
637.789829	0.994390
638.134845	0.995111
638.479808	0.995342
638.824719	0.995158
639.169577	0.995409
639.514383	0.995830
639.859137	0.995644
640.203839	0.994982
640.548489	0.995430
640.893086	0.994243
641.237632	0.995564
641.582125	0.994664
641.926566	0.996083
642.270955	0.995017
642.615292	0.995210
642.959576	0.996250
643.303809	0.996003
643.647990	0.995635
643.992118	0.995066
644.336195	0.995791
644.680219	0.994598
645.024192	0.995129
645.368112	0.994620
645.711981	0.995175
646.055797	0.994977
646.399562	0.994874
646.743274	0.995366
647.086935	0.995106
647.430544	0.994798
647.774101	0.994527
648.117606	0.995759
648.461059	0.995729
648.804460	0.995043
649.147810	0.994274
649.491108	0.994323
649.834354	0.994047
650.177548	0.994669
650.520690	0.994642
650.863781	0.993976
651.206820	0.994746
651.549807	0.995668
651.892742	0.995006
652.235626	0.994608
652.578458	0.995168
652.921238	0.996181
653.263967	0.995337
653.606644	0.994924
653.949269	0.995499
654.291843	0.995086
654.634365	0.995414
654.976836	0.995419
655.319255	0.995600
655.661622	0.994902
656.003938	0.995363
656.346203	0.995318
656.688416	0.996212
657.030577	0.995137
657.372687	0.995369
657.714746	0.994419
658.056753	0.994378
658.398708	0.995678
658.740612	0.995544
659.082465	0.995589
659.424266	0.995169
659.766016	0.993917
660.107715	0.994977
660.449362	0.995018
660.790958	0.994819
661.132503	0.995840
661.473996	0.995014
661.815438	0.995379
662.156829	0.994302
662.498168	0.995422
662.839456	0.994181
663.180693	0.995720
663.521879	0.995310
663.863013	0.995797
664.204097	0.995073
664.545129	0.994736
664.886110	0.994839
665.227040	0.995309
665.567918	0.995071
665.908746	0.994275
666.249522	0.994374
666.590248	0.994811
666.930922	0.994980
667.271545	0.994490
667.612118	0.994377
667.952639	0.994605
668.293109	0.994456
668.633528	0.994533
668.973896	0.995103
669.314213	0.994312
669.654480	0.994785
669.994695	0.994096
670.334859	0.994435
670.674973	0.994493
671.015035	0.995277
671.355047	0.994933
671.695008	0.995163
672.034918	0.994392
672.374777	0.994606
672.714585	0.994445
673.054342	0.995871
673.394049	0.994659
673.733705	0.994647
674.073310	0.995276
674.412864	0.994774
674.752368	0.994068
675.091820	0.995721
675.431223	0.995115
675.770574	0.993960
676.109875	0.994825
676.449125	0.994307
676.788324	0.994952
677.127473	0.995324
677.466571	0.994756
677.805619	0.995448
678.144616	0.996078
678.483562	0.995455
678.822458	0.995000
679.161303	0.993861
679.500098	0.995091
679.838842	0.995372
680.177535	0.994774
680.516179	0.994552
680.854771	0.995062
681.193314	0.994293
681.531805	0.994326
681.870247	0.994199
682.208638	0.994288
682.546978	0.993985
682.885268	0.993723
683.223508	0.994146
683.561697	0.994358
683.899836	0.994691
684.237925	0.994547
684.575963	0.994931
684.913951	0.994722
685.251889	0.994699
685.589776	0.993644
685.927614	0.994355
686.265401	0.994350
686.603137	0.994161
686.940824	0.994096
687.278460	0.995098
687.616046	0.994152
687.953582	0.994200
688.291068	0.994384
688.628504	0.993513
688.965889	0.993758
689.303224	0.992124
689.640510	0.994144
689.977745	0.994044
690.314930	0.993828
690.652065	0.995027
690.989150	0.994739
691.326185	0.993954
691.663170	0.993977
692.000105	0.994174
692.336990	0.994526
692.673825	0.994229
693.010610	0.994754
693.347345	0.994551
693.684030	0.994485
694.020665	0.994684
694.357251	0.994248
694.693786	0.995166
695.030272	0.994336
695.366707	0.994590
695.703093	0.994845
696.039429	0.993655
696.375716	0.994987
696.711952	0.993933
697.048139	0.994896
697.384276	0.994523
697.720363	0.995850
698.056400	0.993601
698.392388	0.994186
698.728326	0.993844
699.064214	0.995409
699.400053	0.994617
699.735842	0.995974
700.071581	0.995025
700.407270	0.994554
700.742910	0.994850
701.078501	0.994824
701.414042	0.995432
701.749533	0.993505
702.084974	0.994468
702.420366	0.994650
702.755709	0.994510
703.091002	0.995434
703.426246	0.995099
703.761440	0.994398
704.096584	0.994980
704.431679	0.994239
704.766725	0.995001
705.101721	0.995843
705.436668	0.995083
705.771565	0.994700
706.106413	0.993931
706.441212	0.995066
706.775961	0.996333
707.110661	0.994898
707.445311	0.994628
707.779913	0.996280
708.114465	0.995933
708.448967	0.995012
708.783421	0.995801
709.117825	0.994863
709.452180	0.995783
709.786485	0.994503
710.120742	0.994485
710.454949	0.993400
710.789107	0.994949
711.123216	0.993385
711.457275	0.993526
711.791286	0.994210
712.125247	0.995895
712.459159	0.992655
712.793023	0.993599
713.126837	0.994831
713.460602	0.993457
713.794318	0.993245
714.127985	0.993600
714.461602	0.994514
714.795171	0.993358
715.128691	0.993247
715.462162	0.994485
715.795584	0.994295
716.128957	0.995567
716.462281	0.994042
716.795556	0.993818
717.128782	0.995442
717.461960	0.994980
717.795088	0.994781
718.128167	0.994846
718.461198	0.994624
718.794180	0.994510
719.127113	0.995803
719.459997	0.994664
719.792833	0.995034
720.125619	0.993887
720.458357	0.994808
720.791046	0.996096
721.123686	0.995585
721.456278	0.995173
721.788821	0.994704
722.121315	0.995932
722.453761	0.994746
722.786158	0.995069
723.118506	0.995180
723.450805	0.994286
723.783056	0.994747
724.115259	0.994531
724.447412	0.995668
724.779518	0.994916
725.111574	0.994998
725.443582	0.995950
725.775542	0.995062
726.107453	0.995902
726.439315	0.995568
726.771129	0.995687
727.102895	0.994790
727.434612	0.994743
727.766281	0.994294
728.097901	0.994756
728.429473	0.995165
728.760996	0.994068
729.092471	0.994282
729.423897	0.994868
729.755276	0.994753
730.086606	0.994047
730.417887	0.994695
730.749120	0.994828
731.080305	0.994341
731.411442	0.993566
731.742530	0.993396
732.073570	0.993466
732.404562	0.994444
732.735506	0.994211
733.066401	0.993186
733.397249	0.994278
733.728048	0.994162
734.058798	0.994338
734.389501	0.995197
734.720156	0.995127
735.050762	0.995437
735.381320	0.995778
735.711831	0.993696
736.042293	0.994534
736.372707	0.995524
736.703073	0.994877
737.033391	0.994791
737.363661	0.995465
737.693883	0.994477
738.024056	0.994656
738.354182	0.995003
738.684260	0.994016
739.014290	0.994569
739.344272	0.994641
739.674207	0.994841
740.004093	0.995067
740.333931	0.995187
740.663722	0.994189
740.993464	0.994595
741.323159	0.993640
741.652806	0.994669
741.982405	0.994813
742.311956	0.995330
742.641460	0.994801
742.970915	0.994925
743.300323	0.994133
743.629683	0.994154
743.958996	0.996259
744.288260	0.994991
744.617477	0.995252
744.946647	0.995560
745.275768	0.995180
745.604842	0.994633
745.933869	0.995266
746.262847	0.995471
746.591778	0.994485
746.920662	0.995969
747.249498	0.995710
747.578286	0.996798
747.907027	0.995287
748.235720	0.995631
748.564365	0.995571
748.892963	0.994648
749.221514	0.995349
749.550017	0.994807
749.878473	0.995056
750.206881	0.996298
750.535242	0.994768
750.863555	0.994465
751.191821	0.994805
751.520039	0.994941
751.848210	0.994454
752.176334	0.995273
752.504411	0.994315
752.832440	0.994600
753.160421	0.995966
753.488356	0.995719
753.816243	0.995312
754.144082	0.995146
754.471875	0.995641
754.799620	0.995739
755.127318	0.995708
755.454969	0.994873
755.782572	0.996327
756.110129	0.994615
756.437638	0.996959
756.765100	0.996126
757.092515	0.995062
757.419882	0.996262
757.747203	0.994534
758.074477	0.996412
758.401703	0.995660
758.728882	0.994745
759.056014	0.995377
759.383099	0.994924
759.710138	0.994753
760.037129	0.994607
760.364073	0.995588
760.690970	0.994696
761.017820	0.994705
761.344623	0.995539
761.671379	0.995609
761.998088	0.994163
762.324751	0.995194
762.651366	0.994774
762.977935	0.992637
763.304456	0.992422
763.630931	0.990482
763.957359	0.990146
764.283740	0.991323
764.610074	0.992780
764.936362	0.993166
765.262602	0.993999
765.588796	0.994085
765.914943	0.995108
766.241044	0.995021
766.567097	0.996066
766.893104	0.995395
767.219064	0.995332
767.544978	0.994923
767.870845	0.995645
768.196665	0.995377
768.522438	0.996147
768.848165	0.995923
769.173846	0.995905
769.499479	0.996424
769.825066	0.997267
770.150607	0.997154
770.476101	0.996419
770.801548	0.996431
771.126949	0.997163
771.452303	0.996740
771.777611	0.998179
772.102872	0.996552
772.428087	0.997338
772.753256	0.996163
773.078378	0.997370
773.403453	0.997220
773.728482	0.997506
774.053465	0.995639
774.378401	0.996973
774.703291	0.997238
775.028135	0.998648
775.352932	0.996158
775.677683	0.997885
776.002388	0.997862
776.327046	0.996690
776.651658	0.998371
776.976224	0.997573
777.300743	0.996756
777.625216	0.996550
777.949643	0.997304
778.274024	0.997530
778.598359	0.998126
778.922647	0.997053
779.246889	0.996735
779.571086	0.997151
779.895236	0.997048
780.219339	0.997581
780.543397	0.996575
780.867409	0.997358
781.191374	0.996802
781.515294	0.998221
781.839167	0.997640
782.162995	0.997458
782.486776	0.996967
782.810511	0.996693
783.134201	0.998250
783.457844	0.997421
783.781441	0.998007
784.104993	0.996149
784.428498	0.997902
784.751958	0.998496
785.075372	0.996238
785.398739	0.997241
785.722061	0.997022
786.045337	0.998570
786.368568	0.995988
786.691752	0.997685
787.014891	0.997612
787.337983	0.996303
787.661030	0.996262
787.984031	0.997236
788.306987	0.997198
788.629897	0.995421
788.952760	0.996453
789.275579	0.996802
789.598351	0.996236
789.921078	0.997304
790.243759	0.996769
790.566395	0.997423
790.888984	0.996695
791.211529	0.997959
791.534027	0.997749
791.856480	0.997460
792.178888	0.998116
792.501249	0.997473
792.823566	0.998575
793.145836	0.997801
793.468062	0.997824
793.790241	0.997309
794.112375	0.997652
794.434464	0.997798
794.756507	0.998765
795.078505	0.997011
795.400457	0.998101
795.722364	0.997516
796.044226	0.997452
796.366042	0.996081
796.687812	0.996023
797.009538	0.997241
797.331218	0.997468
797.652852	0.998285
797.974442	0.996653
798.295986	0.996526
798.617484	0.996684
798.938938	0.997847
799.260346	0.996224
799.581709	0.997431
799.903026	0.997934
800.224299	0.996804
800.545526	0.997212
800.866708	0.997288
801.187845	0.998059
801.508936	0.997038
801.829983	0.997956
802.150984	0.997764
802.471940	0.998354
802.792851	0.997736
803.113717	0.998073
803.434538	0.998675
803.755314	0.999560
804.076045	0.997800
804.396731	0.997807
804.717372	0.997133
805.037967	0.999180
805.358518	0.999295
805.679024	0.997977
805.999485	0.998552
806.319901	0.997593
806.640272	0.998618
806.960598	0.998585
807.280879	0.997246
807.601115	0.998461
807.921306	0.999158
808.241453	0.996824
808.561554	0.998541
808.881611	0.997851
809.201623	0.997327
809.521590	0.997750
809.841513	0.997895
810.161390	0.997333
810.481223	0.996087
810.801011	0.998615
811.120755	0.998780
811.440453	0.996622
811.760107	0.998676
812.079716	0.997581
812.399281	0.997371
812.718801	0.997411
813.038276	0.998903
813.357707	0.997012
813.677093	0.998241
813.996434	0.997573
814.315731	0.997865
814.634983	0.998095
814.954191	0.999277
815.273354	0.996825
815.592473	0.997180
815.911547	0.998129
816.230577	0.997703
816.549562	0.998537
816.868502	0.996791
817.187399	0.998719
817.506250	0.997191
817.825058	0.996783
818.143821	0.997339
818.462539	0.997675
818.781213	0.997112
819.099843	0.996461
819.418429	0.995361
819.736970	0.996124
820.055466	0.993706
820.373919	0.993863
820.692327	0.992637
821.010691	0.992284
821.329011	0.988892
821.647286	0.986033
821.965517	0.983362
822.283704	0.979785
822.601847	0.978044
822.919945	0.978907
823.237999	0.981089
823.556010	0.981258
823.873976	0.983179
824.191897	0.985599
824.509775	0.988286
824.827609	0.989504
825.145398	0.990576
825.463144	0.989049
825.780845	0.989716
826.098502	0.989755
826.416116	0.989503
826.733685	0.986885
827.051210	0.984147
827.368692	0.985461
827.686129	0.986989
828.003522	0.989676
828.320872	0.989895
828.638177	0.992013
828.955439	0.993473
829.272656	0.994677
829.589830	0.994729
829.906960	0.995966
830.224046	0.995238
830.541088	0.996107
830.858086	0.996962
831.175041	0.998070
831.491952	0.996498
831.808819	0.995802
832.125642	0.996468
832.442421	0.996426
832.759157	0.995991
833.075849	0.993906
833.392497	0.992528
833.709101	0.990610
834.025662	0.989709
834.342179	0.990771
834.658653	0.992535
834.975083	0.993765
835.291469	0.993947
835.607811	0.995640
835.924110	0.995494
836.240366	0.997441
836.556578	0.998250
836.872746	0.997599
837.188871	0.997614
837.504952	0.997676
837.820990	0.998292
838.136984	0.997049
838.452935	0.998227
838.768842	0.998816
839.084706	0.998260
839.400526	0.998274
839.716303	0.995007
840.032037	0.994647
840.347727	0.995731
840.663373	0.995903
840.978977	0.996021
841.294537	0.997584
841.610054	0.997555
841.925527	0.998252
842.240957	0.998549
842.556344	0.999039
842.871687	0.998728
843.186987	0.999518
843.502244	0.999265
843.817458	0.998904
844.132629	0.999080
844.447756	0.998630
844.762840	1.000116
845.077881	1.000365
845.392879	0.998404
845.707833	0.999077
846.022745	1.000125
846.337613	0.999056
846.652438	0.999346
846.967221	1.000593
847.281960	0.999835
847.596656	0.999952
847.911309	1.000026
848.225919	0.998186
848.540485	0.998826
848.855009	1.000609
849.169490	1.000241
849.483928	0.998631
849.798323	0.999073
850.112675	0.999733
850.426984	1.000219
850.741251	0.999627
851.055474	0.999850
851.369654	1.000322
851.683792	0.998887
851.997887	0.999483
852.311938	1.000127
852.625947	0.998907
852.939914	0.998039
853.253837	1.001525
853.567718	1.000112
853.881555	0.998889
854.195350	0.999561
854.509103	0.999784
854.822812	1.000130
855.136479	1.000802
855.450103	1.000841
855.763685	1.000629
856.077224	1.000053
856.390720	0.999503
856.704173	1.000833
857.017584	1.000047
857.330953	0.999798
857.644278	0.998815
857.957561	0.999923
858.270802	1.000685
858.584000	0.999165
858.897155	0.999276
859.210268	1.000250
859.523339	1.000768
859.836367	0.999625
860.149352	0.999848
860.462295	0.999245
860.775195	0.999413
861.088054	0.998713
861.400869	0.999363
861.713642	0.998360
862.026373	1.001154
862.339062	1.000048
862.651708	0.999349
862.964312	0.999909
863.276873	0.998899
863.589392	0.999523
863.901869	0.998782
864.214303	1.000009
864.526696	1.000043
864.839045	0.999641
865.151353	0.999492
865.463619	0.999406
865.775842	0.999272
866.088023	0.999896
866.400162	0.999527
866.712258	1.000001
867.024313	0.999027
867.336325	1.000756
867.648296	0.999778
867.960224	1.000430
868.272110	1.000298
868.583954	0.998883
868.895755	0.999813
869.207515	0.999195
869.519233	0.999432
869.830909	0.998685
870.142542	0.998794
870.454134	0.999212
870.765684	0.998674
871.077191	1.000613
871.388657	0.999275
871.700081	0.998643
872.011463	1.000145
872.322803	0.998466
872.634101	0.998100
872.945357	0.997965
873.256571	0.998771
873.567744	0.999664
873.878874	0.999542
874.189963	0.998693
874.501010	1.000340
874.812015	0.999020
875.122979	0.999043
875.433900	0.998819
875.744780	0.999022
876.055618	0.998141
876.366415	0.997716
876.677169	0.998645
876.987882	0.998228
877.298554	0.999364
877.609183	0.998540
877.919771	0.997911
878.230317	0.998566
878.540822	0.996813
878.851285	0.997292
879.161707	0.996634
879.472087	0.998198
879.782425	0.994358
880.092722	0.993757
880.402977	0.991063
880.713191	0.987827
881.023363	0.983061
881.333494	0.981682
881.643583	0.982277
881.953631	0.981792
882.263637	0.980247
882.573602	0.981796
882.883526	0.984330
883.193408	0.985808
883.503248	0.987470
883.813048	0.988349
884.122806	0.990914
884.432522	0.990778
884.742197	0.994209
885.051831	0.993720
885.361424	0.994720
885.670975	0.995762
885.980485	0.995494
886.289954	0.996433
886.599382	0.995303
886.908768	0.997504
887.218113	0.995809
887.527417	0.997214
887.836680	0.997421
888.145901	0.998399
888.455082	0.999348
888.764221	0.998726
889.073319	0.997304
889.382376	0.998070
889.691392	0.996891
890.000366	0.999277
890.309300	0.999012
890.618193	0.998437
890.927044	0.997395
891.235855	0.997681
891.544625	0.998420
891.853353	0.998996
892.162041	0.997818
892.470687	0.997788
892.779293	0.996903
893.087858	0.995224
893.396381	0.995809
893.704864	0.995046
894.013306	0.994128
894.321707	0.992572
894.630068	0.991616
894.938387	0.990699
895.246665	0.991813
895.554903	0.991260
895.863100	0.993005
896.171256	0.993320
896.479371	0.994762
896.787446	0.994553
897.095480	0.996827
897.403473	0.996902
897.711425	0.996591
898.019336	0.997724
898.327207	0.998761
898.635038	0.996785
898.942827	0.997593
899.250576	0.996764
899.558284	0.997805
899.865952	0.996484
900.173579	0.998333
900.481165	0.998375
900.788711	0.997724
901.096216	0.997936
901.403681	0.999447
901.711105	0.997702
902.018489	0.999209
902.325832	0.998639
902.633135	0.998525
902.940397	0.997994
903.247619	0.997774
903.554800	0.995452
903.861941	0.993712
904.169041	0.990953
904.476101	0.989008
904.783121	0.988882
905.090100	0.989521
905.397039	0.990535
905.703938	0.992533
906.010796	0.993924
906.317614	0.995140
906.624391	0.996632
906.931129	0.997097
907.237826	0.998031
907.544483	0.997679
907.851099	0.997628
908.157675	0.998677
908.464211	0.999363
908.770707	0.997575
909.077163	0.999711
909.383578	0.999888
909.689954	0.997921
909.996289	0.999159
910.302584	0.999401
910.608839	1.001267
910.915054	0.999380
911.221229	1.000093
911.527363	0.999042
911.833458	0.999694
912.139513	0.999427
912.445527	1.000602
912.751502	0.999054
913.057436	0.999105
913.363331	0.999530
913.669186	0.999535
913.975000	0.998942
914.280775	0.997924
914.586510	0.995730
914.892205	0.995768
915.197859	0.994020
915.503475	0.993663
915.809050	0.991015
916.114585	0.988731
916.420081	0.989368
916.725536	0.990335
917.030952	0.990408
917.336328	0.991582
917.641665	0.991747
917.946961	0.992084
918.252218	0.992303
918.557435	0.994318
918.862612	0.994880
919.167750	0.996835
919.472848	0.996676
919.777906	0.998338
920.082925	0.998285
920.387904	0.997386
920.692843	0.997152
920.997743	0.997160
921.302603	0.998912
921.607423	0.998306
921.912204	0.999536
922.216946	0.999863
922.521647	0.999705
922.826310	0.998393
923.130932	0.999359
923.435516	1.000324
923.740059	0.999275
924.044564	0.998748
924.349028	0.999504
924.653454	0.999432
924.957840	0.999928
925.262186	0.998372
925.566493	0.999458
925.870761	0.999829
926.174989	1.000417
926.479178	1.000113
926.783328	1.001132
927.087438	0.999741
927.391509	0.999432
927.695541	0.999922
927.999533	1.001609
928.303486	1.000281
928.607400	1.001255
928.911275	1.000805
929.215110	1.002341
929.518906	1.000670
929.822663	1.001093
930.126381	1.000847
930.430060	1.001159
930.733699	1.000539
931.037299	1.000598
931.340861	1.000521
931.644383	1.000045
931.947866	1.001028
932.251309	1.000902
932.554714	0.999950
932.858080	1.000557
933.161407	0.999655
933.464694	1.000857
933.767943	1.000444
934.071153	1.001414
934.374323	1.001296
934.677455	1.000274
934.980548	1.000666
935.283602	1.001286
935.586617	1.000481
935.889593	1.001771
936.192530	1.001148
936.495428	1.000985
936.798287	0.999898
937.101108	1.000888
937.403890	1.000664
937.706632	1.001899
938.009336	0.999095
938.312002	0.999618
938.614628	1.000522
938.917216	1.000050
939.219765	0.999407
939.522275	1.000020
939.824747	1.001460
940.127179	0.999818
940.429573	1.000286
940.731929	0.999717
941.034246	1.000286
941.336524	0.998941
941.638763	0.999902
941.940964	0.999325
942.243126	0.999329
942.545250	1.000872
942.847335	0.999433
943.149381	1.000808
943.451389	0.999598
943.753359	0.999608
944.055290	1.001675
944.357182	1.000478
944.659036	1.000303
944.960851	1.000909
945.262628	1.000486
945.564367	0.999781
945.866067	1.000718
946.167729	1.000086
946.469352	1.000260
946.770937	0.999897
947.072484	1.001301
947.373992	0.999968
947.675462	0.999019
947.976893	0.999857
948.278286	1.001934
948.579641	1.001980
948.880958	1.000271
949.182236	1.000828
949.483476	1.002104
949.784678	1.000719
950.085841	1.000535
950.386967	1.000241
950.688054	1.000686
950.989103	0.999724
951.290114	0.999112
951.591087	1.000244
951.892021	1.000607
952.192917	1.000576
952.493776	1.000513
952.794596	1.000120
953.095378	1.000149
953.396122	1.000323
953.696828	0.999972
953.997496	1.000739
954.298126	1.000555
954.598718	1.000053
954.899272	1.001171
955.199788	0.999728
955.500266	1.002064
955.800706	0.999933
956.101108	1.000318
956.401472	1.002208
956.701798	1.000633
957.002087	1.000472
957.302337	1.000151
957.602550	1.000684
957.902724	1.000596
958.202861	1.001067
958.502960	1.000113
958.803022	1.001692
959.103045	1.000791
959.403031	1.002926
959.702979	1.001210
960.002889	1.000142
960.302762	1.001242
960.602596	1.000999
960.902393	1.000870
961.202153	1.002496
961.501875	1.002089
961.801559	1.002018
962.101205	1.000514
962.400814	1.002096
962.700385	1.001799
962.999918	1.001276
963.299414	1.001222
963.598873	1.002278
963.898293	1.000695
964.197677	1.000751
964.497022	1.001431
964.796331	1.000439
965.095601	1.001529
965.394835	1.000706
965.694030	1.003099
965.993189	1.001076
966.292309	1.002313
966.591393	0.999770
966.890439	1.001857
967.189447	1.001320
967.488419	1.001074
967.787353	1.000795
968.086249	1.000858
968.385108	1.001543
968.683930	1.003184
968.982714	1.000970
969.281462	1.000981
969.580172	1.000057
969.878844	1.001356
970.177480	1.001431
970.476078	1.001308
970.774639	1.001224
971.073162	1.001331
971.371649	0.999821
971.670098	1.001524
971.968510	1.002171
972.266885	1.000811
972.565223	1.000465
972.863524	0.999454
973.161788	1.000697
973.460014	1.001678
973.758204	0.999917
974.056356	1.000764
974.354471	1.001223
974.652550	1.001441
974.950591	1.000426
975.248595	1.000224
975.546563	1.001684
975.844493	1.001134
976.142386	1.000644
976.440243	1.002139
976.738062	1.001927
977.035845	0.999960
977.333590	1.002004
977.631299	1.000715
977.928971	1.000182
978.226606	1.000875
978.524204	1.001031
978.821765	1.001498
979.119290	1.002882
979.416777	1.002177
979.714228	1.000397
980.011642	1.001529
980.309020	1.001012
980.606360	1.001165
980.903664	1.001331
981.200931	1.000433
981.498162	1.001587
981.795356	1.000478
982.092513	0.999936
982.389633	1.002059
982.686717	1.000823
982.983764	0.999592
983.280775	1.000594
983.577749	1.000754
983.874686	0.999631
984.171587	0.999392
984.468451	1.001153
984.765279	1.001855
985.062070	1.000597
985.358824	1.000977
985.655543	1.002055
985.952224	1.002144
986.248869	1.000483
986.545478	1.002446
986.842050	1.001480
987.138586	1.001384
987.435086	1.000788
987.731549	1.002619
988.027975	1.000630
988.324366	1.001543
988.620719	1.001500
988.917037	1.001228
989.213318	1.001464
989.509563	1.001793
989.805772	1.000683
990.101944	1.002549
990.398080	1.001028
990.694180	1.001573
990.990244	1.000766
991.286271	1.001048
991.582262	1.002066
991.878217	1.001253
992.174136	1.001859
992.470019	1.001582
992.765865	1.002037
993.061676	1.001681
993.357450	1.001369
993.653188	1.002250
993.948890	1.002289
994.244556	1.000006
994.540186	1.001066
994.835780	1.001770
995.131337	1.001255
995.426859	1.001405
995.722345	1.001580
996.017795	1.000766
996.313208	1.000445
996.608586	1.000984
996.903928	1.001547
997.199234	1.001887
997.494504	1.001599
997.789738	1.000302
998.084936	1.002062
998.380099	1.000119
998.675225	1.002334
998.970316	1.003553
999.265371	1.001779
999.560390	1.001305
999.855373	1.001178
1000.150320	1.000713
1000.445232	1.001972
1000.740108	1.001521
1001.034948	1.000950
1001.329752	1.002922
1001.624521	1.000918
1001.919254	1.001075
1002.213951	1.001522
1002.508613	1.000684
1002.803239	1.001786
1003.097829	1.002475
1003.392384	1.000980
1003.686903	1.001853
1003.981386	1.001199
1004.275834	1.001795
1004.570246	1.000329
1004.864623	1.002748
1005.158964	1.002613
1005.453270	1.000443
1005.747540	1.001743
1006.041775	1.001638
1006.335974	1.001220
1006.630138	1.002103
1006.924266	1.000358
1007.218359	0.999543
1007.512416	1.002393
1007.806438	1.001339
1008.100425	1.001433
1008.394376	1.002480
1008.688292	0.999906
1008.982172	1.001411
1009.276017	1.002483
1009.569827	1.002148
1009.863602	0.999916
1010.157341	1.002119
1010.451045	1.001540
1010.744714	1.002706
1011.038347	1.002391
1011.331945	1.001452
1011.625508	1.003042
1011.919036	1.001315
1012.212528	1.001956
1012.505986	1.002414
1012.799408	1.001943
1013.092795	1.001403
1013.386147	1.002183
1013.679464	1.001586
1013.972745	1.001219
1014.265992	1.001246
1014.559204	1.000901
1014.852380	1.002321
1015.145521	1.001011
1015.438628	1.001716
1015.731699	1.001940
1016.024736	1.003219
1016.317737	1.001820
1016.610703	1.001618
1016.903635	1.001631
1017.196531	1.001832
1017.489393	1.001272
1017.782219	1.000445
1018.075011	1.000257
1018.367768	1.000753
1018.660490	1.002594
1018.953177	1.002594
1019.245829	1.002594
