Dividing Wavelength (nm)	Counts (n)	Blue Motor Position (mm): 32.700000	Red Motor Position (mm): 0.000000	
326.493990	1.000153
326.888308	1.000153
327.282561	1.000153
327.676750	0.999830
328.070874	1.000680
328.464933	1.001404
328.858929	1.000997
329.252859	0.999590
329.646726	1.000197
330.040528	1.000802
330.434265	1.001416
330.827938	0.999165
331.221547	1.000293
331.615091	0.999281
332.008571	1.001298
332.401986	0.999457
332.795338	0.999620
333.188625	0.999217
333.581847	0.999879
333.975006	1.000191
334.368100	1.001257
334.761129	0.998753
335.154095	1.000166
335.546996	1.000369
335.939833	0.999050
336.332606	0.999593
336.725315	0.999143
337.117960	0.999237
337.510540	0.998708
337.903056	1.000306
338.295508	1.000420
338.687896	0.999765
339.080220	0.999637
339.472480	0.998784
339.864676	1.000060
340.256807	0.998443
340.648875	0.999981
341.040879	0.998538
341.432818	0.998907
341.824694	0.998186
342.216506	1.000297
342.608253	1.000219
342.999937	0.999271
343.391557	0.999765
343.783113	1.000869
344.174605	0.999275
344.566033	0.998791
344.957397	0.999434
345.348697	1.000328
345.739934	0.999686
346.131106	0.998949
346.522215	0.998018
346.913260	0.998162
347.304241	0.997747
347.695159	0.999191
348.086012	0.999424
348.476802	0.998334
348.867528	0.998138
349.258191	0.999977
349.648789	0.998950
350.039324	0.999520
350.429796	0.998690
350.820203	0.997057
351.210548	0.999055
351.600828	0.998269
351.991045	0.998865
352.381198	0.999710
352.771288	0.998876
353.161314	0.998555
353.551276	0.998601
353.941175	0.996626
354.331010	0.998775
354.720782	0.999249
355.110490	0.997966
355.500135	0.999325
355.889717	0.998011
356.279235	0.997857
356.668689	0.998500
357.058080	0.997944
357.447408	0.997748
357.836672	0.998983
358.225873	0.996873
358.615010	0.999325
359.004084	0.996042
359.393095	0.999182
359.782043	0.997612
360.170927	0.997995
360.559748	0.998637
360.948505	0.998110
361.337199	0.997103
361.725830	0.998564
362.114398	0.997629
362.502903	0.996625
362.891344	0.996403
363.279722	0.998126
363.668037	0.998078
364.056289	0.998132
364.444478	0.997799
364.832603	0.997648
365.220665	0.997862
365.608665	0.995976
365.996601	0.997120
366.384474	0.996502
366.772284	0.996906
367.160031	0.995343
367.547715	0.994781
367.935336	0.994790
368.322893	0.993025
368.710388	0.991600
369.097820	0.991060
369.485189	0.988816
369.872495	0.987161
370.259738	0.983575
370.646918	0.982715
371.034035	0.978994
371.421090	0.977327
371.808081	0.972591
372.195010	0.969750
372.581875	0.964149
372.968678	0.959939
373.355418	0.956029
373.742096	0.949079
374.128710	0.944147
374.515262	0.939258
374.901751	0.935336
375.288177	0.928722
375.674540	0.922697
376.060841	0.916015
376.447079	0.909408
376.833254	0.902912
377.219367	0.897226
377.605417	0.887400
377.991404	0.884159
378.377329	0.877211
378.763191	0.871640
379.148991	0.862424
379.534727	0.854738
379.920402	0.846433
380.306013	0.841511
380.691563	0.829094
381.077049	0.823138
381.462474	0.819438
381.847835	0.807911
382.233134	0.802816
382.618371	0.803170
383.003545	0.786075
383.388657	0.784114
383.773706	0.775739
384.158693	0.772216
384.543618	0.766414
384.928480	0.758452
385.313280	0.748577
385.698017	0.747516
386.082692	0.736404
386.467305	0.734735
386.851856	0.729489
387.236344	0.724591
387.620770	0.718296
388.005133	0.712837
388.389435	0.707321
388.773674	0.704403
389.157851	0.695839
389.541965	0.693567
389.926018	0.701548
390.310008	0.686690
390.693936	0.684647
391.077802	0.676882
391.461606	0.677842
391.845348	0.667634
392.229027	0.666881
392.612645	0.665070
392.996200	0.652074
393.379694	0.645560
393.763125	0.634856
394.146494	0.640228
394.529801	0.630297
394.913047	0.622709
395.296230	0.628619
395.679351	0.619971
396.062410	0.616915
396.445408	0.619278
396.828343	0.614257
397.211217	0.609859
397.594028	0.621258
397.976778	0.612502
398.359466	0.609207
398.742092	0.604669
399.124656	0.616474
399.507158	0.604837
399.889598	0.602056
400.271977	0.592529
400.654294	0.597188
401.036549	0.595586
401.418742	0.600035
401.800874	0.586330
402.182944	0.582922
402.564952	0.574784
402.946898	0.576746
403.328783	0.577656
403.710606	0.588687
404.092367	0.563489
404.474067	0.569193
404.855705	0.568163
405.237282	0.576281
405.618797	0.562845
406.000250	0.558734
406.381642	0.549031
406.762972	0.554287
407.144240	0.551966
407.525447	0.552371
407.906593	0.545815
408.287677	0.541254
408.668700	0.549474
409.049661	0.543726
409.430560	0.538650
409.811399	0.548150
410.192176	0.528904
410.572891	0.536851
410.953545	0.525483
411.334138	0.539407
411.714669	0.531822
412.095139	0.544984
412.475547	0.529375
412.855894	0.532510
413.236180	0.531762
413.616405	0.537834
413.996568	0.529808
414.376670	0.536967
414.756711	0.542841
415.136691	0.541857
415.516609	0.534833
415.896466	0.533565
416.276262	0.531139
416.655997	0.535375
417.035670	0.519359
417.415283	0.514491
417.794834	0.521992
418.174324	0.529512
418.553753	0.541343
418.933121	0.527124
419.312428	0.524539
419.691674	0.533604
420.070859	0.526293
420.449983	0.537733
420.829045	0.530980
421.208047	0.543529
421.586988	0.541852
421.965867	0.546065
422.344686	0.541213
422.723444	0.556581
423.102141	0.576353
423.480777	0.558253
423.859352	0.582102
424.237866	0.569725
424.616319	0.575064
424.994712	0.574596
425.373044	0.589064
425.751314	0.587122
426.129524	0.607206
426.507673	0.600903
426.885762	0.603061
427.263789	0.616305
427.641756	0.629029
428.019662	0.630474
428.397508	0.637520
428.775292	0.650486
429.153016	0.652191
429.530679	0.664407
429.908282	0.668053
430.285824	0.682267
430.663305	0.678407
431.040726	0.700955
431.418086	0.708093
431.795385	0.712501
432.172624	0.720639
432.549802	0.728794
432.926920	0.737455
433.303977	0.745369
433.680974	0.752890
434.057910	0.762000
434.434786	0.769103
434.811601	0.779300
435.188355	0.780979
435.565050	0.793035
435.941683	0.800917
436.318257	0.803227
436.694770	0.812479
437.071222	0.820559
437.447614	0.829749
437.823946	0.838716
438.200218	0.843694
438.576429	0.853620
438.952580	0.859096
439.328670	0.864899
439.704700	0.872778
440.080670	0.879508
440.456580	0.882865
440.832429	0.891137
441.208218	0.898840
441.583947	0.903389
441.959616	0.907710
442.335224	0.915282
442.710773	0.918855
443.086261	0.923505
443.461689	0.929539
443.837057	0.933683
444.212365	0.935905
444.587612	0.942294
444.962800	0.944244
445.337927	0.949827
445.712995	0.955322
446.088002	0.955789
446.462949	0.959331
446.837837	0.963930
447.212664	0.964158
447.587431	0.967460
447.962139	0.967852
448.336786	0.968765
448.711374	0.969600
449.085901	0.975973
449.460369	0.977733
449.834776	0.979552
450.209124	0.980854
450.583412	0.982669
450.957640	0.983198
451.331808	0.985706
451.705917	0.986426
452.079965	0.988120
452.453954	0.989065
452.827883	0.989864
453.201752	0.990930
453.575562	0.991025
453.949311	0.992407
454.323001	0.992217
454.696632	0.993628
455.070202	0.993214
455.443713	0.993636
455.817164	0.993710
456.190556	0.994233
456.563888	0.995636
456.937160	0.994657
457.310373	0.994812
457.683526	0.996099
458.056619	0.996132
458.429653	0.996411
458.802628	0.995759
459.175542	0.996449
459.548398	0.996134
459.921194	0.997463
460.293930	0.998169
460.666607	0.997089
461.039224	0.997111
461.411782	0.997050
461.784280	0.997219
462.156719	0.997919
462.529099	0.997489
462.901419	0.996887
463.273680	0.997039
463.645882	0.997323
464.018024	0.998283
464.390106	0.997111
464.762130	0.997330
465.134094	0.997443
465.505999	0.997465
465.877845	0.997352
466.249631	0.996632
466.621358	0.996747
466.993026	0.997125
467.364634	0.997502
467.736184	0.997646
468.107674	0.996728
468.479105	0.997375
468.850477	0.997499
469.221790	0.997144
469.593043	0.996660
469.964238	0.997161
470.335373	0.997030
470.706449	0.997085
471.077467	0.997764
471.448425	0.997786
471.819324	0.997217
472.190164	0.997103
472.560945	0.996998
472.931667	0.997336
473.302330	0.997848
473.672934	0.997851
474.043479	0.997463
474.413965	0.997957
474.784393	0.997541
475.154761	0.996823
475.525070	0.997709
475.895321	0.997149
476.265513	0.997768
476.635645	0.997883
477.005719	0.997249
477.375734	0.996949
477.745691	0.997042
478.115588	0.996410
478.485427	0.996976
478.855207	0.997453
479.224928	0.997238
479.594591	0.997545
479.964194	0.997430
480.333739	0.997354
480.703226	0.996215
481.072653	0.996674
481.442022	0.997082
481.811333	0.996894
482.180584	0.997020
482.549777	0.996654
482.918912	0.996776
483.287988	0.996879
483.657005	0.996484
484.025964	0.997013
484.394864	0.996756
484.763706	0.996845
485.132489	0.996784
485.501213	0.997049
485.869879	0.997047
486.238487	0.996712
486.607036	0.997198
486.975527	0.997185
487.343959	0.996564
487.712333	0.997523
488.080648	0.996600
488.448905	0.996946
488.817104	0.996472
489.185244	0.997120
489.553326	0.997366
489.921350	0.997330
490.289315	0.996814
490.657222	0.996644
491.025070	0.996932
491.392861	0.996815
491.760593	0.997380
492.128267	0.997187
492.495883	0.996636
492.863440	0.997002
493.230939	0.996844
493.598380	0.998264
493.965763	0.996715
494.333088	0.996337
494.700354	0.996802
495.067563	0.997121
495.434713	0.997777
495.801805	0.997572
496.168839	0.997384
496.535815	0.997070
496.902733	0.996942
497.269593	0.997384
497.636395	0.996472
498.003139	0.996885
498.369825	0.997945
498.736453	0.997499
499.103023	0.997566
499.469535	0.997365
499.835989	0.997444
500.202385	0.997245
500.568723	0.996949
500.935003	0.997422
501.301226	0.997301
501.667390	0.997554
502.033497	0.997666
502.399546	0.997443
502.765537	0.997571
503.131470	0.998076
503.497345	0.997526
503.863163	0.997260
504.228923	0.997202
504.594625	0.997219
504.960269	0.997508
505.325856	0.998227
505.691385	0.997702
506.056856	0.997508
506.422270	0.997659
506.787625	0.997554
507.152924	0.997559
507.518164	0.997131
507.883347	0.997618
508.248472	0.997347
508.613540	0.997691
508.978550	0.997095
509.343503	0.997624
509.708398	0.997907
510.073236	0.997537
510.438016	0.996959
510.802738	0.996529
511.167403	0.997034
511.532010	0.997739
511.896561	0.997606
512.261053	0.997972
512.625488	0.996886
512.989866	0.997162
513.354186	0.996696
513.718449	0.997460
514.082655	0.996920
514.446803	0.997069
514.810894	0.997506
515.174927	0.997263
515.538904	0.998209
515.902822	0.997227
516.266684	0.997425
516.630488	0.997529
516.994235	0.997686
517.357925	0.997876
517.721558	0.997413
518.085133	0.997014
518.448651	0.997708
518.812112	0.997240
519.175516	0.997565
519.538863	0.997141
519.902152	0.997736
520.265385	0.996698
520.628560	0.996570
520.991678	0.996980
521.354739	0.997442
521.717743	0.996882
522.080690	0.996405
522.443580	0.998186
522.806413	0.996395
523.169189	0.997641
523.531908	0.997247
523.894569	0.997688
524.257174	0.997055
524.619722	0.997547
524.982213	0.997398
525.344647	0.996939
525.707025	0.997008
526.069345	0.996654
526.431608	0.997758
526.793815	0.997378
527.155964	0.997428
527.518057	0.997907
527.880093	0.996834
528.242072	0.997031
528.603995	0.996530
528.965860	0.997435
529.327669	0.997469
529.689421	0.997334
530.051117	0.997220
530.412755	0.998131
530.774337	0.996763
531.135862	0.998039
531.497331	0.997521
531.858743	0.997727
532.220098	0.997175
532.581396	0.997248
532.942638	0.997361
533.303824	0.997752
533.664953	0.997480
534.026025	0.998049
534.387040	0.997553
534.747999	0.997251
535.108902	0.997268
535.469748	0.997609
535.830537	0.997843
536.191270	0.997079
536.551947	0.997129
536.912567	0.997777
537.273131	0.997832
537.633638	0.997383
537.994089	0.997520
538.354483	0.996744
538.714821	0.997938
539.075103	0.997596
539.435328	0.997627
539.795497	0.997478
540.155609	0.997956
540.515665	0.997648
540.875665	0.997179
541.235609	0.997810
541.595496	0.997005
541.955328	0.997498
542.315102	0.997762
542.674821	0.997580
543.034483	0.997316
543.394090	0.997065
543.753640	0.997158
544.113134	0.996459
544.472571	0.997973
544.831953	0.997185
545.191278	0.997609
545.550548	0.997758
545.909761	0.996693
546.268918	0.998219
546.628019	0.998042
546.987064	0.997677
547.346053	0.997332
547.704986	0.996915
548.063863	0.997074
548.422684	0.997229
548.781449	0.997177
549.140158	0.997092
549.498811	0.997131
549.857408	0.996524
550.215949	0.996973
550.574434	0.997208
550.932864	0.997642
551.291237	0.997022
551.649555	0.998121
552.007817	0.997751
552.366022	0.997627
552.724173	0.997561
553.082267	0.997205
553.440305	0.996168
553.798288	0.996590
554.156215	0.996863
554.514086	0.997173
554.871902	0.997737
555.229661	0.996993
555.587365	0.996739
555.945014	0.997653
556.302606	0.996831
556.660143	0.997633
557.017625	0.997302
557.375050	0.997453
557.732421	0.997389
558.089735	0.997028
558.446994	0.996663
558.804197	0.997864
559.161345	0.996659
559.518437	0.996881
559.875474	0.997727
560.232455	0.997500
560.589381	0.997882
560.946251	0.996510
561.303065	0.997692
561.659825	0.996792
562.016528	0.997369
562.373177	0.997098
562.729770	0.997730
563.086307	0.996342
563.442789	0.996718
563.799216	0.996737
564.155587	0.997005
564.511904	0.997603
564.868164	0.996612
565.224370	0.997357
565.580520	0.997151
565.936615	0.997199
566.292654	0.997306
566.648638	0.997913
567.004567	0.997353
567.360441	0.997932
567.716260	0.997466
568.072023	0.996701
568.427732	0.997247
568.783385	0.996896
569.138982	0.997521
569.494525	0.997141
569.850013	0.997657
570.205445	0.997489
570.560823	0.997172
570.916145	0.996983
571.271412	0.997367
571.626625	0.998010
571.981782	0.997736
572.336884	0.997558
572.691931	0.997626
573.046923	0.998175
573.401860	0.997462
573.756743	0.997040
574.111570	0.997215
574.466342	0.997854
574.821059	0.996843
575.175722	0.997538
575.530330	0.997232
575.884882	0.997421
576.239380	0.998284
576.593823	0.997098
576.948211	0.997520
577.302544	0.997519
577.656823	0.997272
578.011047	0.997348
578.365216	0.998519
578.719330	0.997770
579.073389	0.996446
579.427394	0.997497
579.781344	0.997761
580.135239	0.996852
580.489080	0.997224
580.842866	0.997816
581.196597	0.997396
581.550273	0.996478
581.903895	0.997774
582.257463	0.997196
582.610975	0.997185
582.964434	0.997740
583.317837	0.997212
583.671186	0.997522
584.024481	0.997209
584.377721	0.997186
584.730906	0.997352
585.084037	0.998306
585.437113	0.998049
585.790135	0.997751
586.143103	0.997789
586.496016	0.997558
586.848874	0.997142
587.201679	0.997442
587.554428	0.997363
587.907124	0.998001
588.259765	0.998167
588.612352	0.997490
588.964884	0.998446
589.317362	0.997531
589.669786	0.997324
590.022155	0.996840
590.374470	0.997575
590.726731	0.996682
591.078937	0.998059
591.431090	0.998066
591.783188	0.997188
592.135232	0.997990
592.487222	0.998478
592.839157	0.997150
593.191038	0.997509
593.542866	0.997549
593.894639	0.996814
594.246358	0.998136
594.598022	0.997695
594.949633	0.997917
595.301190	0.996955
595.652692	0.997074
596.004141	0.997176
596.355535	0.996858
596.706876	0.997582
597.058162	0.997731
597.409395	0.997328
597.760573	0.997306
598.111698	0.997877
598.462768	0.997108
598.813785	0.997322
599.164748	0.996710
599.515657	0.996533
599.866511	0.997601
600.217312	0.998131
600.568060	0.997119
600.918753	0.997352
601.269392	0.997660
601.619978	0.998016
601.970510	0.997714
602.320988	0.997817
602.671412	0.996998
603.021783	0.997713
603.372100	0.997567
603.722363	0.998060
604.072572	0.997444
604.422728	0.997324
604.772830	0.997835
605.122878	0.998414
605.472872	0.998034
605.822813	0.998085
606.172701	0.997530
606.522534	0.998067
606.872314	0.997790
607.222041	0.997685
607.571714	0.997920
607.921333	0.997821
608.270899	0.997500
608.620411	0.997368
608.969870	0.998513
609.319276	0.997421
609.668627	0.998809
610.017926	0.997242
610.367171	0.998185
610.716362	0.997539
611.065500	0.997067
611.414585	0.997606
611.763616	0.997543
612.112594	0.997975
612.461518	0.997362
612.810389	0.997810
613.159207	0.997399
613.507971	0.997851
613.856682	0.998809
614.205340	0.996690
614.553945	0.997761
614.902496	0.997119
615.250994	0.997284
615.599439	0.997793
615.947830	0.996685
616.296169	0.997854
616.644454	0.997695
616.992686	0.997805
617.340864	0.997477
617.688990	0.997309
618.037063	0.997906
618.385082	0.997634
618.733048	0.996903
619.080961	0.997243
619.428821	0.998354
619.776628	0.997090
620.124382	0.998460
620.472083	0.997868
620.819731	0.998695
621.167326	0.997943
621.514868	0.998341
621.862357	0.997732
622.209793	0.997878
622.557176	0.997383
622.904506	0.997560
623.251783	0.997864
623.599007	0.997992
623.946179	0.997501
624.293297	0.998093
624.640363	0.997848
624.987376	0.997494
625.334336	0.997460
625.681243	0.998160
626.028097	0.997910
626.374899	0.997779
626.721647	0.998359
627.068343	0.997327
627.414987	0.997591
627.761577	0.996723
628.108115	0.997413
628.454600	0.997705
628.801032	0.998239
629.147412	0.997695
629.493739	0.998800
629.840014	0.998253
630.186236	0.997641
630.532405	0.997588
630.878521	0.997206
631.224585	0.997910
631.570597	0.997493
631.916556	0.997955
632.262462	0.996805
632.608316	0.997932
632.954117	0.998048
633.299866	0.997608
633.645562	0.997271
633.991206	0.998428
634.336797	0.996879
634.682336	0.998717
635.027823	0.997783
635.373257	0.998218
635.718639	0.998600
636.063968	0.997571
636.409245	0.996761
636.754470	0.998220
637.099642	0.998539
637.444762	0.998066
637.789829	0.997809
638.134845	0.997311
638.479808	0.997080
638.824719	0.998112
639.169577	0.997264
639.514383	0.997699
639.859137	0.998070
640.203839	0.997899
640.548489	0.997158
640.893086	0.997372
641.237632	0.997905
641.582125	0.997820
641.926566	0.998597
642.270955	0.998159
642.615292	0.997295
642.959576	0.997132
643.303809	0.998064
643.647990	0.997897
643.992118	0.998354
644.336195	0.997372
644.680219	0.997436
645.024192	0.998550
645.368112	0.996895
645.711981	0.997969
646.055797	0.997489
646.399562	0.997138
646.743274	0.998816
647.086935	0.997102
647.430544	0.998071
647.774101	0.996965
648.117606	0.998129
648.461059	0.997842
648.804460	0.997117
649.147810	0.997729
649.491108	0.997456
649.834354	0.997004
650.177548	0.997627
650.520690	0.996566
650.863781	0.996508
651.206820	0.998205
651.549807	0.996651
651.892742	0.998353
652.235626	0.997521
652.578458	0.997336
652.921238	0.998177
653.263967	0.997780
653.606644	0.997910
653.949269	0.998119
654.291843	0.997312
654.634365	0.998319
654.976836	0.996962
655.319255	0.998677
655.661622	0.997884
656.003938	0.997747
656.346203	0.997299
656.688416	0.998067
657.030577	0.997285
657.372687	0.997989
657.714746	0.997530
658.056753	0.997386
658.398708	0.997258
658.740612	0.999050
659.082465	0.997960
659.424266	0.997602
659.766016	0.996326
660.107715	0.998041
660.449362	0.997664
660.790958	0.997494
661.132503	0.997859
661.473996	0.996604
661.815438	0.997745
662.156829	0.997721
662.498168	0.997903
662.839456	0.996913
663.180693	0.998825
663.521879	0.997305
663.863013	0.997789
664.204097	0.997059
664.545129	0.997378
664.886110	0.997627
665.227040	0.997450
665.567918	0.997250
665.908746	0.997063
666.249522	0.997371
666.590248	0.997649
666.930922	0.997009
667.271545	0.997676
667.612118	0.997602
667.952639	0.996930
668.293109	0.997429
668.633528	0.996453
668.973896	0.997694
669.314213	0.996928
669.654480	0.997683
669.994695	0.996508
670.334859	0.997651
670.674973	0.997002
671.015035	0.997538
671.355047	0.997163
671.695008	0.996894
672.034918	0.997110
672.374777	0.997878
672.714585	0.997815
673.054342	0.998320
673.394049	0.997320
673.733705	0.997343
674.073310	0.997805
674.412864	0.996833
674.752368	0.996634
675.091820	0.997735
675.431223	0.998049
675.770574	0.996473
676.109875	0.997452
676.449125	0.996882
676.788324	0.997544
677.127473	0.998350
677.466571	0.997630
677.805619	0.997247
678.144616	0.997123
678.483562	0.996918
678.822458	0.997514
679.161303	0.996165
679.500098	0.996606
679.838842	0.997390
680.177535	0.997588
680.516179	0.996460
680.854771	0.995662
681.193314	0.996974
681.531805	0.997049
681.870247	0.997975
682.208638	0.997985
682.546978	0.996890
682.885268	0.996744
683.223508	0.997701
683.561697	0.996746
683.899836	0.996746
684.237925	0.996817
684.575963	0.996851
684.913951	0.996964
685.251889	0.996190
685.589776	0.996959
685.927614	0.997849
686.265401	0.997203
686.603137	0.997258
686.940824	0.997925
687.278460	0.997584
687.616046	0.996814
687.953582	0.996769
688.291068	0.997169
688.628504	0.996859
688.965889	0.998100
689.303224	0.996194
689.640510	0.996847
689.977745	0.996980
690.314930	0.997173
690.652065	0.997095
690.989150	0.996609
691.326185	0.997250
691.663170	0.997501
692.000105	0.997406
692.336990	0.997281
692.673825	0.997426
693.010610	0.997124
693.347345	0.996962
693.684030	0.997072
694.020665	0.996407
694.357251	0.996601
694.693786	0.996835
695.030272	0.996015
695.366707	0.996850
695.703093	0.996985
696.039429	0.995942
696.375716	0.997802
696.711952	0.996469
697.048139	0.997303
697.384276	0.996589
697.720363	0.996812
698.056400	0.995499
698.392388	0.996320
698.728326	0.997643
699.064214	0.998569
699.400053	0.997813
699.735842	0.998071
700.071581	0.996842
700.407270	0.996930
700.742910	0.997532
701.078501	0.996880
701.414042	0.997237
701.749533	0.996371
702.084974	0.997752
702.420366	0.996273
702.755709	0.996801
703.091002	0.996965
703.426246	0.996600
703.761440	0.996702
704.096584	0.997164
704.431679	0.996840
704.766725	0.996991
705.101721	0.997643
705.436668	0.997901
705.771565	0.996969
706.106413	0.995305
706.441212	0.996601
706.775961	0.997368
707.110661	0.996826
707.445311	0.997112
707.779913	0.997973
708.114465	0.997853
708.448967	0.997096
708.783421	0.997373
709.117825	0.997356
709.452180	0.997771
709.786485	0.996966
710.120742	0.997057
710.454949	0.996678
710.789107	0.996987
711.123216	0.996902
711.457275	0.995878
711.791286	0.997257
712.125247	0.998620
712.459159	0.996793
712.793023	0.996942
713.126837	0.996638
713.460602	0.995804
713.794318	0.995927
714.127985	0.996056
714.461602	0.997161
714.795171	0.997032
715.128691	0.997033
715.462162	0.997556
715.795584	0.996413
716.128957	0.997287
716.462281	0.996859
716.795556	0.995413
717.128782	0.997576
717.461960	0.997239
717.795088	0.997301
718.128167	0.998565
718.461198	0.995751
718.794180	0.997157
719.127113	0.996626
719.459997	0.995763
719.792833	0.996015
720.125619	0.996695
720.458357	0.996916
720.791046	0.997150
721.123686	0.996835
721.456278	0.997263
721.788821	0.997190
722.121315	0.997459
722.453761	0.998351
722.786158	0.997092
723.118506	0.997684
723.450805	0.996724
723.783056	0.997360
724.115259	0.996466
724.447412	0.996743
724.779518	0.997280
725.111574	0.996451
725.443582	0.997226
725.775542	0.996366
726.107453	0.997090
726.439315	0.997340
726.771129	0.996874
727.102895	0.996396
727.434612	0.996371
727.766281	0.998015
728.097901	0.996604
728.429473	0.997847
728.760996	0.995546
729.092471	0.995780
729.423897	0.997104
729.755276	0.996211
730.086606	0.995196
730.417887	0.996993
730.749120	0.996811
731.080305	0.996397
731.411442	0.995524
731.742530	0.995804
732.073570	0.996397
732.404562	0.996761
732.735506	0.995952
733.066401	0.996244
733.397249	0.996203
733.728048	0.997029
734.058798	0.997490
734.389501	0.998105
734.720156	0.996908
735.050762	0.997125
735.381320	0.996429
735.711831	0.995900
736.042293	0.996801
736.372707	0.997437
736.703073	0.995616
737.033391	0.996992
737.363661	0.997392
737.693883	0.996728
738.024056	0.996319
738.354182	0.997038
738.684260	0.996832
739.014290	0.996996
739.344272	0.996746
739.674207	0.996696
740.004093	0.997003
740.333931	0.997322
740.663722	0.995047
740.993464	0.997066
741.323159	0.995882
741.652806	0.996480
741.982405	0.996933
742.311956	0.996520
742.641460	0.997505
742.970915	0.995898
743.300323	0.995929
743.629683	0.995926
743.958996	0.997685
744.288260	0.996365
744.617477	0.997101
744.946647	0.997057
745.275768	0.997634
745.604842	0.997111
745.933869	0.996585
746.262847	0.997342
746.591778	0.995500
746.920662	0.996977
747.249498	0.997685
747.578286	0.998142
747.907027	0.997720
748.235720	0.996540
748.564365	0.997527
748.892963	0.996478
749.221514	0.997609
749.550017	0.995990
749.878473	0.996890
750.206881	0.997998
750.535242	0.996342
750.863555	0.996357
751.191821	0.996814
751.520039	0.996337
751.848210	0.996077
752.176334	0.997527
752.504411	0.996788
752.832440	0.996774
753.160421	0.997207
753.488356	0.996934
753.816243	0.996809
754.144082	0.996315
754.471875	0.997607
754.799620	0.997610
755.127318	0.997636
755.454969	0.997194
755.782572	0.998455
756.110129	0.997017
756.437638	0.998106
756.765100	0.997276
757.092515	0.996830
757.419882	0.997119
757.747203	0.997479
758.074477	0.997528
758.401703	0.996336
758.728882	0.997226
759.056014	0.996857
759.383099	0.996841
759.710138	0.996511
760.037129	0.997077
760.364073	0.996797
760.690970	0.996106
761.017820	0.995409
761.344623	0.997810
761.671379	0.997004
761.998088	0.996891
762.324751	0.996361
762.651366	0.995894
762.977935	0.994925
763.304456	0.996004
763.630931	0.994586
763.957359	0.993510
764.283740	0.994475
764.610074	0.995028
764.936362	0.996115
765.262602	0.996718
765.588796	0.995750
765.914943	0.996306
766.241044	0.996967
766.567097	0.997147
766.893104	0.997624
767.219064	0.996547
767.544978	0.997522
767.870845	0.997292
768.196665	0.996439
768.522438	0.997491
768.848165	0.997304
769.173846	0.998324
769.499479	0.998795
769.825066	0.998122
770.150607	0.998986
770.476101	0.997664
770.801548	0.998112
771.126949	0.999056
771.452303	0.997233
771.777611	0.997608
772.102872	0.997906
772.428087	0.997033
772.753256	0.997942
773.078378	0.997909
773.403453	0.997552
773.728482	0.998365
774.053465	0.997878
774.378401	0.997745
774.703291	0.998586
775.028135	0.998404
775.352932	0.996246
775.677683	0.998787
776.002388	0.998570
776.327046	0.996902
776.651658	0.999090
776.976224	0.997627
777.300743	0.997494
777.625216	0.997738
777.949643	0.998022
778.274024	0.997695
778.598359	0.997489
778.922647	0.997213
779.246889	0.999459
779.571086	0.998136
779.895236	0.998197
780.219339	0.998561
780.543397	0.997215
780.867409	0.998988
781.191374	0.997449
781.515294	0.997420
781.839167	0.997811
782.162995	0.997338
782.486776	0.998023
782.810511	0.997077
783.134201	0.998625
783.457844	0.998130
783.781441	0.997069
784.104993	0.997275
784.428498	0.998400
784.751958	0.998505
785.075372	0.998923
785.398739	0.997664
785.722061	0.997830
786.045337	0.997384
786.368568	0.997930
786.691752	0.998102
787.014891	0.997434
787.337983	0.998320
787.661030	0.997379
787.984031	0.997846
788.306987	0.998759
788.629897	0.996218
788.952760	0.997669
789.275579	0.997431
789.598351	0.997715
789.921078	0.998697
790.243759	0.997222
790.566395	0.996718
790.888984	0.998287
791.211529	0.998961
791.534027	0.997489
791.856480	0.997843
792.178888	0.998816
792.501249	0.997945
792.823566	0.998128
793.145836	0.997773
793.468062	0.998423
793.790241	0.998464
794.112375	0.997569
794.434464	0.998188
794.756507	0.998282
795.078505	0.998980
795.400457	0.998210
795.722364	0.998553
796.044226	0.998123
796.366042	0.997231
796.687812	0.997655
797.009538	0.997120
797.331218	0.998508
797.652852	0.997455
797.974442	0.996478
798.295986	0.997239
798.617484	0.997388
798.938938	0.997910
799.260346	0.997083
799.581709	0.997552
799.903026	0.998979
800.224299	0.997724
800.545526	0.998252
800.866708	0.997353
801.187845	0.998816
801.508936	0.998331
801.829983	0.998483
802.150984	0.998351
802.471940	0.998754
802.792851	0.997584
803.113717	0.999124
803.434538	0.999585
803.755314	0.998682
804.076045	0.998162
804.396731	0.998166
804.717372	0.996088
805.037967	0.999824
805.358518	0.998368
805.679024	0.998435
805.999485	0.999020
806.319901	0.999031
806.640272	0.999290
806.960598	0.999129
807.280879	0.997873
807.601115	0.998865
807.921306	0.999117
808.241453	0.997722
808.561554	0.998380
808.881611	0.997056
809.201623	0.997335
809.521590	0.998154
809.841513	0.997944
810.161390	0.997922
810.481223	0.996869
810.801011	0.998007
811.120755	0.999562
811.440453	0.997914
811.760107	0.998487
812.079716	0.997024
812.399281	0.998622
812.718801	0.997996
813.038276	0.998002
813.357707	0.998291
813.677093	0.999246
813.996434	0.998404
814.315731	1.000164
814.634983	0.998270
814.954191	0.998687
815.273354	0.997713
815.592473	0.997319
815.911547	0.999587
816.230577	0.997144
816.549562	0.998089
816.868502	0.996646
817.187399	0.998707
817.506250	0.997896
817.825058	0.996125
818.143821	0.997745
818.462539	0.998155
818.781213	0.997211
819.099843	0.997184
819.418429	0.997077
819.736970	0.997720
820.055466	0.996675
820.373919	0.996222
820.692327	0.994844
821.010691	0.994631
821.329011	0.993254
821.647286	0.991798
821.965517	0.990373
822.283704	0.988718
822.601847	0.988017
822.919945	0.987523
823.237999	0.988547
823.556010	0.989776
823.873976	0.990655
824.191897	0.991388
824.509775	0.992853
824.827609	0.992605
825.145398	0.993706
825.463144	0.992664
825.780845	0.993302
826.098502	0.993201
826.416116	0.993269
826.733685	0.992142
827.051210	0.990895
827.368692	0.991899
827.686129	0.991662
828.003522	0.994372
828.320872	0.993402
828.638177	0.994873
828.955439	0.996075
829.272656	0.997001
829.589830	0.995806
829.906960	0.996782
830.224046	0.996634
830.541088	0.996075
830.858086	0.997626
831.175041	0.998495
831.491952	0.996605
831.808819	0.996833
832.125642	0.997616
832.442421	0.997961
832.759157	0.997414
833.075849	0.994438
833.392497	0.994851
833.709101	0.993412
834.025662	0.994827
834.342179	0.994136
834.658653	0.995900
834.975083	0.995821
835.291469	0.995518
835.607811	0.996216
835.924110	0.997096
836.240366	0.998854
836.556578	0.998318
836.872746	0.998470
837.188871	0.997202
837.504952	0.997289
837.820990	0.999074
838.136984	0.997642
838.452935	0.998570
838.768842	0.998571
839.084706	0.998216
839.400526	0.997739
839.716303	0.996003
840.032037	0.996778
840.347727	0.995786
840.663373	0.997019
840.978977	0.996813
841.294537	0.998898
841.610054	0.998538
841.925527	0.998473
842.240957	0.999590
842.556344	0.998368
842.871687	0.998044
843.186987	0.998648
843.502244	0.999845
843.817458	0.999170
844.132629	0.998967
844.447756	0.999057
844.762840	0.997712
845.077881	0.999652
845.392879	0.997961
845.707833	0.998077
846.022745	1.000148
846.337613	0.998584
846.652438	0.999249
846.967221	0.999663
847.281960	0.999688
847.596656	0.999824
847.911309	0.999367
848.225919	0.997856
848.540485	0.998348
848.855009	1.000521
849.169490	0.998677
849.483928	0.999812
849.798323	0.997752
850.112675	0.999940
850.426984	0.999866
850.741251	0.999035
851.055474	0.998467
851.369654	0.998448
851.683792	0.998488
851.997887	0.999301
852.311938	0.998459
852.625947	0.998568
852.939914	0.998549
853.253837	0.999158
853.567718	1.000073
853.881555	0.999493
854.195350	0.998662
854.509103	0.999148
854.822812	0.999125
855.136479	0.999445
855.450103	0.999778
855.763685	0.998504
856.077224	0.999685
856.390720	0.999313
856.704173	0.999702
857.017584	0.999943
857.330953	0.999763
857.644278	0.999386
857.957561	0.999676
858.270802	0.999703
858.584000	0.999086
858.897155	0.998518
859.210268	0.999746
859.523339	0.999986
859.836367	0.999175
860.149352	0.998202
860.462295	0.998993
860.775195	0.999028
861.088054	0.998185
861.400869	0.998665
861.713642	0.998336
862.026373	0.999584
862.339062	0.999536
862.651708	0.998799
862.964312	1.000071
863.276873	0.999615
863.589392	0.998746
863.901869	0.998323
864.214303	0.998778
864.526696	0.999862
864.839045	0.998937
865.151353	0.998595
865.463619	0.998277
865.775842	0.997991
866.088023	1.000444
866.400162	0.999608
866.712258	1.000871
867.024313	0.998580
867.336325	1.000531
867.648296	0.999812
867.960224	0.998566
868.272110	0.998892
868.583954	0.998706
868.895755	0.999541
869.207515	0.998357
869.519233	0.998972
869.830909	0.997838
870.142542	0.997646
870.454134	0.998789
870.765684	0.998947
871.077191	0.999103
871.388657	0.999824
871.700081	0.998991
872.011463	0.999330
872.322803	0.998632
872.634101	0.998168
872.945357	0.998236
873.256571	0.998051
873.567744	0.998661
873.878874	0.999022
874.189963	0.998459
874.501010	0.999709
874.812015	0.998258
875.122979	0.998603
875.433900	0.997871
875.744780	0.999432
876.055618	0.997260
876.366415	0.998813
876.677169	0.998055
876.987882	0.997896
877.298554	0.999643
877.609183	0.997960
877.919771	0.998283
878.230317	0.999158
878.540822	0.997491
878.851285	0.997461
879.161707	0.997593
879.472087	0.998496
879.782425	0.996156
880.092722	0.994850
880.402977	0.993810
880.713191	0.991855
881.023363	0.990068
881.333494	0.988890
881.643583	0.990251
881.953631	0.989737
882.263637	0.988466
882.573602	0.988766
882.883526	0.990256
883.193408	0.992394
883.503248	0.991960
883.813048	0.992891
884.122806	0.994138
884.432522	0.994378
884.742197	0.996194
885.051831	0.995271
885.361424	0.995279
885.670975	0.996694
885.980485	0.996620
886.289954	0.997034
886.599382	0.996757
886.908768	0.998154
887.218113	0.997446
887.527417	0.997473
887.836680	0.998356
888.145901	0.998396
888.455082	0.999282
888.764221	0.999496
889.073319	0.998727
889.382376	0.998375
889.691392	0.997724
890.000366	0.999156
890.309300	0.998318
890.618193	0.999990
890.927044	0.998462
891.235855	0.998089
891.544625	0.998853
891.853353	0.997808
892.162041	0.998252
892.470687	0.998919
892.779293	0.996973
893.087858	0.997585
893.396381	0.997719
893.704864	0.997219
894.013306	0.995765
894.321707	0.995690
894.630068	0.993560
894.938387	0.993859
895.246665	0.994274
895.554903	0.993691
895.863100	0.995672
896.171256	0.995642
896.479371	0.996492
896.787446	0.996905
897.095480	0.997020
897.403473	0.998087
897.711425	0.997814
898.019336	0.998873
898.327207	0.998415
898.635038	0.997042
898.942827	0.997884
899.250576	0.998209
899.558284	0.997775
899.865952	0.997357
900.173579	0.997877
900.481165	0.998678
900.788711	0.998098
901.096216	0.998642
901.403681	0.999455
901.711105	0.997878
902.018489	0.997962
902.325832	0.997765
902.633135	0.998673
902.940397	0.997850
903.247619	0.997429
903.554800	0.997009
903.861941	0.995834
904.169041	0.993716
904.476101	0.993132
904.783121	0.993093
905.090100	0.993989
905.397039	0.994800
905.703938	0.995051
906.010796	0.995735
906.317614	0.996927
906.624391	0.997505
906.931129	0.998118
907.237826	0.997553
907.544483	0.997233
907.851099	0.998526
908.157675	0.997998
908.464211	0.998658
908.770707	0.998264
909.077163	0.998829
909.383578	0.997748
909.689954	0.997263
909.996289	0.998562
910.302584	1.000954
910.608839	0.999585
910.915054	0.999202
911.221229	1.001046
911.527363	0.997760
911.833458	1.000017
912.139513	0.998566
912.445527	0.999876
912.751502	0.999352
913.057436	0.999014
913.363331	0.998682
913.669186	0.998808
913.975000	0.999373
914.280775	0.997880
914.586510	0.998326
914.892205	0.996025
915.197859	0.995194
915.503475	0.995971
915.809050	0.994678
916.114585	0.992355
916.420081	0.993110
916.725536	0.993871
917.030952	0.994532
917.336328	0.994370
917.641665	0.994595
917.946961	0.995098
918.252218	0.995208
918.557435	0.995942
918.862612	0.996727
919.167750	0.997187
919.472848	0.997687
919.777906	0.999063
920.082925	0.999660
920.387904	0.997949
920.692843	0.998394
920.997743	0.998163
921.302603	0.999348
921.607423	0.998263
921.912204	0.998791
922.216946	0.999529
922.521647	0.997543
922.826310	0.998305
923.130932	0.998603
923.435516	0.998564
923.740059	0.998177
924.044564	0.998212
924.349028	0.997362
924.653454	0.998948
924.957840	0.998470
925.262186	0.998487
925.566493	0.998139
925.870761	0.998387
926.174989	0.997869
926.479178	0.999316
926.783328	0.998630
927.087438	0.998881
927.391509	0.998629
927.695541	0.998752
927.999533	0.999102
928.303486	0.998983
928.607400	0.999063
928.911275	1.000010
929.215110	1.000269
929.518906	1.000167
929.822663	1.000911
930.126381	1.000514
930.430060	0.999035
930.733699	0.999285
931.037299	1.000750
931.340861	1.000190
931.644383	0.998685
931.947866	0.999089
932.251309	0.999812
932.554714	0.998586
932.858080	1.000496
933.161407	0.998606
933.464694	0.998731
933.767943	0.999664
934.071153	0.999267
934.374323	1.000185
934.677455	0.998971
934.980548	0.998659
935.283602	1.000610
935.586617	0.999411
935.889593	0.999216
936.192530	0.999296
936.495428	0.999063
936.798287	0.998663
937.101108	0.999493
937.403890	0.998706
937.706632	1.000262
938.009336	1.000283
938.312002	0.999173
938.614628	0.999513
938.917216	0.997596
939.219765	0.998651
939.522275	0.999909
939.824747	0.999085
940.127179	0.998731
940.429573	0.999390
940.731929	0.999445
941.034246	0.998922
941.336524	0.998314
941.638763	0.998913
941.940964	0.999204
942.243126	0.998367
942.545250	0.999585
942.847335	0.999047
943.149381	0.998956
943.451389	0.998880
943.753359	0.998565
944.055290	1.001317
944.357182	0.999064
944.659036	1.000250
944.960851	0.999350
945.262628	1.000415
945.564367	1.000099
945.866067	0.999741
946.167729	0.999860
946.469352	0.999919
946.770937	0.997671
947.072484	0.999720
947.373992	0.999976
947.675462	0.998540
947.976893	1.000083
948.278286	1.001030
948.579641	0.999985
948.880958	1.000404
949.182236	0.999767
949.483476	1.000279
949.784678	0.998963
950.085841	0.999579
950.386967	0.999069
950.688054	1.000143
950.989103	0.998864
951.290114	0.998677
951.591087	0.999799
951.892021	0.998246
952.192917	0.999299
952.493776	1.000333
952.794596	1.000487
953.095378	0.999481
953.396122	0.998747
953.696828	0.997993
953.997496	0.999799
954.298126	0.999278
954.598718	0.998360
954.899272	0.999209
955.199788	1.000316
955.500266	1.000778
955.800706	0.999670
956.101108	0.998777
956.401472	1.001286
956.701798	0.999407
957.002087	0.998793
957.302337	0.999726
957.602550	0.999859
957.902724	1.000031
958.202861	0.999010
958.502960	0.999427
958.803022	1.001386
959.103045	1.000331
959.403031	1.000242
959.702979	1.001607
960.002889	0.999740
960.302762	0.999545
960.602596	1.000427
960.902393	1.000187
961.202153	1.000469
961.501875	1.000665
961.801559	0.999682
962.101205	0.998941
962.400814	1.000171
962.700385	0.999160
962.999918	0.999966
963.299414	0.998931
963.598873	0.999804
963.898293	0.999529
964.197677	0.999469
964.497022	0.999482
964.796331	0.999905
965.095601	1.000557
965.394835	0.999736
965.694030	1.000256
965.993189	0.999287
966.292309	0.999876
966.591393	0.999131
966.890439	1.000532
967.189447	1.000310
967.488419	0.999527
967.787353	1.000013
968.086249	0.999018
968.385108	1.000149
968.683930	1.000363
968.982714	1.000340
969.281462	0.999315
969.580172	1.001110
969.878844	1.000908
970.177480	1.000548
970.476078	1.001348
970.774639	0.999329
971.073162	0.999464
971.371649	1.000891
971.670098	0.998558
971.968510	0.999933
972.266885	0.999080
972.565223	1.000483
972.863524	0.999124
973.161788	0.998957
973.460014	1.000675
973.758204	0.998713
974.056356	0.999021
974.354471	0.998847
974.652550	1.001053
974.950591	0.999017
975.248595	0.998684
975.546563	0.999453
975.844493	1.000494
976.142386	0.999123
976.440243	1.000414
976.738062	1.000037
977.035845	1.000188
977.333590	0.999971
977.631299	0.998621
977.928971	0.998973
978.226606	0.999761
978.524204	0.998219
978.821765	1.000170
979.119290	0.999263
979.416777	0.999612
979.714228	1.000763
980.011642	1.001151
980.309020	0.999754
980.606360	0.999194
980.903664	1.000518
981.200931	0.998698
981.498162	0.999929
981.795356	1.000212
982.092513	0.999804
982.389633	0.999936
982.686717	0.999419
982.983764	0.999655
983.280775	0.998460
983.577749	1.000349
983.874686	0.998946
984.171587	0.998839
984.468451	0.999142
984.765279	0.999625
985.062070	0.999779
985.358824	0.998382
985.655543	0.999821
985.952224	1.000098
986.248869	1.000021
986.545478	1.000763
986.842050	0.999767
987.138586	0.998835
987.435086	0.999731
987.731549	1.001258
988.027975	1.000278
988.324366	0.998537
988.620719	1.001004
988.917037	0.999778
989.213318	1.000890
989.509563	1.000725
989.805772	1.000296
990.101944	0.999157
990.398080	1.001052
990.694180	1.001555
990.990244	0.999475
991.286271	1.000472
991.582262	1.000287
991.878217	0.998766
992.174136	1.001621
992.470019	0.999544
992.765865	1.001257
993.061676	1.000303
993.357450	0.998982
993.653188	1.000803
993.948890	1.000173
994.244556	0.999681
994.540186	0.999374
994.835780	0.999758
995.131337	1.001276
995.426859	0.999167
995.722345	0.999639
996.017795	0.998540
996.313208	0.998723
996.608586	0.999943
996.903928	1.000684
997.199234	1.000201
997.494504	1.000425
997.789738	0.999183
998.084936	0.999981
998.380099	0.997689
998.675225	1.000159
998.970316	1.001116
999.265371	0.999672
999.560390	0.999521
999.855373	0.999804
1000.150320	1.000316
1000.445232	1.000000
1000.740108	1.000563
1001.034948	0.999819
1001.329752	1.001396
1001.624521	1.000495
1001.919254	0.999490
1002.213951	1.001170
1002.508613	0.999093
1002.803239	0.999930
1003.097829	1.000816
1003.392384	1.000773
1003.686903	1.000392
1003.981386	1.000370
1004.275834	1.000990
1004.570246	0.998848
1004.864623	1.000529
1005.158964	1.001523
1005.453270	0.999891
1005.747540	0.999843
1006.041775	0.999912
1006.335974	1.001087
1006.630138	1.001957
1006.924266	0.999254
1007.218359	0.999822
1007.512416	1.000901
1007.806438	1.000059
1008.100425	1.001146
1008.394376	1.000578
1008.688292	0.998550
1008.982172	1.000206
1009.276017	1.001140
1009.569827	1.001416
1009.863602	0.998530
1010.157341	1.000592
1010.451045	1.000595
1010.744714	1.000556
1011.038347	0.999505
1011.331945	0.999276
1011.625508	0.999526
1011.919036	0.999084
1012.212528	0.999240
1012.505986	1.000234
1012.799408	1.000014
1013.092795	1.000550
1013.386147	0.999964
1013.679464	0.999490
1013.972745	0.999044
1014.265992	0.997736
1014.559204	1.000231
1014.852380	1.001298
1015.145521	1.000211
1015.438628	1.000528
1015.731699	1.000283
1016.024736	1.000422
1016.317737	0.999919
1016.610703	0.999611
1016.903635	0.999382
1017.196531	1.000210
1017.489393	0.999275
1017.782219	1.000322
1018.075011	0.999413
1018.367768	0.998310
1018.660490	1.000351
1018.953177	1.000351
1019.245829	1.000351
