Dividing Wavelength (nm)	Counts (n)	Blue Motor Position (mm): 18.300000	Red Motor Position (mm): 0.000000	
326.493990	1.001825
326.888308	1.001825
327.282561	1.001825
327.676750	1.003145
328.070874	1.003257
328.464933	1.002337
328.858929	1.003694
329.252859	1.002083
329.646726	1.001082
330.040528	1.002641
330.434265	1.002990
330.827938	1.002294
331.221547	1.002149
331.615091	1.002622
332.008571	1.002985
332.401986	1.001432
332.795338	1.001129
333.188625	1.001698
333.581847	1.002360
333.975006	1.003349
334.368100	1.004003
334.761129	1.002428
335.154095	1.001719
335.546996	1.001164
335.939833	0.998302
336.332606	1.000119
336.725315	0.997486
337.117960	1.000255
337.510540	0.998343
337.903056	0.999328
338.295508	0.999932
338.687896	0.999862
339.080220	0.999103
339.472480	0.999159
339.864676	1.000116
340.256807	0.997870
340.648875	0.998814
341.040879	0.998674
341.432818	0.998338
341.824694	0.998658
342.216506	0.999275
342.608253	0.998783
342.999937	0.998810
343.391557	0.999323
343.783113	1.000708
344.174605	0.999152
344.566033	0.998936
344.957397	0.999515
345.348697	0.998665
345.739934	1.000478
346.131106	0.998940
346.522215	0.997701
346.913260	0.998676
347.304241	0.999008
347.695159	0.997738
348.086012	0.999134
348.476802	0.997486
348.867528	0.998114
349.258191	0.999264
349.648789	0.998357
350.039324	0.998413
350.429796	0.998269
350.820203	0.997281
351.210548	0.998468
351.600828	0.998056
351.991045	0.998325
352.381198	0.999206
352.771288	0.998222
353.161314	0.999000
353.551276	0.997214
353.941175	0.996547
354.331010	0.999613
354.720782	0.998963
355.110490	1.000246
355.500135	0.998276
355.889717	0.997230
356.279235	0.997937
356.668689	0.997637
357.058080	0.998384
357.447408	0.995824
357.836672	0.997438
358.225873	0.998655
358.615010	0.997804
359.004084	0.995916
359.393095	0.999227
359.782043	0.997939
360.170927	0.997927
360.559748	0.997400
360.948505	0.997298
361.337199	0.996867
361.725830	0.998292
362.114398	0.997861
362.502903	0.996438
362.891344	0.996080
363.279722	0.996241
363.668037	0.997888
364.056289	0.995927
364.444478	0.997918
364.832603	0.997417
365.220665	0.998072
365.608665	0.996262
365.996601	0.996134
366.384474	0.995239
366.772284	0.995750
367.160031	0.994904
367.547715	0.995629
367.935336	0.995763
368.322893	0.993686
368.710388	0.993105
369.097820	0.990016
369.485189	0.988529
369.872495	0.987007
370.259738	0.984516
370.646918	0.981072
371.034035	0.979132
371.421090	0.976040
371.808081	0.971937
372.195010	0.968420
372.581875	0.964442
372.968678	0.958895
373.355418	0.955398
373.742096	0.948972
374.128710	0.943277
374.515262	0.938600
374.901751	0.934223
375.288177	0.928772
375.674540	0.921726
376.060841	0.916388
376.447079	0.908381
376.833254	0.902676
377.219367	0.898353
377.605417	0.885426
377.991404	0.882885
378.377329	0.876541
378.763191	0.869721
379.148991	0.862482
379.534727	0.853796
379.920402	0.845415
380.306013	0.841647
380.691563	0.829716
381.077049	0.822621
381.462474	0.818441
381.847835	0.807195
382.233134	0.802608
382.618371	0.802541
383.003545	0.784829
383.388657	0.782836
383.773706	0.776035
384.158693	0.770481
384.543618	0.766240
384.928480	0.757230
385.313280	0.746381
385.698017	0.747130
386.082692	0.735243
386.467305	0.734208
386.851856	0.728601
387.236344	0.722549
387.620770	0.717570
388.005133	0.712095
388.389435	0.706610
388.773674	0.704893
389.157851	0.695697
389.541965	0.693077
389.926018	0.700345
390.310008	0.686452
390.693936	0.683109
391.077802	0.675348
391.461606	0.677273
391.845348	0.666684
392.229027	0.666052
392.612645	0.664081
392.996200	0.651169
393.379694	0.643518
393.763125	0.634263
394.146494	0.638396
394.529801	0.629024
394.913047	0.621190
395.296230	0.626728
395.679351	0.618643
396.062410	0.615203
396.445408	0.618039
396.828343	0.613955
397.211217	0.608413
397.594028	0.621452
397.976778	0.611250
398.359466	0.607219
398.742092	0.603389
399.124656	0.615595
399.507158	0.602978
399.889598	0.601007
400.271977	0.591558
400.654294	0.595388
401.036549	0.594474
401.418742	0.598894
401.800874	0.585062
402.182944	0.581189
402.564952	0.573039
402.946898	0.575388
403.328783	0.576061
403.710606	0.586330
404.092367	0.562205
404.474067	0.566746
404.855705	0.565189
405.237282	0.575042
405.618797	0.560876
406.000250	0.555901
406.381642	0.546384
406.762972	0.551616
407.144240	0.550175
407.525447	0.550261
407.906593	0.542665
408.287677	0.538699
408.668700	0.547126
409.049661	0.541004
409.430560	0.535849
409.811399	0.544469
410.192176	0.526050
410.572891	0.533523
410.953545	0.521380
411.334138	0.535422
411.714669	0.527834
412.095139	0.539614
412.475547	0.523794
412.855894	0.525811
413.236180	0.525030
413.616405	0.530429
413.996568	0.520326
414.376670	0.526173
414.756711	0.531555
415.136691	0.528368
415.516609	0.519939
415.896466	0.516223
416.276262	0.512500
416.655997	0.514396
417.035670	0.495558
417.415283	0.486982
417.794834	0.492050
418.174324	0.497209
418.553753	0.506604
418.933121	0.488320
419.312428	0.483389
419.691674	0.488238
420.070859	0.476627
420.449983	0.485037
420.829045	0.473659
421.208047	0.483160
421.586988	0.475914
421.965867	0.474524
422.344686	0.463613
422.723444	0.476297
423.102141	0.493162
423.480777	0.465719
423.859352	0.486964
424.237866	0.464159
424.616319	0.464842
424.994712	0.455084
425.373044	0.465950
425.751314	0.453604
426.129524	0.470779
426.507673	0.453969
426.885762	0.447260
427.263789	0.452898
427.641756	0.462413
428.019662	0.452184
428.397508	0.452316
428.775292	0.456589
429.153016	0.448361
429.530679	0.454792
429.908282	0.447725
430.285824	0.458021
430.663305	0.435936
431.040726	0.457439
431.418086	0.457347
431.795385	0.449185
432.172624	0.448634
432.549802	0.448606
432.926920	0.446846
433.303977	0.446819
433.680974	0.444082
434.057910	0.442885
434.434786	0.441480
434.811601	0.444584
435.188355	0.427012
435.565050	0.436032
435.941683	0.437761
436.318257	0.421444
436.694770	0.422608
437.071222	0.420523
437.447614	0.424553
437.823946	0.431393
438.200218	0.421340
438.576429	0.430494
438.952580	0.423261
439.328670	0.420253
439.704700	0.426507
440.080670	0.428169
440.456580	0.409366
440.832429	0.416999
441.208218	0.428394
441.583947	0.417365
441.959616	0.416541
442.335224	0.422189
442.710773	0.412645
443.086261	0.410999
443.461689	0.424900
443.837057	0.414452
444.212365	0.404630
444.587612	0.411510
444.962800	0.401708
445.337927	0.403219
445.712995	0.429692
446.088002	0.391407
446.462949	0.402053
446.837837	0.406896
447.212664	0.395114
447.587431	0.386626
447.962139	0.357247
448.336786	0.316250
448.711374	0.326477
449.085901	0.371102
449.460369	0.375107
449.834776	0.379038
450.209124	0.357900
450.583412	0.350525
450.957640	0.343497
451.331808	0.355242
451.705917	0.378472
452.079965	0.383056
452.453954	0.370929
452.827883	0.377953
453.201752	0.372888
453.575562	0.384045
453.949311	0.372945
454.323001	0.378721
454.696632	0.375152
455.070202	0.367246
455.443713	0.359133
455.817164	0.353911
456.190556	0.350314
456.563888	0.346825
456.937160	0.344110
457.310373	0.361523
457.683526	0.360269
458.056619	0.365969
458.429653	0.366486
458.802628	0.369617
459.175542	0.364320
459.548398	0.347016
459.921194	0.339328
460.293930	0.339484
460.666607	0.317110
461.039224	0.305284
461.411782	0.300748
461.784280	0.299923
462.156719	0.304464
462.529099	0.308348
462.901419	0.324650
463.273680	0.329098
463.645882	0.328330
464.018024	0.334609
464.390106	0.327020
464.762130	0.311729
465.134094	0.294788
465.505999	0.263732
465.877845	0.233850
466.249631	0.220819
466.621358	0.228327
466.993026	0.242580
467.364634	0.249010
467.736184	0.257108
468.107674	0.266166
468.479105	0.265323
468.850477	0.272187
469.221790	0.278738
469.593043	0.289549
469.964238	0.294049
470.335373	0.293491
470.706449	0.291547
471.077467	0.291979
471.448425	0.254165
471.819324	0.229617
472.190164	0.229391
472.560945	0.258027
472.931667	0.280554
473.302330	0.284835
473.672934	0.296788
474.043479	0.284575
474.413965	0.286606
474.784393	0.289929
475.154761	0.284814
475.525070	0.282040
475.895321	0.287941
476.265513	0.281901
476.635645	0.277431
477.005719	0.277003
477.375734	0.274197
477.745691	0.266930
478.115588	0.263594
478.485427	0.256790
478.855207	0.243832
479.224928	0.226256
479.594591	0.214418
479.964194	0.217918
480.333739	0.219128
480.703226	0.220215
481.072653	0.218865
481.442022	0.214637
481.811333	0.211294
482.180584	0.214721
482.549777	0.220111
482.918912	0.223452
483.287988	0.223220
483.657005	0.222664
484.025964	0.229384
484.394864	0.226641
484.763706	0.227291
485.132489	0.232364
485.501213	0.233095
485.869879	0.231391
486.238487	0.234609
486.607036	0.232382
486.975527	0.237133
487.343959	0.232964
487.712333	0.232130
488.080648	0.233348
488.448905	0.232613
488.817104	0.233803
489.185244	0.228417
489.553326	0.225518
489.921350	0.215300
490.289315	0.197569
490.657222	0.192701
491.025070	0.194131
491.392861	0.195928
491.760593	0.201860
492.128267	0.207592
492.495883	0.213077
492.863440	0.219535
493.230939	0.225602
493.598380	0.227070
493.965763	0.229423
494.333088	0.231563
494.700354	0.233120
495.067563	0.232275
495.434713	0.235455
495.801805	0.233200
496.168839	0.235336
496.535815	0.236568
496.902733	0.236391
497.269593	0.237981
497.636395	0.235898
498.003139	0.236233
498.369825	0.238967
498.736453	0.235749
499.103023	0.237382
499.469535	0.236850
499.835989	0.237130
500.202385	0.238307
500.568723	0.241292
500.935003	0.236728
501.301226	0.241083
501.667390	0.235472
502.033497	0.233685
502.399546	0.236421
502.765537	0.238637
503.131470	0.237476
503.497345	0.233967
503.863163	0.242720
504.228923	0.236013
504.594625	0.234847
504.960269	0.240295
505.325856	0.236067
505.691385	0.240610
506.056856	0.237740
506.422270	0.237194
506.787625	0.239834
507.152924	0.238024
507.518164	0.238514
507.883347	0.240804
508.248472	0.242917
508.613540	0.238454
508.978550	0.241536
509.343503	0.242102
509.708398	0.240495
510.073236	0.238379
510.438016	0.238726
510.802738	0.240395
511.167403	0.239796
511.532010	0.242817
511.896561	0.238589
512.261053	0.237800
512.625488	0.240790
512.989866	0.241704
513.354186	0.242510
513.718449	0.245383
514.082655	0.242669
514.446803	0.245783
514.810894	0.244224
515.174927	0.248026
515.538904	0.248008
515.902822	0.245852
516.266684	0.249088
516.630488	0.251708
516.994235	0.251293
517.357925	0.251549
517.721558	0.250613
518.085133	0.251607
518.448651	0.252730
518.812112	0.256336
519.175516	0.257452
519.538863	0.256439
519.902152	0.259227
520.265385	0.258194
520.628560	0.260739
520.991678	0.263053
521.354739	0.263127
521.717743	0.266218
522.080690	0.267993
522.443580	0.267794
522.806413	0.270161
523.169189	0.271621
523.531908	0.272094
523.894569	0.277611
524.257174	0.279602
524.619722	0.279689
524.982213	0.282154
525.344647	0.284035
525.707025	0.286386
526.069345	0.287064
526.431608	0.291622
526.793815	0.291766
527.155964	0.298309
527.518057	0.298952
527.880093	0.302728
528.242072	0.303819
528.603995	0.308683
528.965860	0.312858
529.327669	0.314706
529.689421	0.318175
530.051117	0.321646
530.412755	0.323441
530.774337	0.327531
531.135862	0.332017
531.497331	0.333730
531.858743	0.339854
532.220098	0.339431
532.581396	0.345334
532.942638	0.348662
533.303824	0.353164
533.664953	0.356910
534.026025	0.361487
534.387040	0.363501
534.747999	0.366485
535.108902	0.369471
535.469748	0.377649
535.830537	0.379198
536.191270	0.383414
536.551947	0.386550
536.912567	0.390663
537.273131	0.395325
537.633638	0.399642
537.994089	0.404273
538.354483	0.409078
538.714821	0.410068
539.075103	0.414055
539.435328	0.418959
539.795497	0.425413
540.155609	0.427621
540.515665	0.429519
540.875665	0.438437
541.235609	0.442099
541.595496	0.445821
541.955328	0.448354
542.315102	0.453897
542.674821	0.458782
543.034483	0.463009
543.394090	0.467011
543.753640	0.472855
544.113134	0.474498
544.472571	0.481301
544.831953	0.483476
545.191278	0.491029
545.550548	0.494674
545.909761	0.496588
546.268918	0.502707
546.628019	0.505668
546.987064	0.512894
547.346053	0.517536
547.704986	0.521787
548.063863	0.526096
548.422684	0.530594
548.781449	0.537166
549.140158	0.540005
549.498811	0.546094
549.857408	0.552086
550.215949	0.554319
550.574434	0.561437
550.932864	0.565563
551.291237	0.567692
551.649555	0.575190
552.007817	0.578768
552.366022	0.584122
552.724173	0.589194
553.082267	0.592743
553.440305	0.597793
553.798288	0.602852
554.156215	0.607081
554.514086	0.612220
554.871902	0.618250
555.229661	0.622010
555.587365	0.626800
555.945014	0.632559
556.302606	0.636211
556.660143	0.641477
557.017625	0.645152
557.375050	0.650142
557.732421	0.653143
558.089735	0.659227
558.446994	0.663045
558.804197	0.667535
559.161345	0.671920
559.518437	0.677013
559.875474	0.682234
560.232455	0.686526
560.589381	0.690381
560.946251	0.696249
561.303065	0.698303
561.659825	0.704052
562.016528	0.708887
562.373177	0.713250
562.729770	0.718642
563.086307	0.721783
563.442789	0.725948
563.799216	0.732767
564.155587	0.736227
564.511904	0.741280
564.868164	0.744546
565.224370	0.748326
565.580520	0.755073
565.936615	0.757429
566.292654	0.763973
566.648638	0.766584
567.004567	0.770480
567.360441	0.774674
567.716260	0.779156
568.072023	0.781815
568.427732	0.786950
568.783385	0.789645
569.138982	0.794182
569.494525	0.797229
569.850013	0.801995
570.205445	0.805779
570.560823	0.808372
570.916145	0.813423
571.271412	0.815703
571.626625	0.820074
571.981782	0.822888
572.336884	0.827254
572.691931	0.829087
573.046923	0.835004
573.401860	0.837299
573.756743	0.841159
574.111570	0.844195
574.466342	0.847134
574.821059	0.849466
575.175722	0.853656
575.530330	0.856515
575.884882	0.858695
576.239380	0.863156
576.593823	0.865223
576.948211	0.867793
577.302544	0.871122
577.656823	0.874572
578.011047	0.875984
578.365216	0.879898
578.719330	0.882309
579.073389	0.884528
579.427394	0.887043
579.781344	0.889760
580.135239	0.891884
580.489080	0.894794
580.842866	0.897594
581.196597	0.899077
581.550273	0.901192
581.903895	0.903752
582.257463	0.905591
582.610975	0.907772
582.964434	0.910050
583.317837	0.912986
583.671186	0.914608
584.024481	0.916037
584.377721	0.917530
584.730906	0.920217
585.084037	0.923302
585.437113	0.924302
585.790135	0.926710
586.143103	0.927826
586.496016	0.929981
586.848874	0.931261
587.201679	0.932560
587.554428	0.934702
587.907124	0.937158
588.259765	0.938177
588.612352	0.939286
588.964884	0.941175
589.317362	0.942396
589.669786	0.943466
590.022155	0.944280
590.374470	0.946181
590.726731	0.947288
591.078937	0.949465
591.431090	0.950518
591.783188	0.951920
592.135232	0.954083
592.487222	0.954449
592.839157	0.954496
593.191038	0.956312
593.542866	0.957414
593.894639	0.957623
594.246358	0.959921
594.598022	0.960650
594.949633	0.962202
595.301190	0.962274
595.652692	0.963884
596.004141	0.964412
596.355535	0.965355
596.706876	0.966916
597.058162	0.967748
597.409395	0.968551
597.760573	0.968963
598.111698	0.970325
598.462768	0.970199
598.813785	0.970881
599.164748	0.971861
599.515657	0.972840
599.866511	0.973724
600.217312	0.975282
600.568060	0.975221
600.918753	0.975183
601.269392	0.976172
601.619978	0.976810
601.970510	0.977144
602.320988	0.977596
602.671412	0.977759
603.021783	0.979423
603.372100	0.979875
603.722363	0.980351
604.072572	0.980501
604.422728	0.981140
604.772830	0.980945
605.122878	0.981511
605.472872	0.982448
605.822813	0.981209
606.172701	0.982977
606.522534	0.984014
606.872314	0.984042
607.222041	0.983744
607.571714	0.984600
607.921333	0.984297
608.270899	0.984181
608.620411	0.985337
608.969870	0.986022
609.319276	0.985362
609.668627	0.986122
610.017926	0.985545
610.367171	0.986598
610.716362	0.986457
611.065500	0.986397
611.414585	0.986897
611.763616	0.986833
612.112594	0.987264
612.461518	0.986727
612.810389	0.987723
613.159207	0.987221
613.507971	0.987095
613.856682	0.989256
614.205340	0.987580
614.553945	0.988932
614.902496	0.987650
615.250994	0.988746
615.599439	0.989025
615.947830	0.988415
616.296169	0.988642
616.644454	0.989420
616.992686	0.988815
617.340864	0.989648
617.688990	0.988449
618.037063	0.989782
618.385082	0.990051
618.733048	0.989133
619.080961	0.989050
619.428821	0.989297
619.776628	0.989965
620.124382	0.990740
620.472083	0.990102
620.819731	0.991155
621.167326	0.989944
621.514868	0.990853
621.862357	0.990747
622.209793	0.990981
622.557176	0.990677
622.904506	0.990257
623.251783	0.991570
623.599007	0.991130
623.946179	0.991254
624.293297	0.991191
624.640363	0.991913
624.987376	0.990373
625.334336	0.991366
625.681243	0.991765
626.028097	0.991898
626.374899	0.991926
626.721647	0.991613
627.068343	0.991861
627.414987	0.991797
627.761577	0.991243
628.108115	0.991637
628.454600	0.992392
628.801032	0.992061
629.147412	0.991750
629.493739	0.993015
629.840014	0.991503
630.186236	0.990904
630.532405	0.991717
630.878521	0.991085
631.224585	0.991753
631.570597	0.992106
631.916556	0.992130
632.262462	0.990999
632.608316	0.992411
632.954117	0.992001
633.299866	0.992227
633.645562	0.992721
633.991206	0.992393
634.336797	0.992077
634.682336	0.993597
635.027823	0.992978
635.373257	0.992830
635.718639	0.993236
636.063968	0.992188
636.409245	0.992655
636.754470	0.992851
637.099642	0.992755
637.444762	0.993190
637.789829	0.991944
638.134845	0.991924
638.479808	0.993176
638.824719	0.993139
639.169577	0.993294
639.514383	0.993440
639.859137	0.993179
640.203839	0.992737
640.548489	0.993491
640.893086	0.992411
641.237632	0.994034
641.582125	0.992997
641.926566	0.994384
642.270955	0.992867
642.615292	0.992390
642.959576	0.993783
643.303809	0.993624
643.647990	0.993377
643.992118	0.993577
644.336195	0.993012
644.680219	0.993539
645.024192	0.993273
645.368112	0.992646
645.711981	0.992247
646.055797	0.993760
646.399562	0.993008
646.743274	0.993630
647.086935	0.992669
647.430544	0.993403
647.774101	0.992788
648.117606	0.993693
648.461059	0.994263
648.804460	0.993289
649.147810	0.992648
649.491108	0.992066
649.834354	0.993013
650.177548	0.993188
650.520690	0.992561
650.863781	0.992972
651.206820	0.992742
651.549807	0.993100
651.892742	0.993148
652.235626	0.993558
652.578458	0.992883
652.921238	0.993722
653.263967	0.994161
653.606644	0.992389
653.949269	0.993953
654.291843	0.992916
654.634365	0.993903
654.976836	0.992517
655.319255	0.994552
655.661622	0.993780
656.003938	0.992936
656.346203	0.992908
656.688416	0.994351
657.030577	0.993079
657.372687	0.994497
657.714746	0.994104
658.056753	0.992471
658.398708	0.993067
658.740612	0.994759
659.082465	0.993270
659.424266	0.993676
659.766016	0.992740
660.107715	0.993592
660.449362	0.992929
660.790958	0.993273
661.132503	0.993874
661.473996	0.993628
661.815438	0.993226
662.156829	0.993663
662.498168	0.994537
662.839456	0.992288
663.180693	0.993401
663.521879	0.993644
663.863013	0.994017
664.204097	0.992998
664.545129	0.993775
664.886110	0.993806
665.227040	0.993265
665.567918	0.993025
665.908746	0.993251
666.249522	0.992604
666.590248	0.993178
666.930922	0.993381
667.271545	0.993540
667.612118	0.992594
667.952639	0.993209
668.293109	0.992988
668.633528	0.992502
668.973896	0.993413
669.314213	0.992782
669.654480	0.993249
669.994695	0.992590
670.334859	0.993740
670.674973	0.993732
671.015035	0.993081
671.355047	0.992542
671.695008	0.992952
672.034918	0.992937
672.374777	0.993192
672.714585	0.993802
673.054342	0.993442
673.394049	0.992686
673.733705	0.992890
674.073310	0.993239
674.412864	0.992673
674.752368	0.992974
675.091820	0.994106
675.431223	0.993318
675.770574	0.992465
676.109875	0.992775
676.449125	0.993319
676.788324	0.992876
677.127473	0.993990
677.466571	0.992560
677.805619	0.993173
678.144616	0.994068
678.483562	0.994271
678.822458	0.993596
679.161303	0.993287
679.500098	0.994282
679.838842	0.994936
680.177535	0.992750
680.516179	0.992462
680.854771	0.993156
681.193314	0.992536
681.531805	0.993710
681.870247	0.993335
682.208638	0.993065
682.546978	0.992567
682.885268	0.992569
683.223508	0.992756
683.561697	0.993408
683.899836	0.992548
684.237925	0.993378
684.575963	0.993954
684.913951	0.993660
685.251889	0.993018
685.589776	0.992079
685.927614	0.992682
686.265401	0.992353
686.603137	0.992614
686.940824	0.991884
687.278460	0.993131
687.616046	0.992945
687.953582	0.992627
688.291068	0.993231
688.628504	0.992946
688.965889	0.992187
689.303224	0.991348
689.640510	0.992036
689.977745	0.992564
690.314930	0.992457
690.652065	0.993138
690.989150	0.991939
691.326185	0.993812
691.663170	0.992763
692.000105	0.992396
692.336990	0.992773
692.673825	0.992776
693.010610	0.992237
693.347345	0.992753
693.684030	0.993495
694.020665	0.992385
694.357251	0.993312
694.693786	0.993201
695.030272	0.991734
695.366707	0.993116
695.703093	0.993177
696.039429	0.993409
696.375716	0.994059
696.711952	0.992055
697.048139	0.993864
697.384276	0.993568
697.720363	0.994027
698.056400	0.992337
698.392388	0.992374
698.728326	0.992830
699.064214	0.994255
699.400053	0.993106
699.735842	0.994894
700.071581	0.993883
700.407270	0.993451
700.742910	0.993080
701.078501	0.993929
701.414042	0.994924
701.749533	0.992484
702.084974	0.993879
702.420366	0.993357
702.755709	0.993909
703.091002	0.994037
703.426246	0.994837
703.761440	0.993222
704.096584	0.992968
704.431679	0.992939
704.766725	0.994178
705.101721	0.994475
705.436668	0.993716
705.771565	0.993869
706.106413	0.992034
706.441212	0.994200
706.775961	0.994605
707.110661	0.993802
707.445311	0.993955
707.779913	0.994744
708.114465	0.994275
708.448967	0.994800
708.783421	0.994559
709.117825	0.993641
709.452180	0.993545
709.786485	0.994377
710.120742	0.993614
710.454949	0.993359
710.789107	0.993681
711.123216	0.991692
711.457275	0.992978
711.791286	0.992861
712.125247	0.994067
712.459159	0.992171
712.793023	0.991942
713.126837	0.992950
713.460602	0.992990
713.794318	0.992870
714.127985	0.991669
714.461602	0.992252
714.795171	0.992628
715.128691	0.992644
715.462162	0.992793
715.795584	0.993507
716.128957	0.993142
716.462281	0.992830
716.795556	0.993011
717.128782	0.994120
717.461960	0.993812
717.795088	0.994066
718.128167	0.995336
718.461198	0.993758
718.794180	0.993838
719.127113	0.993398
719.459997	0.993126
719.792833	0.994251
720.125619	0.993004
720.458357	0.993471
720.791046	0.994450
721.123686	0.993518
721.456278	0.994049
721.788821	0.993857
722.121315	0.994346
722.453761	0.994257
722.786158	0.993361
723.118506	0.994079
723.450805	0.993824
723.783056	0.995327
724.115259	0.993845
724.447412	0.994035
724.779518	0.994334
725.111574	0.993943
725.443582	0.993729
725.775542	0.994235
726.107453	0.994620
726.439315	0.995423
726.771129	0.994710
727.102895	0.993856
727.434612	0.993512
727.766281	0.993613
728.097901	0.993680
728.429473	0.994074
728.760996	0.992950
729.092471	0.993251
729.423897	0.993811
729.755276	0.993288
730.086606	0.993661
730.417887	0.994036
730.749120	0.993656
731.080305	0.994166
731.411442	0.991887
731.742530	0.992767
732.073570	0.992362
732.404562	0.993101
732.735506	0.993540
733.066401	0.992684
733.397249	0.992792
733.728048	0.993290
734.058798	0.993923
734.389501	0.994044
734.720156	0.993721
735.050762	0.994229
735.381320	0.994139
735.711831	0.993565
736.042293	0.994200
736.372707	0.995010
736.703073	0.992810
737.033391	0.993654
737.363661	0.994779
737.693883	0.994538
738.024056	0.993416
738.354182	0.993794
738.684260	0.994525
739.014290	0.993926
739.344272	0.993728
739.674207	0.993913
740.004093	0.993993
740.333931	0.993459
740.663722	0.993724
740.993464	0.993565
741.323159	0.993365
741.652806	0.994140
741.982405	0.993524
742.311956	0.993851
742.641460	0.993705
742.970915	0.994341
743.300323	0.992930
743.629683	0.993402
743.958996	0.995294
744.288260	0.993107
744.617477	0.993912
744.946647	0.994538
745.275768	0.995167
745.604842	0.993960
745.933869	0.994202
746.262847	0.995415
746.591778	0.994106
746.920662	0.995007
747.249498	0.996134
747.578286	0.996241
747.907027	0.994810
748.235720	0.994983
748.564365	0.994970
748.892963	0.994434
749.221514	0.995397
749.550017	0.993750
749.878473	0.994428
750.206881	0.995722
750.535242	0.993707
750.863555	0.993573
751.191821	0.994510
751.520039	0.994597
751.848210	0.993415
752.176334	0.994214
752.504411	0.994091
752.832440	0.994581
753.160421	0.994818
753.488356	0.994898
753.816243	0.994193
754.144082	0.994574
754.471875	0.995031
754.799620	0.995088
755.127318	0.995515
755.454969	0.993458
755.782572	0.996249
756.110129	0.994794
756.437638	0.996472
756.765100	0.995537
757.092515	0.994466
757.419882	0.993590
757.747203	0.994764
758.074477	0.996143
758.401703	0.994746
758.728882	0.994231
759.056014	0.995289
759.383099	0.994457
759.710138	0.993838
760.037129	0.994893
760.364073	0.995612
760.690970	0.993855
761.017820	0.993758
761.344623	0.994668
761.671379	0.994841
761.998088	0.994876
762.324751	0.993650
762.651366	0.993421
762.977935	0.991447
763.304456	0.991741
763.630931	0.988878
763.957359	0.988339
764.283740	0.989943
764.610074	0.991419
764.936362	0.991411
765.262602	0.993683
765.588796	0.994161
765.914943	0.993341
766.241044	0.993708
766.567097	0.994522
766.893104	0.993997
767.219064	0.994361
767.544978	0.994616
767.870845	0.993762
768.196665	0.994991
768.522438	0.996622
768.848165	0.995752
769.173846	0.995674
769.499479	0.997026
769.825066	0.996493
770.150607	0.997026
770.476101	0.995911
770.801548	0.996112
771.126949	0.997057
771.452303	0.996309
771.777611	0.996329
772.102872	0.995787
772.428087	0.995709
772.753256	0.996513
773.078378	0.996457
773.403453	0.994924
773.728482	0.997230
774.053465	0.995437
774.378401	0.996662
774.703291	0.996502
775.028135	0.998069
775.352932	0.995704
775.677683	0.997458
776.002388	0.996704
776.327046	0.996579
776.651658	0.997995
776.976224	0.997065
777.300743	0.996216
777.625216	0.996457
777.949643	0.997145
778.274024	0.996599
778.598359	0.997179
778.922647	0.997945
779.246889	0.997255
779.571086	0.996289
779.895236	0.996145
780.219339	0.998122
780.543397	0.995748
780.867409	0.997790
781.191374	0.997591
781.515294	0.996986
781.839167	0.998060
782.162995	0.996939
782.486776	0.996892
782.810511	0.996782
783.134201	0.998189
783.457844	0.996837
783.781441	0.996263
784.104993	0.995706
784.428498	0.997841
784.751958	0.998630
785.075372	0.997817
785.398739	0.996533
785.722061	0.996395
786.045337	0.997064
786.368568	0.995550
786.691752	0.997205
787.014891	0.996707
787.337983	0.995758
787.661030	0.996010
787.984031	0.996321
788.306987	0.995690
788.629897	0.994895
788.952760	0.996455
789.275579	0.995714
789.598351	0.996054
789.921078	0.996926
790.243759	0.996943
790.566395	0.996243
790.888984	0.996674
791.211529	0.997100
791.534027	0.996885
791.856480	0.997363
792.178888	0.996537
792.501249	0.997863
792.823566	0.999132
793.145836	0.997058
793.468062	0.996668
793.790241	0.998036
794.112375	0.995622
794.434464	0.998290
794.756507	0.997862
795.078505	0.997471
795.400457	0.997103
795.722364	0.996907
796.044226	0.997858
796.366042	0.996646
796.687812	0.995229
797.009538	0.996463
797.331218	0.996989
797.652852	0.997016
797.974442	0.995665
798.295986	0.997656
798.617484	0.994468
798.938938	0.997006
799.260346	0.996911
799.581709	0.996248
799.903026	0.997773
800.224299	0.996442
800.545526	0.997135
800.866708	0.996961
801.187845	0.997149
801.508936	0.997420
801.829983	0.996843
802.150984	0.997707
802.471940	0.997834
802.792851	0.997783
803.113717	0.998064
803.434538	0.998690
803.755314	0.999562
804.076045	0.998178
804.396731	0.997153
804.717372	0.996803
805.037967	0.998343
805.358518	0.997826
805.679024	0.997371
805.999485	0.997469
806.319901	0.997345
806.640272	0.998960
806.960598	0.996890
807.280879	0.996618
807.601115	0.997663
807.921306	0.998388
808.241453	0.997546
808.561554	0.996377
808.881611	0.997897
809.201623	0.996606
809.521590	0.997093
809.841513	0.998064
810.161390	0.996766
810.481223	0.997266
810.801011	0.997526
811.120755	0.998461
811.440453	0.996960
811.760107	0.998051
812.079716	0.997331
812.399281	0.997471
812.718801	0.998433
813.038276	0.997958
813.357707	0.997191
813.677093	0.998680
813.996434	0.997480
814.315731	0.997860
814.634983	0.997841
814.954191	0.998731
815.273354	0.997348
815.592473	0.997903
815.911547	0.998055
816.230577	0.996303
816.549562	0.997818
816.868502	0.996152
817.187399	0.997667
817.506250	0.997843
817.825058	0.995967
818.143821	0.997694
818.462539	0.996822
818.781213	0.996219
819.099843	0.995519
819.418429	0.995732
819.736970	0.995958
820.055466	0.993939
820.373919	0.992789
820.692327	0.991535
821.010691	0.990920
821.329011	0.987279
821.647286	0.983153
821.965517	0.979857
822.283704	0.976327
822.601847	0.973649
822.919945	0.974775
823.237999	0.977683
823.556010	0.978349
823.873976	0.981512
824.191897	0.983192
824.509775	0.986030
824.827609	0.986536
825.145398	0.987916
825.463144	0.987341
825.780845	0.988376
826.098502	0.988205
826.416116	0.987111
826.733685	0.984138
827.051210	0.982228
827.368692	0.982844
827.686129	0.983719
828.003522	0.986992
828.320872	0.988769
828.638177	0.990895
828.955439	0.992480
829.272656	0.993217
829.589830	0.993242
829.906960	0.995035
830.224046	0.994537
830.541088	0.994358
830.858086	0.995418
831.175041	0.996860
831.491952	0.995512
831.808819	0.995797
832.125642	0.995444
832.442421	0.995877
832.759157	0.994828
833.075849	0.992451
833.392497	0.991010
833.709101	0.988252
834.025662	0.989277
834.342179	0.989512
834.658653	0.991205
834.975083	0.992383
835.291469	0.992892
835.607811	0.994400
835.924110	0.994763
836.240366	0.996421
836.556578	0.996861
836.872746	0.997513
837.188871	0.997358
837.504952	0.996950
837.820990	0.997889
838.136984	0.998086
838.452935	0.998023
838.768842	0.997072
839.084706	0.997849
839.400526	0.998297
839.716303	0.994628
840.032037	0.993461
840.347727	0.993594
840.663373	0.994337
840.978977	0.994837
841.294537	0.997545
841.610054	0.997388
841.925527	0.997968
842.240957	0.998296
842.556344	0.997908
842.871687	0.997873
843.186987	0.999317
843.502244	0.998878
843.817458	0.998599
844.132629	0.999320
844.447756	0.998628
844.762840	0.999846
845.077881	0.999315
845.392879	0.998025
845.707833	0.998202
846.022745	1.000114
846.337613	0.999864
846.652438	0.998791
846.967221	0.998389
847.281960	0.998986
847.596656	0.999492
847.911309	1.000567
848.225919	0.998948
848.540485	0.999836
848.855009	0.999873
849.169490	0.999536
849.483928	0.999735
849.798323	0.997711
850.112675	1.000864
850.426984	0.999580
850.741251	0.999837
851.055474	0.998719
851.369654	1.000563
851.683792	0.999001
851.997887	0.999718
852.311938	1.000699
852.625947	0.998765
852.939914	0.999304
853.253837	1.001473
853.567718	0.998895
853.881555	0.999815
854.195350	0.999634
854.509103	1.000208
854.822812	0.999787
855.136479	0.999388
855.450103	0.999128
855.763685	1.000310
856.077224	0.999647
856.390720	0.999570
856.704173	1.000178
857.017584	0.999587
857.330953	1.000673
857.644278	0.999943
857.957561	0.999222
858.270802	0.999528
858.584000	1.000750
858.897155	0.999612
859.210268	1.000306
859.523339	1.000283
859.836367	0.999821
860.149352	0.998810
860.462295	0.999689
860.775195	0.999223
861.088054	0.998595
861.400869	0.998848
861.713642	0.999087
862.026373	1.001331
862.339062	0.999998
862.651708	0.999735
862.964312	1.000089
863.276873	0.999486
863.589392	0.999669
863.901869	0.998810
864.214303	0.999325
864.526696	0.999669
864.839045	0.999324
865.151353	0.999500
865.463619	0.998200
865.775842	0.999555
866.088023	1.000391
866.400162	0.999157
866.712258	1.000217
867.024313	0.999107
867.336325	1.000391
867.648296	0.999797
867.960224	1.000038
868.272110	0.998959
868.583954	0.999344
868.895755	0.999563
869.207515	0.998983
869.519233	1.000071
869.830909	0.997930
870.142542	0.998444
870.454134	0.999783
870.765684	0.998604
871.077191	0.999369
871.388657	0.998062
871.700081	0.999612
872.011463	0.999478
872.322803	0.999033
872.634101	0.997668
872.945357	0.998051
873.256571	0.998496
873.567744	0.998870
873.878874	0.998439
874.189963	0.998075
874.501010	1.000122
874.812015	0.998128
875.122979	0.998467
875.433900	0.997948
875.744780	0.998676
876.055618	0.997489
876.366415	0.997724
876.677169	0.998318
876.987882	0.998693
877.298554	0.997875
877.609183	0.998208
877.919771	0.997886
878.230317	0.998765
878.540822	0.996263
878.851285	0.997210
879.161707	0.997316
879.472087	0.996819
879.782425	0.993583
880.092722	0.992124
880.402977	0.988744
880.713191	0.984108
881.023363	0.980030
881.333494	0.977681
881.643583	0.977619
881.953631	0.977809
882.263637	0.976639
882.573602	0.978211
882.883526	0.980617
883.193408	0.983049
883.503248	0.984558
883.813048	0.986357
884.122806	0.988826
884.432522	0.989431
884.742197	0.991534
885.051831	0.991891
885.361424	0.993077
885.670975	0.994748
885.980485	0.994064
886.289954	0.994614
886.599382	0.994735
886.908768	0.996595
887.218113	0.995944
887.527417	0.995979
887.836680	0.997519
888.145901	0.998004
888.455082	0.998319
888.764221	0.998172
889.073319	0.996932
889.382376	0.998073
889.691392	0.996556
890.000366	0.998508
890.309300	0.997397
890.618193	0.998474
890.927044	0.997466
891.235855	0.998380
891.544625	0.997752
891.853353	0.998202
892.162041	0.997689
892.470687	0.996916
892.779293	0.996315
893.087858	0.996110
893.396381	0.996648
893.704864	0.994035
894.013306	0.993379
894.321707	0.991856
894.630068	0.988375
894.938387	0.988350
895.246665	0.988078
895.554903	0.988892
895.863100	0.991574
896.171256	0.992050
896.479371	0.993361
896.787446	0.994090
897.095480	0.995135
897.403473	0.995533
897.711425	0.995625
898.019336	0.995976
898.327207	0.997988
898.635038	0.996078
898.942827	0.997125
899.250576	0.997973
899.558284	0.997286
899.865952	0.996304
900.173579	0.997852
900.481165	0.998625
900.788711	0.997816
901.096216	0.997668
901.403681	0.997694
901.711105	0.998801
902.018489	0.997946
902.325832	0.998826
902.633135	0.997849
902.940397	0.999093
903.247619	0.995843
903.554800	0.993836
903.861941	0.991726
904.169041	0.987907
904.476101	0.986331
904.783121	0.985285
905.090100	0.987375
905.397039	0.989253
905.703938	0.992085
906.010796	0.991954
906.317614	0.993747
906.624391	0.995813
906.931129	0.996969
907.237826	0.997127
907.544483	0.997346
907.851099	0.998168
908.157675	0.997702
908.464211	0.998966
908.770707	0.998175
909.077163	0.999628
909.383578	0.998728
909.689954	0.999132
909.996289	0.999054
910.302584	0.999406
910.608839	1.000960
910.915054	0.999701
911.221229	1.000337
911.527363	0.998916
911.833458	0.999736
912.139513	0.999014
912.445527	0.999670
912.751502	1.000026
913.057436	0.997443
913.363331	0.999195
913.669186	0.999248
913.975000	0.998191
914.280775	0.997480
914.586510	0.995245
914.892205	0.994891
915.197859	0.993425
915.503475	0.991440
915.809050	0.988867
916.114585	0.985352
916.420081	0.986152
916.725536	0.987688
917.030952	0.988430
917.336328	0.988245
917.641665	0.989362
917.946961	0.991047
918.252218	0.992602
918.557435	0.992985
918.862612	0.994672
919.167750	0.994551
919.472848	0.996639
919.777906	0.996687
920.082925	0.998656
920.387904	0.998355
920.692843	0.997876
920.997743	0.996878
921.302603	0.998191
921.607423	0.996974
921.912204	0.999111
922.216946	0.999621
922.521647	0.998639
922.826310	0.997834
923.130932	0.998607
923.435516	1.000226
923.740059	0.999084
924.044564	0.998655
924.349028	0.998122
924.653454	0.999770
924.957840	0.999620
925.262186	1.000032
925.566493	0.998587
925.870761	0.999561
926.174989	0.999168
926.479178	1.000797
926.783328	0.999613
927.087438	1.000402
927.391509	0.999617
927.695541	0.999982
927.999533	1.000906
928.303486	0.999831
928.607400	1.000251
928.911275	1.001691
929.215110	1.001605
929.518906	1.001336
929.822663	1.001316
930.126381	1.001081
930.430060	1.000067
930.733699	1.002320
931.037299	1.002162
931.340861	1.000161
931.644383	0.999862
931.947866	1.000737
932.251309	1.000502
932.554714	1.000029
932.858080	0.999808
933.161407	0.999684
933.464694	0.999914
933.767943	0.999989
934.071153	0.999756
934.374323	1.001902
934.677455	1.000397
934.980548	1.000459
935.283602	1.001587
935.586617	0.999339
935.889593	1.001636
936.192530	1.001647
936.495428	1.000295
936.798287	0.999609
937.101108	1.000130
937.403890	0.999936
937.706632	1.002020
938.009336	0.999834
938.312002	0.999030
938.614628	0.999384
938.917216	0.999802
939.219765	0.998972
939.522275	1.000338
939.824747	0.998826
940.127179	0.999343
940.429573	1.000344
940.731929	0.999959
941.034246	0.999530
941.336524	0.999113
941.638763	0.999523
941.940964	0.998619
942.243126	0.999088
942.545250	1.000141
942.847335	1.000962
943.149381	1.000712
943.451389	0.999640
943.753359	0.999229
944.055290	1.001124
944.357182	1.000498
944.659036	1.001299
944.960851	0.999631
945.262628	1.000625
945.564367	1.000527
945.866067	1.000103
946.167729	1.000981
946.469352	0.999959
946.770937	0.998873
947.072484	1.000726
947.373992	1.000828
947.675462	0.999962
947.976893	0.999695
948.278286	1.001788
948.579641	1.002119
948.880958	1.000504
949.182236	1.000502
949.483476	1.002644
949.784678	1.000771
950.085841	1.000267
950.386967	0.999739
950.688054	1.001048
950.989103	0.999043
951.290114	0.999401
951.591087	1.000950
951.892021	1.000243
952.192917	1.000790
952.493776	1.000057
952.794596	1.000265
953.095378	0.999484
953.396122	0.999867
953.696828	0.999526
953.997496	1.000847
954.298126	1.000069
954.598718	1.000285
954.899272	1.000047
955.199788	0.999518
955.500266	1.002987
955.800706	1.000442
956.101108	1.000783
956.401472	1.002473
956.701798	1.000931
957.002087	1.001360
957.302337	1.000844
957.602550	1.001605
957.902724	1.001305
958.202861	0.999737
958.502960	0.999631
958.803022	1.001365
959.103045	1.000524
959.403031	1.002678
959.702979	1.002257
960.002889	1.001838
960.302762	1.001154
960.602596	1.002370
960.902393	1.001299
961.202153	1.001686
961.501875	1.001424
961.801559	1.002684
962.101205	1.000531
962.400814	1.002588
962.700385	1.002707
962.999918	1.001714
963.299414	0.999685
963.598873	1.002053
963.898293	1.001925
964.197677	1.000395
964.497022	1.001586
964.796331	1.000114
965.095601	1.002975
965.394835	1.000742
965.694030	1.001353
965.993189	1.001237
966.292309	1.001242
966.591393	1.000444
966.890439	1.002362
967.189447	1.000596
967.488419	1.001773
967.787353	1.001768
968.086249	1.001784
968.385108	1.002227
968.683930	1.001666
968.982714	1.001096
969.281462	1.001477
969.580172	1.001414
969.878844	1.002569
970.177480	1.001525
970.476078	1.001947
970.774639	1.002097
971.073162	1.001644
971.371649	1.001889
971.670098	1.002233
971.968510	1.001682
972.266885	1.001265
972.565223	1.001390
972.863524	1.000369
973.161788	1.001995
973.460014	1.002413
973.758204	1.001158
974.056356	1.001280
974.354471	1.000705
974.652550	1.001615
974.950591	1.001729
975.248595	1.000203
975.546563	1.002465
975.844493	1.002422
976.142386	1.000202
976.440243	1.001778
976.738062	1.001774
977.035845	1.001063
977.333590	1.001999
977.631299	1.000428
977.928971	1.001571
978.226606	1.001026
978.524204	1.001225
978.821765	1.002811
979.119290	1.002191
979.416777	1.002419
979.714228	1.001373
980.011642	1.002937
980.309020	1.001647
980.606360	1.001211
980.903664	1.002549
981.200931	1.001414
981.498162	1.001697
981.795356	1.001336
982.092513	1.001033
982.389633	1.001945
982.686717	0.999576
982.983764	1.000282
983.280775	1.001454
983.577749	1.001454
983.874686	1.000073
984.171587	1.000578
984.468451	1.000586
984.765279	1.001832
985.062070	1.000477
985.358824	1.000736
985.655543	1.001443
985.952224	1.001661
986.248869	1.001568
986.545478	1.002535
986.842050	1.001266
987.138586	1.001151
987.435086	1.002434
987.731549	1.002301
988.027975	1.002882
988.324366	1.001182
988.620719	1.001673
988.917037	1.001850
989.213318	1.002265
989.509563	1.001865
989.805772	1.002301
990.101944	1.001766
990.398080	1.001850
990.694180	1.001554
990.990244	1.000810
991.286271	1.002541
991.582262	1.002387
991.878217	1.001518
992.174136	1.002120
992.470019	1.000958
992.765865	1.003171
993.061676	1.002717
993.357450	1.003026
993.653188	1.002717
993.948890	1.001164
994.244556	1.001305
994.540186	1.001566
994.835780	1.001697
995.131337	1.001994
995.426859	1.002458
995.722345	1.001765
996.017795	1.000915
996.313208	1.002318
996.608586	1.002934
996.903928	1.001541
997.199234	1.001437
997.494504	1.003103
997.789738	1.001472
998.084936	1.002549
998.380099	1.000963
998.675225	1.002695
998.970316	1.001800
999.265371	1.001610
999.560390	1.002433
999.855373	1.001929
1000.150320	1.001522
1000.445232	1.001528
1000.740108	1.001639
1001.034948	1.001959
1001.329752	1.001768
1001.624521	1.001722
1001.919254	1.000394
1002.213951	1.002653
1002.508613	1.001382
1002.803239	1.000956
1003.097829	1.001767
1003.392384	1.001360
1003.686903	1.002101
1003.981386	1.001776
1004.275834	1.002787
1004.570246	1.001412
1004.864623	1.001706
1005.158964	1.003215
1005.453270	1.001220
1005.747540	1.001829
1006.041775	1.001712
1006.335974	1.002025
1006.630138	1.002317
1006.924266	0.999947
1007.218359	1.000303
1007.512416	1.002679
1007.806438	1.001298
1008.100425	1.002603
1008.394376	1.003116
1008.688292	1.000302
1008.982172	1.000487
1009.276017	1.003034
1009.569827	1.003319
1009.863602	1.000246
1010.157341	1.002559
1010.451045	1.000950
1010.744714	1.003756
1011.038347	1.003159
1011.331945	1.001158
1011.625508	1.001225
1011.919036	1.001696
1012.212528	1.002593
1012.505986	1.002168
1012.799408	1.001752
1013.092795	1.003111
1013.386147	1.001070
1013.679464	1.002915
1013.972745	1.002169
1014.265992	1.001937
1014.559204	1.002242
1014.852380	1.003213
1015.145521	1.002527
1015.438628	1.002698
1015.731699	1.001090
1016.024736	1.003122
1016.317737	1.001926
1016.610703	1.001671
1016.903635	1.001770
1017.196531	1.001222
1017.489393	1.002877
1017.782219	1.001980
1018.075011	1.002004
1018.367768	1.001821
1018.660490	1.002679
1018.953177	1.002679
1019.245829	1.002679
