Dividing Wavelength (nm)	Counts (n)	Blue Motor Position (mm): 16.400000	Red Motor Position (mm): 0.000000	
326.493990	1.002092
326.888308	1.002092
327.282561	1.002092
327.676750	1.003348
328.070874	1.002473
328.464933	1.004320
328.858929	1.004052
329.252859	1.002288
329.646726	1.001877
330.040528	1.003653
330.434265	1.002413
330.827938	1.002916
331.221547	1.002907
331.615091	1.002822
332.008571	1.004127
332.401986	1.003196
332.795338	1.001912
333.188625	1.003154
333.581847	1.001159
333.975006	1.002158
334.368100	1.002251
334.761129	1.002445
335.154095	1.003083
335.546996	1.001876
335.939833	0.998249
336.332606	0.999808
336.725315	0.996839
337.117960	0.999874
337.510540	0.998655
337.903056	0.999629
338.295508	0.999501
338.687896	0.999769
339.080220	0.997902
339.472480	0.999541
339.864676	0.999236
340.256807	0.998255
340.648875	0.999673
341.040879	0.997794
341.432818	0.998164
341.824694	0.997674
342.216506	0.999341
342.608253	0.999023
342.999937	0.998060
343.391557	0.999381
343.783113	0.999583
344.174605	0.998749
344.566033	0.997690
344.957397	0.997798
345.348697	0.999703
345.739934	0.998275
346.131106	0.999759
346.522215	0.998814
346.913260	0.999085
347.304241	0.997468
347.695159	0.999108
348.086012	0.998665
348.476802	0.997606
348.867528	0.998193
349.258191	0.999373
349.648789	0.998277
350.039324	1.000182
350.429796	0.997627
350.820203	0.997832
351.210548	0.998465
351.600828	0.998376
351.991045	0.999232
352.381198	0.998397
352.771288	0.998132
353.161314	0.997545
353.551276	0.996949
353.941175	0.997245
354.331010	0.999389
354.720782	0.997824
355.110490	0.997804
355.500135	0.998203
355.889717	0.997376
356.279235	0.997989
356.668689	0.998079
357.058080	0.998289
357.447408	0.998113
357.836672	0.997738
358.225873	0.997981
358.615010	0.998107
359.004084	0.997228
359.393095	0.997696
359.782043	0.997685
360.170927	0.997725
360.559748	0.997329
360.948505	0.997057
361.337199	0.997152
361.725830	0.997593
362.114398	0.997826
362.502903	0.996946
362.891344	0.994723
363.279722	0.996567
363.668037	0.997307
364.056289	0.996853
364.444478	0.998181
364.832603	0.996225
365.220665	0.996956
365.608665	0.997158
365.996601	0.995583
366.384474	0.994714
366.772284	0.996520
367.160031	0.994495
367.547715	0.994555
367.935336	0.995769
368.322893	0.993123
368.710388	0.992557
369.097820	0.991421
369.485189	0.987332
369.872495	0.986627
370.259738	0.985391
370.646918	0.981051
371.034035	0.978590
371.421090	0.976239
371.808081	0.971196
372.195010	0.968669
372.581875	0.962467
372.968678	0.959808
373.355418	0.956316
373.742096	0.948039
374.128710	0.943359
374.515262	0.939602
374.901751	0.933431
375.288177	0.928462
375.674540	0.921716
376.060841	0.915640
376.447079	0.908739
376.833254	0.902013
377.219367	0.898055
377.605417	0.885567
377.991404	0.883214
378.377329	0.876758
378.763191	0.869924
379.148991	0.860887
379.534727	0.854100
379.920402	0.845824
380.306013	0.842033
380.691563	0.828506
381.077049	0.822045
381.462474	0.818194
381.847835	0.807120
382.233134	0.802677
382.618371	0.801484
383.003545	0.785036
383.388657	0.782915
383.773706	0.775718
384.158693	0.771726
384.543618	0.765711
384.928480	0.757079
385.313280	0.747114
385.698017	0.747423
386.082692	0.734665
386.467305	0.734187
386.851856	0.728089
387.236344	0.723057
387.620770	0.717363
388.005133	0.711167
388.389435	0.706316
388.773674	0.703469
389.157851	0.695163
389.541965	0.693386
389.926018	0.699541
390.310008	0.685396
390.693936	0.682976
391.077802	0.675767
391.461606	0.677305
391.845348	0.666006
392.229027	0.665032
392.612645	0.664226
392.996200	0.650907
393.379694	0.644265
393.763125	0.633980
394.146494	0.638920
394.529801	0.629407
394.913047	0.621159
395.296230	0.627157
395.679351	0.618586
396.062410	0.616249
396.445408	0.618923
396.828343	0.612936
397.211217	0.608793
397.594028	0.620269
397.976778	0.611222
398.359466	0.607236
398.742092	0.602873
399.124656	0.614959
399.507158	0.603247
399.889598	0.599720
400.271977	0.591930
400.654294	0.594996
401.036549	0.594579
401.418742	0.598570
401.800874	0.584271
402.182944	0.581166
402.564952	0.573230
402.946898	0.574460
403.328783	0.575379
403.710606	0.587180
404.092367	0.561810
404.474067	0.566801
404.855705	0.565744
405.237282	0.574842
405.618797	0.560638
406.000250	0.556405
406.381642	0.546269
406.762972	0.551789
407.144240	0.550560
407.525447	0.549727
407.906593	0.543853
408.287677	0.538807
408.668700	0.547214
409.049661	0.540853
409.430560	0.536324
409.811399	0.544580
410.192176	0.526775
410.572891	0.533472
410.953545	0.521565
411.334138	0.535181
411.714669	0.527302
412.095139	0.539863
412.475547	0.523807
412.855894	0.525392
413.236180	0.524815
413.616405	0.529845
413.996568	0.520079
414.376670	0.527113
414.756711	0.531382
415.136691	0.528536
415.516609	0.519191
415.896466	0.516774
416.276262	0.512186
416.655997	0.514206
417.035670	0.495723
417.415283	0.486884
417.794834	0.491972
418.174324	0.497317
418.553753	0.506260
418.933121	0.489121
419.312428	0.482901
419.691674	0.488306
420.070859	0.476737
420.449983	0.484940
420.829045	0.473458
421.208047	0.483349
421.586988	0.475896
421.965867	0.474406
422.344686	0.463389
422.723444	0.476295
423.102141	0.492473
423.480777	0.465730
423.859352	0.486788
424.237866	0.463609
424.616319	0.464601
424.994712	0.455295
425.373044	0.465455
425.751314	0.453835
426.129524	0.470563
426.507673	0.453693
426.885762	0.447171
427.263789	0.452702
427.641756	0.462913
428.019662	0.452674
428.397508	0.452798
428.775292	0.455685
429.153016	0.448304
429.530679	0.454497
429.908282	0.447673
430.285824	0.457733
430.663305	0.436046
431.040726	0.457155
431.418086	0.456986
431.795385	0.449244
432.172624	0.448156
432.549802	0.448579
432.926920	0.447080
433.303977	0.446576
433.680974	0.443546
434.057910	0.442723
434.434786	0.441910
434.811601	0.444680
435.188355	0.427317
435.565050	0.436706
435.941683	0.437240
436.318257	0.421296
436.694770	0.422543
437.071222	0.420306
437.447614	0.424813
437.823946	0.431301
438.200218	0.420457
438.576429	0.430387
438.952580	0.423069
439.328670	0.419939
439.704700	0.426618
440.080670	0.428188
440.456580	0.409016
440.832429	0.417042
441.208218	0.427867
441.583947	0.417229
441.959616	0.416163
442.335224	0.422224
442.710773	0.412375
443.086261	0.411106
443.461689	0.424616
443.837057	0.414444
444.212365	0.404196
444.587612	0.411614
444.962800	0.401481
445.337927	0.402706
445.712995	0.429226
446.088002	0.391043
446.462949	0.401392
446.837837	0.406675
447.212664	0.394647
447.587431	0.386498
447.962139	0.356981
448.336786	0.316177
448.711374	0.326612
449.085901	0.371089
449.460369	0.374500
449.834776	0.378784
450.209124	0.357762
450.583412	0.350295
450.957640	0.343523
451.331808	0.355361
451.705917	0.378599
452.079965	0.383357
452.453954	0.371416
452.827883	0.377679
453.201752	0.372479
453.575562	0.384278
453.949311	0.372471
454.323001	0.378511
454.696632	0.374696
455.070202	0.367322
455.443713	0.358557
455.817164	0.353952
456.190556	0.349687
456.563888	0.346462
456.937160	0.344092
457.310373	0.361002
457.683526	0.360427
458.056619	0.365802
458.429653	0.366091
458.802628	0.370057
459.175542	0.364481
459.548398	0.346884
459.921194	0.339158
460.293930	0.339651
460.666607	0.316799
461.039224	0.304959
461.411782	0.300634
461.784280	0.300166
462.156719	0.303870
462.529099	0.308366
462.901419	0.324223
463.273680	0.328629
463.645882	0.328538
464.018024	0.334468
464.390106	0.327120
464.762130	0.311363
465.134094	0.294740
465.505999	0.263644
465.877845	0.233874
466.249631	0.220836
466.621358	0.228418
466.993026	0.242123
467.364634	0.248636
467.736184	0.257097
468.107674	0.265961
468.479105	0.265336
468.850477	0.272097
469.221790	0.278690
469.593043	0.289119
469.964238	0.293725
470.335373	0.293305
470.706449	0.291623
471.077467	0.291996
471.448425	0.253863
471.819324	0.229598
472.190164	0.228965
472.560945	0.258135
472.931667	0.280465
473.302330	0.284412
473.672934	0.296302
474.043479	0.284407
474.413965	0.286429
474.784393	0.289404
475.154761	0.284788
475.525070	0.282151
475.895321	0.287610
476.265513	0.281801
476.635645	0.277514
477.005719	0.277057
477.375734	0.273542
477.745691	0.266918
478.115588	0.263230
478.485427	0.256808
478.855207	0.243720
479.224928	0.226236
479.594591	0.214093
479.964194	0.217568
480.333739	0.218769
480.703226	0.220114
481.072653	0.218438
481.442022	0.214375
481.811333	0.211011
482.180584	0.214303
482.549777	0.219906
482.918912	0.223354
483.287988	0.222992
483.657005	0.222687
484.025964	0.228902
484.394864	0.226362
484.763706	0.226910
485.132489	0.232059
485.501213	0.232655
485.869879	0.231097
486.238487	0.234186
486.607036	0.232129
486.975527	0.236758
487.343959	0.232734
487.712333	0.231927
488.080648	0.233239
488.448905	0.232389
488.817104	0.233586
489.185244	0.227777
489.553326	0.225257
489.921350	0.214664
490.289315	0.197012
490.657222	0.192227
491.025070	0.193529
491.392861	0.195380
491.760593	0.201060
492.128267	0.207022
492.495883	0.212411
492.863440	0.218699
493.230939	0.225191
493.598380	0.226829
493.965763	0.228857
494.333088	0.230886
494.700354	0.232851
495.067563	0.231574
495.434713	0.234871
495.801805	0.232619
496.168839	0.234445
496.535815	0.235748
496.902733	0.235622
497.269593	0.237031
497.636395	0.234764
498.003139	0.235049
498.369825	0.238233
498.736453	0.234605
499.103023	0.236416
499.469535	0.235854
499.835989	0.235884
500.202385	0.236879
500.568723	0.240235
500.935003	0.235487
501.301226	0.239555
501.667390	0.233741
502.033497	0.231864
502.399546	0.234676
502.765537	0.236963
503.131470	0.235194
503.497345	0.231762
503.863163	0.240029
504.228923	0.233320
504.594625	0.232068
504.960269	0.237345
505.325856	0.232758
505.691385	0.237003
506.056856	0.234020
506.422270	0.233343
506.787625	0.235852
507.152924	0.233287
507.518164	0.233742
507.883347	0.235427
508.248472	0.236986
508.613540	0.232004
508.978550	0.234640
509.343503	0.235095
509.708398	0.232728
510.073236	0.230559
510.438016	0.230155
510.802738	0.231358
511.167403	0.230261
511.532010	0.232560
511.896561	0.227875
512.261053	0.226527
512.625488	0.228639
512.989866	0.229091
513.354186	0.229381
513.718449	0.231430
514.082655	0.227867
514.446803	0.229972
514.810894	0.227748
515.174927	0.230720
515.538904	0.230029
515.902822	0.226845
516.266684	0.229632
516.630488	0.230318
516.994235	0.229565
517.357925	0.228298
517.721558	0.226501
518.085133	0.226109
518.448651	0.226368
518.812112	0.228729
519.175516	0.228356
519.538863	0.225989
519.902152	0.227995
520.265385	0.224761
520.628560	0.226559
520.991678	0.227265
521.354739	0.226085
521.717743	0.227568
522.080690	0.228228
522.443580	0.225497
522.806413	0.226518
523.169189	0.226407
523.531908	0.225191
523.894569	0.229034
524.257174	0.229064
524.619722	0.226912
524.982213	0.228331
525.344647	0.227291
525.707025	0.228380
526.069345	0.227077
526.431608	0.228991
526.793815	0.226970
527.155964	0.231636
527.518057	0.230525
527.880093	0.231623
528.242072	0.230911
528.603995	0.232996
528.965860	0.234976
529.327669	0.234238
529.689421	0.235422
530.051117	0.236488
530.412755	0.234864
530.774337	0.237294
531.135862	0.238284
531.497331	0.237839
531.858743	0.241636
532.220098	0.238241
532.581396	0.241425
532.942638	0.242454
533.303824	0.243805
533.664953	0.244048
534.026025	0.246756
534.387040	0.245005
534.747999	0.245318
535.108902	0.244985
535.469748	0.250607
535.830537	0.249056
536.191270	0.250195
536.551947	0.250512
536.912567	0.251400
537.273131	0.253731
537.633638	0.254776
537.994089	0.255997
538.354483	0.257840
538.714821	0.255401
539.075103	0.255893
539.435328	0.258104
539.795497	0.262509
540.155609	0.260270
540.515665	0.259257
540.875665	0.265876
541.235609	0.265641
541.595496	0.266587
541.955328	0.264924
542.315102	0.268141
542.674821	0.270424
543.034483	0.271501
543.394090	0.272503
543.753640	0.275553
544.113134	0.272691
544.472571	0.276805
544.831953	0.274900
545.191278	0.280741
545.550548	0.281160
545.909761	0.279408
546.268918	0.282112
546.628019	0.282075
546.987064	0.286432
547.346053	0.289142
547.704986	0.289426
548.063863	0.290898
548.422684	0.292866
548.781449	0.296573
549.140158	0.296149
549.498811	0.300413
549.857408	0.305110
550.215949	0.302654
550.574434	0.307505
550.932864	0.307991
551.291237	0.308100
551.649555	0.312612
552.007817	0.313874
552.366022	0.316595
552.724173	0.319380
553.082267	0.320954
553.440305	0.321580
553.798288	0.326759
554.156215	0.326911
554.514086	0.329826
554.871902	0.335115
555.229661	0.337048
555.587365	0.340367
555.945014	0.344404
556.302606	0.345235
556.660143	0.349403
557.017625	0.349967
557.375050	0.354134
557.732421	0.354480
558.089735	0.359549
558.446994	0.362149
558.804197	0.364332
559.161345	0.367246
559.518437	0.372203
559.875474	0.374541
560.232455	0.377163
560.589381	0.380552
560.946251	0.385125
561.303065	0.384375
561.659825	0.389416
562.016528	0.393753
562.373177	0.398085
562.729770	0.400621
563.086307	0.404411
563.442789	0.406333
563.799216	0.412890
564.155587	0.414937
564.511904	0.419704
564.868164	0.422160
565.224370	0.425478
565.580520	0.431832
565.936615	0.432790
566.292654	0.440027
566.648638	0.440456
567.004567	0.445128
567.360441	0.448752
567.716260	0.454357
568.072023	0.455986
568.427732	0.461204
568.783385	0.465008
569.138982	0.468457
569.494525	0.471338
569.850013	0.477138
570.205445	0.480965
570.560823	0.484927
570.916145	0.490636
571.271412	0.493550
571.626625	0.498250
571.981782	0.501845
572.336884	0.506951
572.691931	0.508647
573.046923	0.515542
573.401860	0.519308
573.756743	0.524663
574.111570	0.528043
574.466342	0.531205
574.821059	0.534714
575.175722	0.539908
575.530330	0.544012
575.884882	0.547495
576.239380	0.553307
576.593823	0.556157
576.948211	0.560656
577.302544	0.565004
577.656823	0.569942
578.011047	0.572829
578.365216	0.578856
578.719330	0.582496
579.073389	0.586444
579.427394	0.590763
579.781344	0.594518
580.135239	0.599320
580.489080	0.602774
580.842866	0.609245
581.196597	0.612303
581.550273	0.615451
581.903895	0.620526
582.257463	0.622374
582.610975	0.629185
582.964434	0.631447
583.317837	0.637839
583.671186	0.639817
584.024481	0.644555
584.377721	0.648630
584.730906	0.653572
585.084037	0.656557
585.437113	0.660925
585.790135	0.664697
586.143103	0.669256
586.496016	0.673086
586.848874	0.676267
587.201679	0.679149
587.554428	0.685340
587.907124	0.688647
588.259765	0.692211
588.612352	0.696756
588.964884	0.701029
589.317362	0.704489
589.669786	0.708222
590.022155	0.709153
590.374470	0.713617
590.726731	0.716586
591.078937	0.722785
591.431090	0.725844
591.783188	0.729837
592.135232	0.734489
592.487222	0.735908
592.839157	0.738958
593.191038	0.744027
593.542866	0.747703
593.894639	0.751798
594.246358	0.754620
594.598022	0.757684
594.949633	0.762832
595.301190	0.765959
595.652692	0.768549
596.004141	0.770856
596.355535	0.776386
596.706876	0.780534
597.058162	0.784575
597.409395	0.786693
597.760573	0.788592
598.111698	0.791785
598.462768	0.795108
598.813785	0.798255
599.164748	0.802601
599.515657	0.804515
599.866511	0.810284
600.217312	0.810095
600.568060	0.814220
600.918753	0.816532
601.269392	0.818697
601.619978	0.823207
601.970510	0.824653
602.320988	0.827121
602.671412	0.829957
603.021783	0.832656
603.372100	0.836800
603.722363	0.839246
604.072572	0.841243
604.422728	0.843569
604.772830	0.846587
605.122878	0.849846
605.472872	0.852149
605.822813	0.853712
606.172701	0.857313
606.522534	0.859456
606.872314	0.861884
607.222041	0.863471
607.571714	0.866046
607.921333	0.868898
608.270899	0.870934
608.620411	0.872286
608.969870	0.875782
609.319276	0.877416
609.668627	0.880124
610.017926	0.880917
610.367171	0.883309
610.716362	0.884753
611.065500	0.886687
611.414585	0.888539
611.763616	0.889419
612.112594	0.892245
612.461518	0.893435
612.810389	0.895367
613.159207	0.897872
613.507971	0.898899
613.856682	0.901533
614.205340	0.901353
614.553945	0.903951
614.902496	0.905357
615.250994	0.907368
615.599439	0.909036
615.947830	0.909971
616.296169	0.911604
616.644454	0.913315
616.992686	0.914589
617.340864	0.916011
617.688990	0.917215
618.037063	0.918309
618.385082	0.919124
618.733048	0.920606
619.080961	0.921656
619.428821	0.923692
619.776628	0.924531
620.124382	0.927054
620.472083	0.928998
620.819731	0.929884
621.167326	0.931521
621.514868	0.932854
621.862357	0.934175
622.209793	0.935949
622.557176	0.937269
622.904506	0.938592
623.251783	0.940479
623.599007	0.942808
623.946179	0.943371
624.293297	0.945683
624.640363	0.947002
624.987376	0.947919
625.334336	0.948246
625.681243	0.951275
626.028097	0.952365
626.374899	0.952761
626.721647	0.954261
627.068343	0.954442
627.414987	0.955702
627.761577	0.955807
628.108115	0.957370
628.454600	0.958723
628.801032	0.959214
629.147412	0.959805
629.493739	0.961141
629.840014	0.961253
630.186236	0.961590
630.532405	0.962737
630.878521	0.962806
631.224585	0.964188
631.570597	0.964365
631.916556	0.965461
632.262462	0.964673
632.608316	0.966993
632.954117	0.966871
633.299866	0.967132
633.645562	0.967811
633.991206	0.970735
634.336797	0.969623
634.682336	0.971943
635.027823	0.971593
635.373257	0.972617
635.718639	0.973636
636.063968	0.973344
636.409245	0.974228
636.754470	0.975130
637.099642	0.975596
637.444762	0.977209
637.789829	0.975921
638.134845	0.976719
638.479808	0.978561
638.824719	0.977863
639.169577	0.978930
639.514383	0.979492
639.859137	0.979320
640.203839	0.979547
640.548489	0.980110
640.893086	0.980576
641.237632	0.982449
641.582125	0.981595
641.926566	0.982992
642.270955	0.982280
642.615292	0.982220
642.959576	0.982641
643.303809	0.983612
643.647990	0.983318
643.992118	0.983547
644.336195	0.983325
644.680219	0.983863
645.024192	0.984650
645.368112	0.983698
645.711981	0.984082
646.055797	0.984945
646.399562	0.984455
646.743274	0.985435
647.086935	0.984991
647.430544	0.984151
647.774101	0.984757
648.117606	0.985919
648.461059	0.986552
648.804460	0.986229
649.147810	0.985285
649.491108	0.986544
649.834354	0.986344
650.177548	0.986824
650.520690	0.986918
650.863781	0.986530
651.206820	0.987080
651.549807	0.987791
651.892742	0.988767
652.235626	0.988400
652.578458	0.988726
652.921238	0.988747
653.263967	0.989413
653.606644	0.988189
653.949269	0.989774
654.291843	0.988255
654.634365	0.989791
654.976836	0.989076
655.319255	0.989382
655.661622	0.989923
656.003938	0.988896
656.346203	0.988986
656.688416	0.990314
657.030577	0.989610
657.372687	0.989780
657.714746	0.989773
658.056753	0.989051
658.398708	0.990253
658.740612	0.990588
659.082465	0.990562
659.424266	0.990183
659.766016	0.989751
660.107715	0.991302
660.449362	0.990752
660.790958	0.989903
661.132503	0.990903
661.473996	0.990254
661.815438	0.992118
662.156829	0.991347
662.498168	0.991815
662.839456	0.989796
663.180693	0.991889
663.521879	0.991203
663.863013	0.991230
664.204097	0.991139
664.545129	0.991605
664.886110	0.991687
665.227040	0.991350
665.567918	0.990618
665.908746	0.990728
666.249522	0.990088
666.590248	0.992061
666.930922	0.990712
667.271545	0.991966
667.612118	0.991438
667.952639	0.991775
668.293109	0.992156
668.633528	0.990834
668.973896	0.991445
669.314213	0.990864
669.654480	0.991109
669.994695	0.991285
670.334859	0.991597
670.674973	0.991601
671.015035	0.991008
671.355047	0.991488
671.695008	0.991378
672.034918	0.991205
672.374777	0.992478
672.714585	0.992276
673.054342	0.992233
673.394049	0.991439
673.733705	0.991775
674.073310	0.991811
674.412864	0.991980
674.752368	0.991692
675.091820	0.992762
675.431223	0.992125
675.770574	0.991580
676.109875	0.991995
676.449125	0.992129
676.788324	0.991498
677.127473	0.992463
677.466571	0.991796
677.805619	0.992726
678.144616	0.992871
678.483562	0.992284
678.822458	0.993650
679.161303	0.992144
679.500098	0.992818
679.838842	0.992813
680.177535	0.991681
680.516179	0.992556
680.854771	0.992450
681.193314	0.993015
681.531805	0.992041
681.870247	0.991849
682.208638	0.991682
682.546978	0.991124
682.885268	0.992421
683.223508	0.992109
683.561697	0.991609
683.899836	0.991647
684.237925	0.991489
684.575963	0.992382
684.913951	0.992252
685.251889	0.992440
685.589776	0.992153
685.927614	0.992095
686.265401	0.992069
686.603137	0.991793
686.940824	0.991895
687.278460	0.992897
687.616046	0.991995
687.953582	0.991423
688.291068	0.993040
688.628504	0.991956
688.965889	0.991364
689.303224	0.990754
689.640510	0.990638
689.977745	0.990881
690.314930	0.991543
690.652065	0.991059
690.989150	0.991019
691.326185	0.992585
691.663170	0.991830
692.000105	0.991686
692.336990	0.992403
692.673825	0.992700
693.010610	0.991949
693.347345	0.992631
693.684030	0.992067
694.020665	0.992256
694.357251	0.992653
694.693786	0.992849
695.030272	0.991250
695.366707	0.992762
695.703093	0.992365
696.039429	0.992878
696.375716	0.993535
696.711952	0.992550
697.048139	0.993659
697.384276	0.992950
697.720363	0.992707
698.056400	0.991716
698.392388	0.992529
698.728326	0.993516
699.064214	0.993728
699.400053	0.992913
699.735842	0.993231
700.071581	0.992792
700.407270	0.992391
700.742910	0.993407
701.078501	0.992058
701.414042	0.993518
701.749533	0.992084
702.084974	0.993581
702.420366	0.993371
702.755709	0.992871
703.091002	0.993327
703.426246	0.994409
703.761440	0.991998
704.096584	0.992954
704.431679	0.993210
704.766725	0.992721
705.101721	0.993616
705.436668	0.993911
705.771565	0.992431
706.106413	0.992145
706.441212	0.994532
706.775961	0.994087
707.110661	0.992697
707.445311	0.993527
707.779913	0.993688
708.114465	0.994315
708.448967	0.993894
708.783421	0.993189
709.117825	0.993444
709.452180	0.993785
709.786485	0.993512
710.120742	0.992197
710.454949	0.992095
710.789107	0.992663
711.123216	0.991224
711.457275	0.991205
711.791286	0.992078
712.125247	0.993483
712.459159	0.991824
712.793023	0.992193
713.126837	0.992963
713.460602	0.991666
713.794318	0.991425
714.127985	0.991963
714.461602	0.992434
714.795171	0.991837
715.128691	0.992538
715.462162	0.992605
715.795584	0.992135
716.128957	0.993235
716.462281	0.993167
716.795556	0.993174
717.128782	0.993871
717.461960	0.992674
717.795088	0.992502
718.128167	0.993635
718.461198	0.992957
718.794180	0.992439
719.127113	0.992889
719.459997	0.992302
719.792833	0.993052
720.125619	0.992816
720.458357	0.993483
720.791046	0.995343
721.123686	0.992837
721.456278	0.993697
721.788821	0.993648
722.121315	0.994956
722.453761	0.994407
722.786158	0.993264
723.118506	0.993808
723.450805	0.993316
723.783056	0.993744
724.115259	0.993121
724.447412	0.993590
724.779518	0.993643
725.111574	0.993470
725.443582	0.993865
725.775542	0.993873
726.107453	0.993185
726.439315	0.993593
726.771129	0.993964
727.102895	0.993304
727.434612	0.993985
727.766281	0.993334
728.097901	0.992313
728.429473	0.993322
728.760996	0.992070
729.092471	0.993305
729.423897	0.992849
729.755276	0.993346
730.086606	0.991787
730.417887	0.993134
730.749120	0.992827
731.080305	0.992445
731.411442	0.991570
731.742530	0.990322
732.073570	0.991151
732.404562	0.992496
732.735506	0.991947
733.066401	0.991480
733.397249	0.990999
733.728048	0.992060
734.058798	0.992774
734.389501	0.993214
734.720156	0.993878
735.050762	0.994239
735.381320	0.993338
735.711831	0.992387
736.042293	0.992940
736.372707	0.993924
736.703073	0.992956
737.033391	0.992830
737.363661	0.993460
737.693883	0.994265
738.024056	0.992770
738.354182	0.993897
738.684260	0.993558
739.014290	0.992904
739.344272	0.992612
739.674207	0.993526
740.004093	0.993581
740.333931	0.992999
740.663722	0.993324
740.993464	0.992428
741.323159	0.991983
741.652806	0.992910
741.982405	0.993532
742.311956	0.994093
742.641460	0.993287
742.970915	0.993130
743.300323	0.992494
743.629683	0.992719
743.958996	0.994781
744.288260	0.992225
744.617477	0.994072
744.946647	0.992697
745.275768	0.993856
745.604842	0.993751
745.933869	0.993309
746.262847	0.995052
746.591778	0.992920
746.920662	0.994347
747.249498	0.995375
747.578286	0.995538
747.907027	0.993780
748.235720	0.993344
748.564365	0.994262
748.892963	0.993507
749.221514	0.993610
749.550017	0.993339
749.878473	0.994208
750.206881	0.995058
750.535242	0.993795
750.863555	0.992824
751.191821	0.993600
751.520039	0.992805
751.848210	0.993078
752.176334	0.993699
752.504411	0.993363
752.832440	0.993484
753.160421	0.994865
753.488356	0.994259
753.816243	0.993213
754.144082	0.992242
754.471875	0.993545
754.799620	0.994460
755.127318	0.993543
755.454969	0.993767
755.782572	0.995037
756.110129	0.994255
756.437638	0.994796
756.765100	0.994428
757.092515	0.993603
757.419882	0.993962
757.747203	0.994339
758.074477	0.994930
758.401703	0.993774
758.728882	0.993378
759.056014	0.993772
759.383099	0.994698
759.710138	0.993660
760.037129	0.993663
760.364073	0.994101
760.690970	0.993267
761.017820	0.992478
761.344623	0.994484
761.671379	0.993281
761.998088	0.992761
762.324751	0.993524
762.651366	0.992620
762.977935	0.990407
763.304456	0.988684
763.630931	0.987546
763.957359	0.987158
764.283740	0.988172
764.610074	0.989863
764.936362	0.991449
765.262602	0.991801
765.588796	0.992309
765.914943	0.992514
766.241044	0.992786
766.567097	0.993087
766.893104	0.992968
767.219064	0.993642
767.544978	0.994105
767.870845	0.993744
768.196665	0.994732
768.522438	0.994461
768.848165	0.995293
769.173846	0.995271
769.499479	0.995481
769.825066	0.995897
770.150607	0.995328
770.476101	0.995419
770.801548	0.996866
771.126949	0.995907
771.452303	0.995560
771.777611	0.995732
772.102872	0.996492
772.428087	0.995343
772.753256	0.996352
773.078378	0.995713
773.403453	0.994750
773.728482	0.996440
774.053465	0.995335
774.378401	0.996084
774.703291	0.996747
775.028135	0.997496
775.352932	0.995269
775.677683	0.997444
776.002388	0.996810
776.327046	0.995110
776.651658	0.996859
776.976224	0.996654
777.300743	0.997464
777.625216	0.996502
777.949643	0.995849
778.274024	0.996051
778.598359	0.996116
778.922647	0.996412
779.246889	0.997526
779.571086	0.996242
779.895236	0.996958
780.219339	0.996879
780.543397	0.995505
780.867409	0.997117
781.191374	0.995858
781.515294	0.997474
781.839167	0.997022
782.162995	0.995750
782.486776	0.995799
782.810511	0.997253
783.134201	0.997043
783.457844	0.997458
783.781441	0.996614
784.104993	0.994847
784.428498	0.996705
784.751958	0.997445
785.075372	0.996749
785.398739	0.995765
785.722061	0.996513
786.045337	0.995955
786.368568	0.996404
786.691752	0.997145
787.014891	0.996822
787.337983	0.995803
787.661030	0.995696
787.984031	0.996156
788.306987	0.995201
788.629897	0.994182
788.952760	0.994613
789.275579	0.995184
789.598351	0.994438
789.921078	0.996214
790.243759	0.995463
790.566395	0.995839
790.888984	0.995925
791.211529	0.996641
791.534027	0.996704
791.856480	0.997515
792.178888	0.995341
792.501249	0.996889
792.823566	0.997099
793.145836	0.997034
793.468062	0.997076
793.790241	0.996939
794.112375	0.996383
794.434464	0.997571
794.756507	0.996625
795.078505	0.997801
795.400457	0.996928
795.722364	0.996580
796.044226	0.995981
796.366042	0.994879
796.687812	0.995048
797.009538	0.994700
797.331218	0.996212
797.652852	0.996587
797.974442	0.995203
798.295986	0.995761
798.617484	0.995179
798.938938	0.997154
799.260346	0.996024
799.581709	0.995876
799.903026	0.997390
800.224299	0.995328
800.545526	0.996181
800.866708	0.996002
801.187845	0.996412
801.508936	0.996337
801.829983	0.996277
802.150984	0.996614
802.471940	0.997720
802.792851	0.996472
803.113717	0.997637
803.434538	0.997945
803.755314	0.997685
804.076045	0.997267
804.396731	0.996833
804.717372	0.995946
805.037967	0.997493
805.358518	0.997611
805.679024	0.997507
805.999485	0.997015
806.319901	0.996931
806.640272	0.997093
806.960598	0.997230
807.280879	0.996882
807.601115	0.997471
807.921306	0.998627
808.241453	0.995961
808.561554	0.997532
808.881611	0.996178
809.201623	0.996483
809.521590	0.996390
809.841513	0.997351
810.161390	0.996046
810.481223	0.996527
810.801011	0.997291
811.120755	0.997848
811.440453	0.997225
811.760107	0.996731
812.079716	0.996766
812.399281	0.996328
812.718801	0.995990
813.038276	0.997445
813.357707	0.997602
813.677093	0.997515
813.996434	0.997620
814.315731	0.998441
814.634983	0.997732
814.954191	0.998087
815.273354	0.997108
815.592473	0.997052
815.911547	0.997274
816.230577	0.996708
816.549562	0.996783
816.868502	0.995544
817.187399	0.997434
817.506250	0.997168
817.825058	0.995682
818.143821	0.995870
818.462539	0.995584
818.781213	0.996453
819.099843	0.995270
819.418429	0.993666
819.736970	0.993222
820.055466	0.991724
820.373919	0.991473
820.692327	0.990239
821.010691	0.989079
821.329011	0.984765
821.647286	0.981640
821.965517	0.977538
822.283704	0.972355
822.601847	0.970453
822.919945	0.971541
823.237999	0.972969
823.556010	0.975878
823.873976	0.978325
824.191897	0.981123
824.509775	0.983376
824.827609	0.984689
825.145398	0.986981
825.463144	0.985852
825.780845	0.986433
826.098502	0.986569
826.416116	0.985756
826.733685	0.982901
827.051210	0.979413
827.368692	0.980152
827.686129	0.981384
828.003522	0.984945
828.320872	0.986775
828.638177	0.989481
828.955439	0.990400
829.272656	0.992118
829.589830	0.991559
829.906960	0.993824
830.224046	0.993321
830.541088	0.994796
830.858086	0.994907
831.175041	0.996483
831.491952	0.996904
831.808819	0.994696
832.125642	0.994450
832.442421	0.994109
832.759157	0.994952
833.075849	0.991566
833.392497	0.989487
833.709101	0.986234
834.025662	0.986143
834.342179	0.987165
834.658653	0.989273
834.975083	0.991108
835.291469	0.991665
835.607811	0.993793
835.924110	0.994578
836.240366	0.996430
836.556578	0.995673
836.872746	0.995424
837.188871	0.995286
837.504952	0.997319
837.820990	0.997287
838.136984	0.997188
838.452935	0.996945
838.768842	0.997328
839.084706	0.997190
839.400526	0.997041
839.716303	0.993862
840.032037	0.992629
840.347727	0.992810
840.663373	0.993923
840.978977	0.994179
841.294537	0.996555
841.610054	0.996766
841.925527	0.997566
842.240957	0.998088
842.556344	0.998805
842.871687	0.997877
843.186987	0.998588
843.502244	0.998622
843.817458	0.998212
844.132629	0.997995
844.447756	0.998266
844.762840	0.998673
845.077881	0.999057
845.392879	0.998283
845.707833	0.999732
846.022745	0.998316
846.337613	0.999240
846.652438	0.998928
846.967221	0.999913
847.281960	0.999919
847.596656	0.999599
847.911309	1.000023
848.225919	0.999564
848.540485	1.000018
848.855009	1.000308
849.169490	0.999271
849.483928	0.999181
849.798323	0.998246
850.112675	1.001255
850.426984	0.999714
850.741251	0.999274
851.055474	0.998336
851.369654	1.000403
851.683792	0.998927
851.997887	0.999130
852.311938	0.999247
852.625947	0.998173
852.939914	0.999534
853.253837	1.001182
853.567718	0.999634
853.881555	0.999928
854.195350	0.999655
854.509103	0.999526
854.822812	1.000043
855.136479	0.999375
855.450103	1.000201
855.763685	1.000344
856.077224	1.000009
856.390720	0.999354
856.704173	0.999914
857.017584	0.999750
857.330953	0.999447
857.644278	0.998662
857.957561	0.999243
858.270802	1.000057
858.584000	0.998957
858.897155	0.999243
859.210268	0.999356
859.523339	0.999555
859.836367	0.999006
860.149352	0.998567
860.462295	0.999581
860.775195	0.998846
861.088054	0.998065
861.400869	1.000016
861.713642	0.997428
862.026373	1.000333
862.339062	0.999594
862.651708	0.999370
862.964312	0.999585
863.276873	0.999668
863.589392	0.998995
863.901869	0.998471
864.214303	0.999307
864.526696	0.998323
864.839045	0.997984
865.151353	0.999267
865.463619	0.998139
865.775842	0.999382
866.088023	1.000244
866.400162	0.998633
866.712258	0.999606
867.024313	0.998753
867.336325	1.000191
867.648296	0.999593
867.960224	0.998572
868.272110	0.999012
868.583954	0.999815
868.895755	0.999294
869.207515	0.999112
869.519233	0.999651
869.830909	0.997471
870.142542	0.998364
870.454134	0.998826
870.765684	0.998232
871.077191	0.998766
871.388657	0.998278
871.700081	0.998346
872.011463	0.999422
872.322803	0.998811
872.634101	0.998340
872.945357	0.998108
873.256571	0.997838
873.567744	0.999032
873.878874	0.998040
874.189963	0.997205
874.501010	0.999286
874.812015	0.997318
875.122979	0.997756
875.433900	0.997490
875.744780	0.998426
876.055618	0.996695
876.366415	0.997589
876.677169	0.998085
876.987882	0.996835
877.298554	0.998310
877.609183	0.997744
877.919771	0.997261
878.230317	0.997859
878.540822	0.995082
878.851285	0.996698
879.161707	0.994659
879.472087	0.995694
879.782425	0.992591
880.092722	0.990767
880.402977	0.986792
880.713191	0.982222
881.023363	0.976628
881.333494	0.974262
881.643583	0.974497
881.953631	0.973684
882.263637	0.973678
882.573602	0.975600
882.883526	0.977558
883.193408	0.980635
883.503248	0.982548
883.813048	0.984632
884.122806	0.986297
884.432522	0.989071
884.742197	0.991186
885.051831	0.991544
885.361424	0.992391
885.670975	0.994426
885.980485	0.993731
886.289954	0.995283
886.599382	0.994012
886.908768	0.995299
887.218113	0.995275
887.527417	0.995685
887.836680	0.996838
888.145901	0.997691
888.455082	0.998976
888.764221	0.998117
889.073319	0.996727
889.382376	0.998408
889.691392	0.996480
890.000366	0.998244
890.309300	0.997616
890.618193	0.997907
890.927044	0.996881
891.235855	0.997206
891.544625	0.997416
891.853353	0.996552
892.162041	0.996061
892.470687	0.997468
892.779293	0.996994
893.087858	0.995577
893.396381	0.994281
893.704864	0.993459
894.013306	0.991527
894.321707	0.989870
894.630068	0.988300
894.938387	0.986362
895.246665	0.986854
895.554903	0.987196
895.863100	0.989996
896.171256	0.990382
896.479371	0.991996
896.787446	0.992884
897.095480	0.994129
897.403473	0.994061
897.711425	0.994983
898.019336	0.995668
898.327207	0.996685
898.635038	0.995693
898.942827	0.996598
899.250576	0.995792
899.558284	0.996708
899.865952	0.995747
900.173579	0.997484
900.481165	0.997448
900.788711	0.996433
901.096216	0.996727
901.403681	0.997450
901.711105	0.997532
902.018489	0.998159
902.325832	0.997804
902.633135	0.997247
902.940397	0.997902
903.247619	0.996658
903.554800	0.993486
903.861941	0.990913
904.169041	0.985664
904.476101	0.983409
904.783121	0.982826
905.090100	0.984753
905.397039	0.987287
905.703938	0.989441
906.010796	0.991172
906.317614	0.993626
906.624391	0.995097
906.931129	0.996514
907.237826	0.996864
907.544483	0.997595
907.851099	0.996764
908.157675	0.996586
908.464211	0.998037
908.770707	0.997576
909.077163	0.999863
909.383578	0.998468
909.689954	0.998342
909.996289	0.999459
910.302584	0.999943
910.608839	1.000490
910.915054	0.999046
911.221229	1.000325
911.527363	0.998342
911.833458	0.999203
912.139513	0.999260
912.445527	0.998779
912.751502	0.998617
913.057436	0.998726
913.363331	0.998618
913.669186	0.998827
913.975000	0.996809
914.280775	0.996528
914.586510	0.995248
914.892205	0.993181
915.197859	0.991843
915.503475	0.989934
915.809050	0.987505
916.114585	0.984777
916.420081	0.984451
916.725536	0.985576
917.030952	0.986578
917.336328	0.986744
917.641665	0.987334
917.946961	0.989190
918.252218	0.991259
918.557435	0.991304
918.862612	0.993755
919.167750	0.995121
919.472848	0.995500
919.777906	0.996575
920.082925	0.996884
920.387904	0.996921
920.692843	0.996833
920.997743	0.996144
921.302603	0.997468
921.607423	0.997769
921.912204	0.998124
922.216946	0.999013
922.521647	0.998812
922.826310	0.998397
923.130932	0.997769
923.435516	0.998621
923.740059	0.997438
924.044564	0.999184
924.349028	0.998460
924.653454	0.999486
924.957840	0.999777
925.262186	0.999207
925.566493	0.998673
925.870761	1.000754
926.174989	0.999280
926.479178	1.000639
926.783328	0.999504
927.087438	1.000343
927.391509	0.999443
927.695541	1.000473
927.999533	1.000020
928.303486	1.000588
928.607400	1.000666
928.911275	1.000427
929.215110	1.000645
929.518906	0.999840
929.822663	1.001958
930.126381	1.001516
930.430060	1.000488
930.733699	1.000669
931.037299	1.000777
931.340861	1.000344
931.644383	0.998611
931.947866	1.000215
932.251309	1.001050
932.554714	1.000359
932.858080	1.001006
933.161407	0.999762
933.464694	1.000379
933.767943	1.000915
934.071153	1.000404
934.374323	1.001401
934.677455	1.000275
934.980548	1.000265
935.283602	1.000857
935.586617	1.000500
935.889593	1.001977
936.192530	1.002383
936.495428	0.999896
936.798287	0.999381
937.101108	1.000190
937.403890	1.000561
937.706632	1.001298
938.009336	0.999807
938.312002	0.999436
938.614628	0.999492
938.917216	0.999642
939.219765	0.998145
939.522275	0.999799
939.824747	0.999655
940.127179	1.000186
940.429573	1.001982
940.731929	0.998609
941.034246	0.999309
941.336524	0.998602
941.638763	0.999033
941.940964	0.998913
942.243126	0.999513
942.545250	1.000762
942.847335	1.000092
943.149381	1.000512
943.451389	0.999657
943.753359	0.999654
944.055290	1.001609
944.357182	1.001559
944.659036	0.999900
944.960851	0.999555
945.262628	1.001083
945.564367	0.999665
945.866067	1.000550
946.167729	1.000845
946.469352	1.000979
946.770937	0.999180
947.072484	1.000445
947.373992	1.000105
947.675462	0.999795
947.976893	1.000258
948.278286	1.002749
948.579641	1.000729
948.880958	0.998703
949.182236	1.000047
949.483476	1.000772
949.784678	1.000353
950.085841	1.000138
950.386967	0.999786
950.688054	1.000714
950.989103	0.999670
951.290114	0.999143
951.591087	1.000684
951.892021	0.999480
952.192917	1.000505
952.493776	1.000769
952.794596	1.000192
953.095378	0.999460
953.396122	1.000111
953.696828	1.000185
953.997496	1.000486
954.298126	1.001556
954.598718	0.999443
954.899272	1.000294
955.199788	1.000063
955.500266	0.999984
955.800706	1.000663
956.101108	1.000576
956.401472	1.002554
956.701798	1.000125
957.002087	1.000320
957.302337	1.000647
957.602550	1.000813
957.902724	1.002056
958.202861	1.000922
958.502960	1.000825
958.803022	1.001826
959.103045	1.001739
959.403031	1.002357
959.702979	1.002347
960.002889	1.000899
960.302762	1.000134
960.602596	1.002147
960.902393	1.001779
961.202153	1.002449
961.501875	1.001914
961.801559	1.001796
962.101205	1.000410
962.400814	1.001763
962.700385	1.001516
962.999918	1.002078
963.299414	1.001249
963.598873	1.002773
963.898293	1.001392
964.197677	1.000013
964.497022	1.000966
964.796331	1.002096
965.095601	1.001652
965.394835	1.001327
965.694030	1.001488
965.993189	1.001962
966.292309	1.003351
966.591393	0.999632
966.890439	1.002054
967.189447	1.000350
967.488419	1.001027
967.787353	1.002307
968.086249	1.002036
968.385108	1.001495
968.683930	1.002677
968.982714	1.002393
969.281462	1.002360
969.580172	1.001531
969.878844	1.002879
970.177480	1.000949
970.476078	1.002127
970.774639	1.001954
971.073162	1.001367
971.371649	1.000635
971.670098	1.000717
971.968510	1.001404
972.266885	1.001149
972.565223	1.002083
972.863524	1.000874
973.161788	1.001311
973.460014	1.002232
973.758204	1.000201
974.056356	1.001177
974.354471	1.000754
974.652550	1.001718
974.950591	1.000624
975.248595	1.002495
975.546563	1.002576
975.844493	1.001936
976.142386	1.000866
976.440243	1.002227
976.738062	1.001363
977.035845	1.000691
977.333590	1.003039
977.631299	1.001454
977.928971	1.001254
978.226606	1.002105
978.524204	1.001127
978.821765	1.001276
979.119290	1.003039
979.416777	1.002257
979.714228	1.002229
980.011642	1.002554
980.309020	1.001473
980.606360	1.001236
980.903664	1.001633
981.200931	1.000747
981.498162	1.002720
981.795356	1.002482
982.092513	1.000259
982.389633	1.002132
982.686717	1.000461
982.983764	1.000602
983.280775	1.000432
983.577749	1.002140
983.874686	0.999722
984.171587	1.000215
984.468451	1.001158
984.765279	1.001686
985.062070	1.001167
985.358824	1.001274
985.655543	1.001951
985.952224	1.002533
986.248869	1.000725
986.545478	1.002959
986.842050	1.001717
987.138586	1.000873
987.435086	1.001717
987.731549	1.002272
988.027975	1.003216
988.324366	1.000851
988.620719	1.002257
988.917037	1.001758
989.213318	1.002527
989.509563	1.000454
989.805772	1.002394
990.101944	1.002716
990.398080	1.000682
990.694180	1.003141
990.990244	1.001184
991.286271	1.000317
991.582262	1.003947
991.878217	1.001674
992.174136	1.002987
992.470019	1.001426
992.765865	1.002970
993.061676	1.002578
993.357450	1.001776
993.653188	1.003431
993.948890	1.002683
994.244556	1.001515
994.540186	1.001908
994.835780	1.001438
995.131337	1.003209
995.426859	1.002296
995.722345	1.001467
996.017795	1.001058
996.313208	1.000945
996.608586	1.001407
996.903928	1.002429
997.199234	1.001831
997.494504	1.002435
997.789738	1.000987
998.084936	1.002411
998.380099	1.000682
998.675225	1.002996
998.970316	1.002891
999.265371	1.002270
999.560390	1.002809
999.855373	1.002542
1000.150320	1.002249
1000.445232	1.002429
1000.740108	1.001827
1001.034948	1.001196
1001.329752	1.002705
1001.624521	1.001720
1001.919254	1.002183
1002.213951	1.003379
1002.508613	1.001287
1002.803239	1.001505
1003.097829	1.002644
1003.392384	1.002270
1003.686903	1.002399
1003.981386	1.001712
1004.275834	1.003727
1004.570246	1.001169
1004.864623	1.002173
1005.158964	1.002312
1005.453270	1.002018
1005.747540	1.000942
1006.041775	1.003133
1006.335974	1.001026
1006.630138	1.003045
1006.924266	1.000693
1007.218359	0.999519
1007.512416	1.002629
1007.806438	1.002688
1008.100425	1.002151
1008.394376	1.002862
1008.688292	1.002238
1008.982172	1.001824
1009.276017	1.002354
1009.569827	1.002487
1009.863602	1.002015
1010.157341	1.002356
1010.451045	1.002354
1010.744714	1.003588
1011.038347	1.002647
1011.331945	1.000905
1011.625508	1.003071
1011.919036	1.001676
1012.212528	1.002972
1012.505986	1.001663
1012.799408	1.001131
1013.092795	1.002188
1013.386147	1.002116
1013.679464	1.002205
1013.972745	1.001572
1014.265992	1.002694
1014.559204	1.001672
1014.852380	1.002791
1015.145521	1.002430
1015.438628	1.002449
1015.731699	1.001512
1016.024736	1.002443
1016.317737	1.002161
1016.610703	1.002561
1016.903635	1.002737
1017.196531	1.000141
1017.489393	1.002788
1017.782219	1.001180
1018.075011	1.002177
1018.367768	1.000114
1018.660490	1.003393
1018.953177	1.003393
1019.245829	1.003393
