Dividing Wavelength (nm)	Counts (n)	Blue Motor Position (mm): 1.300000	Red Motor Position (mm): 0.000000	
326.493990	1.006819
326.888308	1.006819
327.282561	1.006819
327.676750	1.007583
328.070874	1.007635
328.464933	1.007418
328.858929	1.006463
329.252859	1.007053
329.646726	1.005064
330.040528	1.006238
330.434265	1.007095
330.827938	1.006367
331.221547	1.006775
331.615091	1.006613
332.008571	1.007445
332.401986	1.005369
332.795338	1.005884
333.188625	1.007257
333.581847	1.005815
333.975006	1.005182
334.368100	1.006939
334.761129	1.004653
335.154095	1.006984
335.546996	1.004756
335.939833	0.999613
336.332606	0.999472
336.725315	0.998390
337.117960	0.999774
337.510540	0.998398
337.903056	0.998822
338.295508	1.000319
338.687896	1.000052
339.080220	1.000120
339.472480	1.000244
339.864676	0.999543
340.256807	0.998403
340.648875	0.998880
341.040879	0.998833
341.432818	1.000362
341.824694	0.998665
342.216506	1.000138
342.608253	0.999767
342.999937	0.999471
343.391557	0.999771
343.783113	0.999746
344.174605	0.999298
344.566033	0.999789
344.957397	0.999535
345.348697	1.000409
345.739934	0.999476
346.131106	0.999032
346.522215	0.998346
346.913260	0.999701
347.304241	0.998632
347.695159	0.999369
348.086012	0.998981
348.476802	0.999459
348.867528	0.997827
349.258191	0.998789
349.648789	0.998883
350.039324	0.999031
350.429796	0.997021
350.820203	0.998343
351.210548	0.998298
351.600828	0.998269
351.991045	1.000444
352.381198	0.999506
352.771288	0.999404
353.161314	0.998940
353.551276	0.997316
353.941175	0.998321
354.331010	0.999199
354.720782	0.999082
355.110490	0.999200
355.500135	0.998464
355.889717	0.996708
356.279235	0.997753
356.668689	0.999284
357.058080	0.998537
357.447408	0.998616
357.836672	0.998528
358.225873	0.997570
358.615010	0.998165
359.004084	0.996219
359.393095	0.997868
359.782043	0.997372
360.170927	0.998802
360.559748	0.997172
360.948505	0.998048
361.337199	0.997616
361.725830	0.998097
362.114398	0.997459
362.502903	0.998038
362.891344	0.996911
363.279722	0.998237
363.668037	0.998784
364.056289	0.997990
364.444478	0.998841
364.832603	0.996901
365.220665	0.998370
365.608665	0.997508
365.996601	0.997289
366.384474	0.994605
366.772284	0.996198
367.160031	0.995415
367.547715	0.995565
367.935336	0.996585
368.322893	0.994847
368.710388	0.992473
369.097820	0.990314
369.485189	0.989356
369.872495	0.986897
370.259738	0.985499
370.646918	0.981274
371.034035	0.979114
371.421090	0.977670
371.808081	0.971216
372.195010	0.969597
372.581875	0.963616
372.968678	0.959642
373.355418	0.956264
373.742096	0.949042
374.128710	0.943557
374.515262	0.939417
374.901751	0.934066
375.288177	0.928838
375.674540	0.922392
376.060841	0.916444
376.447079	0.909008
376.833254	0.902645
377.219367	0.898396
377.605417	0.886070
377.991404	0.882599
378.377329	0.876836
378.763191	0.871775
379.148991	0.861901
379.534727	0.853509
379.920402	0.845295
380.306013	0.842364
380.691563	0.830034
381.077049	0.821791
381.462474	0.820031
381.847835	0.807022
382.233134	0.802220
382.618371	0.803490
383.003545	0.784560
383.388657	0.783810
383.773706	0.776239
384.158693	0.771595
384.543618	0.766902
384.928480	0.757662
385.313280	0.748056
385.698017	0.747355
386.082692	0.735011
386.467305	0.734693
386.851856	0.727813
387.236344	0.724016
387.620770	0.718101
388.005133	0.712578
388.389435	0.706054
388.773674	0.703949
389.157851	0.696223
389.541965	0.693428
389.926018	0.701187
390.310008	0.686462
390.693936	0.684631
391.077802	0.675716
391.461606	0.677702
391.845348	0.667492
392.229027	0.666379
392.612645	0.664218
392.996200	0.650796
393.379694	0.644620
393.763125	0.634556
394.146494	0.639548
394.529801	0.629753
394.913047	0.622416
395.296230	0.627479
395.679351	0.619262
396.062410	0.615909
396.445408	0.618257
396.828343	0.614060
397.211217	0.608261
397.594028	0.621056
397.976778	0.611478
398.359466	0.607509
398.742092	0.602963
399.124656	0.614910
399.507158	0.603261
399.889598	0.600986
400.271977	0.591587
400.654294	0.595499
401.036549	0.595190
401.418742	0.598211
401.800874	0.584545
402.182944	0.582087
402.564952	0.573583
402.946898	0.575615
403.328783	0.575867
403.710606	0.586227
404.092367	0.561950
404.474067	0.567099
404.855705	0.565410
405.237282	0.574916
405.618797	0.561254
406.000250	0.556786
406.381642	0.546770
406.762972	0.551542
407.144240	0.550881
407.525447	0.550292
407.906593	0.542773
408.287677	0.538800
408.668700	0.546569
409.049661	0.541274
409.430560	0.536056
409.811399	0.544500
410.192176	0.526185
410.572891	0.533801
410.953545	0.522047
411.334138	0.534965
411.714669	0.527459
412.095139	0.539348
412.475547	0.523440
412.855894	0.526483
413.236180	0.524080
413.616405	0.530011
413.996568	0.520306
414.376670	0.526663
414.756711	0.531743
415.136691	0.529253
415.516609	0.519425
415.896466	0.515916
416.276262	0.512734
416.655997	0.514359
417.035670	0.495729
417.415283	0.487363
417.794834	0.492631
418.174324	0.497497
418.553753	0.506957
418.933121	0.488448
419.312428	0.482937
419.691674	0.488300
420.070859	0.476429
420.449983	0.485014
420.829045	0.473506
421.208047	0.483328
421.586988	0.476023
421.965867	0.474650
422.344686	0.464097
422.723444	0.476636
423.102141	0.493533
423.480777	0.465405
423.859352	0.486920
424.237866	0.463846
424.616319	0.464559
424.994712	0.455741
425.373044	0.465891
425.751314	0.453922
426.129524	0.470796
426.507673	0.454031
426.885762	0.447401
427.263789	0.453391
427.641756	0.462962
428.019662	0.453083
428.397508	0.451786
428.775292	0.456626
429.153016	0.448373
429.530679	0.454710
429.908282	0.448100
430.285824	0.458057
430.663305	0.436340
431.040726	0.457712
431.418086	0.457255
431.795385	0.449412
432.172624	0.448363
432.549802	0.448408
432.926920	0.447409
433.303977	0.447016
433.680974	0.444223
434.057910	0.442887
434.434786	0.441778
434.811601	0.444762
435.188355	0.427459
435.565050	0.436966
435.941683	0.437717
436.318257	0.421477
436.694770	0.422552
437.071222	0.420660
437.447614	0.425785
437.823946	0.431983
438.200218	0.420450
438.576429	0.430940
438.952580	0.423513
439.328670	0.420186
439.704700	0.426211
440.080670	0.428048
440.456580	0.409335
440.832429	0.417739
441.208218	0.428110
441.583947	0.417311
441.959616	0.416715
442.335224	0.422223
442.710773	0.412979
443.086261	0.410854
443.461689	0.425018
443.837057	0.414433
444.212365	0.404450
444.587612	0.411471
444.962800	0.401345
445.337927	0.403222
445.712995	0.429370
446.088002	0.390931
446.462949	0.401725
446.837837	0.406324
447.212664	0.395045
447.587431	0.387009
447.962139	0.356923
448.336786	0.315998
448.711374	0.326911
449.085901	0.371331
449.460369	0.375721
449.834776	0.378575
450.209124	0.358085
450.583412	0.351066
450.957640	0.343573
451.331808	0.355349
451.705917	0.378318
452.079965	0.383409
452.453954	0.371600
452.827883	0.378253
453.201752	0.373112
453.575562	0.384107
453.949311	0.372804
454.323001	0.378709
454.696632	0.374906
455.070202	0.367511
455.443713	0.359160
455.817164	0.353819
456.190556	0.349557
456.563888	0.346717
456.937160	0.344097
457.310373	0.361269
457.683526	0.360314
458.056619	0.365982
458.429653	0.366044
458.802628	0.370108
459.175542	0.364506
459.548398	0.346708
459.921194	0.339099
460.293930	0.339090
460.666607	0.316767
461.039224	0.305078
461.411782	0.300651
461.784280	0.299846
462.156719	0.304295
462.529099	0.308391
462.901419	0.324274
463.273680	0.329211
463.645882	0.328301
464.018024	0.333867
464.390106	0.326860
464.762130	0.311495
465.134094	0.294512
465.505999	0.263701
465.877845	0.233653
466.249631	0.220716
466.621358	0.228422
466.993026	0.242593
467.364634	0.248299
467.736184	0.256891
468.107674	0.265935
468.479105	0.265156
468.850477	0.271843
469.221790	0.278817
469.593043	0.288916
469.964238	0.293833
470.335373	0.293190
470.706449	0.291138
471.077467	0.292203
471.448425	0.253819
471.819324	0.229485
472.190164	0.229089
472.560945	0.257887
472.931667	0.279754
473.302330	0.284187
473.672934	0.296393
474.043479	0.283953
474.413965	0.286215
474.784393	0.289590
475.154761	0.284645
475.525070	0.281704
475.895321	0.287176
476.265513	0.281479
476.635645	0.277050
477.005719	0.276819
477.375734	0.273711
477.745691	0.266602
478.115588	0.263030
478.485427	0.256417
478.855207	0.243528
479.224928	0.225755
479.594591	0.213980
479.964194	0.217439
480.333739	0.218441
480.703226	0.220027
481.072653	0.218414
481.442022	0.214327
481.811333	0.210773
482.180584	0.214050
482.549777	0.219549
482.918912	0.222885
483.287988	0.222554
483.657005	0.222026
484.025964	0.228605
484.394864	0.225787
484.763706	0.226430
485.132489	0.231466
485.501213	0.232472
485.869879	0.230671
486.238487	0.233828
486.607036	0.231643
486.975527	0.236614
487.343959	0.232254
487.712333	0.231452
488.080648	0.232590
488.448905	0.232084
488.817104	0.233110
489.185244	0.227723
489.553326	0.224708
489.921350	0.214330
490.289315	0.196883
490.657222	0.191621
491.025070	0.193102
491.392861	0.195138
491.760593	0.200876
492.128267	0.206582
492.495883	0.212098
492.863440	0.218652
493.230939	0.224410
493.598380	0.226498
493.965763	0.228346
494.333088	0.230532
494.700354	0.232143
495.067563	0.231226
495.434713	0.234674
495.801805	0.232122
496.168839	0.233627
496.535815	0.235193
496.902733	0.234950
497.269593	0.236676
497.636395	0.234219
498.003139	0.234566
498.369825	0.237623
498.736453	0.234014
499.103023	0.235724
499.469535	0.235067
499.835989	0.235451
500.202385	0.236189
500.568723	0.239460
500.935003	0.234741
501.301226	0.239117
501.667390	0.233370
502.033497	0.231072
502.399546	0.234078
502.765537	0.236282
503.131470	0.234537
503.497345	0.230711
503.863163	0.239354
504.228923	0.232437
504.594625	0.231372
504.960269	0.236378
505.325856	0.232089
505.691385	0.236437
506.056856	0.232975
506.422270	0.232464
506.787625	0.234859
507.152924	0.232545
507.518164	0.232550
507.883347	0.234202
508.248472	0.236065
508.613540	0.231089
508.978550	0.233880
509.343503	0.234235
509.708398	0.231880
510.073236	0.229274
510.438016	0.229013
510.802738	0.230275
511.167403	0.229291
511.532010	0.231065
511.896561	0.226596
512.261053	0.225173
512.625488	0.227710
512.989866	0.227784
513.354186	0.228395
513.718449	0.230164
514.082655	0.226233
514.446803	0.228624
514.810894	0.226071
515.174927	0.228886
515.538904	0.228584
515.902822	0.225136
516.266684	0.227571
516.630488	0.228964
516.994235	0.227721
517.357925	0.226299
517.721558	0.224886
518.085133	0.224131
518.448651	0.224162
518.812112	0.226475
519.175516	0.226274
519.538863	0.223461
519.902152	0.225617
520.265385	0.222153
520.628560	0.224222
520.991678	0.224408
521.354739	0.223285
521.717743	0.224582
522.080690	0.224764
522.443580	0.222598
522.806413	0.223031
523.169189	0.222585
523.531908	0.221408
523.894569	0.224727
524.257174	0.225024
524.619722	0.222632
524.982213	0.223893
525.344647	0.222386
525.707025	0.223466
526.069345	0.221584
526.431608	0.223352
526.793815	0.221222
527.155964	0.225578
527.518057	0.224264
527.880093	0.225535
528.242072	0.224124
528.603995	0.225760
528.965860	0.227466
529.327669	0.226336
529.689421	0.227375
530.051117	0.228143
530.412755	0.225963
530.774337	0.228217
531.135862	0.228712
531.497331	0.227919
531.858743	0.230778
532.220098	0.227505
532.581396	0.230205
532.942638	0.230538
533.303824	0.231618
533.664953	0.231387
534.026025	0.233324
534.387040	0.230770
534.747999	0.230792
535.108902	0.229603
535.469748	0.235052
535.830537	0.232532
536.191270	0.232860
536.551947	0.232590
536.912567	0.232926
537.273131	0.234044
537.633638	0.234521
537.994089	0.234796
538.354483	0.235980
538.714821	0.232973
539.075103	0.232755
539.435328	0.233597
539.795497	0.237077
540.155609	0.233713
540.515665	0.232049
540.875665	0.237451
541.235609	0.236121
541.595496	0.236321
541.955328	0.232891
542.315102	0.235645
542.674821	0.236631
543.034483	0.236814
543.394090	0.236212
543.753640	0.237914
544.113134	0.232928
544.472571	0.236398
544.831953	0.233178
545.191278	0.237447
545.550548	0.236733
545.909761	0.233510
546.268918	0.234345
546.628019	0.232683
546.987064	0.235409
547.346053	0.237021
547.704986	0.234872
548.063863	0.235292
548.422684	0.235607
548.781449	0.237155
549.140158	0.235303
549.498811	0.237761
549.857408	0.240722
550.215949	0.235545
550.574434	0.238397
550.932864	0.236795
551.291237	0.235333
551.649555	0.236923
552.007817	0.236501
552.366022	0.237632
552.724173	0.237720
553.082267	0.237842
553.440305	0.234765
553.798288	0.239161
554.156215	0.235820
554.514086	0.236377
554.871902	0.239915
555.229661	0.238719
555.587365	0.239354
555.945014	0.241862
556.302606	0.238779
556.660143	0.241497
557.017625	0.237870
557.375050	0.240103
557.732421	0.237100
558.089735	0.239201
558.446994	0.239005
558.804197	0.238514
559.161345	0.238220
559.518437	0.241563
559.875474	0.239862
560.232455	0.239045
560.589381	0.240323
560.946251	0.240394
561.303065	0.237987
561.659825	0.239239
562.016528	0.241161
562.373177	0.243599
562.729770	0.240878
563.086307	0.242838
563.442789	0.240885
563.799216	0.243373
564.155587	0.242621
564.511904	0.243433
564.868164	0.243517
565.224370	0.243378
565.580520	0.245038
565.936615	0.245002
566.292654	0.248022
566.648638	0.245222
567.004567	0.246202
567.360441	0.246352
567.716260	0.248530
568.072023	0.246287
568.427732	0.246884
568.783385	0.249723
569.138982	0.247587
569.494525	0.247157
569.850013	0.250241
570.205445	0.248632
570.560823	0.251153
570.916145	0.252745
571.271412	0.251412
571.626625	0.253068
571.981782	0.253589
572.336884	0.254012
572.691931	0.254190
573.046923	0.255563
573.401860	0.256452
573.756743	0.258303
574.111570	0.256888
574.466342	0.257689
574.821059	0.256702
575.175722	0.259582
575.530330	0.259398
575.884882	0.259345
576.239380	0.261304
576.593823	0.262052
576.948211	0.261714
577.302544	0.264923
577.656823	0.264374
578.011047	0.264230
578.365216	0.265177
578.719330	0.267174
579.073389	0.266904
579.427394	0.267901
579.781344	0.268764
580.135239	0.269961
580.489080	0.270050
580.842866	0.273517
581.196597	0.273110
581.550273	0.271590
581.903895	0.272649
582.257463	0.270609
582.610975	0.274038
582.964434	0.273520
583.317837	0.276111
583.671186	0.276394
584.024481	0.276633
584.377721	0.278970
584.730906	0.279736
585.084037	0.279049
585.437113	0.280890
585.790135	0.280086
586.143103	0.283462
586.496016	0.284126
586.848874	0.281740
587.201679	0.282351
587.554428	0.285643
587.907124	0.284633
588.259765	0.285136
588.612352	0.285577
588.964884	0.289574
589.317362	0.289109
589.669786	0.288827
590.022155	0.287523
590.374470	0.286669
590.726731	0.289043
591.078937	0.293886
591.431090	0.290341
591.783188	0.294079
592.135232	0.294531
592.487222	0.294703
592.839157	0.292768
593.191038	0.295343
593.542866	0.296919
593.894639	0.300431
594.246358	0.298725
594.598022	0.298344
594.949633	0.301763
595.301190	0.302618
595.652692	0.301410
596.004141	0.297724
596.355535	0.305650
596.706876	0.306367
597.058162	0.308897
597.409395	0.305805
597.760573	0.303956
598.111698	0.307086
598.462768	0.307416
598.813785	0.308644
599.164748	0.309844
599.515657	0.310144
599.866511	0.313945
600.217312	0.308955
600.568060	0.314224
600.918753	0.310393
601.269392	0.311466
601.619978	0.314950
601.970510	0.312771
602.320988	0.312443
602.671412	0.310390
603.021783	0.312894
603.372100	0.314300
603.722363	0.314090
604.072572	0.315059
604.422728	0.314323
604.772830	0.316898
605.122878	0.316684
605.472872	0.317099
605.822813	0.315408
606.172701	0.318218
606.522534	0.315292
606.872314	0.315673
607.222041	0.316044
607.571714	0.314310
607.921333	0.316194
608.270899	0.315413
608.620411	0.312174
608.969870	0.316269
609.319276	0.316255
609.668627	0.315641
610.017926	0.314274
610.367171	0.312118
610.716362	0.313428
611.065500	0.313706
611.414585	0.312247
611.763616	0.313008
612.112594	0.313755
612.461518	0.312753
612.810389	0.310873
613.159207	0.313056
613.507971	0.314863
613.856682	0.310988
614.205340	0.312106
614.553945	0.309305
614.902496	0.312775
615.250994	0.311143
615.599439	0.311790
615.947830	0.311257
616.296169	0.312159
616.644454	0.312353
616.992686	0.311784
617.340864	0.309640
617.688990	0.312930
618.037063	0.309906
618.385082	0.311902
618.733048	0.308290
619.080961	0.310646
619.428821	0.310333
619.776628	0.309822
620.124382	0.312038
620.472083	0.312488
620.819731	0.311594
621.167326	0.315697
621.514868	0.315507
621.862357	0.319854
622.209793	0.318937
622.557176	0.321392
622.904506	0.322631
623.251783	0.324921
623.599007	0.327514
623.946179	0.327020
624.293297	0.329086
624.640363	0.332752
624.987376	0.333376
625.334336	0.335423
625.681243	0.337922
626.028097	0.338261
626.374899	0.339439
626.721647	0.339869
627.068343	0.342972
627.414987	0.344309
627.761577	0.346317
628.108115	0.344287
628.454600	0.349965
628.801032	0.347094
629.147412	0.349279
629.493739	0.350062
629.840014	0.352855
630.186236	0.349967
630.532405	0.355689
630.878521	0.352859
631.224585	0.355712
631.570597	0.359142
631.916556	0.357365
632.262462	0.356901
632.608316	0.359530
632.954117	0.360312
633.299866	0.361513
633.645562	0.361532
633.991206	0.365969
634.336797	0.368834
634.682336	0.371597
635.027823	0.373224
635.373257	0.373596
635.718639	0.377273
636.063968	0.376083
636.409245	0.382164
636.754470	0.382508
637.099642	0.385057
637.444762	0.388372
637.789829	0.388082
638.134845	0.391138
638.479808	0.392163
638.824719	0.391988
639.169577	0.396159
639.514383	0.395188
639.859137	0.399236
640.203839	0.398692
640.548489	0.399642
640.893086	0.400158
641.237632	0.402411
641.582125	0.401170
641.926566	0.403014
642.270955	0.402593
642.615292	0.403167
642.959576	0.401544
643.303809	0.403199
643.647990	0.402080
643.992118	0.403048
644.336195	0.406074
644.680219	0.404989
645.024192	0.405191
645.368112	0.398935
645.711981	0.398065
646.055797	0.393010
646.399562	0.395697
646.743274	0.388620
647.086935	0.384573
647.430544	0.385490
647.774101	0.383678
648.117606	0.383680
648.461059	0.384318
648.804460	0.386626
649.147810	0.391484
649.491108	0.393936
649.834354	0.395459
650.177548	0.400311
650.520690	0.405464
650.863781	0.407215
651.206820	0.406413
651.549807	0.411000
651.892742	0.414903
652.235626	0.414861
652.578458	0.415349
652.921238	0.422215
653.263967	0.418947
653.606644	0.423299
653.949269	0.423250
654.291843	0.426940
654.634365	0.424023
654.976836	0.426625
655.319255	0.427443
655.661622	0.428584
656.003938	0.429001
656.346203	0.431357
656.688416	0.430066
657.030577	0.432695
657.372687	0.435111
657.714746	0.436160
658.056753	0.432716
658.398708	0.436921
658.740612	0.438295
659.082465	0.433625
659.424266	0.434402
659.766016	0.433796
660.107715	0.437369
660.449362	0.436070
660.790958	0.435968
661.132503	0.437250
661.473996	0.434453
661.815438	0.435894
662.156829	0.435804
662.498168	0.436564
662.839456	0.437968
663.180693	0.435014
663.521879	0.435111
663.863013	0.436550
664.204097	0.434567
664.545129	0.431216
664.886110	0.432079
665.227040	0.429403
665.567918	0.431841
665.908746	0.430107
666.249522	0.429671
666.590248	0.431009
666.930922	0.428437
667.271545	0.427634
667.612118	0.427246
667.952639	0.429060
668.293109	0.428154
668.633528	0.430608
668.973896	0.430728
669.314213	0.431060
669.654480	0.432695
669.994695	0.433127
670.334859	0.434246
670.674973	0.434370
671.015035	0.434350
671.355047	0.434070
671.695008	0.435456
672.034918	0.437194
672.374777	0.436478
672.714585	0.437791
673.054342	0.437620
673.394049	0.437410
673.733705	0.435738
674.073310	0.436659
674.412864	0.439415
674.752368	0.440138
675.091820	0.440212
675.431223	0.444809
675.770574	0.443994
676.109875	0.447739
676.449125	0.447317
676.788324	0.450085
677.127473	0.455567
677.466571	0.454889
677.805619	0.456260
678.144616	0.458288
678.483562	0.459556
678.822458	0.462357
679.161303	0.462611
679.500098	0.463189
679.838842	0.464857
680.177535	0.464070
680.516179	0.463127
680.854771	0.461936
681.193314	0.455572
681.531805	0.446729
681.870247	0.435164
682.208638	0.427958
682.546978	0.426988
682.885268	0.428636
683.223508	0.434465
683.561697	0.439107
683.899836	0.441199
684.237925	0.444460
684.575963	0.447687
684.913951	0.450624
685.251889	0.445907
685.589776	0.448378
685.927614	0.450740
686.265401	0.444540
686.603137	0.446270
686.940824	0.440002
687.278460	0.438880
687.616046	0.437511
687.953582	0.432458
688.291068	0.433933
688.628504	0.429301
688.965889	0.431833
689.303224	0.435337
689.640510	0.439567
689.977745	0.445535
690.314930	0.453097
690.652065	0.457543
690.989150	0.465758
691.326185	0.472349
691.663170	0.476811
692.000105	0.483988
692.336990	0.490960
692.673825	0.493970
693.010610	0.500246
693.347345	0.506607
693.684030	0.507724
694.020665	0.511817
694.357251	0.520852
694.693786	0.521160
695.030272	0.524656
695.366707	0.528241
695.703093	0.532191
696.039429	0.529423
696.375716	0.531867
696.711952	0.534114
697.048139	0.536331
697.384276	0.538171
697.720363	0.537164
698.056400	0.534434
698.392388	0.541539
698.728326	0.543901
699.064214	0.546724
699.400053	0.547235
699.735842	0.551341
700.071581	0.553955
700.407270	0.556838
700.742910	0.559093
701.078501	0.566532
701.414042	0.566542
701.749533	0.569577
702.084974	0.578964
702.420366	0.570961
702.755709	0.578815
703.091002	0.586372
703.426246	0.579663
703.761440	0.585115
704.096584	0.590521
704.431679	0.587265
704.766725	0.589830
705.101721	0.591847
705.436668	0.587302
705.771565	0.593733
706.106413	0.590081
706.441212	0.586517
706.775961	0.585912
707.110661	0.587392
707.445311	0.584551
707.779913	0.582015
708.114465	0.580137
708.448967	0.576840
708.783421	0.568653
709.117825	0.563522
709.452180	0.562657
709.786485	0.556382
710.120742	0.546192
710.454949	0.549021
710.789107	0.540589
711.123216	0.531354
711.457275	0.532644
711.791286	0.524507
712.125247	0.523221
712.459159	0.533968
712.793023	0.525217
713.126837	0.530761
713.460602	0.530711
713.794318	0.539469
714.127985	0.539140
714.461602	0.549303
714.795171	0.553318
715.128691	0.560562
715.462162	0.568441
715.795584	0.574056
716.128957	0.576796
716.462281	0.583138
716.795556	0.586166
717.128782	0.592591
717.461960	0.601283
717.795088	0.599678
718.128167	0.606187
718.461198	0.614707
718.794180	0.614991
719.127113	0.618234
719.459997	0.621594
719.792833	0.628277
720.125619	0.629227
720.458357	0.634623
720.791046	0.634632
721.123686	0.637958
721.456278	0.645215
721.788821	0.642939
722.121315	0.647796
722.453761	0.651329
722.786158	0.648468
723.118506	0.644951
723.450805	0.652601
723.783056	0.649833
724.115259	0.646768
724.447412	0.646069
724.779518	0.647472
725.111574	0.646194
725.443582	0.641758
725.775542	0.643939
726.107453	0.635531
726.439315	0.636194
726.771129	0.634435
727.102895	0.628276
727.434612	0.620610
727.766281	0.618170
728.097901	0.618619
728.429473	0.617423
728.760996	0.615338
729.092471	0.616480
729.423897	0.619879
729.755276	0.618634
730.086606	0.618461
730.417887	0.613551
730.749120	0.604057
731.080305	0.594831
731.411442	0.591034
731.742530	0.594975
732.073570	0.594671
732.404562	0.587119
732.735506	0.588112
733.066401	0.593409
733.397249	0.602118
733.728048	0.613637
734.058798	0.627163
734.389501	0.638265
734.720156	0.647196
735.050762	0.655443
735.381320	0.655978
735.711831	0.663863
736.042293	0.669733
736.372707	0.667173
736.703073	0.670199
737.033391	0.672399
737.363661	0.669749
737.693883	0.665241
738.024056	0.663873
738.354182	0.664469
738.684260	0.653234
739.014290	0.650199
739.344272	0.650641
739.674207	0.643935
740.004093	0.642778
740.333931	0.643864
740.663722	0.643469
740.993464	0.644161
741.323159	0.648666
741.652806	0.652704
741.982405	0.657976
742.311956	0.663307
742.641460	0.665258
742.970915	0.669105
743.300323	0.675969
743.629683	0.682425
743.958996	0.685364
744.288260	0.688478
744.617477	0.694954
744.946647	0.695911
745.275768	0.702398
745.604842	0.701959
745.933869	0.711363
746.262847	0.713528
746.591778	0.706533
746.920662	0.712885
747.249498	0.719408
747.578286	0.709461
747.907027	0.706444
748.235720	0.706483
748.564365	0.701598
748.892963	0.701298
749.221514	0.705093
749.550017	0.708917
749.878473	0.710423
750.206881	0.716542
750.535242	0.716293
750.863555	0.714986
751.191821	0.717879
751.520039	0.720904
751.848210	0.724953
752.176334	0.718459
752.504411	0.717259
752.832440	0.725192
753.160421	0.729149
753.488356	0.726855
753.816243	0.724835
754.144082	0.733255
754.471875	0.737612
754.799620	0.733127
755.127318	0.734610
755.454969	0.734679
755.782572	0.733963
756.110129	0.737986
756.437638	0.741622
756.765100	0.738057
757.092515	0.735107
757.419882	0.733804
757.747203	0.740402
758.074477	0.740543
758.401703	0.735392
758.728882	0.732020
759.056014	0.729654
759.383099	0.729898
759.710138	0.729680
760.037129	0.726644
760.364073	0.720809
760.690970	0.722668
761.017820	0.727053
761.344623	0.724584
761.671379	0.715687
761.998088	0.704164
762.324751	0.680175
762.651366	0.636520
762.977935	0.569543
763.304456	0.517395
763.630931	0.507912
763.957359	0.547578
764.283740	0.591599
764.610074	0.620377
764.936362	0.651807
765.262602	0.678826
765.588796	0.700555
765.914943	0.716902
766.241044	0.735736
766.567097	0.741821
766.893104	0.753091
767.219064	0.758551
767.544978	0.766136
767.870845	0.779048
768.196665	0.782855
768.522438	0.781059
768.848165	0.783115
769.173846	0.792286
769.499479	0.795924
769.825066	0.800277
770.150607	0.805892
770.476101	0.799831
770.801548	0.801959
771.126949	0.813619
771.452303	0.817959
771.777611	0.815858
772.102872	0.815403
772.428087	0.821072
772.753256	0.824234
773.078378	0.826016
773.403453	0.834580
773.728482	0.838130
774.053465	0.831857
774.378401	0.835166
774.703291	0.844669
775.028135	0.845305
775.352932	0.844676
775.677683	0.849898
776.002388	0.849915
776.327046	0.848825
776.651658	0.853299
776.976224	0.856215
777.300743	0.855200
777.625216	0.858570
777.949643	0.860061
778.274024	0.859160
778.598359	0.861990
778.922647	0.860265
779.246889	0.860802
779.571086	0.864306
779.895236	0.867347
780.219339	0.864662
780.543397	0.860213
780.867409	0.859910
781.191374	0.861405
781.515294	0.862792
781.839167	0.862385
782.162995	0.864753
782.486776	0.861525
782.810511	0.863410
783.134201	0.867748
783.457844	0.865158
783.781441	0.866819
784.104993	0.873937
784.428498	0.874310
784.751958	0.869598
785.075372	0.871215
785.398739	0.874852
785.722061	0.870384
786.045337	0.867180
786.368568	0.871580
786.691752	0.874350
787.014891	0.860866
787.337983	0.850825
787.661030	0.844286
787.984031	0.825517
788.306987	0.814036
788.629897	0.813153
788.952760	0.819571
789.275579	0.823376
789.598351	0.839622
789.921078	0.852743
790.243759	0.854045
790.566395	0.858925
790.888984	0.867326
791.211529	0.871088
791.534027	0.874495
791.856480	0.877233
792.178888	0.881967
792.501249	0.883945
792.823566	0.886188
793.145836	0.887217
793.468062	0.886860
793.790241	0.888445
794.112375	0.884999
794.434464	0.882713
794.756507	0.881944
795.078505	0.880086
795.400457	0.875240
795.722364	0.862588
796.044226	0.857311
796.366042	0.854893
796.687812	0.857285
797.009538	0.853687
797.331218	0.858170
797.652852	0.862193
797.974442	0.866014
798.295986	0.868236
798.617484	0.868705
798.938938	0.874216
799.260346	0.877502
799.581709	0.880175
799.903026	0.882444
800.224299	0.884288
800.545526	0.886673
800.866708	0.892612
801.187845	0.895034
801.508936	0.894995
801.829983	0.892240
802.150984	0.897132
802.471940	0.901102
802.792851	0.900151
803.113717	0.902063
803.434538	0.899177
803.755314	0.902678
804.076045	0.903292
804.396731	0.903680
804.717372	0.901919
805.037967	0.905347
805.358518	0.903275
805.679024	0.897767
805.999485	0.901326
806.319901	0.898641
806.640272	0.902529
806.960598	0.900428
807.280879	0.897005
807.601115	0.895167
807.921306	0.899232
808.241453	0.899361
808.561554	0.897611
808.881611	0.897530
809.201623	0.898596
809.521590	0.898623
809.841513	0.900377
810.161390	0.899216
810.481223	0.900802
810.801011	0.904975
811.120755	0.906311
811.440453	0.904360
811.760107	0.905183
812.079716	0.903571
812.399281	0.907054
812.718801	0.908576
813.038276	0.911576
813.357707	0.910470
813.677093	0.909349
813.996434	0.910341
814.315731	0.911536
814.634983	0.912744
814.954191	0.913453
815.273354	0.907604
815.592473	0.904473
815.911547	0.905019
816.230577	0.902347
816.549562	0.898448
816.868502	0.899087
817.187399	0.896886
817.506250	0.891969
817.825058	0.891946
818.143821	0.888863
818.462539	0.884232
818.781213	0.875320
819.099843	0.864879
819.418429	0.848789
819.736970	0.830418
820.055466	0.810297
820.373919	0.784653
820.692327	0.750775
821.010691	0.715274
821.329011	0.634689
821.647286	0.517939
821.965517	0.402387
822.283704	0.359381
822.601847	0.359863
822.919945	0.395773
823.237999	0.431000
823.556010	0.478928
823.873976	0.535076
824.191897	0.586371
824.509775	0.630182
824.827609	0.676708
825.145398	0.700254
825.463144	0.701209
825.780845	0.684428
826.098502	0.665788
826.416116	0.620588
826.733685	0.575048
827.051210	0.565477
827.368692	0.581304
827.686129	0.618418
828.003522	0.674175
828.320872	0.722012
828.638177	0.766718
828.955439	0.799337
829.272656	0.821389
829.589830	0.839777
829.906960	0.855865
830.224046	0.868970
830.541088	0.878836
830.858086	0.884336
831.175041	0.890321
831.491952	0.889762
831.808819	0.885084
832.125642	0.878028
832.442421	0.864923
832.759157	0.841606
833.075849	0.793506
833.392497	0.729703
833.709101	0.687095
834.025662	0.697257
834.342179	0.730315
834.658653	0.769350
834.975083	0.805959
835.291469	0.833765
835.607811	0.856530
835.924110	0.873337
836.240366	0.890920
836.556578	0.902748
836.872746	0.911473
837.188871	0.917708
837.504952	0.923255
837.820990	0.927826
838.136984	0.930981
838.452935	0.932808
838.768842	0.935640
839.084706	0.928859
839.400526	0.902551
839.716303	0.860409
840.032037	0.838506
840.347727	0.842183
840.663373	0.858771
840.978977	0.882059
841.294537	0.906361
841.610054	0.921544
841.925527	0.928901
842.240957	0.936364
842.556344	0.944100
842.871687	0.949714
843.186987	0.952820
843.502244	0.955325
843.817458	0.956165
844.132629	0.960776
844.447756	0.964939
844.762840	0.964985
845.077881	0.965281
845.392879	0.963492
845.707833	0.966645
846.022745	0.969012
846.337613	0.968504
846.652438	0.969089
846.967221	0.970350
847.281960	0.970935
847.596656	0.971803
847.911309	0.971475
848.225919	0.971736
848.540485	0.973444
848.855009	0.974866
849.169490	0.973395
849.483928	0.973709
849.798323	0.972262
850.112675	0.975551
850.426984	0.974142
850.741251	0.975323
851.055474	0.974611
851.369654	0.972986
851.683792	0.972459
851.997887	0.973435
852.311938	0.975298
852.625947	0.973450
852.939914	0.971995
853.253837	0.974546
853.567718	0.975601
853.881555	0.974862
854.195350	0.973679
854.509103	0.973768
854.822812	0.976328
855.136479	0.975988
855.450103	0.974994
855.763685	0.973372
856.077224	0.974458
856.390720	0.976030
856.704173	0.975277
857.017584	0.973478
857.330953	0.973141
857.644278	0.971567
857.957561	0.973341
858.270802	0.974218
858.584000	0.973314
858.897155	0.971654
859.210268	0.971142
859.523339	0.974889
859.836367	0.975828
860.149352	0.974639
860.462295	0.975475
860.775195	0.975151
861.088054	0.973027
861.400869	0.975697
861.713642	0.973585
862.026373	0.976287
862.339062	0.975285
862.651708	0.973073
862.964312	0.973895
863.276873	0.972684
863.589392	0.972516
863.901869	0.970681
864.214303	0.969299
864.526696	0.968386
864.839045	0.967573
865.151353	0.967327
865.463619	0.966307
865.775842	0.966864
866.088023	0.967620
866.400162	0.965988
866.712258	0.967603
867.024313	0.967301
867.336325	0.969280
867.648296	0.968381
867.960224	0.967462
868.272110	0.967977
868.583954	0.969612
868.895755	0.969154
869.207515	0.966548
869.519233	0.964999
869.830909	0.964697
870.142542	0.966414
870.454134	0.967375
870.765684	0.964756
871.077191	0.964283
871.388657	0.962815
871.700081	0.963116
872.011463	0.963274
872.322803	0.962307
872.634101	0.961103
872.945357	0.958020
873.256571	0.955868
873.567744	0.957983
873.878874	0.958439
874.189963	0.958150
874.501010	0.957573
874.812015	0.953774
875.122979	0.954999
875.433900	0.956607
875.744780	0.959293
876.055618	0.954188
876.366415	0.953751
876.677169	0.953711
876.987882	0.954570
877.298554	0.954694
877.609183	0.951261
877.919771	0.947345
878.230317	0.946953
878.540822	0.943710
878.851285	0.937988
879.161707	0.930227
879.472087	0.918782
879.782425	0.900016
880.092722	0.865683
880.402977	0.810531
880.713191	0.747369
881.023363	0.686420
881.333494	0.651841
881.643583	0.623840
881.953631	0.624223
882.263637	0.652569
882.573602	0.692810
882.883526	0.718883
883.193408	0.744163
883.503248	0.767650
883.813048	0.795231
884.122806	0.827931
884.432522	0.850618
884.742197	0.870562
885.051831	0.882150
885.361424	0.893722
885.670975	0.906398
885.980485	0.914800
886.289954	0.921345
886.599382	0.925535
886.908768	0.930977
887.218113	0.937377
887.527417	0.942984
887.836680	0.945536
888.145901	0.947749
888.455082	0.950534
888.764221	0.954817
889.073319	0.956518
889.382376	0.958088
889.691392	0.956571
890.000366	0.957444
890.309300	0.958037
890.618193	0.956583
890.927044	0.955508
891.235855	0.955079
891.544625	0.955535
891.853353	0.955019
892.162041	0.953208
892.470687	0.946391
892.779293	0.941559
893.087858	0.935992
893.396381	0.928188
893.704864	0.914964
894.013306	0.890904
894.321707	0.862496
894.630068	0.847696
894.938387	0.842052
895.246665	0.843931
895.554903	0.856056
895.863100	0.870685
896.171256	0.887462
896.479371	0.907455
896.787446	0.922220
897.095480	0.928276
897.403473	0.930768
897.711425	0.935812
898.019336	0.942774
898.327207	0.947427
898.635038	0.947679
898.942827	0.950224
899.250576	0.951509
899.558284	0.956171
899.865952	0.958159
900.173579	0.958819
900.481165	0.960484
900.788711	0.961976
901.096216	0.965328
901.403681	0.966501
901.711105	0.966884
902.018489	0.967080
902.325832	0.966443
902.633135	0.964782
902.940397	0.960414
903.247619	0.945473
903.554800	0.921047
903.861941	0.879822
904.169041	0.842341
904.476101	0.823231
904.783121	0.824627
905.090100	0.840089
905.397039	0.863202
905.703938	0.885082
906.010796	0.906555
906.317614	0.924142
906.624391	0.937164
906.931129	0.947105
907.237826	0.955729
907.544483	0.962869
907.851099	0.966680
908.157675	0.971038
908.464211	0.974303
908.770707	0.975885
909.077163	0.978365
909.383578	0.980281
909.689954	0.980304
909.996289	0.979972
910.302584	0.983088
910.608839	0.985006
910.915054	0.984392
911.221229	0.982728
911.527363	0.981542
911.833458	0.982846
912.139513	0.981902
912.445527	0.981040
912.751502	0.979143
913.057436	0.976647
913.363331	0.975723
913.669186	0.970980
913.975000	0.965720
914.280775	0.958992
914.586510	0.950983
914.892205	0.936968
915.197859	0.914002
915.503475	0.886442
915.809050	0.866572
916.114585	0.860776
916.420081	0.856997
916.725536	0.854139
917.030952	0.863429
917.336328	0.876622
917.641665	0.891473
917.946961	0.908300
918.252218	0.919410
918.557435	0.927950
918.862612	0.938584
919.167750	0.943814
919.472848	0.951078
919.777906	0.957671
920.082925	0.962078
920.387904	0.966002
920.692843	0.966438
920.997743	0.968346
921.302603	0.971405
921.607423	0.972375
921.912204	0.976373
922.216946	0.977582
922.521647	0.978364
922.826310	0.980184
923.130932	0.982710
923.435516	0.983888
923.740059	0.984766
924.044564	0.985021
924.349028	0.984783
924.653454	0.986691
924.957840	0.988067
925.262186	0.989404
925.566493	0.988091
925.870761	0.989825
926.174989	0.989878
926.479178	0.993026
926.783328	0.993054
927.087438	0.992748
927.391509	0.992643
927.695541	0.993281
927.999533	0.994905
928.303486	0.994727
928.607400	0.995657
928.911275	0.995212
929.215110	0.997780
929.518906	0.995954
929.822663	0.996255
930.126381	0.996759
930.430060	0.995185
930.733699	0.996415
931.037299	0.996090
931.340861	0.995560
931.644383	0.993202
931.947866	0.995936
932.251309	0.996111
932.554714	0.995498
932.858080	0.996797
933.161407	0.995363
933.464694	0.996058
933.767943	0.996628
934.071153	0.996785
934.374323	0.996903
934.677455	0.996109
934.980548	0.996959
935.283602	0.997036
935.586617	0.996228
935.889593	0.997262
936.192530	0.997364
936.495428	0.996192
936.798287	0.996576
937.101108	0.995521
937.403890	0.992761
937.706632	0.994166
938.009336	0.992115
938.312002	0.990620
938.614628	0.989006
938.917216	0.987453
939.219765	0.987281
939.522275	0.988052
939.824747	0.986457
940.127179	0.988818
940.429573	0.990230
940.731929	0.988660
941.034246	0.989339
941.336524	0.988476
941.638763	0.990164
941.940964	0.990193
942.243126	0.991339
942.545250	0.992648
942.847335	0.992518
943.149381	0.993668
943.451389	0.992789
943.753359	0.993611
944.055290	0.995007
944.357182	0.994986
944.659036	0.995595
944.960851	0.995272
945.262628	0.995579
945.564367	0.994984
945.866067	0.994911
946.167729	0.996288
946.469352	0.994902
946.770937	0.993975
947.072484	0.995946
947.373992	0.994536
947.675462	0.995176
947.976893	0.994736
948.278286	0.996180
948.579641	0.995915
948.880958	0.995718
949.182236	0.995814
949.483476	0.996770
949.784678	0.996994
950.085841	0.996360
950.386967	0.996249
950.688054	0.996618
950.989103	0.994339
951.290114	0.992752
951.591087	0.994206
951.892021	0.994321
952.192917	0.993722
952.493776	0.992576
952.794596	0.993708
953.095378	0.993009
953.396122	0.992583
953.696828	0.994386
953.997496	0.994298
954.298126	0.995149
954.598718	0.994926
954.899272	0.996453
955.199788	0.995918
955.500266	0.997076
955.800706	0.997113
956.101108	0.997919
956.401472	1.000781
956.701798	1.000088
957.002087	0.998909
957.302337	0.999058
957.602550	1.000685
957.902724	0.999693
958.202861	0.999972
958.502960	1.000598
958.803022	1.001955
959.103045	1.001810
959.403031	1.001609
959.702979	1.002165
960.002889	1.001174
960.302762	1.001234
960.602596	1.001985
960.902393	1.000833
961.202153	1.001620
961.501875	1.002603
961.801559	1.002586
962.101205	1.000802
962.400814	1.002241
962.700385	1.002204
962.999918	1.002416
963.299414	1.001755
963.598873	1.002479
963.898293	1.002891
964.197677	1.001882
964.497022	1.002224
964.796331	1.002272
965.095601	1.003651
965.394835	1.002698
965.694030	1.002760
965.993189	1.001984
966.292309	1.002812
966.591393	1.002020
966.890439	1.002355
967.189447	1.002549
967.488419	1.003004
967.787353	1.003386
968.086249	1.003504
968.385108	1.002138
968.683930	1.004137
968.982714	1.003394
969.281462	1.002742
969.580172	1.001908
969.878844	1.002608
970.177480	1.001777
970.476078	1.004099
970.774639	1.002696
971.073162	1.002038
971.371649	1.001650
971.670098	1.001189
971.968510	1.002374
972.266885	1.000996
972.565223	1.001559
972.863524	1.002330
973.161788	1.001983
973.460014	1.003854
973.758204	1.001149
974.056356	1.002224
974.354471	1.001769
974.652550	1.003135
974.950591	1.001745
975.248595	1.001586
975.546563	1.004466
975.844493	1.002502
976.142386	1.001643
976.440243	1.002408
976.738062	1.003159
977.035845	1.001633
977.333590	1.004839
977.631299	1.002268
977.928971	1.002295
978.226606	1.003724
978.524204	1.002665
978.821765	1.003932
979.119290	1.004333
979.416777	1.002708
979.714228	1.002098
980.011642	1.004048
980.309020	1.003065
980.606360	1.002009
980.903664	1.002386
981.200931	1.002086
981.498162	1.001898
981.795356	1.000170
982.092513	0.999971
982.389633	0.999729
982.686717	0.996745
982.983764	0.996176
983.280775	0.996338
983.577749	0.997324
983.874686	0.995037
984.171587	0.997373
984.468451	0.998562
984.765279	1.000027
985.062070	0.999807
985.358824	1.000573
985.655543	1.002087
985.952224	1.002760
986.248869	1.001283
986.545478	1.003913
986.842050	1.002758
987.138586	1.002579
987.435086	1.002315
987.731549	1.003982
988.027975	1.004472
988.324366	1.003138
988.620719	1.004667
988.917037	1.003996
989.213318	1.004272
989.509563	1.003883
989.805772	1.004229
990.101944	1.004450
990.398080	1.004631
990.694180	1.004790
990.990244	1.003225
991.286271	1.004536
991.582262	1.004001
991.878217	1.004852
992.174136	1.004296
992.470019	1.003771
992.765865	1.006416
993.061676	1.003420
993.357450	1.004173
993.653188	1.005623
993.948890	1.003342
994.244556	1.002881
994.540186	1.003804
994.835780	1.003691
995.131337	1.004496
995.426859	1.002461
995.722345	1.003081
996.017795	1.002765
996.313208	1.002683
996.608586	1.001020
996.903928	1.002857
997.199234	1.002667
997.494504	1.002716
997.789738	1.001555
998.084936	1.003145
998.380099	1.002289
998.675225	1.003281
998.970316	1.004103
999.265371	1.002754
999.560390	1.003770
999.855373	1.003717
1000.150320	1.004076
1000.445232	1.003468
1000.740108	1.004697
1001.034948	1.004052
1001.329752	1.005257
1001.624521	1.004568
1001.919254	1.003970
1002.213951	1.005317
1002.508613	1.003995
1002.803239	1.004425
1003.097829	1.005213
1003.392384	1.004622
1003.686903	1.004604
1003.981386	1.003566
1004.275834	1.005879
1004.570246	1.004741
1004.864623	1.004980
1005.158964	1.004227
1005.453270	1.005734
1005.747540	1.003773
1006.041775	1.004818
1006.335974	1.004818
1006.630138	1.005180
1006.924266	1.003835
1007.218359	1.001991
1007.512416	1.006492
1007.806438	1.004490
1008.100425	1.004374
1008.394376	1.005036
1008.688292	1.003897
1008.982172	1.003410
1009.276017	1.004868
1009.569827	1.005085
1009.863602	1.003506
1010.157341	1.005719
1010.451045	1.004868
1010.744714	1.006036
1011.038347	1.005041
1011.331945	1.004003
1011.625508	1.004294
1011.919036	1.005357
1012.212528	1.004738
1012.505986	1.004540
1012.799408	1.005321
1013.092795	1.004821
1013.386147	1.004714
1013.679464	1.005159
1013.972745	1.005276
1014.265992	1.004514
1014.559204	1.003985
1014.852380	1.006019
1015.145521	1.005414
1015.438628	1.005125
1015.731699	1.004249
1016.024736	1.005584
1016.317737	1.004123
1016.610703	1.005216
1016.903635	1.003516
1017.196531	1.004414
1017.489393	1.004317
1017.782219	1.003681
1018.075011	1.005163
1018.367768	1.003973
1018.660490	1.004065
1018.953177	1.004065
1019.245829	1.004065
