Dividing Wavelength (nm)	Counts (n)	Blue Motor Position (mm): 36.500000	Red Motor Position (mm): 0.000000	
326.493990	0.998853
326.888308	0.998853
327.282561	0.998853
327.676750	0.999031
328.070874	1.001817
328.464933	1.000928
328.858929	1.000455
329.252859	0.999199
329.646726	0.999596
330.040528	0.999857
330.434265	0.999850
330.827938	0.998111
331.221547	0.999942
331.615091	1.001321
332.008571	1.001273
332.401986	1.000069
332.795338	1.000293
333.188625	1.001034
333.581847	0.999826
333.975006	1.000229
334.368100	0.999688
334.761129	0.998457
335.154095	1.000437
335.546996	1.001955
335.939833	0.998917
336.332606	0.999789
336.725315	0.998895
337.117960	1.000913
337.510540	0.998878
337.903056	0.998724
338.295508	1.000950
338.687896	0.999460
339.080220	0.999966
339.472480	0.999481
339.864676	1.000993
340.256807	0.997934
340.648875	1.000201
341.040879	0.999928
341.432818	0.999972
341.824694	1.000471
342.216506	0.999909
342.608253	0.999364
342.999937	0.999351
343.391557	0.998956
343.783113	1.000211
344.174605	1.001098
344.566033	0.996961
344.957397	0.999491
345.348697	1.000723
345.739934	0.999620
346.131106	0.999194
346.522215	0.998492
346.913260	1.000439
347.304241	0.998987
347.695159	0.999532
348.086012	0.999659
348.476802	0.999106
348.867528	0.998926
349.258191	1.000489
349.648789	0.999939
350.039324	1.000066
350.429796	0.999189
350.820203	0.997795
351.210548	0.998792
351.600828	0.999438
351.991045	0.998420
352.381198	1.001043
352.771288	0.999297
353.161314	0.999350
353.551276	0.999330
353.941175	0.998072
354.331010	0.999901
354.720782	0.998821
355.110490	0.998942
355.500135	0.999732
355.889717	0.997848
356.279235	0.998141
356.668689	0.998800
357.058080	0.999067
357.447408	0.998457
357.836672	0.998904
358.225873	0.997381
358.615010	0.998359
359.004084	0.997466
359.393095	0.999140
359.782043	0.999158
360.170927	0.999761
360.559748	0.999126
360.948505	0.997390
361.337199	0.996765
361.725830	0.998311
362.114398	0.998258
362.502903	0.996892
362.891344	0.996758
363.279722	0.996689
363.668037	0.997763
364.056289	0.997296
364.444478	0.998661
364.832603	0.997629
365.220665	0.997750
365.608665	0.996717
365.996601	0.997199
366.384474	0.995928
366.772284	0.997731
367.160031	0.996393
367.547715	0.995822
367.935336	0.995264
368.322893	0.993653
368.710388	0.993845
369.097820	0.990632
369.485189	0.989503
369.872495	0.987863
370.259738	0.986266
370.646918	0.983263
371.034035	0.980382
371.421090	0.977761
371.808081	0.971499
372.195010	0.970707
372.581875	0.964727
372.968678	0.961090
373.355418	0.956719
373.742096	0.949670
374.128710	0.945529
374.515262	0.940604
374.901751	0.933991
375.288177	0.930312
375.674540	0.923042
376.060841	0.917391
376.447079	0.910677
376.833254	0.904446
377.219367	0.899132
377.605417	0.887566
377.991404	0.885138
378.377329	0.878284
378.763191	0.871650
379.148991	0.861833
379.534727	0.855746
379.920402	0.846848
380.306013	0.843151
380.691563	0.830997
381.077049	0.823439
381.462474	0.819734
381.847835	0.808603
382.233134	0.804473
382.618371	0.804021
383.003545	0.786775
383.388657	0.784126
383.773706	0.777809
384.158693	0.772807
384.543618	0.768163
384.928480	0.759144
385.313280	0.749458
385.698017	0.749648
386.082692	0.737881
386.467305	0.736207
386.851856	0.730971
387.236344	0.724887
387.620770	0.719684
388.005133	0.713468
388.389435	0.708435
388.773674	0.705516
389.157851	0.698143
389.541965	0.695562
389.926018	0.701664
390.310008	0.688727
390.693936	0.685931
391.077802	0.677966
391.461606	0.679070
391.845348	0.668532
392.229027	0.668298
392.612645	0.666223
392.996200	0.652783
393.379694	0.646787
393.763125	0.636523
394.146494	0.640861
394.529801	0.632302
394.913047	0.624150
395.296230	0.629707
395.679351	0.621313
396.062410	0.618508
396.445408	0.621386
396.828343	0.617470
397.211217	0.612271
397.594028	0.624953
397.976778	0.616334
398.359466	0.613336
398.742092	0.608609
399.124656	0.621312
399.507158	0.610333
399.889598	0.609927
400.271977	0.601946
400.654294	0.607702
401.036549	0.608836
401.418742	0.614705
401.800874	0.603913
402.182944	0.602955
402.564952	0.598481
402.946898	0.603911
403.328783	0.607554
403.710606	0.621900
404.092367	0.602791
404.474067	0.611249
404.855705	0.614639
405.237282	0.626509
405.618797	0.619295
406.000250	0.620820
406.381642	0.617136
406.762972	0.627940
407.144240	0.632112
407.525447	0.637641
407.906593	0.637937
408.287677	0.641082
408.668700	0.654474
409.049661	0.656734
409.430560	0.660030
409.811399	0.674432
410.192176	0.668685
410.572891	0.682169
410.953545	0.680668
411.334138	0.698234
411.714669	0.700535
412.095139	0.717072
412.475547	0.715445
412.855894	0.725478
413.236180	0.733185
413.616405	0.745095
413.996568	0.747825
414.376670	0.760446
414.756711	0.771249
415.136691	0.778175
415.516609	0.781958
415.896466	0.788673
416.276262	0.795537
416.655997	0.805803
417.035670	0.806545
417.415283	0.812229
417.794834	0.822565
418.174324	0.831681
418.553753	0.842911
418.933121	0.846335
419.312428	0.853083
419.691674	0.863833
420.070859	0.867476
420.449983	0.876911
420.829045	0.880700
421.208047	0.889660
421.586988	0.895247
421.965867	0.901036
422.344686	0.906612
422.723444	0.913343
423.102141	0.922887
423.480777	0.923167
423.859352	0.932059
424.237866	0.934572
424.616319	0.938927
424.994712	0.942654
425.373044	0.947378
425.751314	0.951137
426.129524	0.957261
426.507673	0.958802
426.885762	0.961246
427.263789	0.964690
427.641756	0.968561
428.019662	0.970942
428.397508	0.972959
428.775292	0.976749
429.153016	0.978434
429.530679	0.980357
429.908282	0.982749
430.285824	0.983736
430.663305	0.985065
431.040726	0.988245
431.418086	0.988939
431.795385	0.989554
432.172624	0.991499
432.549802	0.992130
432.926920	0.992295
433.303977	0.992843
433.680974	0.993840
434.057910	0.994738
434.434786	0.994152
434.811601	0.995589
435.188355	0.996106
435.565050	0.996649
435.941683	0.995357
436.318257	0.995035
436.694770	0.996610
437.071222	0.997828
437.447614	0.996821
437.823946	0.997807
438.200218	0.997100
438.576429	0.996853
438.952580	0.998105
439.328670	0.997077
439.704700	0.997073
440.080670	0.998553
440.456580	0.998396
440.832429	0.998783
441.208218	0.998363
441.583947	0.998200
441.959616	0.997749
442.335224	0.999182
442.710773	0.999167
443.086261	0.998559
443.461689	0.997997
443.837057	0.998333
444.212365	0.999252
444.587612	0.999086
444.962800	0.998263
445.337927	0.999029
445.712995	0.998699
446.088002	0.998710
446.462949	0.997538
446.837837	1.000579
447.212664	0.998584
447.587431	0.998891
447.962139	0.998292
448.336786	0.997889
448.711374	0.998417
449.085901	0.999067
449.460369	0.999156
449.834776	0.998249
450.209124	0.999155
450.583412	0.999772
450.957640	0.998738
451.331808	0.999293
451.705917	0.999254
452.079965	0.998030
452.453954	0.999845
452.827883	0.999246
453.201752	0.998868
453.575562	0.998462
453.949311	0.999356
454.323001	0.999786
454.696632	0.998850
455.070202	0.998409
455.443713	0.998681
455.817164	0.998750
456.190556	0.998354
456.563888	0.999598
456.937160	0.998685
457.310373	0.998839
457.683526	0.998987
458.056619	0.998921
458.429653	0.998477
458.802628	0.998556
459.175542	0.998746
459.548398	0.998736
459.921194	0.998880
460.293930	0.999786
460.666607	0.999345
461.039224	0.999394
461.411782	0.999064
461.784280	0.998103
462.156719	0.999022
462.529099	0.999385
462.901419	0.999089
463.273680	0.998042
463.645882	0.998899
464.018024	0.999477
464.390106	0.998217
464.762130	0.998615
465.134094	0.998491
465.505999	0.999028
465.877845	0.998471
466.249631	0.998114
466.621358	0.998423
466.993026	0.997890
467.364634	0.998540
467.736184	0.998518
468.107674	0.998613
468.479105	0.998214
468.850477	0.998394
469.221790	0.998738
469.593043	0.998235
469.964238	0.998316
470.335373	0.998041
470.706449	0.998285
471.077467	0.998614
471.448425	0.998680
471.819324	0.998528
472.190164	0.998078
472.560945	0.998246
472.931667	0.998687
473.302330	0.998735
473.672934	0.998792
474.043479	0.997970
474.413965	0.998502
474.784393	0.998562
475.154761	0.997979
475.525070	0.997765
475.895321	0.999101
476.265513	0.998550
476.635645	0.999056
477.005719	0.997745
477.375734	0.998508
477.745691	0.998392
478.115588	0.997468
478.485427	0.998129
478.855207	0.997858
479.224928	0.998165
479.594591	0.998318
479.964194	0.997551
480.333739	0.998553
480.703226	0.997260
481.072653	0.997541
481.442022	0.998631
481.811333	0.998267
482.180584	0.998380
482.549777	0.998406
482.918912	0.997678
483.287988	0.998370
483.657005	0.997915
484.025964	0.998042
484.394864	0.997903
484.763706	0.997770
485.132489	0.998635
485.501213	0.998168
485.869879	0.998611
486.238487	0.997215
486.607036	0.998505
486.975527	0.998356
487.343959	0.998117
487.712333	0.998036
488.080648	0.998418
488.448905	0.998767
488.817104	0.998481
489.185244	0.998583
489.553326	0.998581
489.921350	0.998520
490.289315	0.998096
490.657222	0.997775
491.025070	0.998920
491.392861	0.998181
491.760593	0.998078
492.128267	0.997856
492.495883	0.997688
492.863440	0.998214
493.230939	0.998090
493.598380	0.998894
493.965763	0.998740
494.333088	0.998069
494.700354	0.998336
495.067563	0.998324
495.434713	0.997940
495.801805	0.997682
496.168839	0.998047
496.535815	0.998658
496.902733	0.997833
497.269593	0.997937
497.636395	0.997832
498.003139	0.997427
498.369825	0.998748
498.736453	0.998563
499.103023	0.998588
499.469535	0.999010
499.835989	0.998437
500.202385	0.998033
500.568723	0.998149
500.935003	0.998280
501.301226	0.998346
501.667390	0.997727
502.033497	0.998282
502.399546	0.997869
502.765537	0.998442
503.131470	0.998299
503.497345	0.998173
503.863163	0.998433
504.228923	0.998486
504.594625	0.997788
504.960269	0.997641
505.325856	0.999276
505.691385	0.998461
506.056856	0.998487
506.422270	0.998022
506.787625	0.998196
507.152924	0.998730
507.518164	0.997917
507.883347	0.997961
508.248472	0.998226
508.613540	0.998074
508.978550	0.998332
509.343503	0.998836
509.708398	0.999038
510.073236	0.998421
510.438016	0.997735
510.802738	0.998340
511.167403	0.997782
511.532010	0.999080
511.896561	0.998720
512.261053	0.997757
512.625488	0.998333
512.989866	0.998549
513.354186	0.998074
513.718449	0.998170
514.082655	0.997407
514.446803	0.998398
514.810894	0.998965
515.174927	0.998458
515.538904	0.998766
515.902822	0.998008
516.266684	0.998619
516.630488	0.998939
516.994235	0.998192
517.357925	0.998743
517.721558	0.998507
518.085133	0.997570
518.448651	0.998535
518.812112	0.998648
519.175516	0.998580
519.538863	0.997959
519.902152	0.998727
520.265385	0.998118
520.628560	0.997883
520.991678	0.999171
521.354739	0.998403
521.717743	0.998661
522.080690	0.998646
522.443580	0.998350
522.806413	0.997984
523.169189	0.998752
523.531908	0.997494
523.894569	0.998481
524.257174	0.998206
524.619722	0.998286
524.982213	0.998974
525.344647	0.998123
525.707025	0.997523
526.069345	0.998074
526.431608	0.998787
526.793815	0.998638
527.155964	0.998845
527.518057	0.998690
527.880093	0.998315
528.242072	0.997809
528.603995	0.998213
528.965860	0.998884
529.327669	0.998274
529.689421	0.998240
530.051117	0.999076
530.412755	0.999066
530.774337	0.998189
531.135862	0.999127
531.497331	0.997659
531.858743	0.999396
532.220098	0.998157
532.581396	0.998366
532.942638	0.998834
533.303824	0.998811
533.664953	0.998408
534.026025	0.999330
534.387040	0.998235
534.747999	0.997929
535.108902	0.997964
535.469748	0.999332
535.830537	0.999078
536.191270	0.998122
536.551947	0.998769
536.912567	0.998295
537.273131	0.998863
537.633638	0.998415
537.994089	0.999153
538.354483	0.998500
538.714821	0.998532
539.075103	0.998713
539.435328	0.999409
539.795497	0.998713
540.155609	0.999172
540.515665	0.999054
540.875665	0.998039
541.235609	0.998717
541.595496	0.998006
541.955328	0.998242
542.315102	0.998743
542.674821	0.998795
543.034483	0.998986
543.394090	0.998026
543.753640	0.998572
544.113134	0.998375
544.472571	0.999188
544.831953	0.999335
545.191278	0.998802
545.550548	0.998372
545.909761	0.998295
546.268918	0.999565
546.628019	0.999035
546.987064	0.998251
547.346053	0.998280
547.704986	0.998559
548.063863	0.998018
548.422684	0.998919
548.781449	0.998406
549.140158	0.998924
549.498811	0.997897
549.857408	0.997769
550.215949	0.998034
550.574434	0.998513
550.932864	0.998919
551.291237	0.998447
551.649555	0.998885
552.007817	0.998845
552.366022	0.999103
552.724173	0.998903
553.082267	0.998538
553.440305	0.997497
553.798288	0.997740
554.156215	0.998432
554.514086	0.998735
554.871902	0.998734
555.229661	0.998005
555.587365	0.998544
555.945014	0.998906
556.302606	0.998253
556.660143	0.999262
557.017625	0.999057
557.375050	0.998386
557.732421	0.998373
558.089735	0.998268
558.446994	0.997712
558.804197	0.998025
559.161345	0.997597
559.518437	0.998648
559.875474	0.998929
560.232455	0.998433
560.589381	0.998872
560.946251	0.998034
561.303065	0.998879
561.659825	0.998782
562.016528	0.999214
562.373177	0.998314
562.729770	0.998836
563.086307	0.997868
563.442789	0.998893
563.799216	0.998189
564.155587	0.999038
564.511904	0.999215
564.868164	0.998238
565.224370	0.998900
565.580520	0.998715
565.936615	0.998599
566.292654	0.998253
566.648638	0.998690
567.004567	0.998546
567.360441	0.998854
567.716260	0.998941
568.072023	0.998119
568.427732	0.998722
568.783385	0.998457
569.138982	0.999093
569.494525	0.997921
569.850013	0.998910
570.205445	0.998887
570.560823	0.998888
570.916145	0.998279
571.271412	0.999119
571.626625	0.999101
571.981782	0.998254
572.336884	0.999054
572.691931	0.998927
573.046923	0.999595
573.401860	0.998926
573.756743	0.999070
574.111570	0.998420
574.466342	0.999073
574.821059	0.998652
575.175722	0.999629
575.530330	0.998293
575.884882	0.998693
576.239380	0.998683
576.593823	0.999029
576.948211	0.998811
577.302544	0.997965
577.656823	0.999151
578.011047	0.998986
578.365216	0.999775
578.719330	0.999021
579.073389	0.997806
579.427394	0.999013
579.781344	0.998888
580.135239	0.998372
580.489080	0.998571
580.842866	0.998883
581.196597	0.997611
581.550273	0.997799
581.903895	0.998838
582.257463	0.998338
582.610975	0.997905
582.964434	0.999057
583.317837	0.998214
583.671186	0.999090
584.024481	0.998862
584.377721	0.998451
584.730906	0.998810
585.084037	0.999642
585.437113	0.998896
585.790135	0.998726
586.143103	0.998780
586.496016	0.998770
586.848874	0.998475
587.201679	0.998683
587.554428	0.998878
587.907124	0.999080
588.259765	0.999265
588.612352	0.999648
588.964884	0.998896
589.317362	0.999402
589.669786	0.998101
590.022155	0.998232
590.374470	0.998482
590.726731	0.998518
591.078937	0.998828
591.431090	0.998444
591.783188	0.998138
592.135232	0.999324
592.487222	0.999056
592.839157	0.998421
593.191038	0.998525
593.542866	0.999024
593.894639	0.998795
594.246358	0.997968
594.598022	0.998872
594.949633	0.999195
595.301190	0.998081
595.652692	0.998535
596.004141	0.998722
596.355535	0.998612
596.706876	0.998864
597.058162	0.998719
597.409395	0.999209
597.760573	0.998591
598.111698	0.998885
598.462768	0.998792
598.813785	0.998412
599.164748	0.998042
599.515657	0.998658
599.866511	0.999024
600.217312	0.999719
600.568060	0.998356
600.918753	0.999533
601.269392	0.999119
601.619978	0.998505
601.970510	0.998098
602.320988	0.998236
602.671412	0.998388
603.021783	0.999074
603.372100	0.999236
603.722363	0.999605
604.072572	0.999084
604.422728	0.998460
604.772830	0.997932
605.122878	0.998734
605.472872	0.998721
605.822813	0.998354
606.172701	0.998970
606.522534	0.998814
606.872314	0.999583
607.222041	0.998256
607.571714	0.998636
607.921333	0.998743
608.270899	0.998993
608.620411	0.998726
608.969870	0.999352
609.319276	0.998442
609.668627	0.999904
610.017926	0.998429
610.367171	0.998312
610.716362	0.999030
611.065500	0.998938
611.414585	0.998707
611.763616	0.998862
612.112594	0.998606
612.461518	0.997772
612.810389	0.998964
613.159207	0.998466
613.507971	0.997889
613.856682	0.998922
614.205340	0.997500
614.553945	0.999071
614.902496	0.998064
615.250994	0.998267
615.599439	0.999327
615.947830	0.998638
616.296169	0.998528
616.644454	0.998559
616.992686	0.998551
617.340864	0.998678
617.688990	0.997812
618.037063	0.998942
618.385082	0.997969
618.733048	0.998868
619.080961	0.998960
619.428821	0.999147
619.776628	0.998141
620.124382	0.999580
620.472083	0.998904
620.819731	0.999394
621.167326	0.998929
621.514868	0.999112
621.862357	0.998392
622.209793	0.998266
622.557176	0.998772
622.904506	0.998135
623.251783	0.997879
623.599007	0.998790
623.946179	0.997812
624.293297	0.998693
624.640363	0.998708
624.987376	0.998445
625.334336	0.998395
625.681243	0.998984
626.028097	0.998741
626.374899	0.998293
626.721647	0.999057
627.068343	0.998367
627.414987	0.997865
627.761577	0.997442
628.108115	0.997969
628.454600	0.998623
628.801032	0.998853
629.147412	0.998412
629.493739	0.999909
629.840014	0.998587
630.186236	0.997739
630.532405	0.997886
630.878521	0.997220
631.224585	0.998941
631.570597	0.997830
631.916556	0.998891
632.262462	0.997798
632.608316	0.998722
632.954117	0.998006
633.299866	0.998432
633.645562	0.998171
633.991206	0.998524
634.336797	0.998383
634.682336	0.999120
635.027823	0.998152
635.373257	0.998925
635.718639	0.998191
636.063968	0.997776
636.409245	0.998454
636.754470	0.999507
637.099642	0.998894
637.444762	0.998612
637.789829	0.998257
638.134845	0.998395
638.479808	0.998956
638.824719	0.998370
639.169577	0.998944
639.514383	0.998580
639.859137	0.998886
640.203839	0.997800
640.548489	0.998386
640.893086	0.998079
641.237632	0.998592
641.582125	0.998771
641.926566	0.999354
642.270955	0.998233
642.615292	0.998424
642.959576	0.998826
643.303809	0.998577
643.647990	0.998593
643.992118	0.998525
644.336195	0.997568
644.680219	0.998586
645.024192	0.999182
645.368112	0.997784
645.711981	0.998912
646.055797	0.997697
646.399562	0.997855
646.743274	0.998487
647.086935	0.998536
647.430544	0.997920
647.774101	0.997582
648.117606	0.998743
648.461059	0.998877
648.804460	0.998051
649.147810	0.997855
649.491108	0.998533
649.834354	0.998233
650.177548	0.997968
650.520690	0.998496
650.863781	0.998116
651.206820	0.998993
651.549807	0.998454
651.892742	0.999391
652.235626	0.998239
652.578458	0.998737
652.921238	0.998953
653.263967	0.998609
653.606644	0.997762
653.949269	0.998840
654.291843	0.997615
654.634365	0.999197
654.976836	0.997983
655.319255	0.999388
655.661622	0.998136
656.003938	0.997302
656.346203	0.998284
656.688416	0.999199
657.030577	0.997915
657.372687	0.998053
657.714746	0.998346
658.056753	0.998579
658.398708	0.997987
658.740612	0.998834
659.082465	0.997477
659.424266	0.998458
659.766016	0.997810
660.107715	0.999147
660.449362	0.998603
660.790958	0.998109
661.132503	0.998418
661.473996	0.997841
661.815438	0.998323
662.156829	0.999133
662.498168	0.998116
662.839456	0.997634
663.180693	0.997770
663.521879	0.998336
663.863013	0.998384
664.204097	0.997628
664.545129	0.998140
664.886110	0.998370
665.227040	0.997944
665.567918	0.998133
665.908746	0.997271
666.249522	0.997523
666.590248	0.998485
666.930922	0.997902
667.271545	0.998783
667.612118	0.998441
667.952639	0.998847
668.293109	0.998055
668.633528	0.997420
668.973896	0.998862
669.314213	0.997677
669.654480	0.998047
669.994695	0.997340
670.334859	0.998569
670.674973	0.997985
671.015035	0.997908
671.355047	0.998222
671.695008	0.997206
672.034918	0.998175
672.374777	0.998210
672.714585	0.997560
673.054342	0.998880
673.394049	0.997989
673.733705	0.997858
674.073310	0.998169
674.412864	0.997582
674.752368	0.998304
675.091820	0.998442
675.431223	0.998224
675.770574	0.997133
676.109875	0.998269
676.449125	0.997141
676.788324	0.997942
677.127473	0.998469
677.466571	0.997569
677.805619	0.998607
678.144616	0.998244
678.483562	0.998241
678.822458	0.998024
679.161303	0.997881
679.500098	0.997736
679.838842	0.998420
680.177535	0.996855
680.516179	0.997687
680.854771	0.997386
681.193314	0.997386
681.531805	0.998022
681.870247	0.998440
682.208638	0.997569
682.546978	0.997598
682.885268	0.997632
683.223508	0.997258
683.561697	0.998193
683.899836	0.998045
684.237925	0.998146
684.575963	0.997447
684.913951	0.997830
685.251889	0.997673
685.589776	0.997221
685.927614	0.998151
686.265401	0.997658
686.603137	0.997563
686.940824	0.997639
687.278460	0.998644
687.616046	0.998303
687.953582	0.998301
688.291068	0.997657
688.628504	0.997843
688.965889	0.997047
689.303224	0.996456
689.640510	0.997970
689.977745	0.997828
690.314930	0.998159
690.652065	0.997260
690.989150	0.997649
691.326185	0.998158
691.663170	0.998164
692.000105	0.997818
692.336990	0.998263
692.673825	0.997798
693.010610	0.997737
693.347345	0.997612
693.684030	0.997968
694.020665	0.997740
694.357251	0.997350
694.693786	0.998138
695.030272	0.997065
695.366707	0.997638
695.703093	0.996875
696.039429	0.997650
696.375716	0.997980
696.711952	0.997361
697.048139	0.998632
697.384276	0.997606
697.720363	0.996757
698.056400	0.996523
698.392388	0.996876
698.728326	0.997354
699.064214	0.999217
699.400053	0.997471
699.735842	0.997590
700.071581	0.997755
700.407270	0.996841
700.742910	0.998059
701.078501	0.998449
701.414042	0.998127
701.749533	0.996773
702.084974	0.997768
702.420366	0.998385
702.755709	0.997352
703.091002	0.999134
703.426246	0.998148
703.761440	0.996861
704.096584	0.997569
704.431679	0.997429
704.766725	0.996789
705.101721	0.998414
705.436668	0.998208
705.771565	0.996847
706.106413	0.996927
706.441212	0.998033
706.775961	0.998319
707.110661	0.997489
707.445311	0.997597
707.779913	0.998533
708.114465	0.999286
708.448967	0.998383
708.783421	0.998233
709.117825	0.998131
709.452180	0.997596
709.786485	0.997849
710.120742	0.997423
710.454949	0.996722
710.789107	0.997561
711.123216	0.997051
711.457275	0.997161
711.791286	0.997562
712.125247	0.999081
712.459159	0.996964
712.793023	0.997248
713.126837	0.997419
713.460602	0.997274
713.794318	0.996489
714.127985	0.997345
714.461602	0.998274
714.795171	0.996962
715.128691	0.997261
715.462162	0.997900
715.795584	0.997440
716.128957	0.997981
716.462281	0.997395
716.795556	0.998743
717.128782	0.998332
717.461960	0.997865
717.795088	0.997532
718.128167	0.999197
718.461198	0.998224
718.794180	0.998473
719.127113	0.997285
719.459997	0.996865
719.792833	0.997725
720.125619	0.997756
720.458357	0.997063
720.791046	0.997748
721.123686	0.997677
721.456278	0.997681
721.788821	0.997273
722.121315	0.999481
722.453761	0.998126
722.786158	0.997642
723.118506	0.998056
723.450805	0.996975
723.783056	0.998962
724.115259	0.997726
724.447412	0.997789
724.779518	0.998296
725.111574	0.997369
725.443582	0.997962
725.775542	0.998399
726.107453	0.997954
726.439315	0.997989
726.771129	0.996869
727.102895	0.999046
727.434612	0.997923
727.766281	0.997960
728.097901	0.996796
728.429473	0.997671
728.760996	0.997735
729.092471	0.997714
729.423897	0.998405
729.755276	0.997381
730.086606	0.997231
730.417887	0.997812
730.749120	0.997521
731.080305	0.998278
731.411442	0.996842
731.742530	0.996447
732.073570	0.997465
732.404562	0.998614
732.735506	0.996837
733.066401	0.998128
733.397249	0.997081
733.728048	0.997841
734.058798	0.998074
734.389501	0.997919
734.720156	0.997712
735.050762	0.998103
735.381320	0.998438
735.711831	0.997580
736.042293	0.996969
736.372707	0.998800
736.703073	0.995940
737.033391	0.996310
737.363661	0.998371
737.693883	0.997979
738.024056	0.997425
738.354182	0.998632
738.684260	0.997904
739.014290	0.998362
739.344272	0.997831
739.674207	0.998289
740.004093	0.998069
740.333931	0.998426
740.663722	0.997271
740.993464	0.997963
741.323159	0.997265
741.652806	0.997826
741.982405	0.999002
742.311956	0.997849
742.641460	0.998142
742.970915	0.997100
743.300323	0.997291
743.629683	0.998119
743.958996	0.998801
744.288260	0.998257
744.617477	0.997782
744.946647	0.997948
745.275768	0.998002
745.604842	0.997467
745.933869	0.998619
746.262847	0.998717
746.591778	0.996293
746.920662	0.998872
747.249498	0.998832
747.578286	0.998750
747.907027	0.998380
748.235720	0.998319
748.564365	0.998418
748.892963	0.997262
749.221514	0.998268
749.550017	0.997854
749.878473	0.997593
750.206881	0.998599
750.535242	0.997611
750.863555	0.997069
751.191821	0.997623
751.520039	0.997634
751.848210	0.996594
752.176334	0.997233
752.504411	0.997186
752.832440	0.997124
753.160421	0.997515
753.488356	0.998422
753.816243	0.997313
754.144082	0.997170
754.471875	0.998364
754.799620	0.998088
755.127318	0.997901
755.454969	0.998574
755.782572	0.999133
756.110129	0.998259
756.437638	0.998754
756.765100	0.998903
757.092515	0.998701
757.419882	0.998444
757.747203	0.997956
758.074477	0.999242
758.401703	0.998221
758.728882	0.998597
759.056014	0.997952
759.383099	0.998673
759.710138	0.997963
760.037129	0.997694
760.364073	0.999170
760.690970	0.997119
761.017820	0.997511
761.344623	0.998058
761.671379	0.998264
761.998088	0.998650
762.324751	0.998467
762.651366	0.997803
762.977935	0.996915
763.304456	0.997879
763.630931	0.996369
763.957359	0.995849
764.283740	0.996182
764.610074	0.997008
764.936362	0.997326
765.262602	0.997659
765.588796	0.998290
765.914943	0.997171
766.241044	0.997265
766.567097	0.998916
766.893104	0.997604
767.219064	0.997443
767.544978	0.997985
767.870845	0.997954
768.196665	0.998349
768.522438	0.998198
768.848165	0.998781
769.173846	0.998647
769.499479	0.999285
769.825066	0.998828
770.150607	0.998511
770.476101	0.998446
770.801548	0.998449
771.126949	0.998954
771.452303	0.999458
771.777611	0.999342
772.102872	0.998653
772.428087	0.998386
772.753256	0.998228
773.078378	0.998130
773.403453	0.997786
773.728482	0.999326
774.053465	0.998469
774.378401	0.999774
774.703291	0.998887
775.028135	1.000033
775.352932	0.997765
775.677683	0.999059
776.002388	0.999123
776.327046	0.998501
776.651658	0.999909
776.976224	0.998902
777.300743	0.998164
777.625216	0.998020
777.949643	0.999114
778.274024	0.997935
778.598359	0.998185
778.922647	0.998215
779.246889	0.998882
779.571086	0.999086
779.895236	0.998405
780.219339	0.998978
780.543397	0.998310
780.867409	0.999492
781.191374	0.998899
781.515294	0.998515
781.839167	0.999119
782.162995	0.999048
782.486776	0.998233
782.810511	0.998846
783.134201	0.998912
783.457844	0.998506
783.781441	0.998588
784.104993	0.997673
784.428498	0.998897
784.751958	0.999389
785.075372	1.000261
785.398739	0.998764
785.722061	0.997943
786.045337	0.998951
786.368568	0.997972
786.691752	0.998954
787.014891	0.998703
787.337983	0.997679
787.661030	0.999084
787.984031	0.998249
788.306987	0.999263
788.629897	0.996930
788.952760	0.998072
789.275579	0.999677
789.598351	0.998964
789.921078	0.999579
790.243759	0.998843
790.566395	0.998228
790.888984	0.998555
791.211529	0.998275
791.534027	0.998910
791.856480	0.999106
792.178888	0.998708
792.501249	0.997724
792.823566	1.000272
793.145836	0.998940
793.468062	0.999451
793.790241	0.999473
794.112375	0.997753
794.434464	0.999062
794.756507	0.998940
795.078505	0.998608
795.400457	0.999339
795.722364	0.998918
796.044226	0.998545
796.366042	0.997685
796.687812	0.997555
797.009538	0.997872
797.331218	0.998951
797.652852	0.999338
797.974442	0.998253
798.295986	0.998625
798.617484	0.997936
798.938938	0.998909
799.260346	0.998353
799.581709	0.997413
799.903026	0.999473
800.224299	0.997714
800.545526	0.998295
800.866708	0.998154
801.187845	0.999276
801.508936	0.998901
801.829983	0.998537
802.150984	0.998414
802.471940	0.998994
802.792851	0.998677
803.113717	1.000120
803.434538	0.999165
803.755314	0.999893
804.076045	0.998226
804.396731	0.998322
804.717372	0.996883
805.037967	1.000618
805.358518	0.998718
805.679024	0.999514
805.999485	0.998553
806.319901	0.998792
806.640272	0.999551
806.960598	0.998903
807.280879	0.998081
807.601115	1.000444
807.921306	0.999461
808.241453	0.998968
808.561554	0.999080
808.881611	0.999125
809.201623	0.999609
809.521590	0.999686
809.841513	0.999330
810.161390	0.997151
810.481223	0.997282
810.801011	0.999091
811.120755	1.000324
811.440453	0.998519
811.760107	0.999787
812.079716	0.998826
812.399281	0.999057
812.718801	0.998492
813.038276	0.998626
813.357707	0.999356
813.677093	0.998480
813.996434	0.998662
814.315731	1.000626
814.634983	0.999649
814.954191	0.998445
815.273354	0.998561
815.592473	0.998414
815.911547	1.000057
816.230577	0.998033
816.549562	0.999119
816.868502	0.997607
817.187399	0.999843
817.506250	0.999349
817.825058	0.997697
818.143821	0.998584
818.462539	0.998250
818.781213	0.998153
819.099843	0.999518
819.418429	0.997416
819.736970	0.999010
820.055466	0.998136
820.373919	0.996328
820.692327	0.996977
821.010691	0.996894
821.329011	0.995368
821.647286	0.995140
821.965517	0.994171
822.283704	0.993947
822.601847	0.993274
822.919945	0.993355
823.237999	0.993359
823.556010	0.993307
823.873976	0.994341
824.191897	0.995497
824.509775	0.995458
824.827609	0.995913
825.145398	0.996576
825.463144	0.995179
825.780845	0.994451
826.098502	0.995546
826.416116	0.996800
826.733685	0.996516
827.051210	0.994071
827.368692	0.994804
827.686129	0.994731
828.003522	0.996940
828.320872	0.996155
828.638177	0.996825
828.955439	0.998014
829.272656	0.997606
829.589830	0.997763
829.906960	0.999008
830.224046	0.998157
830.541088	0.998633
830.858086	0.998114
831.175041	0.999656
831.491952	0.998702
831.808819	0.998803
832.125642	0.998240
832.442421	0.999463
832.759157	0.998781
833.075849	0.997859
833.392497	0.996414
833.709101	0.995403
834.025662	0.997158
834.342179	0.996986
834.658653	0.998280
834.975083	0.997687
835.291469	0.998014
835.607811	0.997852
835.924110	0.997121
836.240366	0.998376
836.556578	0.998933
836.872746	0.998518
837.188871	0.999044
837.504952	0.997935
837.820990	0.999353
838.136984	0.998823
838.452935	0.998303
838.768842	0.999032
839.084706	0.999517
839.400526	0.998766
839.716303	0.997283
840.032037	0.999164
840.347727	0.997377
840.663373	0.997689
840.978977	0.998411
841.294537	0.999656
841.610054	0.999083
841.925527	0.998586
842.240957	0.998643
842.556344	0.998699
842.871687	0.998366
843.186987	0.999248
843.502244	1.000008
843.817458	0.999402
844.132629	0.999058
844.447756	0.999861
844.762840	0.999808
845.077881	0.999008
845.392879	0.998953
845.707833	0.999335
846.022745	1.000711
846.337613	1.000003
846.652438	0.999756
846.967221	0.999559
847.281960	1.000420
847.596656	0.999422
847.911309	1.000012
848.225919	0.998866
848.540485	0.999091
848.855009	0.999997
849.169490	0.999618
849.483928	0.999826
849.798323	0.998794
850.112675	1.000368
850.426984	0.999525
850.741251	0.999756
851.055474	0.999583
851.369654	1.000414
851.683792	0.999847
851.997887	0.998873
852.311938	1.000738
852.625947	0.999227
852.939914	0.998826
853.253837	0.999680
853.567718	1.000397
853.881555	1.000868
854.195350	0.998711
854.509103	1.000223
854.822812	0.999165
855.136479	0.998925
855.450103	1.000471
855.763685	1.000341
856.077224	0.999349
856.390720	0.999096
856.704173	1.001077
857.017584	0.999519
857.330953	1.000527
857.644278	1.000104
857.957561	0.999986
858.270802	0.999565
858.584000	0.998950
858.897155	0.999461
859.210268	0.999134
859.523339	0.999243
859.836367	1.000161
860.149352	0.998541
860.462295	0.999436
860.775195	0.999334
861.088054	0.997827
861.400869	0.999475
861.713642	0.998515
862.026373	1.000141
862.339062	1.000053
862.651708	0.999650
862.964312	1.000093
863.276873	0.999547
863.589392	0.999293
863.901869	0.999322
864.214303	1.000215
864.526696	0.998812
864.839045	1.000056
865.151353	1.000393
865.463619	0.999298
865.775842	0.999587
866.088023	1.000013
866.400162	0.999603
866.712258	0.999858
867.024313	0.999841
867.336325	1.000754
867.648296	0.999238
867.960224	0.999364
868.272110	0.999603
868.583954	0.999207
868.895755	1.000148
869.207515	0.999272
869.519233	0.999660
869.830909	1.000110
870.142542	0.997612
870.454134	0.999182
870.765684	0.998801
871.077191	0.998876
871.388657	0.999461
871.700081	0.999329
872.011463	1.000180
872.322803	0.999059
872.634101	0.998275
872.945357	0.999929
873.256571	0.999070
873.567744	0.998483
873.878874	0.999994
874.189963	0.997968
874.501010	1.000897
874.812015	1.000199
875.122979	0.999961
875.433900	0.999068
875.744780	0.998859
876.055618	0.997585
876.366415	0.998448
876.677169	0.999097
876.987882	0.998513
877.298554	1.000240
877.609183	0.998914
877.919771	0.998643
878.230317	1.000620
878.540822	0.999206
878.851285	0.999607
879.161707	0.998150
879.472087	1.000413
879.782425	0.998298
880.092722	0.998958
880.402977	0.996044
880.713191	0.995590
881.023363	0.993474
881.333494	0.994762
881.643583	0.994760
881.953631	0.994254
882.263637	0.993756
882.573602	0.994333
882.883526	0.994790
883.193408	0.995719
883.503248	0.996497
883.813048	0.995715
884.122806	0.996557
884.432522	0.997074
884.742197	0.998183
885.051831	0.996507
885.361424	0.997758
885.670975	0.999510
885.980485	0.998524
886.289954	0.998572
886.599382	0.997570
886.908768	0.998985
887.218113	0.998501
887.527417	0.999154
887.836680	0.999539
888.145901	0.998694
888.455082	1.000166
888.764221	0.999429
889.073319	0.998784
889.382376	1.000232
889.691392	0.998218
890.000366	0.998554
890.309300	0.999073
890.618193	0.999705
890.927044	0.997960
891.235855	0.998556
891.544625	0.999030
891.853353	0.998352
892.162041	0.999081
892.470687	0.999085
892.779293	0.998685
893.087858	0.997857
893.396381	0.998966
893.704864	0.997949
894.013306	0.998312
894.321707	0.997277
894.630068	0.996703
894.938387	0.996453
895.246665	0.997026
895.554903	0.995628
895.863100	0.997987
896.171256	0.997031
896.479371	0.996966
896.787446	0.997445
897.095480	0.998412
897.403473	0.998281
897.711425	0.999191
898.019336	0.998631
898.327207	0.999921
898.635038	0.997850
898.942827	0.999244
899.250576	1.000017
899.558284	0.999904
899.865952	0.998796
900.173579	0.998798
900.481165	0.999001
900.788711	0.999197
901.096216	0.998996
901.403681	0.998698
901.711105	0.999520
902.018489	0.999260
902.325832	0.999198
902.633135	0.999557
902.940397	0.999280
903.247619	0.998876
903.554800	0.998054
903.861941	0.998118
904.169041	0.996759
904.476101	0.996980
904.783121	0.996283
905.090100	0.996706
905.397039	0.996017
905.703938	0.996498
906.010796	0.997772
906.317614	0.997988
906.624391	0.998189
906.931129	0.998445
907.237826	0.999320
907.544483	0.998329
907.851099	0.999202
908.157675	0.998090
908.464211	0.999901
908.770707	0.998666
909.077163	0.999000
909.383578	0.998947
909.689954	0.998933
909.996289	1.000608
910.302584	0.999123
910.608839	1.000441
910.915054	0.999446
911.221229	1.000405
911.527363	0.998646
911.833458	0.999625
912.139513	0.998097
912.445527	1.000548
912.751502	0.999903
913.057436	0.999428
913.363331	0.999713
913.669186	1.000540
913.975000	0.998721
914.280775	0.998513
914.586510	0.998341
914.892205	0.997633
915.197859	0.997553
915.503475	0.998463
915.809050	0.995881
916.114585	0.994702
916.420081	0.996529
916.725536	0.997194
917.030952	0.996618
917.336328	0.996392
917.641665	0.996117
917.946961	0.996204
918.252218	0.996731
918.557435	0.996037
918.862612	0.998180
919.167750	0.998036
919.472848	0.999538
919.777906	0.999713
920.082925	1.000740
920.387904	0.999233
920.692843	0.998380
920.997743	0.997447
921.302603	0.999810
921.607423	0.998391
921.912204	1.000095
922.216946	1.000151
922.521647	0.999315
922.826310	0.998994
923.130932	0.999769
923.435516	0.999788
923.740059	0.998950
924.044564	0.998840
924.349028	0.998652
924.653454	0.999085
924.957840	0.999848
925.262186	0.998704
925.566493	0.998767
925.870761	0.999788
926.174989	0.999132
926.479178	1.000503
926.783328	1.000709
927.087438	0.999370
927.391509	0.999049
927.695541	0.999423
927.999533	1.000710
928.303486	0.999514
928.607400	0.999104
928.911275	0.999305
929.215110	1.000533
929.518906	0.999942
929.822663	1.001046
930.126381	1.001681
930.430060	0.999954
930.733699	1.000373
931.037299	1.000578
931.340861	0.999828
931.644383	0.998398
931.947866	1.000000
932.251309	0.999039
932.554714	1.000088
932.858080	1.000788
933.161407	1.000396
933.464694	0.999549
933.767943	1.000324
934.071153	0.998473
934.374323	1.000070
934.677455	0.999678
934.980548	0.999354
935.283602	1.001263
935.586617	0.998320
935.889593	1.000869
936.192530	0.999555
936.495428	1.000090
936.798287	0.999050
937.101108	0.999925
937.403890	0.998850
937.706632	1.000259
938.009336	1.000141
938.312002	0.999340
938.614628	0.999961
938.917216	0.998273
939.219765	0.999736
939.522275	0.999829
939.824747	0.999519
940.127179	0.999561
940.429573	1.000643
940.731929	0.999474
941.034246	0.999258
941.336524	0.997731
941.638763	1.000176
941.940964	0.998006
942.243126	0.999971
942.545250	1.000237
942.847335	0.999456
943.149381	1.000168
943.451389	0.999243
943.753359	0.999456
944.055290	1.000321
944.357182	0.999152
944.659036	1.000441
944.960851	0.999538
945.262628	1.000177
945.564367	0.999964
945.866067	0.999483
946.167729	0.999569
946.469352	1.000039
946.770937	0.996877
947.072484	1.000296
947.373992	0.998964
947.675462	0.998620
947.976893	0.999372
948.278286	1.000891
948.579641	0.999218
948.880958	0.998664
949.182236	1.000799
949.483476	1.000404
949.784678	1.000656
950.085841	0.999958
950.386967	0.999155
950.688054	0.999882
950.989103	0.998618
951.290114	0.997764
951.591087	1.000802
951.892021	1.000263
952.192917	0.999760
952.493776	1.000794
952.794596	0.999297
953.095378	0.999472
953.396122	0.999446
953.696828	0.999881
953.997496	1.000027
954.298126	1.001024
954.598718	0.999244
954.899272	1.000029
955.199788	0.998009
955.500266	1.001060
955.800706	0.999355
956.101108	0.999538
956.401472	1.001325
956.701798	1.000039
957.002087	0.999772
957.302337	0.999344
957.602550	1.000401
957.902724	0.999950
958.202861	0.999243
958.502960	0.999611
958.803022	1.001259
959.103045	0.999462
959.403031	0.999995
959.702979	1.000102
960.002889	1.000541
960.302762	0.999093
960.602596	1.000151
960.902393	0.999423
961.202153	1.001064
961.501875	1.000276
961.801559	0.999784
962.101205	1.000038
962.400814	1.000772
962.700385	1.000438
962.999918	1.000310
963.299414	0.998363
963.598873	1.000609
963.898293	1.000244
964.197677	0.999867
964.497022	0.999577
964.796331	0.998525
965.095601	1.000642
965.394835	0.999300
965.694030	0.999944
965.993189	0.999516
966.292309	1.001354
966.591393	0.998312
966.890439	0.999457
967.189447	0.999069
967.488419	1.000107
967.787353	0.998930
968.086249	0.999928
968.385108	0.999564
968.683930	0.999851
968.982714	1.000581
969.281462	0.999840
969.580172	0.999646
969.878844	1.000694
970.177480	1.000574
970.476078	1.000796
970.774639	1.001217
971.073162	0.999038
971.371649	0.999591
971.670098	0.999928
971.968510	1.000033
972.266885	0.998355
972.565223	1.001303
972.863524	0.999076
973.161788	1.000015
973.460014	1.001264
973.758204	0.998282
974.056356	0.999701
974.354471	0.999660
974.652550	1.001231
974.950591	0.999066
975.248595	0.998505
975.546563	1.000587
975.844493	1.001465
976.142386	0.999456
976.440243	1.000502
976.738062	0.999733
977.035845	0.998947
977.333590	1.000409
977.631299	0.999916
977.928971	1.001066
978.226606	0.998739
978.524204	0.999162
978.821765	1.000527
979.119290	1.000292
979.416777	1.000141
979.714228	1.000368
980.011642	0.999602
980.309020	1.000099
980.606360	0.998508
980.903664	1.000299
981.200931	0.999382
981.498162	0.999519
981.795356	0.999778
982.092513	1.000733
982.389633	1.000911
982.686717	0.998164
982.983764	0.999552
983.280775	1.000388
983.577749	1.000318
983.874686	0.998873
984.171587	0.998776
984.468451	0.999637
984.765279	1.000789
985.062070	0.998888
985.358824	0.998367
985.655543	1.000239
985.952224	1.000902
986.248869	1.000570
986.545478	0.999910
986.842050	1.000115
987.138586	0.999359
987.435086	0.999617
987.731549	1.001707
988.027975	1.001580
988.324366	1.000474
988.620719	1.001250
988.917037	1.000570
989.213318	1.000859
989.509563	1.000896
989.805772	1.000746
990.101944	1.000469
990.398080	1.000762
990.694180	1.001338
990.990244	0.999410
991.286271	1.000937
991.582262	1.000252
991.878217	0.998997
992.174136	1.001023
992.470019	1.000216
992.765865	1.001794
993.061676	1.000556
993.357450	0.999795
993.653188	1.000161
993.948890	1.000872
994.244556	0.999865
994.540186	1.000732
994.835780	0.999441
995.131337	1.001385
995.426859	1.000411
995.722345	0.999777
996.017795	0.999044
996.313208	1.000537
996.608586	1.001023
996.903928	1.000244
997.199234	1.000375
997.494504	1.001034
997.789738	0.999212
998.084936	1.000491
998.380099	0.999355
998.675225	1.001072
998.970316	1.000545
999.265371	1.000236
999.560390	1.000068
999.855373	0.999780
1000.150320	1.000184
1000.445232	1.000127
1000.740108	0.999164
1001.034948	1.000042
1001.329752	1.001400
1001.624521	1.000836
1001.919254	1.000585
1002.213951	0.999829
1002.508613	1.000159
1002.803239	0.999759
1003.097829	0.999890
1003.392384	0.999759
1003.686903	1.000514
1003.981386	1.000398
1004.275834	1.001784
1004.570246	0.999510
1004.864623	1.001482
1005.158964	0.999055
1005.453270	1.000924
1005.747540	0.999695
1006.041775	1.000987
1006.335974	1.000208
1006.630138	1.000474
1006.924266	0.999067
1007.218359	0.999199
1007.512416	1.001028
1007.806438	0.999553
1008.100425	1.001066
1008.394376	1.001047
1008.688292	0.999404
1008.982172	0.999482
1009.276017	1.000310
1009.569827	1.000738
1009.863602	0.999000
1010.157341	1.001244
1010.451045	1.000352
1010.744714	1.001448
1011.038347	1.000952
1011.331945	0.999099
1011.625508	0.999185
1011.919036	1.000320
1012.212528	1.000292
1012.505986	0.999562
1012.799408	0.999951
1013.092795	0.999878
1013.386147	1.000509
1013.679464	1.001143
1013.972745	1.000140
1014.265992	0.999220
1014.559204	0.999702
1014.852380	1.000630
1015.145521	1.000106
1015.438628	0.999257
1015.731699	0.999817
1016.024736	1.001032
1016.317737	0.999990
1016.610703	1.001057
1016.903635	0.999639
1017.196531	0.999184
1017.489393	0.999170
1017.782219	1.000127
1018.075011	1.000537
1018.367768	0.999988
1018.660490	1.000205
1018.953177	1.000205
1019.245829	1.000205
