Dividing Wavelength (nm)	Counts (n)	Blue Motor Position (mm): 32.000000	Red Motor Position (mm): 0.000000	
326.493990	1.000471
326.888308	1.000471
327.282561	1.000471
327.676750	1.000335
328.070874	1.001908
328.464933	1.002479
328.858929	1.002673
329.252859	1.000257
329.646726	1.000533
330.040528	1.001690
330.434265	1.000229
330.827938	0.999672
331.221547	1.001371
331.615091	1.000399
332.008571	1.000835
332.401986	1.000514
332.795338	1.000423
333.188625	1.000508
333.581847	1.000873
333.975006	1.000108
334.368100	1.001659
334.761129	1.000396
335.154095	1.001000
335.546996	0.998478
335.939833	0.998878
336.332606	0.999538
336.725315	0.998681
337.117960	1.000346
337.510540	0.998401
337.903056	1.000322
338.295508	1.001046
338.687896	1.000980
339.080220	1.000644
339.472480	0.998410
339.864676	1.000999
340.256807	0.998679
340.648875	0.999621
341.040879	0.999468
341.432818	1.001633
341.824694	0.999889
342.216506	1.001835
342.608253	0.999117
342.999937	0.999091
343.391557	0.999731
343.783113	1.001105
344.174605	0.999430
344.566033	0.999728
344.957397	1.000268
345.348697	1.000564
345.739934	0.999366
346.131106	0.999641
346.522215	0.998908
346.913260	0.999768
347.304241	0.998283
347.695159	1.000081
348.086012	0.999325
348.476802	0.999380
348.867528	0.999273
349.258191	1.000362
349.648789	0.999616
350.039324	0.999401
350.429796	0.999441
350.820203	0.997682
351.210548	0.999176
351.600828	0.997957
351.991045	0.998869
352.381198	1.000377
352.771288	0.998893
353.161314	1.000049
353.551276	0.997557
353.941175	0.997595
354.331010	0.999054
354.720782	0.999218
355.110490	0.998775
355.500135	0.998973
355.889717	0.998021
356.279235	0.998428
356.668689	0.999539
357.058080	0.999051
357.447408	0.998469
357.836672	0.998243
358.225873	0.998541
358.615010	0.998838
359.004084	0.998076
359.393095	0.998453
359.782043	0.998196
360.170927	0.998898
360.559748	0.998882
360.948505	0.998687
361.337199	0.997620
361.725830	0.998963
362.114398	0.998813
362.502903	0.997263
362.891344	0.997545
363.279722	0.997590
363.668037	0.998601
364.056289	0.998182
364.444478	0.999283
364.832603	0.997282
365.220665	0.999194
365.608665	0.997595
365.996601	0.997401
366.384474	0.995785
366.772284	0.996783
367.160031	0.996703
367.547715	0.996293
367.935336	0.994907
368.322893	0.994589
368.710388	0.994190
369.097820	0.990969
369.485189	0.988630
369.872495	0.987593
370.259738	0.985491
370.646918	0.983290
371.034035	0.980382
371.421090	0.976761
371.808081	0.972148
372.195010	0.970378
372.581875	0.965609
372.968678	0.960264
373.355418	0.956957
373.742096	0.949493
374.128710	0.945368
374.515262	0.941054
374.901751	0.934432
375.288177	0.929154
375.674540	0.922909
376.060841	0.917122
376.447079	0.910147
376.833254	0.903784
377.219367	0.897685
377.605417	0.887602
377.991404	0.884339
378.377329	0.877837
378.763191	0.871254
379.148991	0.861684
379.534727	0.855003
379.920402	0.846440
380.306013	0.842947
380.691563	0.830366
381.077049	0.823046
381.462474	0.819316
381.847835	0.807566
382.233134	0.803597
382.618371	0.803325
383.003545	0.786196
383.388657	0.783459
383.773706	0.776859
384.158693	0.772434
384.543618	0.767864
384.928480	0.757689
385.313280	0.748874
385.698017	0.747664
386.082692	0.736719
386.467305	0.735062
386.851856	0.729815
387.236344	0.724082
387.620770	0.718048
388.005133	0.713318
388.389435	0.708154
388.773674	0.704775
389.157851	0.697375
389.541965	0.693799
389.926018	0.700911
390.310008	0.687479
390.693936	0.685134
391.077802	0.676192
391.461606	0.678340
391.845348	0.668056
392.229027	0.667333
392.612645	0.665076
392.996200	0.652078
393.379694	0.644974
393.763125	0.635625
394.146494	0.640303
394.529801	0.631177
394.913047	0.622767
395.296230	0.629467
395.679351	0.620873
396.062410	0.617234
396.445408	0.619286
396.828343	0.614751
397.211217	0.610170
397.594028	0.622053
397.976778	0.612321
398.359466	0.608793
398.742092	0.605459
399.124656	0.616654
399.507158	0.604664
399.889598	0.601815
400.271977	0.592621
400.654294	0.597403
401.036549	0.596135
401.418742	0.600611
401.800874	0.586123
402.182944	0.582609
402.564952	0.574688
402.946898	0.576866
403.328783	0.577783
403.710606	0.588140
404.092367	0.563763
404.474067	0.568480
404.855705	0.567991
405.237282	0.576694
405.618797	0.562718
406.000250	0.558320
406.381642	0.548312
406.762972	0.554166
407.144240	0.552945
407.525447	0.552358
407.906593	0.545418
408.287677	0.540342
408.668700	0.549015
409.049661	0.543314
409.430560	0.538482
409.811399	0.547024
410.192176	0.528955
410.572891	0.535797
410.953545	0.523617
411.334138	0.537439
411.714669	0.529788
412.095139	0.542926
412.475547	0.526583
412.855894	0.528789
413.236180	0.527259
413.616405	0.533438
413.996568	0.524790
414.376670	0.531398
414.756711	0.535849
415.136691	0.534251
415.516609	0.525235
415.896466	0.522630
416.276262	0.520000
416.655997	0.522631
417.035670	0.504875
417.415283	0.498145
417.794834	0.504430
418.174324	0.511335
418.553753	0.522220
418.933121	0.506802
419.312428	0.502318
419.691674	0.509744
420.070859	0.500558
420.449983	0.511111
420.829045	0.502603
421.208047	0.514247
421.586988	0.510097
421.965867	0.511850
422.344686	0.504965
422.723444	0.520243
423.102141	0.539285
423.480777	0.517326
423.859352	0.540500
424.237866	0.524525
424.616319	0.529176
424.994712	0.525564
425.373044	0.539459
425.751314	0.533635
426.129524	0.553516
426.507673	0.543634
426.885762	0.542990
427.263789	0.554839
427.641756	0.567600
428.019662	0.566020
428.397508	0.571415
428.775292	0.582974
429.153016	0.581769
429.530679	0.593875
429.908282	0.595734
430.285824	0.609677
430.663305	0.602695
431.040726	0.625353
431.418086	0.632361
431.795385	0.634938
432.172624	0.641700
432.549802	0.649578
432.926920	0.657663
433.303977	0.664841
433.680974	0.671577
434.057910	0.679715
434.434786	0.687199
434.811601	0.697382
435.188355	0.695959
435.565050	0.709729
435.941683	0.718460
436.318257	0.719072
436.694770	0.729670
437.071222	0.737705
437.447614	0.748144
437.823946	0.759570
438.200218	0.763051
438.576429	0.775677
438.952580	0.781403
439.328670	0.788088
439.704700	0.798471
440.080670	0.807145
440.456580	0.809409
440.832429	0.820086
441.208218	0.831685
441.583947	0.835639
441.959616	0.841915
442.335224	0.852163
442.710773	0.856841
443.086261	0.863295
443.461689	0.872256
443.837057	0.877182
444.212365	0.881574
444.587612	0.889350
444.962800	0.893134
445.337927	0.900077
445.712995	0.909851
446.088002	0.908550
446.462949	0.915417
446.837837	0.922675
447.212664	0.924211
447.587431	0.929810
447.962139	0.929710
448.336786	0.927206
448.711374	0.932989
449.085901	0.943803
449.460369	0.949456
449.834776	0.951994
450.209124	0.954512
450.583412	0.957206
450.957640	0.958957
451.331808	0.964042
451.705917	0.967617
452.079965	0.970188
452.453954	0.973194
452.827883	0.974817
453.201752	0.977035
453.575562	0.978534
453.949311	0.981060
454.323001	0.981839
454.696632	0.983292
455.070202	0.984417
455.443713	0.984905
455.817164	0.986006
456.190556	0.987626
456.563888	0.988888
456.937160	0.989203
457.310373	0.990218
457.683526	0.991001
458.056619	0.992015
458.429653	0.992376
458.802628	0.993133
459.175542	0.993696
459.548398	0.993357
459.921194	0.994437
460.293930	0.995021
460.666607	0.994267
461.039224	0.995529
461.411782	0.994730
461.784280	0.995351
462.156719	0.996897
462.529099	0.996271
462.901419	0.995973
463.273680	0.996118
463.645882	0.995110
464.018024	0.996569
464.390106	0.996270
464.762130	0.996776
465.134094	0.996589
465.505999	0.996005
465.877845	0.995719
466.249631	0.995752
466.621358	0.995614
466.993026	0.995629
467.364634	0.997307
467.736184	0.996856
468.107674	0.996468
468.479105	0.996605
468.850477	0.996532
469.221790	0.996896
469.593043	0.997106
469.964238	0.996495
470.335373	0.997045
470.706449	0.997175
471.077467	0.997117
471.448425	0.997777
471.819324	0.997648
472.190164	0.996354
472.560945	0.996652
472.931667	0.997244
473.302330	0.996892
473.672934	0.997658
474.043479	0.997818
474.413965	0.997658
474.784393	0.997094
475.154761	0.996994
475.525070	0.997780
475.895321	0.997678
476.265513	0.997368
476.635645	0.997427
477.005719	0.997249
477.375734	0.997202
477.745691	0.997182
478.115588	0.996943
478.485427	0.997373
478.855207	0.997108
479.224928	0.997007
479.594591	0.997092
479.964194	0.996497
480.333739	0.996885
480.703226	0.996240
481.072653	0.996599
481.442022	0.997009
481.811333	0.996833
482.180584	0.996463
482.549777	0.996524
482.918912	0.996597
483.287988	0.996964
483.657005	0.996154
484.025964	0.996922
484.394864	0.997064
484.763706	0.996528
485.132489	0.996817
485.501213	0.996937
485.869879	0.996442
486.238487	0.995845
486.607036	0.997478
486.975527	0.996862
487.343959	0.995894
487.712333	0.997108
488.080648	0.996127
488.448905	0.996955
488.817104	0.996174
489.185244	0.996667
489.553326	0.997372
489.921350	0.996832
490.289315	0.996064
490.657222	0.996432
491.025070	0.997103
491.392861	0.997327
491.760593	0.997357
492.128267	0.996358
492.495883	0.996186
492.863440	0.997024
493.230939	0.996931
493.598380	0.997180
493.965763	0.996986
494.333088	0.996531
494.700354	0.997135
495.067563	0.997450
495.434713	0.997775
495.801805	0.997212
496.168839	0.996726
496.535815	0.997449
496.902733	0.996920
497.269593	0.996894
497.636395	0.996946
498.003139	0.996402
498.369825	0.997881
498.736453	0.996985
499.103023	0.997681
499.469535	0.996703
499.835989	0.996884
500.202385	0.997069
500.568723	0.996332
500.935003	0.997726
501.301226	0.997945
501.667390	0.997586
502.033497	0.997248
502.399546	0.997405
502.765537	0.997340
503.131470	0.997759
503.497345	0.997468
503.863163	0.998087
504.228923	0.997143
504.594625	0.997286
504.960269	0.997568
505.325856	0.998030
505.691385	0.998068
506.056856	0.997733
506.422270	0.996659
506.787625	0.997390
507.152924	0.997705
507.518164	0.997702
507.883347	0.997513
508.248472	0.997632
508.613540	0.996620
508.978550	0.997792
509.343503	0.996991
509.708398	0.998027
510.073236	0.998161
510.438016	0.996879
510.802738	0.997320
511.167403	0.997001
511.532010	0.997665
511.896561	0.997467
512.261053	0.997069
512.625488	0.996752
512.989866	0.997141
513.354186	0.996633
513.718449	0.997552
514.082655	0.997309
514.446803	0.997619
514.810894	0.997714
515.174927	0.997178
515.538904	0.997612
515.902822	0.997660
516.266684	0.997610
516.630488	0.997591
516.994235	0.997419
517.357925	0.997615
517.721558	0.997034
518.085133	0.996918
518.448651	0.997077
518.812112	0.997682
519.175516	0.997386
519.538863	0.997216
519.902152	0.997914
520.265385	0.996957
520.628560	0.997238
520.991678	0.997972
521.354739	0.997831
521.717743	0.997290
522.080690	0.996704
522.443580	0.997343
522.806413	0.997257
523.169189	0.997446
523.531908	0.997077
523.894569	0.997482
524.257174	0.997214
524.619722	0.997705
524.982213	0.997462
525.344647	0.997443
525.707025	0.996751
526.069345	0.996635
526.431608	0.997681
526.793815	0.997722
527.155964	0.997923
527.518057	0.997411
527.880093	0.997350
528.242072	0.996855
528.603995	0.997230
528.965860	0.997546
529.327669	0.997317
529.689421	0.996789
530.051117	0.997717
530.412755	0.997457
530.774337	0.997246
531.135862	0.997946
531.497331	0.996931
531.858743	0.997755
532.220098	0.996608
532.581396	0.997460
532.942638	0.997258
533.303824	0.998177
533.664953	0.997703
534.026025	0.997519
534.387040	0.997467
534.747999	0.997449
535.108902	0.997545
535.469748	0.998071
535.830537	0.997724
536.191270	0.997446
536.551947	0.996621
536.912567	0.997275
537.273131	0.997846
537.633638	0.997501
537.994089	0.997640
538.354483	0.997762
538.714821	0.997866
539.075103	0.997342
539.435328	0.997620
539.795497	0.997873
540.155609	0.997125
540.515665	0.997269
540.875665	0.997464
541.235609	0.997946
541.595496	0.997012
541.955328	0.997586
542.315102	0.997746
542.674821	0.997711
543.034483	0.997308
543.394090	0.996687
543.753640	0.997601
544.113134	0.997036
544.472571	0.997721
544.831953	0.997824
545.191278	0.997653
545.550548	0.996993
545.909761	0.996982
546.268918	0.997800
546.628019	0.997824
546.987064	0.997211
547.346053	0.997024
547.704986	0.997175
548.063863	0.997016
548.422684	0.997880
548.781449	0.997859
549.140158	0.997559
549.498811	0.996754
549.857408	0.996379
550.215949	0.996471
550.574434	0.997065
550.932864	0.997311
551.291237	0.996985
551.649555	0.998035
552.007817	0.997176
552.366022	0.998117
552.724173	0.997470
553.082267	0.997605
553.440305	0.997068
553.798288	0.996601
554.156215	0.997287
554.514086	0.997442
554.871902	0.997128
555.229661	0.996542
555.587365	0.997437
555.945014	0.997346
556.302606	0.996485
556.660143	0.997973
557.017625	0.997385
557.375050	0.996942
557.732421	0.997527
558.089735	0.997073
558.446994	0.996692
558.804197	0.997412
559.161345	0.996919
559.518437	0.996585
559.875474	0.997242
560.232455	0.997664
560.589381	0.997457
560.946251	0.996964
561.303065	0.997654
561.659825	0.996592
562.016528	0.998019
562.373177	0.996833
562.729770	0.997244
563.086307	0.996831
563.442789	0.997121
563.799216	0.996794
564.155587	0.997443
564.511904	0.997454
564.868164	0.995716
565.224370	0.997147
565.580520	0.997425
565.936615	0.997270
566.292654	0.997221
566.648638	0.997293
567.004567	0.997365
567.360441	0.996695
567.716260	0.997293
568.072023	0.996697
568.427732	0.997312
568.783385	0.997244
569.138982	0.997048
569.494525	0.996643
569.850013	0.997400
570.205445	0.997202
570.560823	0.997347
570.916145	0.996952
571.271412	0.997326
571.626625	0.997500
571.981782	0.996644
572.336884	0.997538
572.691931	0.997868
573.046923	0.997982
573.401860	0.997071
573.756743	0.998000
574.111570	0.996664
574.466342	0.997805
574.821059	0.997361
575.175722	0.997704
575.530330	0.997216
575.884882	0.997740
576.239380	0.997322
576.593823	0.996819
576.948211	0.997447
577.302544	0.997319
577.656823	0.998191
578.011047	0.996736
578.365216	0.997471
578.719330	0.997677
579.073389	0.996639
579.427394	0.996879
579.781344	0.998009
580.135239	0.996809
580.489080	0.996920
580.842866	0.996888
581.196597	0.997241
581.550273	0.996766
581.903895	0.997766
582.257463	0.997037
582.610975	0.996960
582.964434	0.997031
583.317837	0.997517
583.671186	0.997580
584.024481	0.997119
584.377721	0.996217
584.730906	0.997573
585.084037	0.997692
585.437113	0.998250
585.790135	0.997366
586.143103	0.997474
586.496016	0.997278
586.848874	0.997327
587.201679	0.997549
587.554428	0.997223
587.907124	0.997176
588.259765	0.997330
588.612352	0.997925
588.964884	0.997803
589.317362	0.997130
589.669786	0.996845
590.022155	0.996941
590.374470	0.997240
590.726731	0.996914
591.078937	0.997295
591.431090	0.997722
591.783188	0.997062
592.135232	0.998128
592.487222	0.997740
592.839157	0.997633
593.191038	0.996961
593.542866	0.997741
593.894639	0.996915
594.246358	0.997881
594.598022	0.997423
594.949633	0.997338
595.301190	0.997064
595.652692	0.996276
596.004141	0.997274
596.355535	0.996891
596.706876	0.996690
597.058162	0.997429
597.409395	0.997608
597.760573	0.997202
598.111698	0.997590
598.462768	0.997201
598.813785	0.997065
599.164748	0.996770
599.515657	0.997144
599.866511	0.998104
600.217312	0.997875
600.568060	0.996940
600.918753	0.997812
601.269392	0.996906
601.619978	0.997313
601.970510	0.997066
602.320988	0.997375
602.671412	0.997653
603.021783	0.997856
603.372100	0.997873
603.722363	0.997747
604.072572	0.997436
604.422728	0.997355
604.772830	0.997014
605.122878	0.997514
605.472872	0.998474
605.822813	0.997505
606.172701	0.998158
606.522534	0.997526
606.872314	0.997868
607.222041	0.997442
607.571714	0.997330
607.921333	0.997085
608.270899	0.997070
608.620411	0.997440
608.969870	0.998590
609.319276	0.997266
609.668627	0.997712
610.017926	0.997924
610.367171	0.997351
610.716362	0.997548
611.065500	0.997499
611.414585	0.997906
611.763616	0.996586
612.112594	0.997717
612.461518	0.996778
612.810389	0.997436
613.159207	0.997151
613.507971	0.997582
613.856682	0.998747
614.205340	0.996703
614.553945	0.998203
614.902496	0.997222
615.250994	0.997512
615.599439	0.997179
615.947830	0.996712
616.296169	0.997036
616.644454	0.997047
616.992686	0.997060
617.340864	0.997662
617.688990	0.996340
618.037063	0.996736
618.385082	0.997293
618.733048	0.996412
619.080961	0.997005
619.428821	0.997763
619.776628	0.996833
620.124382	0.997073
620.472083	0.997447
620.819731	0.998198
621.167326	0.997618
621.514868	0.997363
621.862357	0.997612
622.209793	0.997465
622.557176	0.996894
622.904506	0.997249
623.251783	0.996842
623.599007	0.997956
623.946179	0.996715
624.293297	0.997178
624.640363	0.997990
624.987376	0.997413
625.334336	0.996942
625.681243	0.997523
626.028097	0.997055
626.374899	0.997847
626.721647	0.998505
627.068343	0.996869
627.414987	0.997100
627.761577	0.996799
628.108115	0.996970
628.454600	0.998436
628.801032	0.997582
629.147412	0.997428
629.493739	0.998428
629.840014	0.997630
630.186236	0.996590
630.532405	0.998101
630.878521	0.996346
631.224585	0.997773
631.570597	0.996632
631.916556	0.997862
632.262462	0.996297
632.608316	0.997839
632.954117	0.996945
633.299866	0.997549
633.645562	0.997413
633.991206	0.997729
634.336797	0.997531
634.682336	0.998194
635.027823	0.997808
635.373257	0.998199
635.718639	0.997349
636.063968	0.997488
636.409245	0.997206
636.754470	0.997456
637.099642	0.998386
637.444762	0.997523
637.789829	0.997573
638.134845	0.997622
638.479808	0.997308
638.824719	0.997893
639.169577	0.997110
639.514383	0.997725
639.859137	0.998442
640.203839	0.997493
640.548489	0.997102
640.893086	0.997119
641.237632	0.998118
641.582125	0.997327
641.926566	0.999228
642.270955	0.998437
642.615292	0.997368
642.959576	0.996826
643.303809	0.997618
643.647990	0.997887
643.992118	0.998179
644.336195	0.997872
644.680219	0.997512
645.024192	0.998003
645.368112	0.997350
645.711981	0.997307
646.055797	0.997787
646.399562	0.996694
646.743274	0.998078
647.086935	0.998153
647.430544	0.996964
647.774101	0.997031
648.117606	0.998186
648.461059	0.998057
648.804460	0.997884
649.147810	0.997570
649.491108	0.997273
649.834354	0.997636
650.177548	0.997082
650.520690	0.996721
650.863781	0.997071
651.206820	0.997655
651.549807	0.997171
651.892742	0.997495
652.235626	0.997740
652.578458	0.997927
652.921238	0.998172
653.263967	0.997875
653.606644	0.997211
653.949269	0.997932
654.291843	0.997464
654.634365	0.998127
654.976836	0.996668
655.319255	0.998702
655.661622	0.997401
656.003938	0.996700
656.346203	0.997275
656.688416	0.998259
657.030577	0.997085
657.372687	0.997643
657.714746	0.996605
658.056753	0.997154
658.398708	0.997280
658.740612	0.997715
659.082465	0.997257
659.424266	0.997201
659.766016	0.996620
660.107715	0.997304
660.449362	0.997529
660.790958	0.997595
661.132503	0.997853
661.473996	0.996933
661.815438	0.997205
662.156829	0.997805
662.498168	0.998527
662.839456	0.996298
663.180693	0.997867
663.521879	0.997509
663.863013	0.997495
664.204097	0.996575
664.545129	0.997367
664.886110	0.997268
665.227040	0.998157
665.567918	0.997401
665.908746	0.997427
666.249522	0.996989
666.590248	0.997434
666.930922	0.996659
667.271545	0.997790
667.612118	0.997644
667.952639	0.997717
668.293109	0.996972
668.633528	0.996600
668.973896	0.997876
669.314213	0.997273
669.654480	0.997507
669.994695	0.996326
670.334859	0.997186
670.674973	0.996815
671.015035	0.997129
671.355047	0.997640
671.695008	0.996740
672.034918	0.996242
672.374777	0.997170
672.714585	0.996768
673.054342	0.997089
673.394049	0.997024
673.733705	0.996440
674.073310	0.996720
674.412864	0.997200
674.752368	0.996815
675.091820	0.998284
675.431223	0.997662
675.770574	0.996789
676.109875	0.997110
676.449125	0.996789
676.788324	0.996796
677.127473	0.997472
677.466571	0.996941
677.805619	0.996926
678.144616	0.997231
678.483562	0.997562
678.822458	0.997659
679.161303	0.996631
679.500098	0.997935
679.838842	0.997307
680.177535	0.996568
680.516179	0.996789
680.854771	0.997683
681.193314	0.996755
681.531805	0.997338
681.870247	0.997308
682.208638	0.996809
682.546978	0.995827
682.885268	0.996885
683.223508	0.996808
683.561697	0.996779
683.899836	0.997211
684.237925	0.996996
684.575963	0.997728
684.913951	0.997154
685.251889	0.996377
685.589776	0.996932
685.927614	0.996115
686.265401	0.997022
686.603137	0.996375
686.940824	0.996355
687.278460	0.997515
687.616046	0.996647
687.953582	0.996504
688.291068	0.997626
688.628504	0.996306
688.965889	0.996236
689.303224	0.995911
689.640510	0.996734
689.977745	0.996117
690.314930	0.997054
690.652065	0.997582
690.989150	0.996265
691.326185	0.996882
691.663170	0.996915
692.000105	0.996943
692.336990	0.996655
692.673825	0.997118
693.010610	0.996815
693.347345	0.997735
693.684030	0.996804
694.020665	0.996556
694.357251	0.996500
694.693786	0.996992
695.030272	0.996428
695.366707	0.996991
695.703093	0.997291
696.039429	0.996648
696.375716	0.996755
696.711952	0.996391
697.048139	0.997452
697.384276	0.996946
697.720363	0.996342
698.056400	0.995375
698.392388	0.996684
698.728326	0.997299
699.064214	0.997828
699.400053	0.997215
699.735842	0.997650
700.071581	0.997285
700.407270	0.996993
700.742910	0.997369
701.078501	0.997371
701.414042	0.997957
701.749533	0.996449
702.084974	0.997461
702.420366	0.997213
702.755709	0.995968
703.091002	0.997969
703.426246	0.997491
703.761440	0.996528
704.096584	0.995583
704.431679	0.996033
704.766725	0.996700
705.101721	0.998245
705.436668	0.997194
705.771565	0.997068
706.106413	0.995460
706.441212	0.996944
706.775961	0.997340
707.110661	0.996389
707.445311	0.996570
707.779913	0.998022
708.114465	0.998002
708.448967	0.997262
708.783421	0.996736
709.117825	0.997133
709.452180	0.996966
709.786485	0.997133
710.120742	0.997064
710.454949	0.995764
710.789107	0.996948
711.123216	0.995145
711.457275	0.996179
711.791286	0.996451
712.125247	0.998110
712.459159	0.996014
712.793023	0.995539
713.126837	0.997238
713.460602	0.996004
713.794318	0.996327
714.127985	0.995968
714.461602	0.997045
714.795171	0.996106
715.128691	0.996037
715.462162	0.997603
715.795584	0.997477
716.128957	0.996837
716.462281	0.997149
716.795556	0.996296
717.128782	0.997053
717.461960	0.996384
717.795088	0.996723
718.128167	0.998463
718.461198	0.996306
718.794180	0.997198
719.127113	0.996797
719.459997	0.996981
719.792833	0.997244
720.125619	0.996159
720.458357	0.997108
720.791046	0.997491
721.123686	0.997364
721.456278	0.996795
721.788821	0.996694
722.121315	0.997670
722.453761	0.997849
722.786158	0.996427
723.118506	0.997711
723.450805	0.996532
723.783056	0.997370
724.115259	0.996554
724.447412	0.997558
724.779518	0.997843
725.111574	0.995677
725.443582	0.997076
725.775542	0.996965
726.107453	0.997831
726.439315	0.997785
726.771129	0.997286
727.102895	0.997218
727.434612	0.996995
727.766281	0.996530
728.097901	0.996286
728.429473	0.997403
728.760996	0.996219
729.092471	0.997386
729.423897	0.997409
729.755276	0.996946
730.086606	0.995846
730.417887	0.996800
730.749120	0.997912
731.080305	0.996073
731.411442	0.996397
731.742530	0.995184
732.073570	0.996071
732.404562	0.995499
732.735506	0.996817
733.066401	0.996379
733.397249	0.997216
733.728048	0.996829
734.058798	0.996807
734.389501	0.998003
734.720156	0.996938
735.050762	0.998084
735.381320	0.996529
735.711831	0.996748
736.042293	0.997154
736.372707	0.997761
736.703073	0.995610
737.033391	0.996768
737.363661	0.997732
737.693883	0.997132
738.024056	0.996029
738.354182	0.997378
738.684260	0.996305
739.014290	0.996298
739.344272	0.996283
739.674207	0.997357
740.004093	0.996808
740.333931	0.997176
740.663722	0.997212
740.993464	0.997652
741.323159	0.996183
741.652806	0.995635
741.982405	0.996564
742.311956	0.996513
742.641460	0.996729
742.970915	0.997210
743.300323	0.996162
743.629683	0.997281
743.958996	0.998245
744.288260	0.995613
744.617477	0.997663
744.946647	0.996550
745.275768	0.997688
745.604842	0.996700
745.933869	0.996877
746.262847	0.998324
746.591778	0.995665
746.920662	0.997896
747.249498	0.998668
747.578286	0.998609
747.907027	0.996647
748.235720	0.997699
748.564365	0.997866
748.892963	0.996619
749.221514	0.996843
749.550017	0.997088
749.878473	0.996984
750.206881	0.997812
750.535242	0.996024
750.863555	0.996274
751.191821	0.997070
751.520039	0.996977
751.848210	0.995610
752.176334	0.997940
752.504411	0.996912
752.832440	0.996432
753.160421	0.996960
753.488356	0.997450
753.816243	0.996544
754.144082	0.997503
754.471875	0.996967
754.799620	0.998040
755.127318	0.997233
755.454969	0.996795
755.782572	0.998027
756.110129	0.997619
756.437638	0.998222
756.765100	0.997670
757.092515	0.996789
757.419882	0.997207
757.747203	0.997157
758.074477	0.997831
758.401703	0.997286
758.728882	0.996979
759.056014	0.997227
759.383099	0.996267
759.710138	0.996904
760.037129	0.996796
760.364073	0.997504
760.690970	0.997648
761.017820	0.996406
761.344623	0.996428
761.671379	0.997791
761.998088	0.996895
762.324751	0.996690
762.651366	0.995100
762.977935	0.994900
763.304456	0.994709
763.630931	0.994319
763.957359	0.993919
764.283740	0.994409
764.610074	0.996385
764.936362	0.995824
765.262602	0.996909
765.588796	0.997711
765.914943	0.996203
766.241044	0.996788
766.567097	0.996471
766.893104	0.996402
767.219064	0.996058
767.544978	0.996778
767.870845	0.997227
768.196665	0.996607
768.522438	0.997201
768.848165	0.996941
769.173846	0.997435
769.499479	0.998285
769.825066	0.998163
770.150607	0.998294
770.476101	0.998751
770.801548	0.997956
771.126949	0.998522
771.452303	0.997719
771.777611	0.998014
772.102872	0.997569
772.428087	0.997433
772.753256	0.997393
773.078378	0.998276
773.403453	0.997018
773.728482	0.998956
774.053465	0.997482
774.378401	0.998110
774.703291	0.998482
775.028135	0.999612
775.352932	0.997029
775.677683	0.998909
776.002388	0.998189
776.327046	0.997791
776.651658	0.998618
776.976224	0.997779
777.300743	0.998045
777.625216	0.997906
777.949643	0.997530
778.274024	0.998090
778.598359	0.998188
778.922647	0.998140
779.246889	0.997961
779.571086	0.999178
779.895236	0.998277
780.219339	0.998456
780.543397	0.998849
780.867409	0.998852
781.191374	0.997485
781.515294	0.998430
781.839167	0.998447
782.162995	0.998053
782.486776	0.997212
782.810511	0.997900
783.134201	0.998263
783.457844	0.999120
783.781441	0.998349
784.104993	0.997807
784.428498	0.998430
784.751958	0.999664
785.075372	0.998120
785.398739	0.997228
785.722061	0.998495
786.045337	0.998372
786.368568	0.998030
786.691752	0.997791
787.014891	0.998553
787.337983	0.996855
787.661030	0.998345
787.984031	0.998309
788.306987	0.998464
788.629897	0.995341
788.952760	0.997143
789.275579	0.997887
789.598351	0.997560
789.921078	0.998280
790.243759	0.997805
790.566395	0.997917
790.888984	0.998502
791.211529	0.997741
791.534027	0.997458
791.856480	0.997262
792.178888	0.998843
792.501249	0.998278
792.823566	1.000059
793.145836	0.998429
793.468062	0.998249
793.790241	0.999891
794.112375	0.997562
794.434464	0.999153
794.756507	0.999551
795.078505	0.998475
795.400457	0.998685
795.722364	0.998668
796.044226	0.998106
796.366042	0.997575
796.687812	0.996674
797.009538	0.996681
797.331218	0.998879
797.652852	0.998755
797.974442	0.996991
798.295986	0.998032
798.617484	0.997509
798.938938	0.997188
799.260346	0.997402
799.581709	0.997000
799.903026	0.999300
800.224299	0.997211
800.545526	0.997865
800.866708	0.997963
801.187845	0.998542
801.508936	0.997898
801.829983	0.997980
802.150984	0.998371
802.471940	0.998648
802.792851	0.997538
803.113717	0.999223
803.434538	0.998620
803.755314	0.998828
804.076045	0.998656
804.396731	0.998307
804.717372	0.997663
805.037967	0.998699
805.358518	0.999007
805.679024	0.997533
805.999485	0.999030
806.319901	0.998692
806.640272	0.998897
806.960598	0.998974
807.280879	0.998579
807.601115	0.998489
807.921306	0.999165
808.241453	0.997233
808.561554	0.997975
808.881611	0.998942
809.201623	0.998185
809.521590	0.997885
809.841513	0.998599
810.161390	0.997022
810.481223	0.997314
810.801011	0.996359
811.120755	0.999021
811.440453	0.997583
811.760107	0.998419
812.079716	0.997973
812.399281	0.998102
812.718801	0.998181
813.038276	0.998367
813.357707	0.998243
813.677093	0.998862
813.996434	0.998295
814.315731	0.999808
814.634983	0.998054
814.954191	0.998449
815.273354	0.997506
815.592473	0.998838
815.911547	0.997498
816.230577	0.997821
816.549562	0.999127
816.868502	0.997382
817.187399	0.998991
817.506250	0.998409
817.825058	0.996635
818.143821	0.997636
818.462539	0.997836
818.781213	0.997727
819.099843	0.997612
819.418429	0.996706
819.736970	0.997763
820.055466	0.996053
820.373919	0.995185
820.692327	0.994416
821.010691	0.994140
821.329011	0.991690
821.647286	0.989041
821.965517	0.987443
822.283704	0.986131
822.601847	0.985351
822.919945	0.985530
823.237999	0.987803
823.556010	0.988065
823.873976	0.989323
824.191897	0.990681
824.509775	0.991411
824.827609	0.991842
825.145398	0.992733
825.463144	0.991766
825.780845	0.992547
826.098502	0.992813
826.416116	0.992089
826.733685	0.990671
827.051210	0.989409
827.368692	0.990026
827.686129	0.990741
828.003522	0.993239
828.320872	0.993876
828.638177	0.994420
828.955439	0.995935
829.272656	0.996882
829.589830	0.996257
829.906960	0.996388
830.224046	0.996243
830.541088	0.996388
830.858086	0.997544
831.175041	0.999107
831.491952	0.996717
831.808819	0.997285
832.125642	0.996856
832.442421	0.997202
832.759157	0.997094
833.075849	0.994850
833.392497	0.993993
833.709101	0.992633
834.025662	0.994295
834.342179	0.994235
834.658653	0.994911
834.975083	0.994754
835.291469	0.996364
835.607811	0.996506
835.924110	0.997049
836.240366	0.998515
836.556578	0.997806
836.872746	0.997799
837.188871	0.997990
837.504952	0.997097
837.820990	0.998236
838.136984	0.997650
838.452935	0.998308
838.768842	0.999347
839.084706	0.999057
839.400526	0.999063
839.716303	0.996404
840.032037	0.996791
840.347727	0.995284
840.663373	0.996649
840.978977	0.997211
841.294537	0.998380
841.610054	0.997714
841.925527	0.998247
842.240957	0.998030
842.556344	0.997659
842.871687	0.998940
843.186987	0.998964
843.502244	0.999147
843.817458	0.997884
844.132629	0.997954
844.447756	0.999431
844.762840	0.998577
845.077881	1.000125
845.392879	0.998133
845.707833	0.999134
846.022745	0.998708
846.337613	0.999833
846.652438	0.999560
846.967221	0.999851
847.281960	1.000037
847.596656	0.999563
847.911309	0.999564
848.225919	0.998515
848.540485	0.999586
848.855009	0.999894
849.169490	0.999993
849.483928	0.998844
849.798323	0.998889
850.112675	1.001215
850.426984	0.999714
850.741251	1.000256
851.055474	0.998949
851.369654	0.999278
851.683792	0.999225
851.997887	0.999988
852.311938	0.999684
852.625947	0.998498
852.939914	0.998799
853.253837	1.000217
853.567718	1.000546
853.881555	0.998941
854.195350	0.999698
854.509103	1.000287
854.822812	0.998543
855.136479	0.999307
855.450103	0.999866
855.763685	0.998854
856.077224	1.000133
856.390720	0.999162
856.704173	0.999409
857.017584	1.000137
857.330953	0.999100
857.644278	0.998411
857.957561	0.999551
858.270802	0.999742
858.584000	1.000378
858.897155	0.998239
859.210268	0.999027
859.523339	0.999572
859.836367	0.999546
860.149352	0.999427
860.462295	0.999876
860.775195	0.998903
861.088054	0.998811
861.400869	0.998841
861.713642	0.999007
862.026373	1.000134
862.339062	0.999304
862.651708	0.999708
862.964312	0.999582
863.276873	0.999141
863.589392	0.999982
863.901869	0.998686
864.214303	0.999563
864.526696	0.999807
864.839045	0.999432
865.151353	0.999234
865.463619	0.998685
865.775842	0.999591
866.088023	0.999400
866.400162	0.999812
866.712258	1.000889
867.024313	0.999759
867.336325	0.999677
867.648296	1.000632
867.960224	0.999042
868.272110	0.999867
868.583954	0.999495
868.895755	1.000661
869.207515	0.999846
869.519233	1.000205
869.830909	0.999247
870.142542	0.998388
870.454134	0.999065
870.765684	0.998418
871.077191	0.999323
871.388657	0.999036
871.700081	0.999318
872.011463	0.999773
872.322803	0.998542
872.634101	0.998424
872.945357	0.998719
873.256571	0.998540
873.567744	0.999011
873.878874	0.998811
874.189963	0.997930
874.501010	1.000271
874.812015	0.998281
875.122979	0.998853
875.433900	0.999354
875.744780	0.999419
876.055618	0.997587
876.366415	0.998197
876.677169	0.998777
876.987882	0.998521
877.298554	0.999578
877.609183	0.998308
877.919771	0.998420
878.230317	0.999377
878.540822	0.997460
878.851285	0.997615
879.161707	0.997067
879.472087	0.998207
879.782425	0.996754
880.092722	0.995090
880.402977	0.992902
880.713191	0.990816
881.023363	0.987780
881.333494	0.985975
881.643583	0.987786
881.953631	0.987552
882.263637	0.986121
882.573602	0.986864
882.883526	0.987693
883.193408	0.990970
883.503248	0.991263
883.813048	0.991532
884.122806	0.993036
884.432522	0.993658
884.742197	0.995631
885.051831	0.995221
885.361424	0.995986
885.670975	0.997697
885.980485	0.996458
886.289954	0.997201
886.599382	0.996913
886.908768	0.997197
887.218113	0.995877
887.527417	0.998099
887.836680	0.998494
888.145901	0.999612
888.455082	0.999195
888.764221	0.998292
889.073319	0.998766
889.382376	0.999472
889.691392	0.997559
890.000366	0.999347
890.309300	0.998480
890.618193	0.999173
890.927044	0.998488
891.235855	0.998848
891.544625	0.998325
891.853353	0.997990
892.162041	0.999665
892.470687	0.998732
892.779293	0.997437
893.087858	0.997773
893.396381	0.997534
893.704864	0.995532
894.013306	0.995597
894.321707	0.995003
894.630068	0.993484
894.938387	0.993240
895.246665	0.993661
895.554903	0.993338
895.863100	0.994771
896.171256	0.995536
896.479371	0.996816
896.787446	0.996172
897.095480	0.997004
897.403473	0.996573
897.711425	0.997352
898.019336	0.997237
898.327207	0.998526
898.635038	0.997076
898.942827	0.997810
899.250576	0.997281
899.558284	0.998873
899.865952	0.997337
900.173579	0.998695
900.481165	0.997229
900.788711	0.997839
901.096216	0.998718
901.403681	0.998636
901.711105	0.998579
902.018489	0.999696
902.325832	0.998048
902.633135	0.998088
902.940397	0.998131
903.247619	0.997534
903.554800	0.996914
903.861941	0.995101
904.169041	0.993336
904.476101	0.992454
904.783121	0.991488
905.090100	0.992780
905.397039	0.993391
905.703938	0.993472
906.010796	0.995795
906.317614	0.996434
906.624391	0.997410
906.931129	0.997340
907.237826	0.997091
907.544483	0.998686
907.851099	0.997908
908.157675	0.999130
908.464211	0.999537
908.770707	0.997625
909.077163	0.998524
909.383578	0.998571
909.689954	0.998469
909.996289	0.999418
910.302584	0.999862
910.608839	1.000277
910.915054	0.999893
911.221229	0.999882
911.527363	0.998797
911.833458	0.999528
912.139513	0.998614
912.445527	1.000191
912.751502	0.998188
913.057436	0.997138
913.363331	0.999331
913.669186	0.999636
913.975000	0.998338
914.280775	0.999843
914.586510	0.996649
914.892205	0.996500
915.197859	0.995107
915.503475	0.994549
915.809050	0.993454
916.114585	0.991529
916.420081	0.992993
916.725536	0.993335
917.030952	0.992612
917.336328	0.992432
917.641665	0.993629
917.946961	0.994282
918.252218	0.995275
918.557435	0.995466
918.862612	0.997446
919.167750	0.997460
919.472848	0.997592
919.777906	0.998298
920.082925	0.998465
920.387904	0.998600
920.692843	0.997863
920.997743	0.997945
921.302603	0.998778
921.607423	0.997470
921.912204	0.998314
922.216946	0.999827
922.521647	0.998736
922.826310	0.997748
923.130932	0.999375
923.435516	0.999816
923.740059	0.999850
924.044564	0.998795
924.349028	0.998595
924.653454	0.999790
924.957840	0.998051
925.262186	0.999244
925.566493	0.998499
925.870761	0.999316
926.174989	0.999699
926.479178	1.000510
926.783328	0.999960
927.087438	0.998442
927.391509	0.998331
927.695541	1.000216
927.999533	0.999099
928.303486	0.999331
928.607400	1.000432
928.911275	1.000048
929.215110	0.999704
929.518906	0.999412
929.822663	1.000868
930.126381	1.000454
930.430060	1.000499
930.733699	1.000913
931.037299	1.000728
931.340861	1.000538
931.644383	0.998983
931.947866	1.000584
932.251309	0.999911
932.554714	1.000695
932.858080	0.999387
933.161407	0.999928
933.464694	0.999232
933.767943	0.999515
934.071153	1.000524
934.374323	1.000120
934.677455	0.999455
934.980548	0.999586
935.283602	1.000424
935.586617	0.999482
935.889593	1.000758
936.192530	1.000312
936.495428	1.000445
936.798287	0.998355
937.101108	1.000550
937.403890	1.000450
937.706632	1.000676
938.009336	1.000283
938.312002	0.999527
938.614628	0.999575
938.917216	0.998926
939.219765	0.999687
939.522275	1.000782
939.824747	0.998708
940.127179	0.999853
940.429573	1.000247
940.731929	0.998625
941.034246	0.998273
941.336524	0.999081
941.638763	0.999423
941.940964	0.998770
942.243126	0.998763
942.545250	1.000191
942.847335	0.999358
943.149381	1.000490
943.451389	0.998905
943.753359	0.999049
944.055290	1.000446
944.357182	1.000035
944.659036	0.999314
944.960851	1.000780
945.262628	0.999986
945.564367	0.999606
945.866067	0.999970
946.167729	1.000475
946.469352	0.999129
946.770937	0.998298
947.072484	1.001063
947.373992	1.000855
947.675462	0.999289
947.976893	0.998963
948.278286	1.001010
948.579641	0.999960
948.880958	0.999003
949.182236	1.000109
949.483476	0.998811
949.784678	0.999685
950.085841	0.998112
950.386967	0.999165
950.688054	0.999797
950.989103	0.998375
951.290114	0.998964
951.591087	1.000403
951.892021	0.999762
952.192917	1.000012
952.493776	0.999570
952.794596	0.999010
953.095378	1.000086
953.396122	0.999843
953.696828	1.000574
953.997496	0.997911
954.298126	1.000374
954.598718	0.998627
954.899272	1.000814
955.199788	0.998338
955.500266	1.000484
955.800706	0.999059
956.101108	0.999085
956.401472	1.002160
956.701798	1.000102
957.002087	0.999460
957.302337	0.999965
957.602550	1.001169
957.902724	1.000320
958.202861	0.999434
958.502960	1.000031
958.803022	1.000317
959.103045	1.001101
959.403031	1.001153
959.702979	1.001248
960.002889	0.999961
960.302762	0.999150
960.602596	1.001117
960.902393	1.000438
961.202153	1.000300
961.501875	1.001522
961.801559	1.000816
962.101205	1.000309
962.400814	1.001070
962.700385	1.000901
962.999918	1.000071
963.299414	0.999330
963.598873	0.999496
963.898293	1.000860
964.197677	0.999479
964.497022	0.999934
964.796331	0.999493
965.095601	1.000343
965.394835	1.000893
965.694030	1.000801
965.993189	0.999981
966.292309	1.000462
966.591393	0.999755
966.890439	1.000886
967.189447	0.999309
967.488419	0.999899
967.787353	0.999590
968.086249	1.000626
968.385108	0.999125
968.683930	1.000701
968.982714	1.000521
969.281462	1.000285
969.580172	1.000038
969.878844	1.000899
970.177480	1.001407
970.476078	1.001674
970.774639	0.999714
971.073162	1.000076
971.371649	1.000662
971.670098	0.999071
971.968510	1.000679
972.266885	0.997909
972.565223	1.001448
972.863524	0.999994
973.161788	0.999313
973.460014	1.002002
973.758204	0.999094
974.056356	0.998641
974.354471	0.999750
974.652550	1.000463
974.950591	0.999713
975.248595	0.999500
975.546563	1.000759
975.844493	1.001566
976.142386	0.999860
976.440243	1.001163
976.738062	1.000673
977.035845	0.999193
977.333590	0.999934
977.631299	0.999902
977.928971	1.000327
978.226606	1.000823
978.524204	0.999726
978.821765	1.001095
979.119290	1.001329
979.416777	0.999498
979.714228	0.999447
980.011642	1.000523
980.309020	1.000984
980.606360	0.999610
980.903664	0.999740
981.200931	1.000773
981.498162	1.000995
981.795356	1.000240
982.092513	1.000692
982.389633	1.001553
982.686717	0.999353
982.983764	0.999212
983.280775	0.999871
983.577749	1.000490
983.874686	0.999317
984.171587	0.999862
984.468451	1.000544
984.765279	1.000757
985.062070	1.000763
985.358824	1.000278
985.655543	1.001305
985.952224	1.001197
986.248869	1.000755
986.545478	1.001921
986.842050	1.000605
987.138586	1.000561
987.435086	0.999745
987.731549	1.002058
988.027975	0.999939
988.324366	0.999067
988.620719	1.000819
988.917037	0.999699
989.213318	1.000519
989.509563	0.999974
989.805772	1.000798
990.101944	1.000419
990.398080	1.000255
990.694180	1.001467
990.990244	1.000426
991.286271	1.000559
991.582262	1.001769
991.878217	1.000897
992.174136	1.000267
992.470019	1.000225
992.765865	1.001341
993.061676	1.000360
993.357450	1.001177
993.653188	1.001578
993.948890	0.999262
994.244556	0.999475
994.540186	0.999886
994.835780	1.000784
995.131337	1.000658
995.426859	1.001118
995.722345	1.000273
996.017795	1.000033
996.313208	1.000837
996.608586	1.000743
996.903928	1.001095
997.199234	0.999836
997.494504	1.001898
997.789738	1.000113
998.084936	1.000915
998.380099	1.000115
998.675225	1.000438
998.970316	1.001416
999.265371	0.999600
999.560390	1.000917
999.855373	1.000096
1000.150320	1.000080
1000.445232	1.000589
1000.740108	1.000638
1001.034948	1.000926
1001.329752	1.000775
1001.624521	1.000124
1001.919254	1.000358
1002.213951	1.000828
1002.508613	1.000181
1002.803239	1.000192
1003.097829	1.000931
1003.392384	1.000545
1003.686903	1.000972
1003.981386	0.999790
1004.275834	1.001507
1004.570246	1.000182
1004.864623	1.001230
1005.158964	1.001249
1005.453270	1.000202
1005.747540	0.999847
1006.041775	1.000552
1006.335974	0.999452
1006.630138	0.999667
1006.924266	0.999889
1007.218359	1.000050
1007.512416	1.002227
1007.806438	0.999293
1008.100425	1.000392
1008.394376	1.000945
1008.688292	0.999788
1008.982172	1.000457
1009.276017	1.001172
1009.569827	1.001543
1009.863602	0.999603
1010.157341	1.001251
1010.451045	0.998763
1010.744714	1.001717
1011.038347	1.000758
1011.331945	0.999389
1011.625508	1.000044
1011.919036	1.000289
1012.212528	1.001639
1012.505986	1.000183
1012.799408	1.002119
1013.092795	1.001385
1013.386147	1.000502
1013.679464	1.000734
1013.972745	1.000565
1014.265992	1.000876
1014.559204	1.000997
1014.852380	1.000406
1015.145521	1.001347
1015.438628	1.001671
1015.731699	1.000733
1016.024736	1.000982
1016.317737	1.000185
1016.610703	1.000501
1016.903635	1.000024
1017.196531	0.999447
1017.489393	0.999976
1017.782219	1.000449
1018.075011	0.999379
1018.367768	1.000604
1018.660490	1.000682
1018.953177	1.000682
1019.245829	1.000682
