Dividing Wavelength (nm)	Counts (n)	Blue Motor Position (mm): 38.600000	Red Motor Position (mm): 0.000000	
326.493990	2243.424367
326.888308	2243.424367
327.282561	2243.424367
327.676750	2204.123532
328.070874	2200.670341
328.464933	2202.855681
328.858929	2203.448017
329.252859	2209.721733
329.646726	2219.020141
330.040528	2230.871894
330.434265	2241.155848
330.827938	2262.779877
331.221547	2278.974584
331.615091	2296.442182
332.008571	2311.623617
332.401986	2332.851916
332.795338	2351.920080
333.188625	2371.406660
333.581847	2391.503220
333.975006	2410.185736
334.368100	2429.004363
334.761129	2449.693259
335.154095	2464.045424
335.546996	2490.156080
335.939833	2529.784591
336.332606	2548.000800
336.725315	2557.636966
337.117960	2572.221024
337.510540	2583.556058
337.903056	2595.964858
338.295508	2602.881321
338.687896	2612.245265
339.080220	2618.871861
339.472480	2626.156329
339.864676	2628.533233
340.256807	2633.629839
340.648875	2639.568318
341.040879	2640.689975
341.432818	2646.877992
341.824694	2648.692807
342.216506	2648.387817
342.608253	2649.121305
342.999937	2649.632982
343.391557	2649.932931
343.783113	2647.437560
344.174605	2646.835142
344.566033	2646.986376
344.957397	2644.624596
345.348697	2646.303300
345.739934	2643.565953
346.131106	2640.773154
346.522215	2639.623771
346.913260	2639.775006
347.304241	2633.897020
347.695159	2634.471712
348.086012	2630.776546
348.476802	2630.988275
348.867528	2626.877214
349.258191	2624.906123
349.648789	2623.318159
350.039324	2622.040227
350.429796	2623.159363
350.820203	2619.030658
351.210548	2624.601133
351.600828	2619.461676
351.991045	2617.566202
352.381198	2619.953189
352.771288	2616.192488
353.161314	2617.540997
353.551276	2616.061418
353.941175	2617.097375
354.331010	2613.694596
354.720782	2614.644854
355.110490	2612.063783
355.500135	2615.743825
355.889717	2616.943620
356.279235	2616.182406
356.668689	2616.131994
357.058080	2615.154010
357.447408	2615.569906
357.836672	2617.762807
358.225873	2615.398506
358.615010	2616.149638
359.004084	2616.966305
359.393095	2617.833384
359.782043	2619.514608
360.170927	2618.942437
360.559748	2619.330606
360.948505	2618.909670
361.337199	2622.955196
361.725830	2622.972840
362.114398	2622.443519
362.502903	2622.940072
362.891344	2622.367902
363.279722	2623.734054
363.668037	2625.168262
364.056289	2624.195320
364.444478	2625.105248
364.832603	2626.567183
365.220665	2624.218005
365.608665	2625.528705
365.996601	2626.035341
366.384474	2627.517440
366.772284	2629.034827
367.160031	2630.600106
367.547715	2632.389715
367.935336	2625.463170
368.322893	2626.025259
368.710388	2627.610702
369.097820	2630.358130
369.485189	2628.432410
369.872495	2631.820065
370.259738	2633.077833
370.646918	2632.999695
371.034035	2634.365848
371.421090	2633.967597
371.808081	2633.161012
372.195010	2636.236116
372.581875	2634.166722
372.968678	2635.948770
373.355418	2636.843575
373.742096	2637.443472
374.128710	2638.408853
374.515262	2636.238636
374.901751	2639.706950
375.288177	2636.379789
375.674540	2639.792650
376.060841	2638.013122
376.447079	2640.579070
376.833254	2642.550161
377.219367	2642.618217
377.605417	2639.749800
377.991404	2643.049235
378.377329	2644.498567
378.763191	2642.550161
379.148991	2645.552168
379.534727	2645.456386
379.920402	2645.025368
380.306013	2646.031078
380.691563	2647.498053
381.077049	2647.939154
381.462474	2647.911428
381.847835	2648.105513
382.233134	2647.926552
382.618371	2649.166675
383.003545	2649.716161
383.388657	2650.522746
383.773706	2650.999135
384.158693	2651.026861
384.543618	2650.386635
384.928480	2654.026348
385.313280	2653.219763
385.698017	2654.623724
386.082692	2657.164466
386.467305	2654.797644
386.851856	2656.330155
387.236344	2658.303767
387.620770	2657.683705
388.005133	2655.306801
388.389435	2654.923673
388.773674	2655.165648
389.157851	2659.899292
389.541965	2662.495486
389.926018	2660.831905
390.310008	2665.623522
390.693936	2666.157884
391.077802	2669.013698
391.461606	2668.007988
391.845348	2675.244564
392.229027	2678.065090
392.612645	2683.406192
392.996200	2691.880372
393.379694	2702.010571
393.763125	2717.257540
394.146494	2732.469222
394.529801	2754.332706
394.913047	2779.324227
395.296230	2802.495890
395.679351	2837.927640
396.062410	2876.666387
396.445408	2915.037129
396.828343	2963.822896
397.211217	3018.862213
397.594028	3056.038202
397.976778	3126.987402
398.359466	3193.318904
398.742092	3257.308790
399.124656	3299.291519
399.507158	3387.957854
399.889598	3477.705516
400.271977	3585.699634
400.654294	3650.987617
401.036549	3733.077767
401.418742	3777.588635
401.800874	3931.701749
402.182944	4028.083569
402.564952	4164.035927
402.946898	4266.792286
403.328783	4262.219960
403.710606	4340.630067
404.092367	4601.487093
404.474067	4694.531669
404.855705	4708.354513
405.237282	4736.015324
405.618797	4970.885203
406.000250	5034.983474
406.381642	5243.709928
406.762972	5325.694213
407.144240	5431.326551
407.525447	5484.102391
407.906593	5583.738276
408.287677	5765.302993
408.668700	5747.984109
409.049661	5906.304066
409.430560	5980.252752
409.811399	5903.208798
410.192176	6185.281520
410.572891	6232.134004
410.953545	6470.479758
411.334138	6260.503097
411.714669	6457.188756
412.095139	6298.541124
412.475547	6557.797584
412.855894	6648.810575
413.236180	6837.490881
413.616405	6573.493216
413.996568	6799.646939
414.376670	6841.972467
414.756711	6761.366938
415.136691	6870.807867
415.516609	7078.826039
415.896466	7087.065805
416.276262	7285.215919
416.655997	7274.727798
417.035670	7481.165569
417.415283	7819.462280
417.794834	7872.785085
418.174324	7744.303717
418.553753	7662.911768
418.933121	7985.651478
419.312428	8094.726924
419.691674	7872.233079
420.070859	8347.573557
420.449983	8034.812811
420.829045	8394.310094
421.208047	8185.197992
421.586988	8473.554512
421.965867	8489.572779
422.344686	8606.893032
422.723444	8633.807752
423.102141	8011.895725
423.480777	8757.603367
423.859352	8280.790872
424.237866	8904.800018
424.616319	8779.290411
424.994712	9180.150362
425.373044	8752.731092
425.751314	9211.337460
426.129524	9076.103467
426.507673	9203.407725
426.885762	9349.684366
427.263789	9267.838712
427.641756	9188.498513
428.019662	9287.864696
428.397508	9528.035347
428.775292	9222.206188
429.153016	9602.914126
429.530679	9426.730840
429.908282	9474.334456
430.285824	9182.083644
430.663305	9863.952634
431.040726	9320.095313
431.418086	9314.381165
431.795385	9636.447882
432.172624	9717.963339
432.549802	9639.054158
432.926920	9713.063338
433.303977	9592.305018
433.680974	9800.731524
434.057910	9881.941992
434.434786	9951.976221
434.811601	9795.866810
435.188355	10355.863385
435.565050	10084.959339
435.941683	10019.351243
436.318257	10509.484987
436.694770	10640.930553
437.071222	10704.242404
437.447614	10554.222707
437.823946	10447.390574
438.200218	10583.317726
438.576429	10398.105734
438.952580	10638.793104
439.328670	10693.345950
439.704700	10477.617333
440.080670	10467.293050
440.456580	11020.476505
440.832429	10782.077819
441.208218	10381.051510
441.583947	10714.375123
441.959616	10858.980621
442.335224	10661.884109
442.710773	10799.532815
443.086261	11010.787408
443.461689	10284.279001
443.837057	10935.349061
444.212365	11212.983047
444.587612	10856.596156
444.962800	11086.024108
445.337927	10849.893942
445.712995	10445.142220
446.088002	11532.078003
446.462949	11187.482371
446.837837	11161.827939
447.212664	11140.965123
447.587431	11661.852427
447.962139	12388.733879
448.336786	14652.224559
448.711374	15198.211768
449.085901	13039.267057
449.460369	12667.519769
449.834776	12113.471756
450.209124	12999.578053
450.583412	13404.322213
450.957640	14349.253734
451.331808	13484.574861
451.705917	12474.403248
452.079965	11776.379881
452.453954	12684.495855
452.827883	12314.712097
453.201752	12616.223508
453.575562	12126.888787
453.949311	12545.894371
454.323001	12511.506140
454.696632	12740.823187
455.070202	13020.942463
455.443713	13243.877409
455.817164	13724.372468
456.190556	13709.513667
456.563888	14068.247215
456.937160	14236.157968
457.310373	13576.500302
457.683526	13672.045291
458.056619	13204.503477
458.429653	13362.268907
458.802628	12791.330508
459.175542	13171.163806
459.548398	14124.367861
459.921194	14457.754488
460.293930	14522.419889
460.666607	15396.624021
461.039224	16437.753361
461.411782	17140.202861
461.784280	16995.942682
462.156719	17071.338179
462.529099	16755.305724
462.901419	15684.705799
463.273680	15459.036027
463.645882	15345.612586
464.018024	15078.998562
464.390106	15301.247911
464.762130	16020.060997
465.134094	16780.224147
465.505999	18806.273960
465.877845	22050.604300
466.249631	24892.590069
466.621358	24541.987901
466.993026	23112.490590
467.364634	22559.402916
467.736184	21078.019529
468.107674	20280.370359
468.479105	20414.621327
468.850477	19866.859633
469.221790	19463.209403
469.593043	18782.958624
469.964238	18221.046410
470.335373	17868.826032
470.706449	18331.672011
471.077467	17894.672028
471.448425	19730.506503
471.819324	23796.902842
472.190164	25748.492292
472.560945	22174.190707
472.931667	19825.449074
473.302330	19203.290031
473.672934	18756.008615
474.043479	19055.417866
474.413965	18868.111274
474.784393	18487.247060
475.154761	19194.372230
475.525070	19161.395522
475.895321	18846.610753
476.265513	19440.756104
476.635645	20022.709424
477.005719	19805.944850
477.375734	19981.198043
477.745691	20474.094340
478.115588	20997.512303
478.485427	21531.814116
478.855207	22600.735337
479.224928	24376.282653
479.594591	26606.955422
479.964194	26595.307836
480.333739	26807.167367
480.703226	26377.227520
481.072653	26069.114718
481.442022	26659.048185
481.811333	27585.796264
482.180584	27490.959557
482.549777	26538.234412
482.918912	26201.903751
483.287988	26317.867934
483.657005	25965.879449
484.025964	25734.959315
484.394864	25632.056762
484.763706	25317.357692
485.132489	24742.600618
485.501213	24925.687764
485.869879	24835.093188
486.238487	24669.057745
486.607036	24806.088910
486.975527	24515.045454
487.343959	24833.588404
487.712333	24767.657673
488.080648	24435.095275
488.448905	24944.546721
488.817104	24684.743296
489.185244	25359.950401
489.553326	25330.099208
489.921350	26329.061816
490.289315	28629.713361
490.657222	30394.974204
491.025070	30898.648487
491.392861	30662.798105
491.760593	29810.764967
492.128267	28917.104501
492.495883	27856.536473
492.863440	26982.007186
493.230939	26119.455680
493.598380	25965.781146
493.965763	25568.084519
494.333088	25104.333654
494.700354	25042.357708
495.067563	24911.622945
495.434713	24662.320243
495.801805	24832.494474
496.168839	24623.261383
496.535815	24467.761952
496.902733	24685.287740
497.269593	24366.946437
497.636395	24533.274267
498.003139	24493.968390
498.369825	24244.516974
498.736453	24445.873262
499.103023	24328.565612
499.469535	24320.918181
499.835989	24545.932604
500.202385	24568.388424
500.568723	24077.692591
500.935003	24304.915038
501.301226	23945.773156
501.667390	24785.755416
502.033497	25006.119374
502.399546	24739.628858
502.765537	24287.714622
503.131470	24685.433934
503.497345	24817.796990
503.863163	24047.987592
504.228923	24631.901921
504.594625	24847.529715
504.960269	24388.094077
505.325856	24867.490164
505.691385	24277.715493
506.056856	24875.692121
506.422270	24852.802762
506.787625	24411.653909
507.152924	24827.387785
507.518164	24859.721746
507.883347	24675.880947
508.248472	24354.267935
508.613540	25138.762214
508.978550	24922.557208
509.343503	24930.872591
509.708398	25169.636761
510.073236	25332.196328
510.438016	25536.731063
510.802738	25207.175713
511.167403	25468.945188
511.532010	25185.982702
511.896561	25939.746107
512.261053	25898.978296
512.625488	25746.508598
512.989866	25638.794264
513.354186	25473.454500
513.718449	25603.226403
514.082655	25963.648738
514.446803	25710.164399
514.810894	26183.148138
515.174927	25669.620920
515.538904	25684.262951
515.902822	26174.568095
516.266684	25943.968074
516.630488	25848.912077
516.994235	25804.635623
517.357925	26127.319880
517.721558	26308.438456
518.085133	26399.973207
518.448651	26296.248946
518.812112	26046.273250
519.175516	26274.158609
519.538863	26421.932473
519.902152	26207.587652
520.265385	26466.972662
520.628560	26264.159481
520.991678	26259.556907
521.354739	26336.207652
521.717743	26402.168629
522.080690	26195.647679
522.443580	26518.432760
522.806413	26503.218558
523.169189	26604.036594
523.531908	26657.107341
523.894569	26258.946928
524.257174	26355.714396
524.619722	26520.068615
524.982213	26216.230711
525.344647	26265.838185
525.707025	26404.328763
526.069345	26389.601033
526.431608	26345.327099
526.793815	26525.669337
527.155964	26009.024164
527.518057	26165.148699
527.880093	26090.232111
528.242072	26336.696643
528.603995	26037.257146
528.965860	25832.631670
529.327669	25871.839244
529.689421	25857.507244
530.051117	25696.210486
530.412755	25877.051798
530.774337	25664.625136
531.135862	25555.605143
531.497331	25740.779327
531.858743	25312.311497
532.220098	25793.875280
532.581396	25473.333512
532.942638	25386.361006
533.303824	25496.817728
533.664953	25498.050290
534.026025	25168.666338
534.387040	25400.756020
534.747999	25461.895134
535.108902	25623.665761
535.469748	25123.243022
535.830537	25294.475894
536.191270	25430.476143
536.551947	25283.309739
536.912567	24909.896350
537.273131	25299.123838
537.633638	24994.864998
537.994089	25204.471134
538.354483	24723.038421
538.714821	25231.884928
539.075103	25256.349648
539.435328	25049.513626
539.795497	24627.264059
540.155609	24994.297868
540.515665	25302.375383
540.875665	24529.553895
541.235609	24854.710839
541.595496	24796.049452
541.955328	25151.806199
542.315102	25074.908439
542.674821	24592.159985
543.034483	24473.859227
543.394090	24650.670137
543.753640	24447.572131
544.113134	25075.341978
544.472571	24669.990359
544.831953	24966.838703
545.191278	24607.676656
545.550548	24516.522512
545.909761	24716.389139
546.268918	24954.893689
546.628019	24920.545787
546.987064	24602.428815
547.346053	24362.016188
547.704986	24464.986797
548.063863	24625.015705
548.422684	24646.294415
548.781449	24162.802391
549.140158	24571.236676
549.498811	24145.581809
549.857408	23905.375870
550.215949	24300.388082
550.574434	23989.893335
550.932864	24203.353432
551.291237	24379.372881
551.649555	24232.345108
552.007817	24289.279900
552.366022	24146.670699
552.724173	24172.083155
553.082267	24137.198371
553.440305	24615.661844
553.798288	23861.550599
554.156215	24363.364697
554.514086	24480.589168
554.871902	23849.895451
555.229661	24144.881089
555.587365	23989.172450
555.945014	23878.254462
556.302606	24111.962354
556.660143	24082.879938
557.017625	24312.254958
557.375050	23838.522608
557.732421	24232.423246
558.089735	24050.944228
558.446994	24093.899900
558.804197	24132.048832
559.161345	24044.625142
559.518437	23837.506816
559.875474	24012.704556
560.232455	24185.537995
560.589381	24008.550645
560.946251	24000.469675
561.303065	24310.437623
561.659825	24406.552262
562.016528	24006.413196
562.373177	23742.176076
562.729770	24109.333393
563.086307	23960.518531
563.442789	24134.887002
563.799216	23980.448733
564.155587	23980.723476
564.511904	23956.624240
564.868164	23895.197780
565.224370	23863.604869
565.580520	23790.588797
565.936615	23910.664040
566.292654	23612.051292
566.648638	23881.765626
567.004567	23701.350291
567.360441	23647.079750
567.716260	23378.809707
568.072023	23704.178379
568.427732	23477.144974
568.783385	23244.523450
569.138982	23500.034333
569.494525	23520.836654
569.850013	23271.982615
570.205445	23375.454819
570.560823	23182.338297
570.916145	22948.048152
571.271412	23141.583089
571.626625	22893.656622
571.981782	23000.960102
572.336884	22796.594246
572.691931	22937.738992
573.046923	22677.587727
573.401860	22553.426628
573.756743	22575.955545
574.111570	22475.344197
574.466342	22391.875292
574.821059	22479.961893
575.175722	22183.766379
575.530330	22160.075476
575.884882	22176.711284
576.239380	22105.441971
576.593823	21981.679124
576.948211	21964.536680
577.302544	21812.261067
577.656823	21679.925737
578.011047	21778.392074
578.365216	21640.337556
578.719330	21526.397397
579.073389	21414.072927
579.427394	21580.604924
579.781344	21333.094352
580.135239	21217.538503
580.489080	21174.003099
580.842866	20956.961261
581.196597	21155.340747
581.550273	21131.191100
581.903895	21004.227119
582.257463	21314.893266
582.610975	20838.698312
582.964434	21169.466060
583.317837	20863.271417
583.671186	20948.257709
584.024481	20934.505441
584.377721	20691.708348
584.730906	20774.753796
585.084037	20753.444839
585.437113	20687.020075
585.790135	20893.450284
586.143103	20346.696820
586.496016	20366.427897
586.848874	20610.621389
587.201679	20524.054695
587.554428	20211.543486
587.907124	20540.942560
588.259765	20316.149949
588.612352	20389.927235
588.964884	19956.778694
589.317362	20119.993611
589.669786	20195.038748
590.022155	20211.850996
590.374470	20424.456618
590.726731	20193.107986
591.078937	19979.584874
591.431090	20060.787780
591.783188	19825.166770
592.135232	19793.568818
592.487222	19894.926257
592.839157	19902.160312
593.191038	19783.221849
593.542866	19688.637200
593.894639	19385.336179
594.246358	19598.105639
594.598022	19496.123097
594.949633	19248.612525
595.301190	19231.275997
595.652692	19400.573067
596.004141	19633.759199
596.355535	18959.691395
596.706876	18979.445157
597.058162	18874.327017
597.409395	19103.142469
597.760573	19168.201080
598.111698	18932.877498
598.462768	18887.469305
598.813785	18843.243262
599.164748	18658.681578
599.515657	18701.423001
599.866511	18499.575201
600.217312	18850.368933
600.568060	18371.184575
600.918753	18679.539352
601.269392	18580.357171
601.619978	18375.751860
601.970510	18560.116938
602.320988	18518.781997
602.671412	18717.161484
603.021783	18639.817581
603.372100	18354.044652
603.722363	18503.351026
604.072572	18447.822716
604.422728	18599.115305
604.772830	18348.522068
605.122878	18302.135890
605.472872	18298.617165
605.822813	18274.860727
606.172701	18251.893231
606.522534	18439.638403
606.872314	18466.172516
607.222041	18301.483061
607.571714	18514.955762
607.921333	18342.513012
608.270899	18412.650586
608.620411	18588.564170
608.969870	18373.934524
609.319276	18365.230972
609.668627	18399.704903
610.017926	18533.960912
610.367171	18640.646851
610.716362	18695.739100
611.065500	18504.490326
611.414585	18657.093615
611.763616	18643.999218
612.112594	18577.070339
612.461518	18536.988125
612.810389	18733.928361
613.159207	18591.911496
613.507971	18507.018465
613.856682	18774.363456
614.205340	18700.276139
614.553945	18843.056739
614.902496	18584.616946
615.250994	18812.146904
615.599439	18760.306199
615.947830	18742.001769
616.296169	18810.881575
616.644454	18760.956508
616.992686	18745.780114
617.340864	18967.353949
617.688990	18705.932313
618.037063	18886.030055
618.385082	18737.704186
618.733048	19011.088479
619.080961	18897.241581
619.428821	18919.437782
619.776628	18809.827974
620.124382	18736.758969
620.472083	18783.571124
620.819731	18801.285738
621.167326	18496.119490
621.514868	18531.614255
621.862357	18307.867682
622.209793	18314.910174
622.557176	18148.680647
622.904506	17968.817319
623.251783	17898.379797
623.599007	17645.439902
623.946179	17587.461592
624.293297	17516.996343
624.640363	17261.004031
624.987376	17291.742466
625.334336	17095.213083
625.681243	16938.831450
626.028097	16947.356041
626.374899	16875.111265
626.721647	16737.674288
627.068343	16571.018783
627.414987	16514.993920
627.761577	16468.837115
628.108115	16510.613157
628.454600	16227.864920
628.801032	16337.986405
629.147412	16276.897703
629.493739	16284.797191
629.840014	16093.157728
630.186236	16190.938468
630.532405	15949.648681
630.878521	16155.758776
631.224585	16056.788323
631.570597	15873.688574
631.916556	15907.013122
632.262462	15888.318003
632.608316	15793.955165
632.954117	15740.110600
633.299866	15739.533388
633.645562	15648.195242
633.991206	15412.118008
634.336797	15279.989365
634.682336	15247.907462
635.027823	15129.281551
635.373257	14997.934287
635.718639	14914.044446
636.063968	14851.566906
636.409245	14611.222334
636.754470	14646.097037
637.099642	14492.049458
637.444762	14261.893058
637.789829	14300.470488
638.134845	14133.567966
638.479808	14162.466381
638.824719	14092.636318
639.169577	13958.390391
639.514383	14004.859747
639.859137	13834.393130
640.203839	13916.369853
640.548489	13762.546605
640.893086	13748.542280
641.237632	13626.092653
641.582125	13772.765024
641.926566	13593.544443
642.270955	13606.689252
642.615292	13569.230958
642.959576	13571.015526
643.303809	13597.642901
643.647990	13538.923541
643.992118	13601.557357
644.336195	13371.499260
644.680219	13588.977157
645.024192	13505.823325
645.368112	13739.211104
645.711981	13790.570379
646.055797	13983.747395
646.399562	13952.514926
646.743274	14220.522829
647.086935	14487.030989
647.430544	14461.835302
647.774101	14494.691022
648.117606	14631.132372
648.461059	14617.717861
648.804460	14596.456795
649.147810	14315.596470
649.491108	14233.040014
649.834354	14246.139452
650.177548	13922.600719
650.520690	13736.705650
650.863781	13659.946521
651.206820	13697.808107
651.549807	13537.486812
651.892742	13332.548785
652.235626	13271.104681
652.578458	13276.702882
652.921238	12967.642343
653.263967	13157.645952
653.606644	12996.092095
653.949269	12976.920587
654.291843	12773.343671
654.634365	12935.847786
654.976836	12787.257256
655.319255	12784.955969
655.661622	12736.369328
656.003938	12670.874657
656.346203	12594.516300
656.688416	12669.306858
657.030577	12633.476858
657.372687	12533.409954
657.714746	12520.675999
658.056753	12713.318652
658.398708	12525.369313
658.740612	12527.158923
659.082465	12623.087039
659.424266	12597.046959
659.766016	12621.143675
660.107715	12527.413501
660.449362	12614.058333
660.790958	12565.995972
661.132503	12510.369360
661.473996	12583.135895
661.815438	12587.115886
662.156829	12613.100514
662.498168	12594.591917
662.839456	12592.431783
663.180693	12608.308897
663.521879	12708.554762
663.863013	12677.135770
664.204097	12653.109631
664.545129	12780.285340
664.886110	12746.086152
665.227040	12833.585459
665.567918	12841.875637
665.908746	12869.969987
666.249522	12859.660828
666.590248	12907.264443
666.930922	13023.732741
667.271545	12994.347856
667.612118	13080.329776
667.952639	12978.029641
668.293109	13008.397551
668.633528	12947.961678
668.973896	12922.564345
669.314213	13007.293539
669.654480	12740.132549
669.994695	12817.912512
670.334859	12848.905526
670.674973	12785.704580
671.015035	12825.091115
671.355047	12762.374120
671.695008	12738.879823
672.034918	12750.272830
672.374777	12791.728759
672.714585	12703.397661
673.054342	12731.895304
673.394049	12687.155064
673.733705	12784.978654
674.073310	12698.046477
674.412864	12704.027806
674.752368	12558.121690
675.091820	12602.670366
675.431223	12574.593660
675.770574	12445.101541
676.109875	12366.068852
676.449125	12322.548571
676.788324	12271.837083
677.127473	12096.417533
677.466571	12084.807755
677.805619	11983.931746
678.144616	11917.423803
678.483562	11888.195193
678.822458	11758.219124
679.161303	11732.799106
679.500098	11712.236239
679.838842	11682.017042
680.177535	11703.444467
680.516179	11766.257244
680.854771	11706.088552
681.193314	11928.786564
681.531805	12081.198289
681.870247	12522.301771
682.208638	12934.421139
682.546978	13239.055546
682.885268	13269.826749
683.223508	12971.198877
683.561697	12819.896206
683.899836	12718.329559
684.237925	12518.883869
684.575963	12434.928493
684.913951	12344.404493
685.251889	12301.620220
685.589776	12399.521949
685.927614	12324.227275
686.265401	12291.321143
686.603137	12346.806603
686.940824	12487.691729
687.278460	12628.564253
687.616046	12656.678768
687.953582	12820.128099
688.291068	12748.493303
688.628504	12995.406498
688.965889	12998.080830
689.303224	12958.170015
689.640510	12843.992922
689.977745	12527.373172
690.314930	12310.984164
690.652065	12217.359854
690.989150	11926.414701
691.326185	11700.381966
691.663170	11495.007879
692.000105	11253.554253
692.336990	11137.060750
692.673825	10877.811852
693.010610	10771.617425
693.347345	10558.230424
693.684030	10361.113747
694.020665	10302.207864
694.357251	10104.075395
694.693786	10035.959324
695.030272	9877.548626
695.366707	9757.710317
695.703093	9702.471873
696.039429	9697.826450
696.375716	9601.432027
696.711952	9471.718097
697.048139	9523.805819
697.384276	9476.335794
697.720363	9503.056430
698.056400	9433.009598
698.392388	9379.321309
698.728326	9344.839817
699.064214	9282.780692
699.400053	9329.857508
699.735842	9143.082757
700.071581	9097.868649
700.407270	9026.707721
700.742910	8946.616389
701.078501	8850.612655
701.414042	8716.853200
701.749533	8663.346393
702.084974	8518.551852
702.420366	8644.361407
702.755709	8517.404989
703.091002	8379.657981
703.426246	8412.596880
703.761440	8365.131896
704.096584	8317.949217
704.431679	8256.810103
704.766725	8237.124397
705.101721	8196.253242
705.436668	8241.490036
705.771565	8132.013819
706.106413	8213.592291
706.441212	8249.830625
706.775961	8209.554327
707.110661	8255.307839
707.445311	8391.824806
707.779913	8281.587374
708.114465	8417.242303
708.448967	8456.628838
708.783421	8605.209286
709.117825	8786.526987
709.452180	8813.650915
709.786485	8912.623889
710.120742	9190.330972
710.454949	9191.777783
710.789107	9296.893403
711.123216	9522.442187
711.457275	9693.165903
711.791286	9838.209982
712.125247	9840.153347
712.459159	9824.626593
712.793023	10061.633920
713.126837	9640.538778
713.460602	9797.288416
713.794318	9624.986818
714.127985	9648.095468
714.461602	9311.384199
714.795171	9263.427703
715.128691	9014.979477
715.462162	8773.016695
715.795584	8714.254485
716.128957	8549.837252
716.462281	8390.254486
716.795556	8436.217206
717.128782	8225.595278
717.461960	7968.831669
717.795088	8043.569295
718.128167	7943.898122
718.461198	7784.524563
718.794180	7727.559525
719.127113	7720.247331
719.459997	7552.502937
719.792833	7331.004719
720.125619	7404.471975
720.458357	7251.246104
720.791046	7244.571616
721.123686	7234.804381
721.456278	7080.174548
721.788821	7094.347752
722.121315	6991.714901
722.453761	7063.052269
722.786158	7002.568505
723.118506	7008.146542
723.450805	6976.967005
723.783056	7034.100923
724.115259	6956.320960
724.447412	6949.674198
724.779518	7002.598752
725.111574	7002.165213
725.443582	7080.096410
725.775542	7056.776032
726.107453	7259.533761
726.439315	7169.251737
726.771129	7233.478557
727.102895	7408.890546
727.434612	7508.276894
727.766281	7551.635859
728.097901	7623.290819
728.429473	7626.134030
728.760996	7613.906712
729.092471	7581.348419
729.423897	7524.164091
729.755276	7524.484204
730.086606	7443.263654
730.417887	7550.980509
730.749120	7766.091584
731.080305	7950.625542
731.411442	8060.389105
731.742530	8048.897795
732.073570	8163.352152
732.404562	8241.767300
732.735506	8099.175742
733.066401	8237.492401
733.397249	8161.645721
733.728048	7916.670850
734.058798	7592.083557
734.389501	7362.567384
734.720156	7183.238418
735.050762	6957.326670
735.381320	6867.634461
735.711831	6805.179606
736.042293	6700.820159
736.372707	6715.472273
736.703073	6581.793476
737.033391	6620.000381
737.363661	6630.869109
737.693883	6667.467886
738.024056	6752.131544
738.354182	6784.934332
738.684260	6819.738458
739.014290	6942.321676
739.344272	7052.997688
739.674207	7084.961124
740.004093	7157.730179
740.333931	7165.793505
740.663722	7172.435225
740.993464	7252.143429
741.323159	7232.563588
741.652806	6984.044785
741.982405	7013.802717
742.311956	7063.407670
742.641460	6885.785135
742.970915	6692.376227
743.300323	6681.794845
743.629683	6637.677187
743.958996	6499.915055
744.288260	6417.398928
744.617477	6361.011102
744.946647	6354.994485
745.275768	6195.378951
745.604842	6148.531509
745.933869	6133.166072
746.262847	6091.047231
746.591778	6080.377629
746.920662	6037.888264
747.249498	6035.183685
747.578286	6083.331745
747.907027	6154.603578
748.235720	6216.380398
748.564365	6186.085584
748.892963	6226.109825
749.221514	6374.453339
749.550017	6188.833013
749.878473	6072.263892
750.206881	6132.858561
750.535242	6077.960396
750.863555	6006.103789
751.191821	6024.022570
751.520039	6021.670872
751.848210	5927.552530
752.176334	5952.581859
752.504411	6004.626731
752.832440	5928.568322
753.160421	5855.211972
753.488356	5904.516977
753.816243	5937.317245
754.144082	5783.655314
754.471875	5755.538278
754.799620	5798.773734
755.127318	5813.617412
755.454969	5769.406493
755.782572	5734.851903
756.110129	5783.224295
756.437638	5759.334267
756.765100	5700.143559
757.092515	5710.190579
757.419882	5758.230254
757.747203	5735.696297
758.074477	5794.024967
758.401703	5782.402587
758.728882	5731.786882
759.056014	5795.799453
759.383099	5917.218164
759.710138	5929.289207
760.037129	5919.048103
760.364073	5923.073465
760.690970	5999.943499
761.017820	5981.679399
761.344623	5936.198109
761.671379	6044.093924
761.998088	6170.026989
762.324751	6423.496204
762.651366	7046.857562
762.977935	8391.217347
763.304456	10038.923522
763.630931	10917.964642
763.957359	10477.690430
764.283740	9518.895736
764.610074	8665.118358
764.936362	7673.399889
765.262602	7079.100782
765.588796	6548.196706
765.914943	6213.033072
766.241044	6042.034613
766.567097	5834.702038
766.893104	5577.845167
767.219064	5403.398559
767.544978	5340.313559
767.870845	5256.766517
768.196665	5151.519827
768.522438	5081.500721
768.848165	5043.266090
769.173846	4979.656810
769.499479	4933.157207
769.825066	4880.913209
770.150607	4820.646215
770.476101	4801.338596
770.801548	4791.450373
771.126949	4712.863825
771.452303	4660.786186
771.777611	4622.964929
772.102872	4640.364471
772.428087	4601.391311
772.753256	4561.079724
773.078378	4509.886807
773.403453	4446.484215
773.728482	4430.654992
774.053465	4380.956777
774.378401	4370.733317
774.703291	4364.391545
775.028135	4294.672388
775.352932	4249.866612
775.677683	4235.582503
776.002388	4257.060339
776.327046	4261.841873
776.651658	4188.082231
776.976224	4131.712048
777.300743	4134.777070
777.625216	4152.506808
777.949643	4150.742404
778.274024	4106.450826
778.598359	4067.258376
778.922647	4093.285853
779.246889	4079.798246
779.571086	4074.401691
779.895236	4059.429464
780.219339	4045.039490
780.543397	4039.806772
780.867409	4094.672170
781.191374	4106.047534
781.515294	4040.991444
781.839167	4033.913664
782.162995	4056.006520
782.486776	4044.331208
782.810511	4054.965522
783.134201	4044.734500
783.457844	3997.773632
783.781441	3944.730611
784.104993	3951.246302
784.428498	3971.625167
784.751958	3967.690546
785.075372	3943.084674
785.398739	3905.613778
785.722061	3919.096344
786.045337	3964.441522
786.368568	3993.375225
786.691752	3907.539498
787.014891	3961.908343
787.337983	4089.338630
787.661030	4252.649329
787.984031	4412.305192
788.306987	4576.465326
788.629897	4665.905477
788.952760	4617.931337
789.275579	4552.295514
789.598351	4480.847240
789.921078	4336.385415
790.243759	4136.261690
790.566395	4125.627376
790.888984	4115.537506
791.211529	4010.857947
791.534027	3952.188998
791.856480	3937.637707
792.178888	3875.054303
792.501249	3829.666274
792.823566	3842.480887
793.145836	3864.914022
793.468062	3814.303358
793.790241	3768.078498
794.112375	3800.135195
794.434464	3865.587016
794.756507	3891.949730
795.078505	3867.583313
795.400457	3906.949683
795.722364	4048.467475
796.044226	4152.012775
796.366042	4224.464238
796.687812	4198.512378
797.009538	4205.181824
797.331218	4165.850742
797.652852	4136.725476
797.974442	4118.910038
798.295986	4113.032053
798.617484	4030.334444
798.938938	3947.241106
799.260346	3990.915142
799.581709	3985.594204
799.903026	3910.513779
800.224299	3874.376268
800.545526	3867.076677
800.866708	3828.690811
801.187845	3771.030093
801.508936	3806.464364
801.829983	3796.593785
802.150984	3722.476220
802.471940	3714.584294
802.792851	3719.277608
803.113717	3722.178792
803.434538	3724.790110
803.755314	3663.487158
804.076045	3642.329436
804.396731	3662.388187
804.717372	3685.222093
805.037967	3673.420752
805.358518	3659.789472
805.679024	3687.742670
805.999485	3700.567366
806.319901	3709.734704
806.640272	3719.227197
806.960598	3731.348651
807.280879	3708.532389
807.601115	3719.504460
807.921306	3739.477512
808.241453	3779.622740
808.561554	3753.817074
808.881611	3685.557330
809.201623	3726.771283
809.521590	3735.928539
809.841513	3706.336966
810.161390	3737.869383
810.481223	3716.184860
810.801011	3661.117816
811.120755	3654.309738
811.440453	3691.810881
811.760107	3691.795758
812.079716	3646.082575
812.399281	3619.061990
812.718801	3640.076040
813.038276	3613.720888
813.357707	3611.560753
813.677093	3626.976602
813.996434	3571.697829
814.315731	3580.461875
814.634983	3591.292794
814.954191	3604.120010
815.273354	3630.170173
815.592473	3625.721354
815.911547	3633.799803
816.230577	3677.012574
816.549562	3728.878486
816.868502	3771.514044
817.187399	3793.909370
817.506250	3789.195891
817.825058	3768.499434
818.143821	3862.322869
818.462539	3960.380873
818.781213	4004.185979
819.099843	4067.873397
819.418429	4330.920804
819.736970	4562.529056
820.055466	4816.265452
820.373919	5191.380231
820.692327	5602.090596
821.010691	6069.645013
821.329011	7506.615834
821.647286	10345.251756
821.965517	15004.805380
822.283704	19012.628552
822.601847	21075.448541
822.919945	19180.640127
823.237999	16557.236268
823.556010	14050.073856
823.873976	11927.259095
824.191897	9828.220936
824.509775	8480.869227
824.827609	7359.298195
825.145398	6828.540313
825.463144	6709.380039
825.780845	6824.192318
826.098502	7031.398864
826.416116	7952.631921
826.733685	9292.807547
827.051210	10398.224201
827.368692	10383.980421
827.686129	9078.805525
828.003522	7571.135042
828.320872	6553.938580
828.638177	5845.928687
828.955439	5278.065392
829.272656	4776.974699
829.589830	4506.070653
829.906960	4330.351154
830.224046	4142.364006
830.541088	4016.420860
830.858086	3970.289261
831.175041	3893.547776
831.491952	3876.612020
831.808819	3894.165317
832.125642	3971.186586
832.442421	4123.263074
832.759157	4406.510386
833.075849	4974.507272
833.392497	5857.611561
833.709101	6637.856148
834.025662	6958.314736
834.342179	6559.191463
834.658653	5887.785388
834.975083	5235.208022
835.291469	4651.129855
835.607811	4257.380452
835.924110	4110.229171
836.240366	3909.497987
836.556578	3703.029969
836.872746	3599.910647
837.188871	3557.385993
837.504952	3489.030468
837.820990	3403.134248
838.136984	3362.343751
838.452935	3388.560272
838.768842	3379.299672
839.084706	3402.526788
839.400526	3571.034917
839.716303	3924.767642
840.032037	4464.002225
840.347727	4709.309812
840.663373	4410.893669
840.978977	4021.305738
841.294537	3713.376938
841.610054	3488.354953
841.925527	3384.665980
842.240957	3314.851041
842.556344	3259.040427
842.871687	3200.386602
843.186987	3150.280053
843.502244	3112.766307
843.817458	3078.448652
844.132629	3048.791544
844.447756	3055.440826
844.762840	3038.217723
845.077881	3008.676562
845.392879	2993.351454
845.707833	2989.273161
846.022745	2986.631596
846.337613	2987.680156
846.652438	2973.701037
846.967221	2973.776654
847.281960	2958.872483
847.596656	2953.417954
847.911309	2955.641103
848.225919	2947.328240
848.540485	2946.239351
848.855009	2942.211469
849.169490	2931.851898
849.483928	2924.149015
849.798323	2924.297729
850.112675	2919.022161
850.426984	2932.827361
850.741251	2929.477514
851.055474	2918.570978
851.369654	2913.335740
851.683792	2917.973601
851.997887	2924.501896
852.311938	2929.588420
852.625947	2914.538055
852.939914	2920.093407
853.253837	2922.382090
853.567718	2910.989083
853.881555	2910.444638
854.195350	2927.824016
854.509103	2918.109713
854.822812	2912.403126
855.136479	2911.422622
855.450103	2909.365831
855.763685	2902.913154
856.077224	2902.066240
856.390720	2913.383631
856.704173	2924.496854
857.017584	2911.720050
857.330953	2914.958991
857.644278	2922.490475
857.957561	2933.046651
858.270802	2934.831220
858.584000	2933.941456
858.897155	2923.740681
859.210268	2920.461411
859.523339	2919.647264
859.836367	2918.311359
860.149352	2910.689134
860.462295	2909.103691
860.775195	2917.411513
861.088054	2915.332037
861.400869	2898.797052
861.713642	2897.703122
862.026373	2912.267015
862.339062	2911.364649
862.651708	2919.652306
862.964312	2922.079621
863.276873	2917.764393
863.589392	2926.820826
863.901869	2938.967487
864.214303	2958.070939
864.526696	2975.278918
864.839045	2970.089050
865.151353	2969.189204
865.463619	2967.437403
865.775842	2974.220275
866.088023	2988.489261
866.400162	2995.118379
866.712258	2964.153091
867.024313	2955.782255
867.336325	2964.579069
867.648296	2986.603870
867.960224	2980.194043
868.272110	2965.425983
868.583954	2969.993268
868.895755	2984.342912
869.207515	2970.308340
869.519233	2977.723877
869.830909	2986.281236
870.142542	2996.726507
870.454134	2995.987978
870.765684	2998.458143
871.077191	3001.374451
871.388657	3007.146572
871.700081	3021.418078
872.011463	3030.643390
872.322803	3035.613968
872.634101	3029.373019
872.945357	3049.325906
873.256571	3074.443455
873.567744	3067.088412
873.878874	3061.412072
874.189963	3081.743046
874.501010	3087.356371
874.812015	3076.326326
875.122979	3074.710636
875.433900	3072.890780
875.744780	3080.044177
876.055618	3087.966350
876.366415	3080.056780
876.677169	3092.654623
876.987882	3090.043306
877.298554	3083.648602
877.609183	3108.332612
877.919771	3133.651807
878.230317	3156.425219
878.540822	3212.699620
878.851285	3247.934765
879.161707	3295.482928
879.472087	3404.669279
879.782425	3643.070485
880.092722	4092.794341
880.402977	4628.956340
880.713191	5275.070946
881.023363	6472.846580
881.333494	7770.845393
881.643583	8296.153788
881.953631	7982.268864
882.263637	7322.812844
882.573602	6711.265430
882.883526	6128.472757
883.193408	5559.336571
883.503248	5107.472746
883.813048	4795.211073
884.122806	4476.763906
884.432522	4157.671470
884.742197	3918.279677
885.051831	3726.509143
885.361424	3596.016355
885.670975	3522.334851
885.980485	3435.977365
886.289954	3355.833101
886.599382	3311.811225
886.908768	3272.154988
887.218113	3230.646127
887.527417	3170.469874
887.836680	3118.409878
888.145901	3114.848303
888.455082	3101.963114
888.764221	3051.254147
889.073319	3025.181300
889.382376	3020.951772
889.691392	3026.146681
890.000366	3024.021834
890.309300	3011.807118
890.618193	3026.469314
890.927044	3039.004143
891.235855	3039.233516
891.544625	3028.294212
891.853353	3040.052703
892.162041	3059.148594
892.470687	3103.372116
892.779293	3148.477840
893.087858	3196.673792
893.396381	3273.281686
893.704864	3398.332548
894.013306	3647.113491
894.321707	3955.720326
894.630068	4153.668794
894.938387	4147.929440
895.246665	4100.653499
895.554903	3976.540292
895.863100	3773.384312
896.171256	3602.705967
896.479371	3462.398052
896.787446	3335.313084
897.095480	3230.870459
897.403473	3169.343176
897.711425	3133.913947
898.019336	3125.139819
898.327207	3095.545725
898.635038	3057.651372
898.942827	3044.289793
899.250576	3030.066178
899.558284	3000.041065
899.865952	2982.888539
900.173579	2958.277626
900.481165	2952.079528
900.788711	2935.945315
901.096216	2912.897159
901.403681	2906.225192
901.711105	2912.050246
902.018489	2907.445152
902.325832	2907.931623
902.633135	2917.716503
902.940397	2955.535239
903.247619	3040.103115
903.554800	3242.697006
903.861941	3601.289402
904.169041	4038.541443
904.476101	4333.113706
904.783121	4272.400570
905.090100	4015.647043
905.397039	3738.439034
905.703938	3486.255313
906.010796	3301.839823
906.317614	3186.019313
906.624391	3089.839139
906.931129	3020.147708
907.237826	2957.917184
907.544483	2908.841551
907.851099	2881.347098
908.157675	2859.050075
908.464211	2838.582990
908.770707	2823.739312
909.077163	2811.554844
909.383578	2795.410548
909.689954	2786.354116
909.996289	2785.870165
910.302584	2787.301852
910.608839	2787.039712
910.915054	2779.190636
911.221229	2772.327105
911.527363	2777.027981
911.833458	2783.904115
912.139513	2788.862090
912.445527	2791.511216
912.751502	2801.807773
913.057436	2809.429997
913.363331	2822.405927
913.669186	2848.693024
913.975000	2882.229300
914.280775	2945.495781
914.586510	3014.904908
914.892205	3096.372474
915.197859	3229.252248
915.503475	3432.090635
915.809050	3652.464676
916.114585	3795.368784
916.420081	3809.756237
916.725536	3745.486567
917.030952	3626.669091
917.336328	3492.960047
917.641665	3361.945500
917.946961	3257.873399
918.252218	3188.973429
918.557435	3106.288424
918.862612	3046.197870
919.167750	2994.889006
919.472848	2956.745116
919.777906	2928.547422
920.082925	2904.407856
920.387904	2872.835110
920.692843	2853.958509
920.997743	2843.351922
921.302603	2831.873214
921.607423	2818.055412
921.912204	2805.966725
922.216946	2795.007256
922.521647	2789.590536
922.826310	2779.641819
923.130932	2771.845675
923.435516	2765.206475
923.740059	2753.294229
924.044564	2746.546644
924.349028	2742.826273
924.653454	2737.356621
924.957840	2728.353120
925.262186	2726.467728
925.566493	2718.792572
925.870761	2717.136553
926.174989	2708.271684
926.479178	2706.066179
926.783328	2700.714994
927.087438	2698.549818
927.391509	2698.121320
927.695541	2694.872297
927.999533	2692.502954
928.303486	2688.089424
928.607400	2691.482121
928.911275	2690.962882
929.215110	2687.728982
929.518906	2686.758560
929.822663	2687.290401
930.126381	2684.061542
930.430060	2686.196471
930.733699	2689.916842
931.037299	2689.437933
931.340861	2689.392562
931.644383	2690.806606
931.947866	2686.899712
932.251309	2687.673529
932.554714	2685.851152
932.858080	2686.473734
933.161407	2681.735050
933.464694	2683.227231
933.767943	2679.290090
934.071153	2682.861748
934.374323	2680.759587
934.677455	2681.659432
934.980548	2678.460820
935.283602	2677.601304
935.586617	2676.729184
935.889593	2678.649864
936.192530	2674.599297
936.495428	2679.980728
936.798287	2680.721778
937.101108	2685.863755
937.403890	2688.240659
937.706632	2691.726617
938.009336	2697.163501
938.312002	2705.579707
938.614628	2717.975905
938.917216	2722.510423
939.219765	2724.531925
939.522275	2723.984960
939.824747	2719.364743
940.127179	2716.569423
940.429573	2715.392313
940.731929	2711.860985
941.034246	2706.981148
941.336524	2707.029039
941.638763	2705.506611
941.940964	2701.234233
942.243126	2697.692822
942.545250	2700.215920
942.847335	2695.764581
943.149381	2690.549507
943.451389	2685.306707
943.753359	2686.655216
944.055290	2685.596574
944.357182	2684.721933
944.659036	2685.082376
944.960851	2682.899556
945.262628	2679.554751
945.564367	2680.341171
945.866067	2683.312931
946.167729	2683.224711
946.469352	2680.613393
946.770937	2680.691531
947.072484	2680.883095
947.373992	2680.358815
947.675462	2674.120387
947.976893	2674.493432
948.278286	2673.432269
948.579641	2672.824810
948.880958	2668.323060
949.182236	2673.815397
949.483476	2671.030160
949.784678	2670.919254
950.085841	2672.766837
950.386967	2673.162568
950.688054	2674.153154
950.989103	2677.124915
951.290114	2674.125428
951.591087	2676.378824
951.892021	2681.203208
952.192917	2682.718075
952.493776	2683.754032
952.794596	2687.257634
953.095378	2682.997859
953.396122	2681.959381
953.696828	2682.783610
953.997496	2680.116839
954.298126	2677.041736
954.598718	2675.998217
954.899272	2673.152485
955.199788	2670.102587
955.500266	2668.025632
955.800706	2665.595796
956.101108	2664.718635
956.401472	2664.637977
956.701798	2660.448778
957.002087	2657.726555
957.302337	2658.016421
957.602550	2656.095741
957.902724	2654.722027
958.202861	2652.072901
958.502960	2652.897129
958.803022	2650.268167
959.103045	2653.002993
959.403031	2650.069042
959.702979	2647.687097
960.002889	2653.002993
960.302762	2648.276912
960.602596	2647.848414
960.902393	2648.453352
961.202153	2646.278094
961.501875	2643.719709
961.801559	2646.462096
962.101205	2648.085348
962.400814	2647.437560
962.700385	2645.083341
962.999918	2643.994452
963.299414	2641.398257
963.598873	2639.512866
963.898293	2640.140489
964.197677	2645.529483
964.497022	2643.923875
964.796331	2646.091572
965.095601	2646.013434
965.394835	2644.264153
965.694030	2643.729791
965.993189	2642.335912
966.292309	2645.597538
966.591393	2643.848258
966.890439	2642.726601
967.189447	2644.397744
967.488419	2642.585449
967.787353	2643.749956
968.086249	2640.889101
968.385108	2640.732825
968.683930	2644.102836
968.982714	2643.986890
969.281462	2644.511170
969.580172	2642.429173
969.878844	2642.764410
970.177480	2643.616365
970.476078	2644.864051
970.774639	2644.460758
971.073162	2640.652167
971.371649	2644.284318
971.670098	2644.332209
971.968510	2644.485964
972.266885	2643.679379
972.565223	2646.925882
972.863524	2645.040491
973.161788	2643.961684
973.460014	2642.645943
973.758204	2641.947743
974.056356	2643.447486
974.354471	2640.576549
974.652550	2642.169554
974.950591	2645.388331
975.248595	2645.259781
975.546563	2645.095944
975.844493	2642.998824
976.142386	2642.361118
976.440243	2645.252219
976.738062	2641.143679
977.035845	2641.126035
977.333590	2641.441107
977.631299	2643.369348
977.928971	2639.381796
978.226606	2636.258801
978.524204	2640.009419
978.821765	2636.951960
979.119290	2643.810449
979.416777	2640.016981
979.714228	2641.146200
980.011642	2642.159472
980.309020	2640.579070
980.606360	2638.182001
980.903664	2640.609317
981.200931	2642.678710
981.498162	2641.983031
981.795356	2644.211221
982.092513	2642.943371
982.389633	2647.719864
982.686717	2650.270688
982.983764	2652.251862
983.280775	2658.084477
983.577749	2659.390135
983.874686	2656.899805
984.171587	2653.670946
984.468451	2653.920483
984.765279	2651.460400
985.062070	2647.702220
985.358824	2647.029226
985.655543	2643.349184
985.952224	2644.889256
986.248869	2643.828093
986.545478	2641.748617
986.842050	2640.851292
987.138586	2641.186529
987.435086	2641.940181
987.731549	2640.568987
988.027975	2639.749800
988.324366	2639.102012
988.620719	2638.895324
988.917037	2639.497742
989.213318	2637.526651
989.509563	2636.788122
989.805772	2637.733338
990.101944	2638.575211
990.398080	2638.141672
990.694180	2639.782567
990.990244	2640.107722
991.286271	2638.035808
991.582262	2637.410705
991.878217	2636.135293
992.174136	2635.782412
992.470019	2637.808956
992.765865	2634.869963
993.061676	2633.965076
993.357450	2636.694861
993.653188	2634.819552
993.948890	2637.582104
994.244556	2637.007412
994.540186	2638.494553
994.835780	2640.208545
995.131337	2638.968421
995.426859	2639.170067
995.722345	2638.829789
996.017795	2641.635192
996.313208	2641.816673
996.608586	2641.337763
996.903928	2643.775161
997.199234	2644.440594
997.494504	2643.389513
997.789738	2641.912455
998.084936	2642.842548
998.380099	2641.317599
998.675225	2641.216776
998.970316	2640.420273
999.265371	2640.475726
999.560390	2638.597896
999.855373	2639.583442
1000.150320	2639.154944
1000.445232	2636.536064
1000.740108	2634.960704
1001.034948	2637.279635
1001.329752	2635.288379
1001.624521	2635.459778
1001.919254	2636.100005
1002.213951	2636.732669
1002.508613	2637.703092
1002.803239	2633.791156
1003.097829	2635.038842
1003.392384	2637.574542
1003.686903	2637.786271
1003.981386	2635.323667
1004.275834	2634.247381
1004.570246	2636.311733
1004.864623	2633.836527
1005.158964	2635.273255
1005.453270	2633.072792
1005.747540	2636.624285
1006.041775	2636.677217
1006.335974	2638.025725
1006.630138	2634.769140
1006.924266	2638.615540
1007.218359	2635.232926
1007.512416	2632.258645
1007.806438	2631.620939
1008.100425	2633.231588
1008.394376	2632.233440
1008.688292	2636.052114
1008.982172	2634.461630
1009.276017	2635.611013
1009.569827	2633.261835
1009.863602	2633.365179
1010.157341	2634.403656
1010.451045	2634.610344
1010.744714	2634.053296
1011.038347	2630.995836
1011.331945	2633.831485
1011.625508	2633.481125
1011.919036	2635.709315
1012.212528	2635.676548
1012.505986	2633.990282
1012.799408	2636.087402
1013.092795	2634.133955
1013.386147	2635.593369
1013.679464	2636.296610
1013.972745	2635.621095
1014.265992	2637.987917
1014.559204	2633.529016
1014.852380	2633.846609
1015.145521	2635.172432
1015.438628	2634.572535
1015.731699	2636.120169
1016.024736	2636.662093
1016.317737	2634.917854
1016.610703	2637.811476
1016.903635	2638.149234
1017.196531	2633.566825
1017.489393	2633.347535
1017.782219	2632.649335
1018.075011	2631.847791
1018.367768	2634.582617
1018.660490	2632.031793
1018.953177	2632.031793
1019.245829	2632.031793
