Dividing Wavelength (nm)	Counts (n)	Blue Motor Position (mm): 12.000000	Red Motor Position (mm): 0.000000	
326.493990	2162.753303
326.888308	2162.753303
327.282561	2162.753303
327.676750	2121.665378
328.070874	2118.252517
328.464933	2120.518516
328.858929	2126.545215
329.252859	2128.780967
329.646726	2136.456123
330.040528	2150.891468
330.434265	2159.022849
330.827938	2179.840293
331.221547	2196.408046
331.615091	2213.943699
332.008571	2233.596638
332.401986	2253.809144
332.795338	2271.450662
333.188625	2290.475976
333.581847	2305.370065
333.975006	2323.064515
334.368100	2342.488081
334.761129	2360.948787
335.154095	2379.744729
335.546996	2399.876577
335.939833	2421.054464
336.332606	2439.149686
336.725315	2452.602005
337.117960	2466.104735
337.510540	2474.203349
337.903056	2486.924701
338.295508	2499.477174
338.687896	2505.098060
339.080220	2509.471261
339.472480	2515.293794
339.864676	2523.026924
340.256807	2529.703932
340.648875	2530.419776
341.040879	2537.643749
341.432818	2539.917310
341.824694	2541.028884
342.216506	2540.681045
342.608253	2546.697662
342.999937	2544.338402
343.391557	2546.901828
343.783113	2543.194060
344.174605	2542.430325
344.566033	2541.351518
344.957397	2541.159954
345.348697	2540.025695
345.739934	2536.055786
346.131106	2536.363296
346.522215	2531.453213
346.913260	2532.791639
347.304241	2528.297450
347.695159	2529.290557
348.086012	2525.489528
348.476802	2523.437778
348.867528	2519.324196
349.258191	2515.704648
349.648789	2517.196829
350.039324	2512.369925
350.429796	2513.194153
350.820203	2513.562158
351.210548	2515.389576
351.600828	2513.410923
351.991045	2509.128463
352.381198	2509.481343
352.771288	2511.399503
353.161314	2510.454286
353.551276	2510.361025
353.941175	2509.325068
354.331010	2508.238699
354.720782	2507.921106
355.110490	2507.159892
355.500135	2507.139728
355.889717	2508.442866
356.279235	2507.600993
356.668689	2505.062772
357.058080	2507.822804
357.447408	2507.081754
357.836672	2508.689882
358.225873	2511.628875
358.615010	2506.292814
359.004084	2509.158710
359.393095	2512.087620
359.782043	2509.677948
360.170927	2511.008813
360.559748	2511.807836
360.948505	2511.911180
361.337199	2515.586181
361.725830	2512.556447
362.114398	2513.597446
362.502903	2514.222549
362.891344	2516.838908
363.279722	2513.589884
363.668037	2517.937879
364.056289	2516.846469
364.444478	2518.719258
364.832603	2517.635410
365.220665	2516.912004
365.608665	2519.462828
365.996601	2516.508712
366.384474	2517.842097
366.772284	2518.489885
367.160031	2520.377798
367.547715	2518.918383
367.935336	2520.874351
368.322893	2516.596932
368.710388	2517.915194
369.097820	2517.791686
369.485189	2515.127436
369.872495	2518.696573
370.259738	2520.816378
370.646918	2519.949299
371.034035	2524.032634
371.421090	2522.490041
371.808081	2525.055988
372.195010	2522.694208
372.581875	2522.530370
372.968678	2523.951976
373.355418	2524.141019
373.742096	2523.415093
374.128710	2525.020700
374.515262	2526.427182
374.901751	2523.498272
375.288177	2525.008097
375.674540	2526.648993
376.060841	2524.012469
376.447079	2529.192255
376.833254	2525.925587
377.219367	2523.460463
377.605417	2526.633869
377.991404	2524.430885
378.377329	2527.034641
378.763191	2527.276617
379.148991	2528.398273
379.534727	2527.778211
379.920402	2531.022194
380.306013	2529.192255
380.691563	2530.974303
381.077049	2525.295443
381.462474	2530.024045
381.847835	2528.960362
382.233134	2530.203006
382.618371	2527.463139
383.003545	2534.513193
383.388657	2528.554549
383.773706	2527.657224
384.158693	2531.692667
384.543618	2533.578059
384.928480	2531.642256
385.313280	2529.567821
385.698017	2529.966072
386.082692	2529.381298
386.467305	2530.374406
386.851856	2531.158305
387.236344	2532.073274
387.620770	2528.415917
388.005133	2527.813499
388.389435	2533.114273
388.773674	2526.265865
389.157851	2533.391536
389.541965	2535.836496
389.926018	2534.404808
390.310008	2535.803728
390.693936	2530.455064
391.077802	2536.385982
391.461606	2535.481094
391.845348	2533.825075
392.229027	2534.951773
392.612645	2535.481094
392.996200	2536.237267
393.379694	2535.854140
393.763125	2536.222144
394.146494	2533.686444
394.529801	2534.548481
394.913047	2538.382278
395.296230	2535.859181
395.679351	2533.285672
396.062410	2536.660724
396.445408	2538.727598
396.828343	2538.551157
397.211217	2536.096115
397.594028	2537.124511
397.976778	2536.653163
398.359466	2537.784902
398.742092	2535.884387
399.124656	2540.048380
399.507158	2539.193904
399.889598	2538.004192
400.271977	2538.107536
400.654294	2539.156096
401.036549	2537.782381
401.418742	2538.445293
401.800874	2537.263142
402.182944	2539.536703
402.564952	2539.652649
402.946898	2543.635161
403.328783	2536.615354
403.710606	2537.273225
404.092367	2539.100643
404.474067	2540.597866
404.855705	2539.990407
405.237282	2540.769265
405.618797	2542.203473
406.000250	2542.778165
406.381642	2540.406302
406.762972	2538.301620
407.144240	2537.041332
407.525447	2539.730787
407.906593	2537.558050
408.287677	2542.019471
408.668700	2542.112732
409.049661	2543.219266
409.430560	2540.696168
409.811399	2544.678680
410.192176	2544.091385
410.572891	2540.434028
410.953545	2542.926879
411.334138	2543.035263
411.714669	2543.400747
412.095139	2544.582898
412.475547	2543.103319
412.855894	2542.410160
413.236180	2545.399565
413.616405	2544.582898
413.996568	2543.254554
414.376670	2542.213555
414.756711	2545.228165
415.136691	2546.821170
415.516609	2547.143804
415.896466	2542.717671
416.276262	2543.829245
416.655997	2543.879657
417.035670	2544.555171
417.415283	2545.802857
417.794834	2545.608772
418.174324	2545.888557
418.553753	2541.674152
418.933121	2549.155224
419.312428	2547.307641
419.691674	2548.285625
420.070859	2544.323278
420.449983	2546.455686
420.829045	2547.710934
421.208047	2549.046839
421.586988	2545.898639
421.965867	2549.772766
422.344686	2546.803526
422.723444	2546.261602
423.102141	2548.474668
423.480777	2550.221428
423.859352	2546.317055
424.237866	2547.012734
424.616319	2548.250337
424.994712	2546.571633
425.373044	2549.087169
425.751314	2544.787064
426.129524	2545.888557
426.507673	2543.451159
426.885762	2544.663556
427.263789	2549.772766
427.641756	2548.078938
428.019662	2549.016592
428.397508	2548.825029
428.775292	2551.443908
429.153016	2548.066335
429.530679	2545.994421
429.908282	2547.847045
430.285824	2548.913249
430.663305	2548.575492
431.040726	2545.762528
431.418086	2549.913918
431.795385	2550.869217
432.172624	2548.661191
432.549802	2550.763352
432.926920	2552.189999
433.303977	2551.275029
433.680974	2551.421223
434.057910	2551.973229
434.434786	2549.752601
434.811601	2553.087324
435.188355	2548.522559
435.565050	2550.362581
435.941683	2551.781665
436.318257	2550.160934
436.694770	2550.763352
437.071222	2550.241593
437.447614	2551.602704
437.823946	2553.367108
438.200218	2551.506923
438.576429	2552.346275
438.952580	2551.272509
439.328670	2549.984494
439.704700	2552.515153
440.080670	2552.326110
440.456580	2551.544731
440.832429	2553.684701
441.208218	2551.237221
441.583947	2553.977088
441.959616	2552.298384
442.335224	2553.324258
442.710773	2551.469114
443.086261	2553.452808
443.461689	2551.179248
443.837057	2553.384752
444.212365	2551.383414
444.587612	2552.310987
444.962800	2547.055584
445.337927	2551.809392
445.712995	2548.842673
446.088002	2555.575134
446.462949	2555.502037
446.837837	2553.241079
447.212664	2553.997252
447.587431	2552.280740
447.962139	2551.663198
448.336786	2555.738971
448.711374	2555.630586
449.085901	2552.648744
449.460369	2555.683518
449.834776	2553.876265
450.209124	2555.214691
450.583412	2555.441543
450.957640	2554.188816
451.331808	2556.676626
451.705917	2552.696635
452.079965	2555.537325
452.453954	2553.341902
452.827883	2554.203940
453.201752	2557.687377
453.575562	2558.156204
453.949311	2556.661502
454.323001	2557.014383
454.696632	2553.215874
455.070202	2557.586554
455.443713	2554.912222
455.817164	2555.406255
456.190556	2555.688560
456.563888	2557.440361
456.937160	2554.405586
457.310373	2556.941286
457.683526	2555.113868
458.056619	2558.143602
458.429653	2557.684857
458.802628	2555.179403
459.175542	2556.994218
459.548398	2555.814588
459.921194	2562.047975
460.293930	2558.675443
460.666607	2555.655792
461.039224	2557.891544
461.411782	2560.611246
461.784280	2557.069836
462.156719	2557.137891
462.529099	2558.322563
462.901419	2557.720145
463.273680	2556.094372
463.645882	2554.564382
464.018024	2555.736451
464.390106	2554.269475
464.762130	2557.883982
465.134094	2557.873900
465.505999	2561.765671
465.877845	2564.760116
466.249631	2559.759291
466.621358	2560.646534
466.993026	2558.930022
467.364634	2563.204920
467.736184	2560.119734
468.107674	2558.257027
468.479105	2559.698797
468.850477	2560.787687
469.221790	2562.128634
469.593043	2559.691236
469.964238	2562.466391
470.335373	2559.613098
470.706449	2561.455640
471.077467	2563.240208
471.448425	2562.045455
471.819324	2563.635939
472.190164	2563.852708
472.560945	2562.529405
472.931667	2562.471432
473.302330	2562.514282
473.672934	2565.528892
474.043479	2561.556463
474.413965	2564.344221
474.784393	2561.223747
475.154761	2564.069478
475.525070	2565.022256
475.895321	2565.072668
476.265513	2563.041083
476.635645	2563.081412
477.005719	2562.809189
477.375734	2560.094528
477.745691	2562.627708
478.115588	2564.681978
478.485427	2567.197514
478.855207	2564.092163
479.224928	2565.249108
479.594591	2566.211968
479.964194	2565.964952
480.333739	2567.593244
480.703226	2566.562328
481.072653	2569.208934
481.442022	2565.163408
481.811333	2564.313974
482.180584	2562.612584
482.549777	2564.702143
482.918912	2564.394632
483.287988	2565.188614
483.657005	2571.127093
484.025964	2567.966290
484.394864	2568.765313
484.763706	2569.173646
485.132489	2567.061403
485.501213	2567.094170
485.869879	2568.845971
486.238487	2568.823286
486.607036	2564.228274
486.975527	2568.112483
487.343959	2568.989644
487.712333	2567.638615
488.080648	2568.883780
488.448905	2569.314798
488.817104	2569.655076
489.185244	2570.149109
489.553326	2568.624160
489.921350	2569.813873
490.289315	2569.634912
490.657222	2571.747155
491.025070	2573.907290
491.392861	2570.459140
491.760593	2570.557443
492.128267	2572.079871
492.495883	2567.875549
492.863440	2572.866291
493.230939	2571.459809
493.598380	2572.775551
493.965763	2568.840930
494.333088	2568.364541
494.700354	2568.107442
495.067563	2571.051476
495.434713	2571.104408
495.801805	2570.743966
496.168839	2571.265725
496.535815	2571.157340
496.902733	2569.027453
497.269593	2571.169943
497.636395	2572.445355
498.003139	2571.369069
498.369825	2569.531568
498.736453	2569.161043
499.103023	2572.984758
499.469535	2571.938719
499.835989	2572.067268
500.202385	2568.737586
500.568723	2569.206414
500.935003	2566.587534
501.301226	2564.707184
501.667390	2571.512742
502.033497	2573.274625
502.399546	2571.482495
502.765537	2569.929819
503.131470	2572.200859
503.497345	2571.883266
503.863163	2574.113977
504.228923	2570.113821
504.594625	2571.802608
504.960269	2570.799418
505.325856	2570.983420
505.691385	2570.920406
506.056856	2572.442834
506.422270	2574.466858
506.787625	2574.539954
507.152924	2574.671024
507.518164	2571.812690
507.883347	2573.597259
508.248472	2573.773699
508.613540	2574.784450
508.978550	2575.656570
509.343503	2575.512897
509.708398	2575.432239
510.073236	2574.156827
510.438016	2575.197825
510.802738	2574.955850
511.167403	2578.323340
511.532010	2578.214956
511.896561	2577.652867
512.261053	2577.269739
512.625488	2577.703278
512.989866	2578.794688
513.354186	2579.026581
513.718449	2582.003383
514.082655	2578.867785
514.446803	2581.337950
514.810894	2576.926941
515.174927	2583.591346
515.538904	2583.286356
515.902822	2582.073959
516.266684	2580.778382
516.630488	2583.321644
516.994235	2583.029257
517.357925	2583.636717
517.721558	2587.742736
518.085133	2583.619072
518.448651	2583.593867
518.812112	2581.955492
519.175516	2584.707962
519.538863	2582.182344
519.902152	2587.185689
520.265385	2590.265834
520.628560	2591.105186
520.991678	2588.287181
521.354739	2590.535536
521.717743	2591.047213
522.080690	2591.609301
522.443580	2593.172059
522.806413	2594.228181
523.169189	2592.806575
523.531908	2596.262286
523.894569	2592.635176
524.257174	2598.553491
524.619722	2599.425610
524.982213	2597.688933
525.344647	2599.970055
525.707025	2600.358224
526.069345	2600.262442
526.431608	2602.588934
526.793815	2603.176229
527.155964	2603.392998
527.518057	2600.680858
527.880093	2604.958277
528.242072	2604.217227
528.603995	2608.252671
528.965860	2607.962804
529.327669	2604.519696
529.689421	2609.379369
530.051117	2609.432301
530.412755	2610.314503
530.774337	2611.514297
531.135862	2608.270315
531.497331	2614.337343
531.858743	2610.344750
532.220098	2612.507405
532.581396	2613.094699
532.942638	2612.187291
533.303824	2618.602160
533.664953	2614.786006
534.026025	2615.554782
534.387040	2618.004783
534.747999	2619.065946
535.108902	2621.626852
535.469748	2621.105092
535.830537	2622.405710
536.191270	2623.887809
536.551947	2619.010493
536.912567	2619.373456
537.273131	2623.986112
537.633638	2621.084928
537.994089	2625.440485
538.354483	2626.378139
538.714821	2629.271762
539.075103	2627.164559
539.435328	2626.768829
539.795497	2627.368726
540.155609	2629.503655
540.515665	2629.740589
540.875665	2631.086577
541.235609	2630.161525
541.595496	2631.222688
541.955328	2631.643625
542.315102	2634.474232
542.674821	2631.840230
543.034483	2633.844088
543.394090	2636.558750
543.753640	2635.069089
544.113134	2639.938843
544.472571	2635.371558
544.831953	2641.113432
545.191278	2635.689151
545.550548	2638.345839
545.909761	2638.905407
546.268918	2641.788947
546.628019	2641.615027
546.987064	2643.197949
547.346053	2641.718371
547.704986	2641.118473
548.063863	2642.971097
548.422684	2642.187198
548.781449	2644.894297
549.140158	2644.732981
549.498811	2644.962353
549.857408	2640.891621
550.215949	2647.445121
550.574434	2645.600059
550.932864	2649.829587
551.291237	2645.811787
551.649555	2649.849752
552.007817	2649.126346
552.366022	2651.412509
552.724173	2650.018630
553.082267	2652.120792
553.440305	2653.739002
553.798288	2653.910401
554.156215	2655.679846
554.514086	2649.995945
554.871902	2646.804895
555.229661	2651.838487
555.587365	2651.856131
555.945014	2655.362253
556.302606	2656.914929
556.660143	2655.326965
557.017625	2660.758809
557.375050	2659.085146
557.732421	2658.402069
558.089735	2660.484066
558.446994	2659.196051
558.804197	2663.554128
559.161345	2662.056906
559.518437	2660.917605
559.875474	2661.434323
560.232455	2664.370795
560.589381	2665.310971
560.946251	2665.343738
561.303065	2666.036897
561.659825	2670.531085
562.016528	2668.605365
562.373177	2667.645025
562.729770	2668.093687
563.086307	2672.613082
563.442789	2673.938905
563.799216	2674.027126
564.155587	2673.500325
564.511904	2673.996879
564.868164	2674.541323
565.224370	2680.021057
565.580520	2677.376972
565.936615	2680.505008
566.292654	2677.296314
566.648638	2682.120698
567.004567	2682.438291
567.360441	2686.745957
567.716260	2681.493074
568.072023	2690.070598
568.427732	2685.450380
568.783385	2688.585978
569.138982	2690.466328
569.494525	2691.580423
569.850013	2696.729962
570.205445	2692.873479
570.560823	2694.887420
570.916145	2699.457226
571.271412	2694.342976
571.626625	2700.979655
571.981782	2704.800849
572.336884	2701.975282
572.691931	2703.278421
573.046923	2700.634336
573.401860	2703.018801
573.756743	2710.910728
574.111570	2713.232179
574.466342	2715.765359
574.821059	2719.649568
575.175722	2716.609752
575.530330	2721.106461
575.884882	2725.157028
576.239380	2726.916391
576.593823	2728.821947
576.948211	2728.834550
577.302544	2730.107442
577.656823	2732.343193
578.011047	2737.792681
578.365216	2738.798391
578.719330	2743.612693
579.073389	2745.092271
579.427394	2754.388159
579.781344	2751.245000
580.135239	2755.872779
580.489080	2758.615167
580.842866	2756.555855
581.196597	2773.400871
581.550273	2767.215375
581.903895	2777.716098
582.257463	2783.707510
582.610975	2782.507715
582.964434	2791.654889
583.317837	2798.165539
583.671186	2803.181487
584.024481	2814.362766
584.377721	2812.956284
584.730906	2818.259578
585.084037	2820.288643
585.437113	2826.728717
585.790135	2836.153154
586.143103	2840.886797
586.496016	2840.153309
586.848874	2853.232583
587.201679	2856.456401
587.554428	2861.237935
587.907124	2873.823176
588.259765	2877.725029
588.612352	2895.268244
588.964884	2893.652555
589.317362	2902.156981
589.669786	2913.673497
590.022155	2920.453849
590.374470	2934.367434
590.726731	2938.942281
591.078937	2941.241047
591.431090	2955.366360
591.783188	2958.585137
592.135232	2967.046713
592.487222	2981.045998
592.839157	2989.689056
593.191038	3001.326560
593.542866	3001.228257
593.894639	3008.752179
594.246358	3028.629449
594.598022	3036.347455
594.949633	3044.345246
595.301190	3046.815411
595.652692	3064.918195
596.004141	3076.263312
596.355535	3077.480750
596.706876	3087.139601
597.058162	3099.112341
597.409395	3111.379989
597.760573	3127.771301
598.111698	3133.674492
598.462768	3147.688900
598.813785	3156.505878
599.164748	3162.061229
599.515657	3179.675021
599.866511	3186.377235
600.217312	3211.149465
600.568060	3207.781974
600.918753	3237.917992
601.269392	3254.248810
601.619978	3253.840476
601.970510	3288.082514
602.320988	3297.365799
602.671412	3325.979388
603.021783	3336.142354
603.372100	3343.875484
603.722363	3369.298023
604.072572	3386.122874
604.422728	3405.617016
604.772830	3418.076228
605.122878	3425.511929
605.472872	3451.632668
605.822813	3475.633602
606.172701	3489.222032
606.522534	3521.729912
606.872314	3542.333108
607.222041	3550.731670
607.571714	3586.067638
607.921333	3603.600771
608.270899	3630.943990
608.620411	3672.752799
608.969870	3667.144516
609.319276	3698.500492
609.668627	3739.084302
610.017926	3769.689147
610.367171	3800.641831
610.716362	3843.524406
611.065500	3850.887012
611.414585	3888.851941
611.763616	3910.385230
612.112594	3939.704581
612.461518	3954.891057
612.810389	4010.245446
613.159207	4016.378010
613.507971	4040.149571
613.856682	4110.647587
614.205340	4134.199858
614.553945	4195.666647
614.902496	4186.947971
615.250994	4256.289042
615.599439	4275.591620
615.947830	4309.508503
616.296169	4339.614274
616.644454	4382.874936
616.992686	4402.217843
617.340864	4474.694512
617.688990	4491.897449
618.037063	4562.655085
618.385082	4584.306841
618.733048	4651.654135
619.080961	4671.506199
619.428821	4724.700455
619.776628	4762.199077
620.124382	4776.276500
620.472083	4828.366742
620.819731	4869.832753
621.167326	4857.789437
621.514868	4883.786667
621.862357	4893.130446
622.209793	4921.222276
622.557176	4925.164458
622.904506	4923.742852
623.251783	4945.117345
623.599007	4957.016988
623.946179	4980.690247
624.293297	5001.069111
624.640363	5003.408207
624.987376	5027.212535
625.334336	5027.031054
625.681243	5040.722828
626.028097	5064.930448
626.374899	5118.598572
626.721647	5107.598774
627.068343	5119.632009
627.414987	5144.207634
627.761577	5196.018092
628.108115	5251.082616
628.454600	5217.695054
628.801032	5262.347074
629.147412	5289.155930
629.493739	5331.652857
629.840014	5345.700032
630.186236	5392.945726
630.532405	5386.399788
630.878521	5470.947500
631.224585	5485.372761
631.570597	5506.349002
631.916556	5530.644843
632.262462	5558.686262
632.608316	5601.687304
632.954117	5621.909893
633.299866	5667.088713
633.645562	5687.707033
633.991206	5657.671838
634.336797	5646.031814
634.682336	5693.237178
635.027823	5684.394995
635.373257	5712.128902
635.718639	5700.030133
636.063968	5719.403287
636.409245	5698.099371
636.754470	5732.253189
637.099642	5735.293004
637.444762	5695.266243
637.789829	5754.237661
638.134845	5744.586372
638.479808	5780.383605
638.824719	5805.097862
639.169577	5788.383916
639.514383	5836.451318
639.859137	5823.480429
640.203839	5881.483945
640.548489	5856.258012
640.893086	5909.847998
641.237632	5878.073605
641.582125	5977.225539
641.926566	5957.625533
642.270955	5990.025029
642.615292	6012.906826
642.959576	6051.912754
643.303809	6104.633141
643.647990	6102.641885
643.992118	6173.220560
644.336195	6112.842660
644.680219	6211.866045
645.024192	6245.414924
645.368112	6343.409913
645.711981	6413.595378
646.055797	6503.146435
646.399562	6541.345778
646.743274	6648.545915
647.086935	6809.015924
647.430544	6836.482651
647.774101	6872.438680
648.117606	6991.137689
648.461059	6984.858932
648.804460	7056.413069
649.147810	6990.033676
649.491108	6960.888245
649.834354	7026.932402
650.177548	6940.927797
650.520690	6905.057466
650.863781	6901.135449
651.206820	6955.685774
651.549807	6914.504589
651.892742	6884.832357
652.235626	6882.518467
652.578458	6917.194044
652.921238	6823.736093
653.263967	6937.502333
653.606644	6898.025057
653.949269	6905.448156
654.291843	6884.907974
654.634365	6959.799356
654.976836	6943.022396
655.319255	6977.909701
655.661622	6994.938719
656.003938	6995.150447
656.346203	6988.463357
656.688416	7047.427213
657.030577	7064.279790
657.372687	7066.996972
657.714746	7081.838129
658.056753	7183.039292
658.398708	7159.935684
658.740612	7182.255393
659.082465	7262.548371
659.424266	7253.837257
659.766016	7309.824312
660.107715	7308.274157
660.449362	7357.284254
660.790958	7384.725775
661.132503	7385.842391
661.473996	7433.756038
661.815438	7483.355950
662.156829	7511.505753
662.498168	7541.185547
662.839456	7560.301602
663.180693	7603.811801
663.521879	7688.548556
663.863013	7706.404323
664.204097	7735.877429
664.545129	7823.729617
664.886110	7821.670306
665.227040	7908.678100
665.567918	7937.740352
665.908746	7998.521544
666.249522	8001.422728
666.590248	8058.581851
666.930922	8150.446798
667.271545	8172.675766
667.612118	8251.221984
667.952639	8238.165395
668.293109	8260.550639
668.633528	8271.137062
668.973896	8280.647199
669.314213	8390.284733
669.654480	8251.327848
669.994695	8306.397412
670.334859	8365.298254
670.674973	8355.518416
671.015035	8416.236593
671.355047	8415.480420
671.695008	8411.243330
672.034918	8452.081718
672.374777	8495.559149
672.714585	8479.281263
673.054342	8529.188686
673.394049	8519.169393
673.733705	8592.064477
674.073310	8586.098272
674.412864	8623.876679
674.752368	8583.365967
675.091820	8587.764373
675.431223	8635.781364
675.770574	8585.581554
676.109875	8555.611894
676.449125	8565.474912
676.788324	8550.386738
677.127473	8481.885019
677.466571	8488.683015
677.805619	8468.485632
678.144616	8439.637629
678.483562	8456.568344
678.822458	8392.187769
679.161303	8398.637925
679.500098	8421.733971
679.838842	8413.882374
680.177535	8451.073487
680.516179	8501.747165
680.854771	8497.739448
681.193314	8673.867281
681.531805	8762.785673
681.870247	9049.034991
682.208638	9317.224376
682.546978	9561.992560
682.885268	9644.980034
683.223508	9458.472466
683.561697	9393.368484
683.899836	9348.161937
684.237925	9232.170028
684.575963	9207.163385
684.913951	9185.925003
685.251889	9139.155699
685.589776	9256.115509
685.927614	9218.216114
686.265401	9188.511115
686.603137	9246.665866
686.940824	9370.506852
687.278460	9453.441394
687.616046	9514.928347
687.953582	9647.215786
688.291068	9589.582795
688.628504	9758.015307
688.965889	9777.970714
689.303224	9796.363364
689.640510	9763.278271
689.977745	9572.962111
690.314930	9436.520761
690.652065	9419.562320
690.989150	9233.717663
691.326185	9091.322710
691.663170	8974.347777
692.000105	8821.469745
692.336990	8791.860528
692.673825	8606.227599
693.010610	8545.494298
693.347345	8411.374400
693.684030	8275.611086
694.020665	8261.379909
694.357251	8125.551059
694.693786	8124.845298
695.030272	7981.031261
695.366707	7921.492713
695.703093	7879.313379
696.039429	7892.604381
696.375716	7866.536575
696.711952	7754.396107
697.048139	7805.687327
697.384276	7776.796475
697.720363	7789.777446
698.056400	7761.178980
698.392388	7740.016216
698.728326	7715.017134
699.064214	7674.839138
699.400053	7742.635096
699.735842	7598.357273
700.071581	7586.316477
700.407270	7542.314765
700.742910	7491.613360
701.078501	7441.874816
701.414042	7355.663523
701.749533	7311.936555
702.084974	7213.059363
702.420366	7306.623179
702.755709	7241.191522
703.091002	7148.010835
703.426246	7175.170051
703.761440	7149.109806
704.096584	7118.232739
704.431679	7078.689928
704.766725	7084.240239
705.101721	7046.159362
705.436668	7092.031342
705.771565	7014.800865
706.106413	7086.087822
706.441212	7145.008828
706.775961	7106.678414
707.110661	7134.838300
707.445311	7276.124198
707.779913	7194.739810
708.114465	7317.242369
708.448967	7351.486928
708.783421	7459.423073
709.117825	7622.592620
709.452180	7663.534351
709.786485	7735.438848
710.120742	7963.467881
710.454949	7964.773540
710.789107	8040.978142
711.123216	8209.599697
711.457275	8344.470727
711.791286	8496.443871
712.125247	8475.555850
712.459159	8481.509453
712.793023	8713.384886
713.126837	8360.100824
713.460602	8500.002926
713.794318	8357.713838
714.127985	8417.585102
714.461602	8184.340996
714.795171	8145.516549
715.128691	7965.060886
715.462162	7754.484328
715.795584	7733.581183
716.128957	7630.207283
716.462281	7480.792524
716.795556	7548.346506
717.128782	7384.612349
717.461960	7146.377501
717.795088	7218.897020
718.128167	7147.000083
718.461198	7013.225504
718.794180	6968.137424
719.127113	6971.883002
719.459997	6857.894952
719.792833	6648.233363
720.125619	6708.485234
720.458357	6589.405618
720.791046	6581.193579
721.123686	6601.353153
721.456278	6462.774354
721.788821	6478.628783
722.121315	6383.093877
722.453761	6445.463032
722.786158	6410.363998
723.118506	6425.472336
723.450805	6405.123719
723.783056	6464.873995
724.115259	6368.361104
724.447412	6369.704572
724.779518	6421.315905
725.111574	6424.496873
725.443582	6503.534604
725.775542	6476.324976
726.107453	6658.691237
726.439315	6578.214257
726.771129	6620.575073
727.102895	6769.899091
727.434612	6876.932869
727.766281	6892.615899
728.097901	6980.594116
728.429473	6961.941846
728.760996	6944.872499
729.092471	6936.428567
729.423897	6904.800367
729.755276	6927.417504
730.086606	6879.211471
730.417887	6967.144317
730.749120	7119.041844
731.080305	7303.442211
731.411442	7438.973632
731.742530	7437.829290
732.073570	7542.445835
732.404562	7631.885987
732.735506	7476.593243
733.066401	7621.241590
733.397249	7574.270639
733.728048	7373.972994
734.058798	7075.443425
734.389501	6886.574076
734.720156	6732.450879
735.050762	6506.980232
735.381320	6411.803248
735.711831	6382.181428
736.042293	6276.750736
736.372707	6304.088913
736.703073	6175.156363
737.033391	6212.468463
737.363661	6223.521193
737.693883	6234.636937
738.024056	6318.869577
738.354182	6365.286001
738.684260	6399.666670
739.014290	6492.653273
739.344272	6594.572801
739.674207	6616.496779
740.004093	6674.565830
740.333931	6704.137239
740.663722	6709.574123
740.993464	6783.162366
741.323159	6794.167205
741.652806	6556.517131
741.982405	6548.978085
742.311956	6628.439273
742.641460	6501.122412
742.970915	6308.091590
743.300323	6313.435213
743.629683	6262.317913
743.958996	6140.911805
744.288260	6063.250309
744.617477	6006.837277
744.946647	6031.629672
745.275768	5876.329366
745.604842	5831.574002
745.933869	5812.790663
746.262847	5770.659219
746.591778	5763.979690
746.920662	5730.103137
747.249498	5712.854829
747.578286	5763.818373
747.907027	5841.777297
748.235720	5893.930554
748.564365	5865.105237
748.892963	5881.466301
749.221514	6039.572009
749.550017	5901.250310
749.878473	5769.199805
750.206881	5820.647301
750.535242	5764.975318
750.863555	5708.526998
751.191821	5727.819494
751.520039	5731.638168
751.848210	5645.719262
752.176334	5657.157640
752.504411	5715.156115
752.832440	5644.461494
753.160421	5566.026182
753.488356	5615.162308
753.816243	5661.530841
754.144082	5514.475342
754.471875	5472.074197
754.799620	5527.146283
755.127318	5536.474938
755.454969	5484.787987
755.782572	5454.735149
756.110129	5497.605121
756.437638	5499.477910
756.765100	5438.351399
757.092515	5425.556950
757.419882	5467.048167
757.747203	5456.179439
758.074477	5518.563718
758.401703	5516.085991
758.728882	5460.315706
759.056014	5500.982694
759.383099	5643.102903
759.710138	5647.153471
760.037129	5629.746366
760.364073	5635.563858
760.690970	5718.158122
761.017820	5713.719387
761.344623	5657.666797
761.671379	5746.799438
761.998088	5859.829669
762.324751	6078.351085
762.651366	6625.795187
762.977935	7842.044129
763.304456	9387.729954
763.630931	10304.909923
763.957359	9995.599846
764.283740	9109.717881
764.610074	8345.065583
764.936362	7389.129223
765.262602	6796.657535
765.588796	6275.119923
765.914943	5932.719713
766.241044	5783.143637
766.567097	5601.866265
766.893104	5353.082802
767.219064	5171.606305
767.544978	5111.470381
767.870845	5042.368764
768.196665	4935.665181
768.522438	4860.839335
768.848165	4834.857228
769.173846	4778.270276
769.499479	4736.446343
769.825066	4681.054145
770.150607	4619.751193
770.476101	4597.146659
770.801548	4597.643213
771.126949	4530.661402
771.452303	4479.062672
771.777611	4433.714972
772.102872	4447.247950
772.428087	4412.776540
772.753256	4377.947208
773.078378	4338.679140
773.403453	4269.358233
773.728482	4254.665791
774.053465	4208.521589
774.378401	4192.677242
774.703291	4199.858366
775.028135	4137.141371
775.352932	4084.932661
775.677683	4071.608892
776.002388	4092.350719
776.327046	4108.721866
776.651658	4031.130947
776.976224	3969.860763
777.300743	3972.610712
777.625216	3993.246676
777.949643	3992.377077
778.274024	3953.482054
778.598359	3899.977768
778.922647	3919.350922
779.246889	3916.827824
779.571086	3916.376641
779.895236	3902.934404
780.219339	3885.492012
780.543397	3872.924416
780.867409	3924.407199
781.191374	3941.133748
781.515294	3889.582908
781.839167	3877.504304
782.162995	3897.762181
782.486776	3879.339284
782.810511	3886.515366
783.134201	3892.194226
783.457844	3855.570243
783.781441	3795.497334
784.104993	3800.162922
784.428498	3813.753872
784.751958	3816.793688
785.075372	3795.875420
785.398739	3757.905449
785.722061	3766.974485
786.045337	3805.073005
786.368568	3847.060776
786.691752	3761.159514
787.014891	3803.820279
787.337983	3917.087444
787.661030	4071.056885
787.984031	4226.032037
788.306987	4396.932193
788.629897	4475.543946
788.952760	4439.139254
789.275579	4370.284654
789.598351	4312.873473
789.921078	4188.621634
790.243759	3989.793485
790.566395	3960.295173
790.888984	3956.978094
791.211529	3857.415306
791.534027	3793.432981
791.856480	3794.983136
792.178888	3733.591964
792.501249	3677.705733
792.823566	3685.711085
793.145836	3722.955130
793.468062	3673.950073
793.790241	3623.508288
794.112375	3650.715395
794.434464	3712.467009
794.756507	3737.317377
795.078505	3723.078638
795.400457	3745.741145
795.722364	3879.525807
796.044226	3979.469202
796.366042	4053.516190
796.687812	4042.891959
797.009538	4048.406981
797.331218	4002.797142
797.652852	3974.803614
797.974442	3956.063125
798.295986	3960.322900
798.617484	3885.393710
798.938938	3796.671923
799.260346	3833.961338
799.581709	3830.750122
799.903026	3767.768467
800.224299	3725.079976
800.545526	3718.380283
800.866708	3682.759490
801.187845	3621.832104
801.508936	3655.726302
801.829983	3662.615039
802.150984	3577.976586
802.471940	3569.149526
802.792851	3582.755600
803.113717	3579.665373
803.434538	3583.199222
803.755314	3530.226777
804.076045	3500.824247
804.396731	3516.245137
804.717372	3546.197153
805.037967	3532.885986
805.358518	3523.905170
805.679024	3544.299158
805.999485	3554.068914
806.319901	3558.621076
806.640272	3579.524221
806.960598	3593.825974
807.280879	3568.196748
807.601115	3574.815783
807.921306	3591.464193
808.241453	3629.272847
808.561554	3612.321967
808.881611	3548.473233
809.201623	3576.055907
809.521590	3593.883947
809.841513	3565.368661
810.161390	3589.795572
810.481223	3577.621185
810.801011	3522.067670
811.120755	3506.971934
811.440453	3543.101884
811.760107	3551.830642
812.079716	3516.613141
812.399281	3477.894559
812.718801	3499.475739
813.038276	3473.042448
813.357707	3468.155050
813.677093	3487.502998
813.996434	3441.215124
814.315731	3442.566153
814.634983	3447.146041
814.954191	3461.883854
815.273354	3489.277484
815.592473	3489.078359
815.911547	3492.123216
816.230577	3524.384080
816.549562	3576.902821
816.868502	3619.475365
817.187399	3645.356649
817.506250	3638.553612
817.825058	3609.070423
818.143821	3694.664174
818.462539	3795.628404
818.781213	3843.269828
819.099843	3894.193044
819.418429	4115.240078
819.736970	4347.302034
820.055466	4579.212755
820.373919	4929.981280
820.692327	5329.921221
821.010691	5715.088060
821.329011	6965.765562
821.647286	9490.151076
821.965517	13763.509465
822.283704	17677.874686
822.601847	19984.676439
822.919945	18335.329368
823.237999	15925.604897
823.556010	13541.348336
823.873976	11542.334231
824.191897	9515.555971
824.509775	8172.832041
824.827609	7066.785243
825.145398	6509.989801
825.463144	6397.206587
825.780845	6511.479462
826.098502	6670.580798
826.416116	7438.744259
826.733685	8696.370992
827.051210	9813.223503
827.368692	9950.481519
827.686129	8793.322463
828.003522	7311.434960
828.320872	6314.947559
828.638177	5635.896574
828.955439	5105.300008
829.272656	4617.757417
829.589830	4329.153880
829.906960	4160.507119
830.224046	3981.815859
830.541088	3857.306921
830.858086	3810.194818
831.175041	3745.073192
831.491952	3721.349522
831.808819	3726.816654
832.125642	3792.031540
832.442421	3925.203702
832.759157	4179.018236
833.075849	4686.654867
833.392497	5504.662737
833.709101	6250.667806
834.025662	6619.168591
834.342179	6320.636501
834.658653	5678.627915
834.975083	5056.710847
835.291469	4500.369108
835.607811	4087.745625
835.924110	3954.981797
836.240366	3765.903240
836.556578	3562.089390
836.872746	3450.155610
837.188871	3419.525559
837.504952	3359.087166
837.820990	3278.753859
838.136984	3227.845767
838.452935	3251.824015
838.768842	3249.343767
839.084706	3268.492590
839.400526	3410.194383
839.716303	3714.186043
840.032037	4203.747616
840.347727	4492.419209
840.663373	4253.612189
840.978977	3890.109709
841.294537	3592.268257
841.610054	3364.360213
841.925527	3258.322062
842.240957	3191.148687
842.556344	3139.428969
842.871687	3083.860330
843.186987	3034.653628
843.502244	3000.877897
843.817458	2966.401446
844.132629	2929.560693
844.447756	2942.138372
844.762840	2931.584717
845.077881	2899.636404
845.392879	2883.144269
845.707833	2875.625388
846.022745	2874.874257
846.337613	2877.145296
846.652438	2867.657845
846.967221	2863.471167
847.281960	2851.911801
847.596656	2845.144052
847.911309	2846.883250
848.225919	2837.718432
848.540485	2834.330777
848.855009	2834.852536
849.169490	2826.242245
849.483928	2816.427119
849.798323	2815.300421
850.112675	2810.561736
850.426984	2818.287305
850.741251	2821.750577
851.055474	2811.471665
851.369654	2805.896148
851.683792	2808.383958
851.997887	2817.354691
852.311938	2818.778817
852.625947	2807.743731
852.939914	2811.673311
853.253837	2817.657160
853.567718	2804.829944
853.881555	2796.454067
854.195350	2811.907724
854.509103	2811.174237
854.822812	2803.972948
855.136479	2804.653504
855.450103	2803.088226
855.763685	2795.347534
856.077224	2789.792182
856.390720	2803.463792
856.704173	2816.616162
857.017584	2810.113074
857.330953	2805.417239
857.644278	2812.255564
857.957561	2819.645896
858.270802	2823.071360
858.584000	2825.584375
858.897155	2813.825883
859.210268	2812.815132
859.523339	2810.639874
859.836367	2808.900676
860.149352	2802.223668
860.462295	2796.706125
860.775195	2808.885553
861.088054	2806.438072
861.400869	2792.297636
861.713642	2788.647841
862.026373	2801.374233
862.339062	2801.832978
862.651708	2810.508804
862.964312	2811.648105
863.276873	2806.685089
863.589392	2815.711275
863.901869	2824.724858
864.214303	2844.261850
864.526696	2861.414376
864.839045	2858.359437
865.151353	2857.512523
865.463619	2852.052953
865.775842	2853.371215
866.088023	2876.338712
866.400162	2879.655791
866.712258	2856.584950
867.024313	2843.856037
867.336325	2851.402644
867.648296	2873.533310
867.960224	2863.390508
868.272110	2851.153107
868.583954	2855.811133
868.895755	2871.842002
869.207515	2859.707945
869.519233	2857.066381
869.830909	2869.747403
870.142542	2880.250647
870.454134	2879.128990
870.765684	2879.935575
871.077191	2882.763662
871.388657	2884.734753
871.700081	2901.037845
872.011463	2911.576377
872.322803	2912.486305
872.634101	2911.233579
872.945357	2928.025662
873.256571	2950.231945
873.567744	2945.800771
873.878874	2938.849019
874.189963	2959.653861
874.501010	2964.460602
874.812015	2951.661112
875.122979	2952.999538
875.433900	2948.316306
875.744780	2954.395938
876.055618	2961.632514
876.366415	2957.256793
876.677169	2972.196252
876.987882	2968.034780
877.298554	2957.975157
877.609183	2976.987869
877.919771	2997.422186
878.230317	3023.820188
878.540822	3072.013619
878.851285	3111.170781
879.161707	3146.844507
879.472087	3237.184504
879.782425	3436.201696
880.092722	3837.258252
880.402977	4333.264941
880.713191	4917.055762
881.023363	5977.286033
881.333494	7204.970832
881.643583	7777.353522
881.953631	7507.553489
882.263637	6943.400483
882.573602	6402.600621
882.883526	5846.243759
883.193408	5293.844203
883.503248	4839.734544
883.813048	4551.451120
884.122806	4277.512300
884.432522	3978.138337
884.742197	3750.777258
885.051831	3563.715162
885.361424	3430.308587
885.670975	3366.094370
885.980485	3284.523459
886.289954	3211.585525
886.599382	3172.204031
886.908768	3131.078298
887.218113	3090.774273
887.527417	3038.762168
887.836680	2989.346258
888.145901	2983.009527
888.455082	2978.961481
888.764221	2930.347113
889.073319	2901.007598
889.382376	2898.849984
889.691392	2902.991292
890.000366	2901.068092
890.309300	2888.654251
890.618193	2899.936353
890.927044	2918.621390
891.235855	2917.197264
891.544625	2902.376271
891.853353	2911.407498
892.162041	2927.854263
892.470687	2966.822382
892.779293	3017.269209
893.087858	3057.890826
893.396381	3123.940024
893.704864	3229.436251
894.013306	3449.505301
894.321707	3734.590113
894.630068	3943.382102
894.938387	3942.268007
895.246665	3894.243455
895.554903	3789.810912
895.863100	3602.935339
896.171256	3445.308541
896.479371	3313.139569
896.787446	3198.284440
897.095480	3099.737444
897.403473	3034.260418
897.711425	2997.550735
898.019336	2995.342710
898.327207	2965.463791
898.635038	2934.022115
898.942827	2917.134249
899.250576	2908.362642
899.558284	2877.175543
899.865952	2862.160467
900.173579	2840.644822
900.481165	2835.699450
900.788711	2825.518840
901.096216	2801.606127
901.403681	2789.237656
901.711105	2794.840898
902.018489	2792.436268
902.325832	2790.896195
902.633135	2800.701239
902.940397	2828.808193
903.247619	2899.580952
903.554800	3070.740728
903.861941	3382.256309
904.169041	3781.770272
904.476101	4083.803443
904.783121	4064.614291
905.090100	3837.275896
905.397039	3582.677462
905.703938	3338.075637
906.010796	3166.353772
906.317614	3058.475600
906.624391	2970.202476
906.931129	2902.323339
907.237826	2843.556088
907.544483	2798.205868
907.851099	2769.685540
908.157675	2748.923548
908.464211	2731.380333
908.770707	2720.453632
909.077163	2707.956612
909.383578	2694.877338
909.689954	2682.024916
909.996289	2682.753363
910.302584	2683.098682
910.608839	2681.309072
910.915054	2680.620955
911.221229	2671.733401
911.527363	2671.183915
911.833458	2676.023422
912.139513	2681.107426
912.445527	2686.987932
912.751502	2693.246525
913.057436	2701.264480
913.363331	2716.748384
913.669186	2731.670199
913.975000	2761.483583
914.280775	2816.948878
914.586510	2883.928169
914.892205	2954.176648
915.197859	3070.622260
915.503475	3247.198756
915.809050	3441.789815
916.114585	3581.936413
916.420081	3612.022019
916.725536	3559.551169
917.030952	3452.421609
917.336328	3333.619257
917.641665	3210.453786
917.946961	3113.645988
918.252218	3049.623334
918.557435	2976.120790
918.862612	2920.731113
919.167750	2875.927858
919.472848	2837.032835
919.777906	2813.309165
920.082925	2789.086421
920.387904	2761.029879
920.692843	2745.359452
920.997743	2736.885273
921.302603	2721.613097
921.607423	2712.312168
921.912204	2703.311188
922.216946	2694.431196
922.521647	2682.849145
922.826310	2676.217507
923.130932	2669.679130
923.435516	2660.952893
923.740059	2653.907881
924.044564	2650.351347
924.349028	2644.183495
924.653454	2637.849285
924.957840	2628.450054
925.262186	2622.882099
925.566493	2621.682305
925.870761	2619.083590
926.174989	2615.292642
926.479178	2611.957919
926.783328	2602.714963
927.087438	2600.764037
927.391509	2604.819645
927.695541	2600.247318
927.999533	2597.192379
928.303486	2593.681216
928.607400	2595.422934
928.911275	2589.459249
929.215110	2593.872779
929.518906	2592.758684
929.822663	2590.578385
930.126381	2590.470001
930.430060	2590.727099
930.733699	2590.603591
931.037299	2592.491503
931.340861	2592.415886
931.644383	2592.688108
931.947866	2593.308170
932.251309	2589.035792
932.554714	2588.597212
932.858080	2588.423292
933.161407	2586.268199
933.464694	2586.928590
933.767943	2582.734350
934.071153	2584.912128
934.374323	2583.775348
934.677455	2586.507654
934.980548	2583.215780
935.283602	2584.594536
935.586617	2582.048753
935.889593	2583.354412
936.192530	2582.751994
936.495428	2583.006572
936.798287	2585.925400
937.101108	2590.250710
937.403890	2592.509147
937.706632	2593.461925
938.009336	2599.864191
938.312002	2611.910028
938.614628	2618.733230
938.917216	2623.766822
939.219765	2626.715897
939.522275	2627.177162
939.824747	2622.645165
940.127179	2620.583333
940.429573	2617.858589
940.731929	2614.034874
941.034246	2611.254678
941.336524	2609.535644
941.638763	2607.327619
941.940964	2606.047166
942.243126	2601.283276
942.545250	2602.901486
942.847335	2599.685230
943.149381	2597.126844
943.451389	2591.853797
943.753359	2587.974629
944.055290	2588.924887
944.357182	2588.824064
944.659036	2589.151739
944.960851	2584.904567
945.262628	2584.302149
945.564367	2583.467838
945.866067	2585.038157
946.167729	2586.701738
946.469352	2585.388517
946.770937	2587.601584
947.072484	2584.365163
947.373992	2584.690318
947.675462	2582.631006
947.976893	2580.889288
948.278286	2578.088927
948.579641	2577.587332
948.880958	2575.565829
949.182236	2577.678073
949.483476	2575.802763
949.784678	2576.858885
950.085841	2575.165058
950.386967	2579.240830
950.688054	2578.772003
950.989103	2578.958526
951.290114	2581.174113
951.591087	2583.251068
951.892021	2583.702252
952.192917	2581.879874
952.493776	2588.675350
952.794596	2588.330031
953.095378	2589.257603
953.396122	2589.668457
953.696828	2588.393045
953.997496	2589.118971
954.298126	2584.236614
954.598718	2582.928434
954.899272	2579.964236
955.199788	2575.457444
955.500266	2574.270253
955.800706	2575.568350
956.101108	2572.158009
956.401472	2568.908986
956.701798	2568.561146
957.002087	2568.548543
957.302337	2565.969993
957.602550	2565.042421
957.902724	2560.570917
958.202861	2562.103428
958.502960	2561.415310
958.803022	2558.748540
959.103045	2560.452450
959.403031	2560.185269
959.702979	2555.691080
960.002889	2557.468087
960.302762	2557.662171
960.602596	2556.467418
960.902393	2555.998591
961.202153	2554.221584
961.501875	2555.370967
961.801559	2554.158569
962.101205	2555.660833
962.400814	2555.033210
962.700385	2554.713096
962.999918	2553.790565
963.299414	2550.869217
963.598873	2550.077755
963.898293	2547.083310
964.197677	2553.767880
964.497022	2551.118754
964.796331	2553.535987
965.095601	2554.370298
965.394835	2554.546738
965.694030	2554.919784
965.993189	2550.349978
966.292309	2551.602704
966.591393	2551.514484
966.890439	2555.716286
967.189447	2553.914073
967.488419	2548.638506
967.787353	2550.942313
968.086249	2552.318548
968.385108	2551.499361
968.683930	2554.012376
968.982714	2553.409958
969.281462	2550.027344
969.580172	2555.149156
969.878844	2551.212015
970.177480	2554.113199
970.476078	2552.308466
970.774639	2551.761501
971.073162	2552.187478
971.371649	2552.643703
971.670098	2553.563713
971.968510	2552.573127
972.266885	2552.363919
972.565223	2552.888199
972.863524	2550.879299
973.161788	2553.664536
973.460014	2555.035730
973.758204	2552.641182
974.056356	2553.165462
974.354471	2553.959444
974.652550	2556.018755
974.950591	2553.034392
975.248595	2552.603373
975.546563	2555.877603
975.844493	2552.416851
976.142386	2553.442726
976.440243	2551.766542
976.738062	2554.985319
977.035845	2553.407438
977.333590	2554.251831
977.631299	2551.010369
977.928971	2549.682025
978.226606	2548.305790
978.524204	2547.342929
978.821765	2547.277394
979.119290	2549.961809
979.416777	2553.636810
979.714228	2549.482899
980.011642	2549.724875
980.309020	2549.344268
980.606360	2548.938455
980.903664	2550.801161
981.200931	2550.949875
981.498162	2552.537838
981.795356	2555.552448
982.092513	2554.519012
982.389633	2553.982129
982.686717	2558.715772
982.983764	2562.804148
983.280775	2567.925961
983.577749	2569.042576
983.874686	2566.738769
984.171587	2567.179870
984.468451	2562.630228
984.765279	2561.962276
985.062070	2559.219888
985.358824	2556.389280
985.655543	2557.929353
985.952224	2553.684701
986.248869	2552.878116
986.545478	2552.966337
986.842050	2551.900133
987.138586	2550.324772
987.435086	2551.466593
987.731549	2548.320913
988.027975	2550.506253
988.324366	2550.095399
988.620719	2549.457693
988.917037	2548.905687
989.213318	2547.468958
989.509563	2548.320913
989.805772	2550.344937
990.101944	2547.761345
990.398080	2546.672456
990.694180	2550.259237
990.990244	2549.230842
991.286271	2548.028526
991.582262	2546.785882
991.878217	2550.153373
992.174136	2549.981973
992.470019	2551.010369
992.765865	2544.696324
993.061676	2544.807229
993.357450	2549.054401
993.653188	2543.158772
993.948890	2551.179247
994.244556	2552.552962
994.540186	2550.304607
994.835780	2548.494833
995.131337	2550.614638
995.426859	2548.114226
995.722345	2550.657488
996.017795	2552.500030
996.313208	2553.220915
996.608586	2554.811399
996.903928	2552.028682
997.199234	2556.091852
997.494504	2553.815771
997.789738	2553.208312
998.084936	2551.761501
998.380099	2550.612118
998.675225	2550.488609
998.970316	2551.327962
999.265371	2552.595812
999.560390	2549.989535
999.855373	2553.556152
1000.150320	2548.641027
1000.445232	2546.332178
1000.740108	2547.884853
1001.034948	2548.860317
1001.329752	2549.339226
1001.624521	2547.544576
1001.919254	2547.826880
1002.213951	2547.975594
1002.508613	2548.464586
1002.803239	2547.496685
1003.097829	2547.955430
1003.392384	2546.692621
1003.686903	2547.791592
1003.981386	2548.966181
1004.275834	2548.580533
1004.570246	2547.032898
1004.864623	2548.199926
1005.158964	2547.534493
1005.453270	2548.252858
1005.747540	2548.502395
1006.041775	2547.360573
1006.335974	2546.639688
1006.630138	2547.232024
1006.924266	2547.635316
1007.218359	2549.533311
1007.512416	2547.090872
1007.806438	2540.991076
1008.100425	2546.344781
1008.394376	2540.796991
1008.688292	2546.732950
1008.982172	2545.588608
1009.276017	2546.995090
1009.569827	2545.812939
1009.863602	2545.386962
1010.157341	2545.916283
1010.451045	2548.401572
1010.744714	2549.243444
1011.038347	2547.292518
1011.331945	2547.688248
1011.625508	2549.339226
1011.919036	2548.499874
1012.212528	2546.488454
1012.505986	2545.996941
1012.799408	2547.859648
1013.092795	2547.884853
1013.386147	2547.761345
1013.679464	2547.829401
1013.972745	2546.735470
1014.265992	2546.639688
1014.559204	2547.509287
1014.852380	2546.047353
1015.145521	2545.651622
1015.438628	2545.848227
1015.731699	2548.008362
1016.024736	2545.760007
1016.317737	2548.817467
1016.610703	2548.424257
1016.903635	2545.422250
1017.196531	2550.143290
1017.489393	2544.204811
1017.782219	2546.168341
1018.075011	2547.416026
1018.367768	2544.479554
1018.660490	2547.985677
1018.953177	2547.985677
1019.245829	2547.985677
