Dividing Wavelength (nm)	Counts (n)	Blue Motor Position (mm): 36.500000	Red Motor Position (mm): 0.000000	
326.493990	2236.379354
326.888308	2236.379354
327.282561	2236.379354
327.676750	2195.966945
328.070874	2193.814372
328.464933	2192.959896
328.858929	2197.118848
329.252859	2203.485826
329.646726	2210.424974
330.040528	2221.465101
330.434265	2236.288614
330.827938	2252.889133
331.221547	2271.677514
331.615091	2289.568569
332.008571	2306.895014
332.401986	2325.590133
332.795338	2344.837259
333.188625	2364.908613
333.581847	2382.761859
333.975006	2400.695764
334.368100	2423.713672
334.761129	2441.400561
335.154095	2456.922273
335.546996	2483.708444
335.939833	2520.745802
336.332606	2536.060827
336.725315	2549.069525
337.117960	2563.787173
337.510540	2574.464337
337.903056	2584.445822
338.295508	2593.101483
338.687896	2603.677824
339.080220	2610.869030
339.472480	2616.542848
339.864676	2623.252624
340.256807	2630.227060
340.648875	2631.951135
341.040879	2634.146557
341.432818	2635.432052
341.824694	2639.432207
342.216506	2641.494039
342.608253	2642.131745
342.999937	2640.692496
343.391557	2640.853813
343.783113	2643.276087
344.174605	2642.391365
344.566033	2639.591004
344.957397	2636.672176
345.348697	2637.473719
345.739934	2636.659573
346.131106	2635.747124
346.522215	2632.467853
346.913260	2630.348048
347.304241	2627.766977
347.695159	2625.526184
348.086012	2626.617594
348.476802	2622.851852
348.867528	2618.758435
349.258191	2614.934720
349.648789	2615.103599
350.039324	2611.557147
350.429796	2615.325410
350.820203	2612.993876
351.210548	2614.856582
351.600828	2614.473455
351.991045	2610.465737
352.381198	2609.250819
352.771288	2609.865840
353.161314	2608.300562
353.551276	2607.441045
353.941175	2606.899121
354.331010	2606.127824
354.720782	2607.352825
355.110490	2605.772423
355.500135	2603.282093
355.889717	2604.718822
356.279235	2605.595983
356.668689	2607.622527
357.058080	2607.778802
357.447408	2606.924327
357.836672	2607.751076
358.225873	2608.434152
358.615010	2607.867023
359.004084	2608.804677
359.393095	2612.963629
359.782043	2613.886160
360.170927	2611.852055
360.559748	2610.170830
360.948505	2612.633433
361.337199	2613.878598
361.725830	2616.063939
362.114398	2614.266767
362.502903	2614.269288
362.891344	2613.666870
363.279722	2613.492950
363.668037	2616.946141
364.056289	2616.799947
364.444478	2618.166100
364.832603	2615.043105
365.220665	2616.318517
365.608665	2616.177365
365.996601	2619.723816
366.384474	2620.732047
366.772284	2621.127778
367.160031	2617.331789
367.547715	2620.981584
367.935336	2619.718775
368.322893	2619.398662
368.710388	2621.417644
369.097820	2619.302880
369.485189	2619.229783
369.872495	2623.456791
370.259738	2625.190948
370.646918	2623.976030
371.034035	2624.018879
371.421090	2624.250772
371.808081	2624.497789
372.195010	2624.470063
372.581875	2625.470732
372.968678	2624.520474
373.355418	2626.363016
373.742096	2628.566000
374.128710	2626.841926
374.515262	2628.651700
374.901751	2627.214971
375.288177	2627.131792
375.674540	2627.532564
376.060841	2629.906947
376.447079	2632.190590
376.833254	2631.492390
377.219367	2629.715383
377.605417	2631.580610
377.991404	2630.093470
378.377329	2630.900054
378.763191	2633.408028
379.148991	2632.155302
379.534727	2631.762092
379.920402	2633.375261
380.306013	2633.834006
380.691563	2635.280817
381.077049	2634.138996
381.462474	2635.931126
381.847835	2634.948101
382.233134	2636.725108
382.618371	2635.830303
383.003545	2638.348359
383.388657	2636.231075
383.773706	2640.185860
384.158693	2638.242495
384.543618	2640.586632
384.928480	2640.921868
385.313280	2641.184008
385.698017	2639.689306
386.082692	2644.352373
386.467305	2645.146355
386.851856	2646.036119
387.236344	2643.855820
387.620770	2640.879018
388.005133	2644.155768
388.389435	2644.279277
388.773674	2643.132414
389.157851	2648.108033
389.541965	2647.747591
389.926018	2649.302787
390.310008	2646.651140
390.693936	2650.623569
391.077802	2653.476862
391.461606	2650.590801
391.845348	2653.285298
392.229027	2652.387973
392.612645	2651.964516
392.996200	2654.822850
393.379694	2655.866369
393.763125	2656.640186
394.146494	2655.145484
394.529801	2657.260248
394.913047	2658.528098
395.296230	2659.183448
395.679351	2659.175886
396.062410	2660.708397
396.445408	2661.900630
396.828343	2662.142605
397.211217	2666.210817
397.594028	2668.660817
397.976778	2671.932526
398.359466	2677.618948
398.742092	2678.753207
399.124656	2687.860052
399.507158	2692.571010
399.889598	2703.215406
400.271977	2717.393652
400.654294	2733.318657
401.036549	2748.666449
401.418742	2768.006836
401.800874	2799.458595
402.182944	2832.445385
402.564952	2874.818804
402.946898	2917.842531
403.328783	2945.936882
403.710606	2991.667709
404.092367	3080.921338
404.474067	3143.267808
404.855705	3190.495858
405.237282	3243.380082
405.618797	3349.995445
406.000250	3423.492947
406.381642	3538.900082
406.762972	3619.513173
407.144240	3706.437789
407.525447	3786.110705
407.906593	3872.901730
408.287677	4013.562526
408.668700	4066.494641
409.049661	4195.696893
409.430560	4289.724495
409.811399	4312.409687
410.192176	4521.733518
410.572891	4607.972537
410.953545	4806.674657
411.334138	4762.546917
411.714669	4936.691056
412.095139	4912.150719
412.475547	5128.685921
412.855894	5254.495477
413.236180	5455.733297
413.616405	5343.620556
413.996568	5561.779010
414.376670	5659.426160
414.756711	5667.328168
415.136691	5808.712369
415.516609	6032.486668
415.896466	6111.292505
416.276262	6322.912582
416.655997	6382.874586
417.035670	6599.591270
417.415283	6932.670387
417.794834	7033.984976
418.174324	6991.911506
418.553753	6988.657441
418.933121	7322.664130
419.312428	7462.783002
419.691674	7324.189079
420.070859	7805.833521
420.449983	7562.320584
420.829045	7941.218748
421.208047	7782.739995
421.586988	8093.234743
421.965867	8148.132908
422.344686	8294.739744
422.723444	8340.246240
423.102141	7782.971888
423.480777	8527.210033
423.859352	8084.069925
424.237866	8707.978248
424.616319	8602.030839
424.994712	9013.540227
425.373044	8619.367367
425.751314	9065.103669
426.129524	8943.914331
426.507673	9093.659285
426.885762	9256.138194
427.263789	9177.428139
427.641756	9099.391077
428.019662	9214.304179
428.397508	9447.011402
428.775292	9155.133636
429.153016	9530.934011
429.530679	9372.074650
429.908282	9422.350078
430.285824	9147.990321
430.663305	9820.137445
431.040726	9278.828428
431.418086	9274.170402
431.795385	9593.550183
432.172624	9673.737297
432.549802	9596.990770
432.926920	9678.319705
433.303977	9563.499865
433.680974	9768.503427
434.057910	9852.010141
434.434786	9910.512731
434.811601	9761.211398
435.188355	10332.853038
435.565050	10054.392303
435.941683	9987.952416
436.318257	10482.824845
436.694770	10600.954203
437.071222	10669.332414
437.447614	10520.913283
437.823946	10417.972921
438.200218	10558.011134
438.576429	10376.920285
438.952580	10606.456622
439.328670	10676.367344
439.704700	10445.563156
440.080670	10439.475963
440.456580	11010.328663
440.832429	10754.515311
441.208218	10350.429021
441.583947	10691.422750
441.959616	10824.433594
442.335224	10634.588781
442.710773	10778.581779
443.086261	10984.157512
443.461689	10270.965313
443.837057	10912.061451
444.212365	11199.760101
444.587612	10841.775163
444.962800	11070.318393
445.337927	10844.941008
445.712995	10424.523901
446.088002	11506.536997
446.462949	11165.497899
446.837837	11134.640996
447.212664	11127.641354
447.587431	11641.763429
447.962139	12356.808252
448.336786	14613.223672
448.711374	15171.700340
449.085901	13017.580013
449.460369	12630.263122
449.834776	12077.190572
450.209124	12957.083646
450.583412	13363.060368
450.957640	14313.713599
451.331808	13465.577273
451.705917	12442.172631
452.079965	11757.967066
452.453954	12664.767299
452.827883	12286.481635
453.201752	12580.481728
453.575562	12089.717839
453.949311	12509.290553
454.323001	12473.999956
454.696632	12697.265098
455.070202	12985.488028
455.443713	13228.519534
455.817164	13685.490048
456.190556	13678.364377
456.563888	14039.842834
456.937160	14219.295308
457.310373	13557.001119
457.683526	13629.235812
458.056619	13188.291126
458.429653	13333.360411
458.802628	12774.167900
459.175542	13132.241057
459.548398	14089.472994
459.921194	14416.787551
460.293930	14484.361698
460.666607	15369.956317
461.039224	16407.776139
461.411782	17102.033765
461.784280	16976.055330
462.156719	17040.566976
462.529099	16728.012917
462.901419	15651.721529
463.273680	15444.043635
463.645882	15300.416121
464.018024	15028.256827
464.390106	15266.710966
464.762130	15987.364073
465.134094	16750.340187
465.505999	18742.694928
465.877845	22001.127895
466.249631	24833.537992
466.621358	24515.378170
466.993026	23065.328075
467.364634	22513.780474
467.736184	21054.802495
468.107674	20238.599358
468.479105	20376.855523
468.850477	19834.994499
469.221790	19433.481719
469.593043	18746.541328
469.964238	18190.376030
470.335373	17847.368361
470.706449	18299.038101
471.077467	17856.051748
471.448425	19681.466159
471.819324	23725.694023
472.190164	25712.601797
472.560945	22161.053460
472.931667	19796.590989
473.302330	19159.338732
473.672934	18709.090596
474.043479	19021.730355
474.413965	18838.348302
474.784393	18456.296896
475.154761	19155.399070
475.525070	19139.481627
475.895321	18812.809816
476.265513	19399.027953
476.635645	19972.628082
477.005719	19756.130688
477.375734	19943.838052
477.745691	20428.383677
478.115588	20948.310641
478.485427	21474.518882
478.855207	22538.585472
479.224928	24322.952287
479.594591	26534.879525
479.964194	26546.413685
480.333739	26745.637564
480.703226	26330.364954
481.072653	26010.405440
481.442022	26591.940345
481.811333	27498.201175
482.180584	27417.247806
482.549777	26476.528169
482.918912	26117.093900
483.287988	26242.051501
483.657005	25903.666569
484.025964	25648.828681
484.394864	25575.769758
484.763706	25257.718321
485.132489	24688.516599
485.501213	24867.091913
485.869879	24774.538848
486.238487	24597.909421
486.607036	24742.406534
486.975527	24454.007163
487.343959	24768.360914
487.712333	24693.048597
488.080648	24374.709813
488.448905	24853.294274
488.817104	24619.916578
489.185244	25288.355934
489.553326	25254.580203
489.921350	26252.224549
490.289315	28539.592654
490.657222	30314.338427
491.025070	30806.286987
491.392861	30587.410169
491.760593	29735.361908
492.128267	28832.251799
492.495883	27789.983159
492.863440	26921.662053
493.230939	26039.286211
493.598380	25894.973099
493.965763	25498.216648
494.333088	25035.567274
494.700354	24984.117258
495.067563	24848.694222
495.434713	24607.379228
495.801805	24764.270018
496.168839	24556.251846
496.535815	24417.126082
496.902733	24626.323884
497.269593	24301.287928
497.636395	24476.435257
498.003139	24433.446817
498.369825	24189.669220
498.736453	24382.561411
499.103023	24256.197328
499.469535	24266.198977
499.835989	24495.379913
500.202385	24507.614793
500.568723	24018.058261
500.935003	24253.308747
501.301226	23887.013467
501.667390	24723.668565
502.033497	24941.698469
502.399546	24670.781820
502.765537	24240.821808
503.131470	24634.520800
503.497345	24749.743933
503.863163	23994.251412
504.228923	24581.422327
504.594625	24789.722804
504.960269	24318.974817
505.325856	24804.521111
505.691385	24213.468508
506.056856	24815.374715
506.422270	24788.777587
506.787625	24357.421176
507.152924	24764.585090
507.518164	24805.380628
507.883347	24611.843170
508.248472	24290.678820
508.613540	25071.019188
508.978550	24870.235072
509.343503	24860.485480
509.708398	25109.165600
510.073236	25273.880260
510.438016	25475.017258
510.802738	25155.952548
511.167403	25403.342132
511.532010	25117.329748
511.896561	25892.754992
512.261053	25846.031057
512.625488	25676.106364
512.989866	25583.933907
513.354186	25418.271509
513.718449	25546.339502
514.082655	25913.272488
514.446803	25652.425544
514.810894	26119.969878
515.174927	25602.351763
515.538904	25638.892566
515.902822	26131.894727
516.266684	25876.492229
516.630488	25791.591637
516.994235	25749.006490
517.357925	26075.343063
517.721558	26238.318526
518.085133	26346.390782
518.448651	26255.639931
518.812112	25994.291392
519.175516	26187.322214
519.538863	26362.550201
519.902152	26142.095502
520.265385	26422.421465
520.628560	26204.729318
520.991678	26207.360800
521.354739	26280.651616
521.717743	26349.145773
522.080690	26126.198223
522.443580	26466.130789
522.806413	26463.529554
523.169189	26554.532463
523.531908	26596.036283
523.894569	26205.392230
524.257174	26297.806662
524.619722	26466.276982
524.982213	26152.495403
525.344647	26208.265688
525.707025	26346.910021
526.069345	26328.109038
526.431608	26285.236545
526.793815	26476.276111
527.155964	25950.473683
527.518057	26113.527283
527.880093	26044.468517
528.242072	26262.546312
528.603995	25981.726316
528.965860	25773.667814
529.327669	25821.185731
529.689421	25802.967001
530.051117	25640.906507
530.412755	25811.574771
530.774337	25618.695183
531.135862	25494.569373
531.497331	25701.486053
531.858743	25255.187662
532.220098	25737.434521
532.581396	25418.848722
532.942638	25337.131618
533.303824	25435.988645
533.664953	25447.338802
534.026025	25101.876091
534.387040	25353.890934
534.747999	25402.686782
535.108902	25578.771766
535.469748	25080.826753
535.830537	25246.121147
536.191270	25363.476688
536.551947	25224.759257
536.912567	24870.356060
537.273131	25242.042853
537.633638	24948.912360
537.994089	25143.140456
538.354483	24684.284551
538.714821	25180.898698
539.075103	25227.478960
539.435328	25012.304870
539.795497	24566.631582
540.155609	24953.572907
540.515665	25274.233141
540.875665	24480.367357
541.235609	24800.031963
541.595496	24757.789615
541.955328	25118.864780
542.315102	25033.999475
542.674821	24563.679986
543.034483	24445.843015
543.394090	24619.538491
543.753640	24417.642800
544.113134	25037.225814
544.472571	24645.881041
544.831953	24942.321051
545.191278	24557.832248
545.550548	24481.804086
545.909761	24682.505023
546.268918	24906.717902
546.628019	24886.112186
546.987064	24572.413785
547.346053	24324.376413
547.704986	24436.632827
548.063863	24594.176446
548.422684	24617.879952
548.781449	24125.500373
549.140158	24541.871954
549.498811	24114.840853
549.857408	23866.783317
550.215949	24285.776298
550.574434	23974.583350
550.932864	24177.391490
551.291237	24339.641027
551.649555	24200.734553
552.007817	24258.359983
552.366022	24102.263174
552.724173	24141.551407
553.082267	24099.654377
553.440305	24576.212294
553.798288	23835.250899
554.156215	24351.074364
554.514086	24448.711431
554.871902	23834.547658
555.229661	24111.115441
555.587365	23968.644871
555.945014	23848.559545
556.302606	24087.608540
556.660143	24050.288878
557.017625	24294.961280
557.375050	23819.278003
557.732421	24200.618607
558.089735	24028.770713
558.446994	24073.770573
558.804197	24110.344144
559.161345	24025.735938
559.518437	23795.859323
559.875474	23983.997705
560.232455	24165.743904
560.589381	23997.883563
560.946251	23980.572241
561.303065	24282.290340
561.659825	24370.676890
562.016528	23985.131965
562.373177	23721.759403
562.729770	24095.175312
563.086307	23948.782725
563.442789	24106.366674
563.799216	23953.297078
564.155587	23955.220278
564.511904	23932.083903
564.868164	23869.361867
565.224370	23852.133723
565.580520	23772.027268
565.936615	23893.544282
566.292654	23585.673455
566.648638	23846.807744
567.004567	23691.164640
567.360441	23638.794613
567.716260	23346.672351
568.072023	23688.986862
568.427732	23450.071457
568.783385	23220.504873
569.138982	23468.506957
569.494525	23495.703982
569.850013	23251.754986
570.205445	23355.146530
570.560823	23167.623169
570.916145	22935.034413
571.271412	23116.778091
571.626625	22856.954502
571.981782	22973.707625
572.336884	22781.397688
572.691931	22910.052975
573.046923	22658.892608
573.401860	22540.304505
573.756743	22557.368811
574.111570	22460.634110
574.466342	22382.118138
574.821059	22469.917394
575.175722	22167.851456
575.530330	22146.653404
575.884882	22163.856342
576.239380	22074.988361
576.593823	21961.239766
576.948211	21950.166871
577.302544	21803.262607
577.656823	21667.544663
578.011047	21761.073190
578.365216	21626.975977
578.719330	21501.998212
579.073389	21397.739589
579.427394	21546.816590
579.781344	21316.612300
580.135239	21193.819874
580.489080	21157.274030
580.842866	20922.552865
581.196597	21141.001185
581.550273	21100.399732
581.903895	20993.648258
582.257463	21298.214609
582.610975	20825.931590
582.964434	21155.184471
583.317837	20842.758962
583.671186	20924.990263
584.024481	20911.759755
584.377721	20678.233344
584.730906	20751.471227
585.084037	20760.144532
585.437113	20670.447282
585.790135	20881.669108
586.143103	20334.454378
586.496016	20353.477172
586.848874	20586.456618
587.201679	20513.130515
587.554428	20200.909172
587.907124	20530.391425
588.259765	20297.422062
588.612352	20376.361490
588.964884	19954.139650
589.317362	20113.976994
589.669786	20178.367652
590.022155	20192.442554
590.374470	20411.195863
590.726731	20187.419044
591.078937	19963.203644
591.431090	20051.375946
591.783188	19812.326951
592.135232	19779.201529
592.487222	19873.788699
592.839157	19894.054137
593.191038	19786.566655
593.542866	19666.574590
593.894639	19371.354539
594.246358	19596.938612
594.598022	19486.920470
594.949633	19239.914014
595.301190	19213.120281
595.652692	19383.692763
596.004141	19617.214133
596.355535	18948.815106
596.706876	18970.963415
597.058162	18855.107618
597.409395	19090.277444
597.760573	19153.750612
598.111698	18928.234595
598.462768	18875.937665
598.813785	18837.191357
599.164748	18645.234301
599.515657	18701.249082
599.866511	18480.128950
600.217312	18846.245269
600.568060	18364.782309
600.918753	18677.081790
601.269392	18570.836952
601.619978	18365.021764
601.970510	18549.964055
602.320988	18498.461106
602.671412	18712.982367
603.021783	18623.988358
603.372100	18346.926542
603.722363	18490.357452
604.072572	18437.321992
604.422728	18582.272810
604.772830	18343.932097
605.122878	18296.199932
605.472872	18281.467160
605.822813	18272.035161
606.172701	18238.647599
606.522534	18439.315769
606.872314	18452.332028
607.222041	18286.924209
607.571714	18509.249176
607.921333	18335.755345
608.270899	18408.226973
608.620411	18585.131144
608.969870	18360.209983
609.319276	18361.876084
609.668627	18385.854332
610.017926	18513.924846
610.367171	18631.928175
610.716362	18690.153502
611.065500	18502.554523
611.414585	18639.003434
611.763616	18622.604561
612.112594	18560.469819
612.461518	18527.828348
612.810389	18716.070074
613.159207	18576.788034
613.507971	18502.506632
613.856682	18754.410569
614.205340	18685.999591
614.553945	18836.775462
614.902496	18576.825843
615.250994	18798.414801
615.599439	18746.110310
615.947830	18727.909224
616.296169	18799.170974
616.644454	18765.392723
616.992686	18724.884531
617.340864	18945.251010
617.688990	18694.841775
618.037063	18870.997334
618.385082	18720.289520
618.733048	19003.211676
619.080961	18885.374705
619.428821	18915.863604
619.776628	18800.345563
620.124382	18722.595847
620.472083	18773.526625
620.819731	18774.552500
621.167326	18474.578640
621.514868	18523.762658
621.862357	18287.592162
622.209793	18286.518396
622.557176	18126.572667
622.904506	17963.478737
623.251783	17882.414462
623.599007	17635.130743
623.946179	17570.740085
624.293297	17504.700969
624.640363	17258.420439
624.987376	17280.195703
625.334336	17074.181390
625.681243	16920.547185
626.028097	16939.189372
626.374899	16857.288266
626.721647	16728.519553
627.068343	16552.691668
627.414987	16489.145403
627.761577	16465.411651
628.108115	16496.318965
628.454600	16215.554422
628.801032	16319.079558
629.147412	16257.821977
629.493739	16274.961900
629.840014	16081.043835
630.186236	16176.893814
630.532405	15936.274499
630.878521	16144.955583
631.224585	16038.642690
631.570597	15855.217787
631.916556	15890.568878
632.262462	15874.038935
632.608316	15778.783812
632.954117	15730.769342
633.299866	15716.971704
633.645562	15632.726462
633.991206	15391.507250
634.336797	15273.450989
634.682336	15240.902779
635.027823	15118.871568
635.373257	14992.951107
635.718639	14898.850408
636.063968	14847.949878
636.409245	14597.525519
636.754470	14625.259427
637.099642	14481.392458
637.444762	14246.489813
637.789829	14288.926246
638.134845	14121.801913
638.479808	14152.363908
638.824719	14089.624228
639.169577	13947.385552
639.514383	13988.768384
639.859137	13823.569772
640.203839	13900.649015
640.548489	13736.453593
640.893086	13731.155340
641.237632	13606.653963
641.582125	13760.235236
641.926566	13584.931632
642.270955	13594.716511
642.615292	13556.670923
642.959576	13567.595103
643.303809	13588.631838
643.647990	13527.482642
643.992118	13588.236108
644.336195	13354.634080
644.680219	13569.742635
645.024192	13488.943021
645.368112	13741.033481
645.711981	13782.282722
646.055797	13969.296927
646.399562	13937.267956
646.743274	14206.911714
647.086935	14479.076048
647.430544	14443.185553
647.774101	14483.920597
648.117606	14622.078459
648.461059	14594.029479
648.804460	14590.994705
649.147810	14308.359894
649.491108	14216.709196
649.834354	14231.459612
650.177548	13912.699893
650.520690	13720.851222
650.863781	13647.935972
651.206820	13697.666955
651.549807	13517.544007
651.892742	13318.327690
652.235626	13263.300975
652.578458	13267.588476
652.921238	12961.078761
653.263967	13146.502482
653.606644	12987.401146
653.949269	12965.336015
654.291843	12762.928647
654.634365	12925.954521
654.976836	12770.092127
655.319255	12772.849638
655.661622	12735.154410
656.003938	12657.881083
656.346203	12578.863517
656.688416	12656.378819
657.030577	12620.599230
657.372687	12521.888397
657.714746	12504.319975
658.056753	12689.189169
658.398708	12504.723268
658.740612	12514.379598
659.082465	12618.923046
659.424266	12588.933222
659.766016	12612.830812
660.107715	12516.595185
660.449362	12592.043614
660.790958	12549.735730
661.132503	12492.261535
661.473996	12560.264180
661.815438	12574.671798
662.156829	12607.396448
662.498168	12574.402096
662.839456	12578.374525
663.180693	12592.522524
663.521879	12696.508925
663.863013	12656.348572
664.204097	12631.041980
664.545129	12764.244388
664.886110	12731.872619
665.227040	12828.398112
665.567918	12826.091784
665.908746	12851.116072
666.249522	12841.832787
666.590248	12888.750806
666.930922	13009.572140
667.271545	12984.421824
667.612118	13061.385119
667.952639	12972.628044
668.293109	12983.607677
668.633528	12935.066407
668.973896	12918.980085
669.314213	12988.888286
669.654480	12726.559243
669.994695	12807.245431
670.334859	12831.679903
670.674973	12773.812498
671.015035	12805.957416
671.355047	12746.363416
671.695008	12721.553377
672.034918	12733.815984
672.374777	12770.989452
672.714585	12686.209847
673.054342	12725.634191
673.394049	12666.362825
673.733705	12764.675407
674.073310	12673.322138
674.412864	12690.320908
674.752368	12545.712890
675.091820	12577.043661
675.431223	12560.556567
675.770574	12425.872060
676.109875	12341.841066
676.449125	12308.793782
676.788324	12252.642890
677.127473	12080.197620
677.466571	12074.937176
677.805619	11971.071763
678.144616	11895.537634
678.483562	11867.715506
678.822458	11731.959753
679.161303	11716.586755
679.500098	11704.573685
679.838842	11656.745738
680.177535	11684.164574
680.516179	11753.203176
680.854771	11694.299814
681.193314	11908.092628
681.531805	12074.002042
681.870247	12500.430725
682.208638	12914.977409
682.546978	13222.742372
682.885268	13251.489552
683.223508	12957.103811
683.561697	12793.135241
683.899836	12702.747352
684.237925	12494.368738
684.575963	12411.686253
684.913951	12337.848472
685.251889	12281.654731
685.589776	12388.456616
685.927614	12307.725058
686.265401	12275.103751
686.603137	12326.881442
686.940824	12478.665543
687.278460	12605.253958
687.616046	12640.055563
687.953582	12807.043784
688.291068	12736.825552
688.628504	12975.052839
688.965889	12980.971154
689.303224	12946.872789
689.640510	12824.881907
689.977745	12513.053774
690.314930	12294.247533
690.652065	12202.750591
690.989150	11905.183882
691.326185	11686.027280
691.663170	11479.692853
692.000105	11247.540157
692.336990	11123.144645
692.673825	10867.091838
693.010610	10751.183108
693.347345	10542.391119
693.684030	10352.062355
694.020665	10286.164392
694.357251	10089.284649
694.693786	10027.646461
695.030272	9863.675371
695.366707	9748.958874
695.703093	9689.523670
696.039429	9682.763482
696.375716	9594.225697
696.711952	9464.809196
697.048139	9512.395168
697.384276	9464.012694
697.720363	9484.106733
698.056400	9421.551055
698.392388	9368.382005
698.728326	9330.404473
699.064214	9273.736862
699.400053	9311.288417
699.735842	9127.364440
700.071581	9086.906660
700.407270	9012.342953
700.742910	8934.091642
701.078501	8837.969442
701.414042	8706.291982
701.749533	8647.184454
702.084974	8506.460644
702.420366	8625.368860
702.755709	8504.297989
703.091002	8369.311013
703.426246	8398.048110
703.761440	8345.957867
704.096584	8310.004358
704.431679	8243.962722
704.766725	8225.257521
705.101721	8181.822939
705.436668	8223.208292
705.771565	8121.384546
706.106413	8197.029580
706.441212	8241.663956
706.775961	8195.350876
707.110661	8236.224551
707.445311	8374.601703
707.779913	8268.525744
708.114465	8400.689675
708.448967	8440.005633
708.783421	8591.610774
709.117825	8767.907485
709.452180	8804.322260
709.786485	8893.762412
710.120742	9181.927368
710.454949	9177.208848
710.789107	9288.875447
711.123216	9500.671964
711.457275	9667.856791
711.791286	9827.505092
712.125247	9827.628600
712.459159	9807.912647
712.793023	10050.377024
713.126837	9628.341706
713.460602	9782.558164
713.794318	9606.760527
714.127985	9633.753385
714.461602	9305.279362
714.795171	9257.078369
715.128691	9004.657714
715.462162	8759.783666
715.795584	8703.466416
716.128957	8539.737301
716.462281	8378.851396
716.795556	8428.726052
717.128782	8218.593115
717.461960	7961.746327
717.795088	8030.152264
718.128167	7942.622710
718.461198	7778.235724
718.794180	7720.448978
719.127113	7706.429529
719.459997	7537.762603
719.792833	7321.764284
720.125619	7389.638380
720.458357	7240.694969
720.791046	7232.888742
721.123686	7230.466468
721.456278	7063.667290
721.788821	7077.656492
722.121315	6982.605536
722.453761	7051.898716
722.786158	6988.362534
723.118506	6996.710684
723.450805	6965.079965
723.783056	7023.630446
724.115259	6941.010976
724.447412	6940.567354
724.779518	6989.998388
725.111574	6984.236349
725.443582	7065.098977
725.775542	7051.281175
726.107453	7244.889209
726.439315	7153.155332
726.771129	7218.922225
727.102895	7390.679378
727.434612	7501.998137
727.766281	7542.466000
728.097901	7608.260619
728.429473	7610.541741
728.760996	7599.955318
729.092471	7572.307110
729.423897	7509.038109
729.755276	7512.758480
730.086606	7438.620751
730.417887	7536.686317
730.749120	7744.885971
731.080305	7935.103829
731.411442	8051.181437
731.742530	8038.475209
732.073570	8147.550655
732.404562	8239.017350
732.735506	8088.823733
733.066401	8229.913026
733.397249	8150.592991
733.728048	7908.549551
734.058798	7580.309942
734.389501	7350.975250
734.720156	7175.059146
735.050762	6946.067253
735.381320	6853.811617
735.711831	6794.646115
736.042293	6694.465785
736.372707	6705.727723
736.703073	6570.246713
737.033391	6610.989318
737.363661	6618.026769
737.693883	6656.997409
738.024056	6740.806592
738.354182	6779.222705
738.684260	6809.802344
739.014290	6931.352125
739.344272	7041.728188
739.674207	7073.608445
740.004093	7149.135012
740.333931	7157.314284
740.663722	7162.746127
740.993464	7237.365287
741.323159	7224.538071
741.652806	6975.832746
741.982405	7000.557085
742.311956	7049.292440
742.641460	6875.609566
742.970915	6681.356264
743.300323	6679.319638
743.629683	6627.993130
743.958996	6494.515979
744.288260	6406.217649
744.617477	6352.186562
744.946647	6349.129102
745.275768	6182.019894
745.604842	6140.165714
745.933869	6121.379854
746.262847	6083.528350
746.591778	6065.604528
746.920662	6027.392582
747.249498	6021.975862
747.578286	6073.826650
747.907027	6146.310880
748.235720	6204.677360
748.564365	6176.572927
748.892963	6213.567434
749.221514	6358.649322
749.550017	6178.483524
749.878473	6068.697276
750.206881	6121.881449
750.535242	6069.405558
750.863555	5998.196739
751.191821	6009.685529
751.520039	6013.383215
751.848210	5913.686836
752.176334	5947.099604
752.504411	5989.962014
752.832440	5914.473256
753.160421	5845.676630
753.488356	5897.189660
753.816243	5927.149238
754.144082	5775.574344
754.471875	5751.966621
754.799620	5790.022291
755.127318	5803.000742
755.454969	5758.948619
755.782572	5723.849585
756.110129	5767.652171
756.437638	5750.141723
756.765100	5691.245923
757.092515	5693.501839
757.419882	5747.106948
757.747203	5727.685903
758.074477	5784.628257
758.401703	5771.289363
758.728882	5725.339246
759.056014	5786.478360
759.383099	5908.736423
759.710138	5922.710502
760.037129	5906.301546
760.364073	5909.149798
760.690970	5990.917313
761.017820	5969.162214
761.344623	5928.593528
761.671379	6035.468510
761.998088	6159.309496
762.324751	6413.076139
762.651366	7034.027826
762.977935	8372.668421
763.304456	10016.384523
763.630931	10893.852803
763.957359	10469.934614
764.283740	9515.157720
764.610074	8662.864963
764.936362	7665.802870
765.262602	7070.336736
765.588796	6538.467279
765.914943	6204.553851
766.241044	6039.609818
766.567097	5831.415205
766.893104	5570.464918
767.219064	5391.438421
767.544978	5332.290563
767.870845	5248.204117
768.196665	5147.096215
768.522438	5073.326490
768.848165	5037.773753
769.173846	4972.130368
769.499479	4928.289973
769.825066	4871.410634
770.150607	4810.011901
770.476101	4792.430877
770.801548	4785.416112
771.126949	4706.960634
771.452303	4653.216893
771.777611	4613.527889
772.102872	4631.807113
772.428087	4595.856124
772.753256	4552.287952
773.078378	4505.536291
773.403453	4434.050209
773.728482	4422.387500
774.053465	4378.078278
774.378401	4363.269888
774.703291	4362.438098
775.028135	4290.485709
775.352932	4244.366713
775.677683	4229.487748
776.002388	4247.159513
776.327046	4258.673508
776.651658	4185.148279
776.976224	4121.410450
777.300743	4126.517139
777.625216	4147.437928
777.949643	4139.707318
778.274024	4098.574023
778.598359	4054.663053
778.922647	4081.373607
779.246889	4073.358172
779.571086	4066.056061
779.895236	4048.797670
780.219339	4032.590361
780.543397	4028.144063
780.867409	4083.742949
781.191374	4097.033951
781.515294	4032.658416
781.839167	4026.016696
782.162995	4049.334553
782.486776	4035.889796
782.810511	4046.876991
783.134201	4039.297616
783.457844	3991.928414
783.781441	3937.022687
784.104993	3943.379582
784.428498	3962.863641
784.751958	3961.023620
785.075372	3934.507151
785.398739	3900.305443
785.722061	3911.232144
786.045337	3958.734936
786.368568	3991.338599
786.691752	3898.399887
787.014891	3954.376859
787.337983	4083.248916
787.661030	4243.177001
787.984031	4405.948297
788.306987	4571.159511
788.629897	4657.025485
788.952760	4611.466057
789.275579	4543.723032
789.598351	4474.533195
789.921078	4331.475331
790.243759	4132.737923
790.566395	4121.070173
790.888984	4112.248153
791.211529	4005.378212
791.534027	3945.436372
791.856480	3932.750309
792.178888	3868.117675
792.501249	3823.485820
792.823566	3834.478056
793.145836	3858.937734
793.468062	3805.965290
793.790241	3763.874176
794.112375	3791.877785
794.434464	3859.824977
794.756507	3879.493039
795.078505	3859.845142
795.400457	3897.716810
795.722364	4041.775343
796.044226	4146.258298
796.366042	4217.230182
796.687812	4194.076163
797.009538	4196.503478
797.331218	4158.508302
797.652852	4131.470073
797.974442	4114.360397
798.295986	4110.269500
798.617484	4024.741284
798.938938	3939.931432
799.260346	3986.811643
799.581709	3977.551043
799.903026	3903.315012
800.224299	3869.468705
800.545526	3858.179041
800.866708	3821.035819
801.187845	3760.536932
801.508936	3800.379691
801.829983	3790.151190
802.150984	3713.175291
802.471940	3703.229095
802.792851	3714.153275
803.113717	3714.170919
803.434538	3714.634705
803.755314	3657.284019
804.076045	3635.206285
804.396731	3655.655726
804.717372	3679.739838
805.037967	3663.716531
805.358518	3651.655570
805.679024	3680.911907
805.999485	3696.688198
806.319901	3701.502500
806.640272	3711.468861
806.960598	3726.927559
807.280879	3699.682643
807.601115	3714.319633
807.921306	3731.278075
808.241453	3771.894651
808.561554	3747.369438
808.881611	3679.858306
809.201623	3716.812484
809.521590	3729.231366
809.841513	3700.562324
810.161390	3734.333014
810.481223	3706.173129
810.801011	3652.890653
811.120755	3645.575939
811.440453	3686.321065
811.760107	3683.034232
812.079716	3637.401708
812.399281	3608.662090
812.718801	3631.705204
813.038276	3607.250567
813.357707	3603.320987
813.677093	3618.179788
813.996434	3566.240780
814.315731	3577.797625
814.634983	3581.429777
814.954191	3597.412755
815.273354	3623.155407
815.592473	3623.631796
815.911547	3629.978609
816.230577	3675.517872
816.549562	3721.132753
816.868502	3763.710338
817.187399	3788.071714
817.506250	3786.178761
817.825058	3761.419134
818.143821	3855.658464
818.462539	3953.444245
818.781213	3998.363447
819.099843	4061.927356
819.418429	4320.006706
819.736970	4560.131987
820.055466	4810.889062
820.373919	5176.218961
820.692327	5587.509059
821.010691	6057.863836
821.329011	7487.489697
821.647286	10321.454990
821.965517	14963.674606
822.283704	18985.088728
822.601847	21057.194523
822.919945	19178.600980
823.237999	16563.225159
823.556010	14064.325198
823.873976	11939.670415
824.191897	9829.624897
824.509775	8489.161925
824.827609	7356.139912
825.145398	6821.301216
825.463144	6708.308793
825.780845	6814.460370
826.098502	7025.699840
826.416116	7941.390148
826.733685	9289.003997
827.051210	10386.377489
827.368692	10377.862981
827.686129	9087.723327
828.003522	7577.408758
828.320872	6554.808179
828.638177	5847.405745
828.955439	5282.088232
829.272656	4781.662972
829.589830	4502.257021
829.906960	4327.833098
830.224046	4137.050630
830.541088	4012.009850
830.858086	3967.342707
831.175041	3887.586612
831.491952	3873.113459
831.808819	3883.339439
832.125642	3960.280050
832.442421	4113.233699
832.759157	4399.064601
833.075849	4963.595694
833.392497	5845.565724
833.709101	6631.494212
834.025662	6953.684436
834.342179	6561.759931
834.658653	5882.187186
834.975083	5233.703238
835.291469	4651.230678
835.607811	4248.588680
835.924110	4104.772122
836.240366	3906.254004
836.556578	3701.016028
836.872746	3592.124585
837.188871	3551.200498
837.504952	3482.187102
837.820990	3399.005543
838.136984	3356.851414
838.452935	3381.331257
838.768842	3372.297509
839.084706	3398.382960
839.400526	3564.141140
839.716303	3913.195673
840.032037	4453.950164
840.347727	4703.033575
840.663373	4405.015683
840.978977	4019.435470
841.294537	3709.959035
841.610054	3486.109119
841.925527	3377.991493
842.240957	3304.105821
842.556344	3252.807040
842.871687	3192.466949
843.186987	3146.935247
843.502244	3106.971500
843.817458	3071.028073
844.132629	3040.425749
844.447756	3048.907490
844.762840	3034.257897
845.077881	3004.384019
845.392879	2985.439363
845.707833	2980.365442
846.022745	2979.470637
846.337613	2981.527428
846.652438	2966.903041
846.967221	2965.730972
847.281960	2950.673046
847.596656	2948.076852
847.911309	2949.551389
848.225919	2943.083589
848.540485	2935.957918
848.855009	2935.516817
849.169490	2926.551125
849.483928	2917.323293
849.798323	2916.126018
850.112675	2912.307344
850.426984	2928.330652
850.741251	2920.146339
851.055474	2911.956984
851.369654	2906.285686
851.683792	2910.807601
851.997887	2919.662388
852.311938	2921.671288
852.625947	2909.383475
852.939914	2913.600400
853.253837	2917.915628
853.567718	2902.658576
853.881555	2906.651170
854.195350	2917.071235
854.509103	2911.989752
854.822812	2906.293248
855.136479	2901.836868
855.450103	2904.596900
855.763685	2897.856877
856.077224	2893.433264
856.390720	2907.109915
856.704173	2917.192223
857.017584	2909.252405
857.330953	2906.948598
857.644278	2915.674835
857.957561	2927.516506
858.270802	2929.127154
858.584000	2926.094900
858.897155	2914.979156
859.210268	2915.763055
859.523339	2911.475554
859.836367	2911.404978
860.149352	2905.161509
860.462295	2899.722104
860.775195	2908.960018
861.088054	2907.462796
861.400869	2889.090310
861.713642	2891.994015
862.026373	2903.755027
862.339062	2906.812487
862.651708	2912.377921
862.964312	2914.780030
863.276873	2907.735018
863.589392	2919.117943
863.901869	2932.096394
864.214303	2952.064404
864.526696	2967.923874
864.839045	2961.657720
865.151353	2965.138637
865.463619	2960.629325
865.775842	2964.354737
866.088023	2984.257213
866.400162	2986.283757
866.712258	2956.369550
867.024313	2949.548868
867.336325	2958.610343
867.648296	2981.363590
867.960224	2970.416725
868.272110	2961.793831
868.583954	2963.984213
868.895755	2976.405616
869.207515	2964.674851
869.519233	2969.025366
869.830909	2979.271512
870.142542	2987.695280
870.454134	2989.157214
870.765684	2994.445385
871.077191	2991.191320
871.388657	2999.675582
871.700081	3014.620082
872.011463	3022.451515
872.322803	3028.800848
872.634101	3024.490662
872.945357	3041.789381
873.256571	3066.533885
873.567744	3060.751681
873.878874	3053.633572
874.189963	3078.494022
874.501010	3079.277922
874.812015	3067.912640
875.122979	3069.132599
875.433900	3066.128072
875.744780	3071.247363
876.055618	3079.668611
876.366415	3073.959504
876.677169	3088.077256
876.987882	3083.731781
877.298554	3079.406471
877.609183	3099.704677
877.919771	3120.648151
878.230317	3150.431287
878.540822	3202.418187
878.851285	3240.418404
879.161707	3287.248203
879.472087	3396.411869
879.782425	3634.802993
880.092722	4083.949636
880.402977	4619.894866
880.713191	5262.901601
881.023363	6453.239012
881.333494	7752.694718
881.643583	8289.791852
881.953631	7977.671332
882.263637	7315.296484
882.573602	6709.853907
882.883526	6127.154496
883.193408	5558.938319
883.503248	5102.219863
883.813048	4787.281338
884.122806	4473.678719
884.432522	4151.942199
884.742197	3916.991662
885.051831	3721.132753
885.361424	3590.637444
885.670975	3519.746218
885.980485	3425.514450
886.289954	3348.344467
886.599382	3307.208652
886.908768	3264.820109
887.218113	3219.487533
887.527417	3161.476456
887.836680	3114.114815
888.145901	3108.299844
888.455082	3095.444902
888.764221	3045.908004
889.073319	3016.628982
889.382376	3015.598066
889.691392	3021.128212
890.000366	3017.034795
890.309300	3004.053824
890.618193	3016.964219
890.927044	3030.736651
891.235855	3033.473998
891.544625	3021.370187
891.853353	3033.658000
892.162041	3047.858930
892.470687	3094.081270
892.779293	3145.503560
893.087858	3191.499047
893.396381	3267.265069
893.704864	3391.322824
894.013306	3641.306082
894.321707	3946.757155
894.630068	4148.073113
894.938387	4138.056340
895.246665	4097.230556
895.554903	3968.844970
895.863100	3763.385184
896.171256	3595.290429
896.479371	3453.323975
896.787446	3332.880728
897.095480	3227.084552
897.403473	3164.135664
897.711425	3127.940180
898.019336	3117.857872
898.327207	3083.497367
898.635038	3050.379507
898.942827	3037.897610
899.250576	3024.231042
899.558284	2992.653254
899.865952	2971.359421
900.173579	2948.641461
900.481165	2943.789350
900.788711	2929.631270
901.096216	2907.384658
901.403681	2896.553739
901.711105	2902.887948
902.018489	2900.327042
902.325832	2899.863256
902.633135	2911.904052
902.940397	2944.696758
903.247619	3031.087011
903.554800	3236.249370
903.861941	3593.213474
904.169041	4031.861914
904.476101	4323.890915
904.783121	4261.120988
905.090100	4011.846013
905.397039	3732.140112
905.703938	3476.331801
906.010796	3293.499234
906.317614	3182.051925
906.624391	3085.871751
906.931129	3013.387520
907.237826	2949.563992
907.544483	2902.562794
907.851099	2874.168495
908.157675	2852.108406
908.464211	2833.940087
908.770707	2818.025165
909.077163	2802.027063
909.383578	2789.610701
909.689954	2777.557302
909.996289	2780.224072
910.302584	2776.821294
910.608839	2778.933537
910.915054	2770.638318
911.221229	2766.602875
911.527363	2767.875766
911.833458	2776.241561
912.139513	2780.246758
912.445527	2782.295987
912.751502	2790.608849
913.057436	2800.529840
913.363331	2814.332519
913.669186	2837.478977
913.975000	2874.042466
914.280775	2939.050666
914.586510	3004.933505
914.892205	3088.165476
915.197859	3223.069273
915.503475	3421.683173
915.809050	3642.498314
916.114585	3786.483751
916.420081	3801.587047
916.725536	3740.803335
917.030952	3621.035602
917.336328	3488.513750
917.641665	3353.252030
917.946961	3252.728902
918.252218	3180.037984
918.557435	3101.078391
918.862612	3039.793084
919.167750	2991.387925
919.472848	2949.594239
919.777906	2922.787903
920.082925	2894.917884
920.387904	2865.681712
920.692843	2848.108250
920.997743	2836.420335
921.302603	2823.174703
921.607423	2811.103660
921.912204	2797.991619
922.216946	2789.817388
922.521647	2777.522014
922.826310	2774.625871
923.130932	2765.977772
923.435516	2756.873448
923.740059	2750.153590
924.044564	2737.293606
924.349028	2733.210272
924.653454	2728.469067
924.957840	2721.469424
925.262186	2716.551779
925.566493	2713.055739
925.870761	2705.103318
926.174989	2703.936291
926.479178	2700.803214
926.783328	2692.785259
927.087438	2692.024045
927.391509	2693.044878
927.695541	2688.492717
927.999533	2684.631193
928.303486	2683.388548
928.607400	2681.440142
928.911275	2682.529032
929.215110	2681.145235
929.518906	2677.477795
929.822663	2680.381500
930.126381	2677.518125
930.430060	2680.318486
930.733699	2678.944771
931.037299	2681.908970
931.340861	2684.326203
931.644383	2681.440142
931.947866	2684.537931
932.251309	2682.355112
932.554714	2680.137004
932.858080	2679.159020
933.161407	2677.071982
933.464694	2675.630213
933.767943	2670.536127
934.071153	2674.654749
934.374323	2674.117866
934.677455	2671.410767
934.980548	2670.659635
935.283602	2673.883453
935.586617	2667.214006
935.889593	2672.930675
936.192530	2669.825324
936.495428	2672.774399
936.798287	2675.756241
937.101108	2680.016016
937.403890	2681.898887
937.706632	2686.703107
938.009336	2691.628314
938.312002	2699.815148
938.614628	2707.792774
938.917216	2714.111860
939.219765	2718.979094
939.522275	2715.629248
939.824747	2712.387786
940.127179	2710.396530
940.429573	2707.490305
940.731929	2705.544419
941.034246	2702.779347
941.336524	2697.891948
941.638763	2696.162832
941.940964	2694.993284
942.243126	2690.960361
942.545250	2693.067564
942.847335	2688.986750
943.149381	2682.992818
943.451389	2680.278156
943.753359	2679.874864
944.055290	2679.030471
944.357182	2676.104081
944.659036	2675.342867
944.960851	2673.243226
945.262628	2668.900272
945.564367	2673.031498
945.866067	2674.642146
946.167729	2670.825993
946.469352	2674.483350
946.770937	2673.170129
947.072484	2673.376817
947.373992	2672.091322
947.675462	2671.393123
947.976893	2665.318532
948.278286	2663.881803
948.579641	2665.608399
948.880958	2662.555980
949.182236	2664.224602
949.483476	2664.872390
949.784678	2662.674447
950.085841	2666.916578
950.386967	2664.015394
950.688054	2664.617812
950.989103	2667.496311
951.290114	2667.284582
951.591087	2670.495797
951.892021	2672.426559
952.192917	2672.812207
952.493776	2676.295645
952.794596	2677.220697
953.095378	2676.968639
953.396122	2676.076355
953.696828	2673.399502
953.997496	2674.329595
954.298126	2670.861281
954.598718	2668.340704
954.899272	2665.210147
955.199788	2664.312822
955.500266	2662.011535
955.800706	2657.721513
956.101108	2657.827378
956.401472	2655.541214
956.701798	2652.655154
957.002087	2649.423774
957.302337	2650.308497
957.602550	2648.440749
957.902724	2643.356746
958.202861	2644.211221
958.502960	2642.850110
958.803022	2642.671149
959.103045	2645.902528
959.403031	2642.935809
959.702979	2641.118473
960.002889	2642.943371
960.302762	2640.258957
960.602596	2640.745428
960.902393	2641.007568
961.202153	2638.718884
961.501875	2639.729635
961.801559	2638.111425
962.101205	2638.093781
962.400814	2638.224851
962.700385	2636.203348
962.999918	2635.064047
963.299414	2635.232926
963.598873	2633.776033
963.898293	2634.103708
964.197677	2636.543626
964.497022	2637.382978
964.796331	2637.206538
965.095601	2635.298461
965.394835	2635.696712
965.694030	2636.097484
965.993189	2638.771816
966.292309	2635.510190
966.591393	2634.864922
966.890439	2636.906589
967.189447	2636.321815
967.488419	2637.914820
967.787353	2633.350055
968.086249	2634.781743
968.385108	2636.722587
968.683930	2637.314923
968.982714	2633.576907
969.281462	2638.330715
969.580172	2634.748975
969.878844	2637.367855
970.177480	2635.714356
970.476078	2635.699233
970.774639	2636.548667
971.073162	2635.442134
971.371649	2636.772999
971.670098	2637.461116
971.968510	2636.036990
972.266885	2636.957001
972.565223	2635.479943
972.863524	2634.738893
973.161788	2635.739562
973.460014	2637.788791
973.758204	2635.963893
974.056356	2634.779222
974.354471	2637.715694
974.652550	2638.234933
974.950591	2637.750982
975.248595	2636.858698
975.546563	2636.266363
975.844493	2635.293420
976.142386	2636.836013
976.440243	2634.486835
976.738062	2634.612864
977.035845	2633.501290
977.333590	2635.437093
977.631299	2634.643111
977.928971	2630.973151
978.226606	2628.674385
978.524204	2633.155971
978.821765	2628.802934
979.119290	2632.026752
979.416777	2634.217134
979.714228	2634.993471
980.011642	2632.092287
980.309020	2635.106897
980.606360	2632.377112
980.903664	2633.234109
981.200931	2635.865591
981.498162	2635.487504
981.795356	2637.582104
982.092513	2635.860550
982.389633	2639.878349
982.686717	2641.562095
982.983764	2644.180974
983.280775	2651.379742
983.577749	2651.649444
983.874686	2650.167344
984.171587	2650.568116
984.468451	2646.487302
984.765279	2643.361787
985.062070	2642.582928
985.358824	2639.449851
985.655543	2636.951960
985.952224	2639.666621
986.248869	2633.776033
986.545478	2634.819552
986.842050	2632.467853
987.138586	2634.869963
987.435086	2637.645118
987.731549	2632.180508
988.027975	2631.593213
988.324366	2630.859725
988.620719	2629.803603
988.917037	2632.863584
989.213318	2629.962400
989.509563	2630.416104
989.805772	2634.111269
990.101944	2631.320991
990.398080	2626.736061
990.694180	2630.509365
990.990244	2632.006588
991.286271	2629.924591
991.582262	2629.334776
991.878217	2630.882410
992.174136	2630.990795
992.470019	2631.076495
992.765865	2628.092132
993.061676	2625.276647
993.357450	2628.306381
993.653188	2624.162552
993.948890	2631.827627
994.244556	2630.791670
994.540186	2630.106073
994.835780	2632.132617
995.131337	2631.273100
995.426859	2630.751340
995.722345	2635.066568
996.017795	2632.140178
996.313208	2634.489356
996.608586	2633.707977
996.903928	2637.476240
997.199234	2634.524644
997.494504	2634.622947
997.789738	2633.203862
998.084936	2634.053296
998.380099	2635.026239
998.675225	2636.107566
998.970316	2632.155302
999.265371	2631.031124
999.560390	2630.451392
999.855373	2630.375774
1000.150320	2629.458284
1000.445232	2630.012811
1000.740108	2628.956690
1001.034948	2630.065743
1001.329752	2630.471556
1001.624521	2628.324025
1001.919254	2626.184055
1002.213951	2629.138171
1002.508613	2627.116668
1002.803239	2628.011473
1003.097829	2629.957359
1003.392384	2629.216309
1003.686903	2626.733541
1003.981386	2630.320322
1004.275834	2627.517440
1004.570246	2632.583800
1004.864623	2630.368213
1005.158964	2628.437451
1005.453270	2629.891824
1005.747540	2627.835033
1006.041775	2629.269241
1006.335974	2628.815537
1006.630138	2626.426030
1006.924266	2625.664816
1007.218359	2628.560959
1007.512416	2623.973509
1007.806438	2623.154322
1008.100425	2627.633387
1008.394376	2622.262037
1008.688292	2630.612709
1008.982172	2627.366206
1009.276017	2626.055506
1009.569827	2626.705814
1009.863602	2626.967954
1010.157341	2628.772687
1010.451045	2628.109776
1010.744714	2626.970475
1011.038347	2628.818058
1011.331945	2627.487193
1011.625508	2626.317646
1011.919036	2626.531895
1012.212528	2629.422996
1012.505986	2627.918212
1012.799408	2629.412914
1013.092795	2625.677419
1013.386147	2628.629015
1013.679464	2627.673716
1013.972745	2629.140692
1014.265992	2629.864097
1014.559204	2627.288068
1014.852380	2625.001904
1015.145521	2626.297481
1015.438628	2626.632718
1015.731699	2626.872172
1016.024736	2627.247738
1016.317737	2628.074488
1016.610703	2626.446195
1016.903635	2631.000877
1017.196531	2626.327728
1017.489393	2628.442492
1017.782219	2626.000053
1018.075011	2627.099024
1018.367768	2625.581637
1018.660490	2624.933849
1018.953177	2624.933849
1019.245829	2624.933849
