Dividing Wavelength (nm)	Counts (n)	Blue Motor Position (mm): 19.800000	Red Motor Position (mm): 0.000000	
326.493990	2185.264575
326.888308	2185.264575
327.282561	2185.264575
327.676750	2143.564150
328.070874	2141.353604
328.464933	2140.917545
328.858929	2144.431229
329.252859	2149.694193
329.646726	2158.294402
330.040528	2171.852585
330.434265	2182.199553
330.827938	2201.267718
331.221547	2218.972250
331.615091	2236.112173
332.008571	2253.983064
332.401986	2275.125663
332.795338	2291.743827
333.188625	2310.209573
333.581847	2328.599702
333.975006	2346.873885
334.368100	2364.792666
334.761129	2382.136756
335.154095	2400.179046
335.546996	2422.592016
335.939833	2456.879424
336.332606	2470.689665
336.725315	2482.422950
337.117960	2491.454177
337.510540	2507.303565
337.903056	2518.124402
338.295508	2527.236287
338.687896	2537.179963
339.080220	2543.564585
339.472480	2548.951058
339.864676	2556.338868
340.256807	2558.972871
340.648875	2566.058213
341.040879	2568.351938
341.432818	2569.246743
341.824694	2573.622464
342.216506	2577.206725
342.608253	2577.491550
342.999937	2575.588514
343.391557	2575.762434
343.783113	2576.342167
344.174605	2573.264543
344.566033	2574.429049
344.957397	2571.674058
345.348697	2570.844789
345.739934	2569.241702
346.131106	2568.160374
346.522215	2562.403377
346.913260	2563.285578
347.304241	2561.120403
347.695159	2561.775753
348.086012	2559.320711
348.476802	2554.062788
348.867528	2552.061449
349.258191	2547.423588
349.648789	2549.054401
350.039324	2543.494008
350.429796	2548.144473
350.820203	2546.954761
351.210548	2543.617517
351.600828	2546.644730
351.991045	2545.271015
352.381198	2543.231868
352.771288	2543.690613
353.161314	2540.728936
353.551276	2544.774462
353.941175	2542.818494
354.331010	2541.704399
354.720782	2537.878163
355.110490	2539.307330
355.500135	2538.959491
355.889717	2537.921013
356.279235	2536.171732
356.668689	2537.971424
357.058080	2538.508307
357.447408	2540.459234
357.836672	2542.717671
358.225873	2541.071734
358.615010	2543.108360
359.004084	2539.677855
359.393095	2544.474513
359.782043	2541.585932
360.170927	2541.994265
360.559748	2544.824873
360.948505	2544.580377
361.337199	2544.754297
361.725830	2545.863351
362.114398	2545.681869
362.502903	2543.998124
362.891344	2549.954247
363.279722	2542.843700
363.668037	2549.651778
364.056289	2546.264123
364.444478	2547.917621
364.832603	2551.348126
365.220665	2550.445760
365.608665	2547.317724
365.996601	2550.352498
366.384474	2552.157231
366.772284	2551.285112
367.160031	2549.873589
367.547715	2551.675801
367.935336	2549.240924
368.322893	2549.533311
368.710388	2550.851572
369.097820	2550.896943
369.485189	2548.414175
369.872495	2552.394166
370.259738	2553.188147
370.646918	2554.395504
371.034035	2557.276523
371.421090	2557.011863
371.808081	2554.403065
372.195010	2554.440874
372.581875	2556.963972
372.968678	2556.956410
373.355418	2553.967006
373.742096	2557.642007
374.128710	2557.256358
374.515262	2557.248797
374.901751	2558.196534
375.288177	2557.392470
375.674540	2557.180741
376.060841	2555.383570
376.447079	2557.213509
376.833254	2557.495813
377.219367	2559.582851
377.605417	2561.437996
377.991404	2558.380536
378.377329	2558.153684
378.763191	2558.423386
379.148991	2561.291802
379.534727	2561.473284
379.920402	2558.443550
380.306013	2559.300546
380.691563	2562.027811
381.077049	2562.053016
381.462474	2561.483366
381.847835	2562.756257
382.233134	2560.883469
382.618371	2561.503531
383.003545	2563.527554
383.388657	2563.492266
383.773706	2564.853377
384.158693	2561.458160
384.543618	2564.717266
384.928480	2563.852708
385.313280	2563.288099
385.698017	2561.243911
386.082692	2562.746175
386.467305	2561.629559
386.851856	2562.355486
387.236344	2565.725497
387.620770	2561.584189
388.005133	2559.078736
388.389435	2561.374981
388.773674	2561.133006
389.157851	2563.835064
389.541965	2566.869839
389.926018	2563.094015
390.310008	2565.047462
390.693936	2565.140723
391.077802	2565.710373
391.461606	2566.350600
391.845348	2566.519479
392.229027	2566.887483
392.612645	2567.235322
392.996200	2566.910168
393.379694	2567.638615
393.763125	2565.765826
394.146494	2568.115004
394.529801	2570.416291
394.913047	2569.990313
395.296230	2572.120201
395.679351	2569.289593
396.062410	2568.447720
396.445408	2571.416960
396.828343	2570.146589
397.211217	2570.693554
397.594028	2570.643142
397.976778	2569.133317
398.359466	2571.638770
398.742092	2570.149109
399.124656	2572.339491
399.507158	2570.948132
399.889598	2571.545509
400.271977	2574.197156
400.654294	2574.761765
401.036549	2573.526682
401.418742	2572.271435
401.800874	2571.094326
402.182944	2573.395612
402.564952	2571.749676
402.946898	2572.868812
403.328783	2572.505849
403.710606	2576.410222
404.092367	2572.957032
404.474067	2573.645150
404.855705	2572.508369
405.237282	2573.095664
405.618797	2574.827300
406.000250	2575.281004
406.381642	2575.162537
406.762972	2574.751683
407.144240	2573.090623
407.525447	2573.619944
407.906593	2571.578277
408.287677	2575.258319
408.668700	2576.042218
409.049661	2575.734708
409.430560	2576.085068
409.811399	2577.355439
410.192176	2577.534400
410.572891	2577.925089
410.953545	2574.605489
411.334138	2577.698237
411.714669	2577.907445
412.095139	2577.952816
412.475547	2576.410222
412.855894	2580.727971
413.236180	2580.652353
413.616405	2579.016499
413.996568	2577.690676
414.376670	2579.805440
414.756711	2578.862744
415.136691	2576.846282
415.516609	2580.070100
415.896466	2581.030440
416.276262	2579.132446
416.655997	2578.615727
417.035670	2579.465162
417.415283	2580.745615
417.794834	2581.499267
418.174324	2581.612693
418.553753	2583.142683
418.933121	2582.250399
419.312428	2581.532035
419.691674	2583.800554
420.070859	2582.631006
420.449983	2584.095462
420.829045	2582.691500
421.208047	2580.906932
421.586988	2584.062694
421.965867	2579.997003
422.344686	2584.849114
422.723444	2582.820050
423.102141	2582.731829
423.480777	2581.274936
423.859352	2580.513722
424.237866	2583.435070
424.616319	2582.757035
424.994712	2584.602097
425.373044	2583.170410
425.751314	2582.613362
426.129524	2581.287539
426.507673	2581.600090
426.885762	2581.768969
427.263789	2586.041347
427.641756	2586.278281
428.019662	2586.351378
428.397508	2586.401789
428.775292	2583.966912
429.153016	2584.559248
429.530679	2586.288363
429.908282	2583.745101
430.285824	2586.235431
430.663305	2586.868096
431.040726	2588.514033
431.418086	2584.743250
431.795385	2586.202664
432.172624	2584.062694
432.549802	2587.893971
432.926920	2586.515215
433.303977	2586.721903
433.680974	2589.118971
434.057910	2586.018662
434.434786	2585.690987
434.811601	2588.771132
435.188355	2586.507654
435.565050	2586.943713
435.941683	2590.835484
436.318257	2588.279619
436.694770	2588.478745
437.071222	2592.224322
437.447614	2588.876996
437.823946	2590.853128
438.200218	2591.374888
438.576429	2590.364136
438.952580	2589.479414
439.328670	2591.309353
439.704700	2588.864393
440.080670	2589.227356
440.456580	2589.620566
440.832429	2590.159970
441.208218	2590.165011
441.583947	2591.074939
441.959616	2593.376226
442.335224	2591.936976
442.710773	2594.543253
443.086261	2591.218612
443.461689	2594.520568
443.837057	2591.720207
444.212365	2590.318766
444.587612	2589.320617
444.962800	2589.905391
445.337927	2588.468662
445.712995	2587.309197
446.088002	2594.021493
446.462949	2591.090062
446.837837	2592.993098
447.212664	2593.136771
447.587431	2591.994950
447.962139	2596.398397
448.336786	2595.710280
448.711374	2595.866556
449.085901	2599.168512
449.460369	2595.382605
449.834776	2595.440578
450.209124	2597.303285
450.583412	2599.201279
450.957640	2598.921495
451.331808	2596.884869
451.705917	2596.504262
452.079965	2594.515527
452.453954	2598.152719
452.827883	2598.308995
453.201752	2597.515013
453.575562	2596.395877
453.949311	2599.410487
454.323001	2597.991402
454.696632	2599.687750
455.070202	2598.939139
455.443713	2599.846547
455.817164	2599.418049
456.190556	2601.242946
456.563888	2602.190683
456.937160	2602.268821
457.310373	2600.017946
457.683526	2601.280755
458.056619	2602.024325
458.429653	2601.668924
458.802628	2598.475353
459.175542	2603.234202
459.548398	2602.742690
459.921194	2603.690427
460.293930	2602.682196
460.666607	2603.143461
461.039224	2603.841661
461.411782	2608.403905
461.784280	2608.315685
462.156719	2605.664038
462.529099	2610.019595
462.901419	2609.245778
463.273680	2601.535333
463.645882	2601.986517
464.018024	2603.955087
464.390106	2601.694130
464.762130	2611.317692
465.134094	2606.883997
465.505999	2610.238885
465.877845	2615.277519
466.249631	2618.428240
466.621358	2616.971346
466.993026	2617.924124
467.364634	2619.418827
467.736184	2618.198867
468.107674	2616.396655
468.479105	2615.690893
468.850477	2615.358177
469.221790	2615.385903
469.593043	2615.577467
469.964238	2613.782817
470.335373	2613.190481
470.706449	2616.452108
471.077467	2616.386572
471.448425	2615.960595
471.819324	2624.386884
472.190164	2627.048613
472.560945	2622.935031
472.931667	2619.867489
473.302330	2617.301542
473.672934	2617.730040
474.043479	2621.725154
474.413965	2617.770369
474.784393	2620.747171
475.154761	2622.105762
475.525070	2618.972684
475.895321	2621.039557
476.265513	2622.599795
476.635645	2626.297481
477.005719	2626.055506
477.375734	2628.465177
477.745691	2629.745630
478.115588	2629.962400
478.485427	2630.854684
478.855207	2637.045221
479.224928	2638.386168
479.594591	2642.308186
479.964194	2646.333547
480.333739	2648.828918
480.703226	2649.693476
481.072653	2649.511994
481.442022	2652.975267
481.811333	2654.613642
482.180584	2656.151194
482.549777	2657.308139
482.918912	2655.531132
483.287988	2663.849036
483.657005	2667.090498
484.025964	2666.185611
484.394864	2667.471105
484.763706	2674.705161
485.132489	2671.186435
485.501213	2678.175995
485.869879	2679.443845
486.238487	2685.130267
486.607036	2690.247038
486.975527	2687.141687
487.343959	2696.034283
487.712333	2698.086032
488.080648	2704.843699
488.448905	2712.118084
488.817104	2716.990359
489.185244	2728.038048
489.553326	2733.084243
489.921350	2747.953126
490.289315	2776.581839
490.657222	2804.295582
491.025070	2815.368477
491.392861	2830.658296
491.760593	2835.969152
492.128267	2837.385716
492.495883	2842.290759
492.863440	2848.093127
493.230939	2853.136801
493.598380	2874.044987
493.965763	2885.259033
494.333088	2897.604819
494.700354	2915.679876
495.067563	2938.075202
495.434713	2956.712348
495.801805	2982.840648
496.168839	3005.266221
496.535815	3028.994933
496.902733	3058.352092
497.269593	3083.290680
497.636395	3121.306021
498.003139	3151.951195
498.369825	3184.388500
498.736453	3217.496278
499.103023	3257.548245
499.469535	3298.628608
499.835989	3346.373376
500.202385	3389.608832
500.568723	3419.437339
500.935003	3477.357676
501.301226	3517.225641
501.667390	3602.716049
502.033497	3684.602031
502.399546	3716.686455
502.765537	3762.757560
503.131470	3836.786904
503.497345	3907.075712
503.863163	3927.288219
504.228923	4030.606667
504.594625	4119.542703
504.960269	4149.489677
505.325856	4268.483593
505.691385	4309.558915
506.056856	4417.195111
506.422270	4517.027601
506.787625	4549.177560
507.152924	4693.536042
507.518164	4761.720168
507.883347	4829.001928
508.248472	4881.457654
508.613540	5056.153799
508.978550	5155.013347
509.343503	5250.805352
509.708398	5381.479622
510.073236	5490.923072
510.438016	5621.201611
510.802738	5701.781934
511.167403	5838.394683
511.532010	5910.828502
511.896561	6140.904243
512.261053	6281.169307
512.625488	6357.300813
512.989866	6457.886956
513.354186	6530.688779
513.718449	6708.218053
514.082655	6874.878599
514.446803	6979.235525
514.810894	7191.576486
515.174927	7222.662762
515.538904	7361.783484
515.902822	7592.391067
516.266684	7714.979326
516.630488	7814.489182
516.994235	7962.013508
517.357925	8166.167636
517.721558	8384.129484
518.085133	8550.313641
518.448651	8675.682096
518.812112	8774.881922
519.175516	8945.855175
519.538863	9172.760030
519.902152	9249.662832
520.265385	9506.199590
520.628560	9602.946894
520.991678	9776.551629
521.354739	9959.059043
521.717743	10153.571964
522.080690	10226.830011
522.443580	10534.045488
522.806413	10670.718731
523.169189	10903.214226
523.531908	11055.346167
523.894569	11119.658687
524.257174	11307.401338
524.619722	11545.064016
524.982213	11575.109293
525.344647	11807.551855
525.707025	11994.331647
526.069345	12191.660052
526.431608	12352.747603
526.793815	12631.616672
527.155964	12526.488449
527.518057	12791.569963
527.880093	12957.030714
528.242072	13168.587777
528.603995	13227.034914
528.965860	13308.452069
529.327669	13557.474987
529.689421	13681.121888
530.051117	13772.429787
530.412755	14062.104569
530.774337	14098.116052
531.135862	14213.868506
531.497331	14471.232013
531.858743	14409.603907
532.220098	14855.219222
532.581396	14797.424913
532.942638	15004.013919
533.303824	15174.253684
533.664953	15354.613566
534.026025	15350.260529
534.387040	15613.834738
534.747999	15864.559045
535.108902	16069.711321
535.469748	15956.880216
535.830537	16228.061525
536.191270	16413.359217
536.551947	16566.653144
536.912567	16458.260774
537.273131	16816.621278
537.633638	16774.651152
537.994089	17100.561748
538.354483	16931.189061
538.714821	17410.254952
539.075103	17620.602137
539.435328	17606.877596
539.795497	17445.961445
540.155609	17901.822905
540.515665	18237.392352
540.875665	17830.014189
541.235609	18167.779058
541.595496	18333.012958
541.955328	18690.899593
542.315102	18775.986708
542.674821	18616.998798
543.034483	18648.485845
543.394090	18861.280510
543.753640	18833.120625
544.113134	19430.590617
544.472571	19278.536814
544.831953	19647.035078
545.191278	19437.454148
545.550548	19538.236896
545.909761	19771.811198
546.268918	20096.148954
546.628019	20154.452418
546.987064	20094.739951
547.346053	20006.860037
547.704986	20202.746672
548.063863	20445.579053
548.422684	20504.245481
548.781449	20284.955289
549.140158	20695.554749
549.498811	20468.889348
549.857408	20315.570216
550.215949	20794.525202
550.574434	20591.628842
550.932864	20883.294880
551.291237	21075.902245
551.649555	21072.076009
552.007817	21192.531860
552.366022	21172.125269
552.724173	21291.545162
553.082267	21307.810445
553.440305	21789.016306
553.798288	21237.980382
554.156215	21788.897839
554.514086	21927.799272
554.871902	21437.998243
555.229661	21762.595619
555.587365	21730.044888
555.945014	21617.390223
556.302606	21949.435904
556.660143	21922.296852
557.017625	22239.524061
557.375050	21878.282538
557.732421	22277.337756
558.089735	22172.307836
558.446994	22280.712808
558.804197	22353.433973
559.161345	22383.922872
559.518437	22157.106237
559.875474	22435.093104
560.232455	22621.358697
560.589381	22539.308877
560.946251	22531.283360
561.303065	22900.444536
561.659825	23009.068798
562.016528	22679.092512
562.373177	22481.963232
562.729770	22840.112007
563.086307	22778.693109
563.442789	22973.450526
563.799216	22833.525739
564.155587	22887.710581
564.511904	22893.873392
564.868164	22860.276622
565.224370	22879.939642
565.580520	22810.270896
565.936615	22973.291729
566.292654	22660.793123
566.648638	23017.595910
567.004567	22850.887473
567.360441	22830.984997
567.716260	22587.235127
568.072023	22930.925872
568.427732	22712.815310
568.783385	22530.504502
569.138982	22780.780146
569.494525	22827.665398
569.850013	22597.927414
570.205445	22709.072253
570.560823	22520.777596
570.916145	22316.752017
571.271412	22499.808916
571.626625	22279.628960
571.981782	22399.835274
572.336884	22218.605793
572.691931	22360.060570
573.046923	22105.598247
573.401860	22006.229543
573.756743	22007.910768
574.111570	21944.074637
574.466342	21884.039536
574.821059	21982.737766
575.175722	21689.082993
575.530330	21694.613139
575.884882	21724.928117
576.239380	21637.126341
576.593823	21541.916589
576.948211	21526.830936
577.302544	21376.047504
577.656823	21260.247159
578.011047	21353.548834
578.365216	21240.929457
578.719330	21126.442333
579.073389	21022.166065
579.427394	21173.556957
579.781344	20969.087757
580.135239	20856.627176
580.489080	20845.387923
580.842866	20600.246694
581.196597	20769.067375
581.550273	20785.332658
581.903895	20670.459885
582.257463	20984.279274
582.610975	20520.064622
582.964434	20816.028243
583.317837	20540.065400
583.671186	20632.126951
584.024481	20591.623801
584.377721	20371.620285
584.730906	20426.412586
585.084037	20469.668207
585.437113	20369.482836
585.790135	20570.874411
586.143103	20051.411234
586.496016	20053.299146
586.848874	20299.725869
587.201679	20242.791078
587.554428	19908.242465
587.907124	20241.097250
588.259765	20023.654641
588.612352	20096.176680
588.964884	19671.111629
589.317362	19846.563947
589.669786	19899.309540
590.022155	19965.515013
590.374470	20121.153077
590.726731	19939.790005
591.078937	19679.658905
591.431090	19789.782911
591.783188	19529.069558
592.135232	19517.104379
592.487222	19607.598132
592.839157	19648.436519
593.191038	19522.246356
593.542866	19418.209543
593.894639	19135.844434
594.246358	19358.471870
594.598022	19272.089178
594.949633	19024.934008
595.301190	18974.285536
595.652692	19143.015475
596.004141	19390.195851
596.355535	18723.324294
596.706876	18724.617350
597.058162	18614.334548
597.409395	18836.024330
597.760573	18931.564277
598.111698	18712.750474
598.462768	18651.457605
598.813785	18610.389845
599.164748	18435.605480
599.515657	18459.069530
599.866511	18250.738806
600.217312	18616.903016
600.568060	18150.440009
600.918753	18458.346125
601.269392	18359.506742
601.619978	18132.377555
601.970510	18346.107355
602.320988	18291.052914
602.671412	18503.126694
603.021783	18398.064007
603.372100	18145.371129
603.722363	18271.803268
604.072572	18208.226756
604.422728	18347.896964
604.772830	18108.401828
605.122878	18060.599086
605.472872	18051.058702
605.822813	18046.788845
606.172701	18005.232093
606.522534	18200.927165
606.872314	18229.485302
607.222041	18059.674034
607.571714	18278.583620
607.921333	18104.177341
608.270899	18172.391714
608.620411	18386.935660
608.969870	18123.487480
609.319276	18136.196229
609.668627	18167.776537
610.017926	18298.702865
610.367171	18419.143592
610.716362	18450.489486
611.065500	18272.864431
611.414585	18411.256707
611.763616	18393.589983
612.112594	18346.707252
612.461518	18314.816913
612.810389	18513.166152
613.159207	18350.530967
613.507971	18246.521881
613.856682	18540.244710
614.205340	18483.234301
614.553945	18633.233834
614.902496	18368.071662
615.250994	18606.689638
615.599439	18537.225059
615.947830	18529.252474
616.296169	18566.572136
616.644454	18544.688487
616.992686	18517.418365
617.340864	18714.764415
617.688990	18485.104569
618.037063	18665.464451
618.385082	18510.597684
618.733048	18790.737124
619.080961	18655.724942
619.428821	18695.476960
619.776628	18579.495134
620.124382	18497.987238
620.472083	18542.971974
620.819731	18563.491991
621.167326	18264.823790
621.514868	18301.175551
621.862357	18063.790137
622.209793	18076.382939
622.557176	17917.982323
622.904506	17746.865397
623.251783	17647.784039
623.599007	17424.415553
623.946179	17359.742590
624.293297	17305.003221
624.640363	17060.739153
624.987376	17075.812203
625.334336	16869.482817
625.681243	16718.802729
626.028097	16716.491360
626.374899	16652.642626
626.721647	16519.846030
627.068343	16354.123139
627.414987	16283.176460
627.761577	16254.550268
628.108115	16306.716128
628.454600	16023.148704
628.801032	16126.716689
629.147412	16051.858075
629.493739	16070.066722
629.840014	15884.769031
630.186236	15992.153169
630.532405	15746.686786
630.878521	15946.137517
631.224585	15838.944942
631.570597	15657.992725
631.916556	15703.862184
632.262462	15677.622978
632.608316	15591.187354
632.954117	15538.696340
633.299866	15527.126892
633.645562	15464.477952
633.991206	15211.938830
634.336797	15081.481330
634.682336	15040.665628
635.027823	14943.809939
635.373257	14830.792311
635.718639	14719.423140
636.063968	14670.362631
636.409245	14424.374488
636.754470	14456.857163
637.099642	14302.544923
637.444762	14072.035642
637.789829	14121.317963
638.134845	13957.856028
638.479808	13977.947547
638.824719	13934.941464
639.169577	13782.514615
639.514383	13823.461388
639.859137	13647.023523
640.203839	13725.020256
640.548489	13568.953694
640.893086	13556.083629
641.237632	13427.521603
641.582125	13578.282350
641.926566	13410.515270
642.270955	13427.609823
642.615292	13382.756157
642.959576	13395.522879
643.303809	13430.758023
643.647990	13367.753683
643.992118	13419.798555
644.336195	13195.888145
644.680219	13385.594326
645.024192	13314.350219
645.368112	13549.018452
645.711981	13618.848515
646.055797	13792.279330
646.399562	13755.887241
646.743274	14032.016443
647.086935	14300.039469
647.430544	14274.851344
647.774101	14289.589157
648.117606	14446.878198
648.461059	14408.799843
648.804460	14415.849897
649.147810	14146.372497
649.491108	14039.537844
649.834354	14056.171131
650.177548	13768.913582
650.520690	13571.149117
650.863781	13489.842867
651.206820	13530.260318
651.549807	13355.380171
651.892742	13174.468282
652.235626	13114.294550
652.578458	13115.164149
652.921238	12793.165488
653.263967	12988.255621
653.606644	12822.232781
653.949269	12788.731793
654.291843	12607.824946
654.634365	12745.251841
654.976836	12599.212135
655.319255	12627.384623
655.661622	12575.208681
656.003938	12484.835916
656.346203	12423.827872
656.688416	12485.367758
657.030577	12442.669184
657.372687	12382.376984
657.714746	12342.773680
658.056753	12529.964325
658.398708	12349.334742
658.740612	12354.108714
659.082465	12454.778036
659.424266	12412.737333
659.766016	12441.305552
660.107715	12345.306860
660.449362	12417.455853
660.790958	12377.580327
661.132503	12325.772388
661.473996	12385.174825
661.815438	12406.869430
662.156829	12417.932242
662.498168	12401.946744
662.839456	12393.853171
663.180693	12418.645566
663.521879	12503.405006
663.863013	12485.334990
664.204097	12460.041001
664.545129	12573.724061
664.886110	12547.983929
665.227040	12630.646250
665.567918	12634.313689
665.908746	12675.005883
666.249522	12653.233139
666.590248	12699.268956
666.930922	12817.531905
667.271545	12794.967700
667.612118	12877.095658
667.952639	12792.583235
668.293109	12797.694965
668.633528	12752.571597
668.973896	12723.985734
669.314213	12818.056185
669.654480	12552.147923
669.994695	12610.330400
670.334859	12638.631437
670.674973	12587.067995
671.015035	12616.566307
671.355047	12558.240157
671.695008	12530.712936
672.034918	12543.812375
672.374777	12579.481059
672.714585	12495.893687
673.054342	12532.701672
673.394049	12473.689925
673.733705	12575.115419
674.073310	12488.047131
674.412864	12504.055315
674.752368	12377.955893
675.091820	12386.800597
675.431223	12374.888350
675.770574	12250.326480
676.109875	12171.787824
676.449125	12132.492029
676.788324	12074.047412
677.127473	11919.805749
677.466571	11895.058724
677.805619	11804.330558
678.144616	11718.212527
678.483562	11690.032477
678.822458	11558.574308
679.161303	11538.444981
679.500098	11525.912672
679.838842	11482.732669
680.177535	11497.959474
680.516179	11556.855275
680.854771	11506.915084
681.193314	11721.030532
681.531805	11862.676873
681.870247	12263.919951
682.208638	12673.445646
682.546978	13007.094413
682.885268	13062.327815
683.223508	12749.922470
683.561697	12589.598654
683.899836	12488.175680
684.237925	12304.639872
684.575963	12206.256713
684.913951	12136.149387
685.251889	12086.584762
685.589776	12182.318794
685.927614	12110.124430
686.265401	12067.095661
686.603137	12114.134668
686.940824	12263.841813
687.278460	12376.892209
687.616046	12429.852051
687.953582	12597.788009
688.291068	12521.182635
688.628504	12745.327458
688.965889	12761.096188
689.303224	12731.570150
689.640510	12629.632978
689.977745	12329.921258
690.314930	12105.070673
690.652065	12008.066270
690.989150	11733.257851
691.326185	11511.268120
691.663170	11298.110492
692.000105	11060.006713
692.336990	10957.691455
692.673825	10707.370440
693.010610	10583.663045
693.347345	10372.554646
693.684030	10177.172125
694.020665	10117.043763
694.357251	9925.565616
694.693786	9887.252847
695.030272	9703.152429
695.366707	9587.604142
695.703093	9519.309110
696.039429	9512.677472
696.375716	9443.558212
696.711952	9312.659611
697.048139	9349.530610
697.384276	9299.073702
697.720363	9318.507350
698.056400	9259.845963
698.392388	9213.548006
698.728326	9172.878497
699.064214	9095.481662
699.400053	9151.942585
699.735842	8969.450296
700.071581	8924.972195
700.407270	8854.156587
700.742910	8778.987942
701.078501	8688.882358
701.414042	8563.317298
701.749533	8489.655958
702.084974	8364.547122
702.420366	8464.432544
702.755709	8353.461625
703.091002	8222.404228
703.426246	8251.098475
703.761440	8199.411525
704.096584	8158.515164
704.431679	8088.284330
704.766725	8079.583298
705.101721	8023.011470
705.436668	8068.878408
705.771565	7962.036193
706.106413	8043.055097
706.441212	8091.286337
706.775961	8037.406484
707.110661	8068.424704
707.445311	8219.014052
707.779913	8113.560675
708.114465	8245.228052
708.448967	8286.575596
708.783421	8416.866737
709.117825	8598.348276
709.452180	8635.977969
709.786485	8728.170590
710.120742	9006.412036
710.454949	9001.436417
710.789107	9102.093136
711.123216	9309.440834
711.457275	9473.313623
711.791286	9637.088108
712.125247	9629.884299
712.459159	9623.862641
712.793023	9875.759016
713.126837	9458.850552
713.460602	9603.735834
713.794318	9433.571686
714.127985	9457.209657
714.461602	9150.120208
714.795171	9096.323535
715.128691	8850.988221
715.462162	8597.027493
715.795584	8542.477168
716.128957	8404.914162
716.462281	8224.135864
716.795556	8281.466386
717.128782	8082.303001
717.461960	7804.868140
717.795088	7880.029223
718.128167	7789.651417
718.461198	7623.384081
718.794180	7565.042807
719.127113	7555.956128
719.459997	7415.171824
719.792833	7178.038468
720.125619	7241.927531
720.458357	7100.129956
720.791046	7083.322749
721.123686	7091.191990
721.456278	6935.072496
721.788821	6952.524971
722.121315	6840.649164
722.453761	6898.438431
722.786158	6851.293561
723.118506	6864.282093
723.450805	6827.620302
723.783056	6899.290386
724.115259	6805.250182
724.447412	6801.930582
724.779518	6840.876016
725.111574	6842.106058
725.443582	6927.747700
725.775542	6908.656850
726.107453	7093.831034
726.439315	7010.473034
726.771129	7058.958852
727.102895	7223.781898
727.434612	7342.778334
727.766281	7377.562296
728.097901	7459.125644
728.429473	7450.064170
728.760996	7424.641632
729.092471	7401.316213
729.423897	7350.418203
729.755276	7361.526385
730.086606	7288.026362
730.417887	7386.051599
730.749120	7564.831079
731.080305	7758.860049
731.411442	7884.188175
731.742530	7879.111733
732.073570	7983.592167
732.404562	8077.955005
732.735506	7920.716376
733.066401	8058.755771
733.397249	7998.264445
733.728048	7770.913448
734.058798	7435.681758
734.389501	7216.956175
734.720156	7038.164092
735.050762	6806.165151
735.381320	6701.586415
735.711831	6656.112687
736.042293	6548.297529
736.372707	6573.873823
736.703073	6433.865857
737.033391	6474.404296
737.363661	6479.258927
737.693883	6503.907649
738.024056	6589.710608
738.354182	6632.782227
738.684260	6668.967629
739.014290	6777.110461
739.344272	6889.510548
739.674207	6914.134064
740.004093	6976.210832
740.333931	6998.144893
740.663722	7007.536562
740.993464	7087.998419
741.323159	7080.519867
741.652806	6830.566857
741.982405	6829.682134
742.311956	6895.973307
742.641460	6744.335399
742.970915	6548.753754
743.300323	6536.508791
743.629683	6485.883003
743.958996	6358.253591
744.288260	6261.985197
744.617477	6210.820006
744.946647	6227.448252
745.275768	6056.139762
745.604842	6008.919273
745.933869	5993.954608
746.262847	5946.076250
746.591778	5936.848418
746.920662	5894.590945
747.249498	5885.476539
747.578286	5929.432880
747.907027	6012.180900
748.235720	6064.215690
748.564365	6036.930445
748.892963	6057.652108
749.221514	6216.244287
749.550017	6060.923817
749.878473	5935.038643
750.206881	5987.726263
750.535242	5926.451038
750.863555	5863.116501
751.191821	5880.218616
751.520039	5878.834819
751.848210	5792.817611
752.176334	5802.431091
752.504411	5857.578794
752.832440	5786.919461
753.160421	5715.032607
753.488356	5757.098515
753.816243	5793.765348
754.144082	5644.849663
754.471875	5615.547957
754.799620	5660.232744
755.127318	5670.925032
755.454969	5622.338391
755.782572	5590.795891
756.110129	5632.713085
756.437638	5626.273011
756.765100	5561.307662
757.092515	5555.772475
757.419882	5602.246872
757.747203	5584.575107
758.074477	5647.710518
758.401703	5639.695083
758.728882	5584.280200
759.056014	5639.775742
759.383099	5766.966574
759.710138	5785.084481
760.037129	5764.241830
760.364073	5767.609321
760.690970	5852.966138
761.017820	5837.146997
761.344623	5788.020953
761.671379	5880.248863
761.998088	5997.856461
762.324751	6228.227110
762.651366	6801.686086
762.977935	8074.325375
763.304456	9689.324544
763.630931	10613.098342
763.957359	10251.335060
764.283740	9330.729627
764.610074	8516.837859
764.936362	7534.228754
765.262602	6938.434946
765.588796	6400.019551
765.914943	6055.542385
766.241044	5897.721502
766.567097	5708.534560
766.893104	5453.313543
767.219064	5269.296305
767.544978	5204.469587
767.870845	5131.282115
768.196665	5020.036453
768.522438	4955.807112
768.848165	4922.369138
769.173846	4857.320609
769.499479	4812.388805
769.825066	4764.923821
770.150607	4697.692473
770.476101	4673.268083
770.801548	4672.844626
771.126949	4601.703863
771.452303	4550.243764
771.777611	4502.735930
772.102872	4519.797715
772.428087	4484.141634
772.753256	4446.995892
773.078378	4407.132968
773.403453	4336.861804
773.728482	4321.690452
774.053465	4274.653966
774.378401	4259.280967
774.703291	4261.831791
775.028135	4196.511040
775.352932	4142.956342
775.677683	4131.364209
776.002388	4148.267198
776.327046	4159.055267
776.651658	4088.005244
776.976224	4025.038712
777.300743	4032.424003
777.625216	4050.587280
777.949643	4047.212227
778.274024	4005.428624
778.598359	3957.063794
778.922647	3980.787464
779.246889	3972.855208
779.571086	3969.921257
779.895236	3955.798464
780.219339	3938.456895
780.543397	3930.267541
780.867409	3978.355107
781.191374	4001.604909
781.515294	3939.220630
781.839167	3934.166873
782.162995	3951.851241
782.486776	3935.018828
782.810511	3945.355714
783.134201	3947.924182
783.457844	3901.734610
783.781441	3845.397195
784.104993	3850.551775
784.428498	3867.873179
784.751958	3871.149929
785.075372	3848.903317
785.398739	3809.368068
785.722061	3819.152948
786.045337	3860.351778
786.368568	3899.244280
786.691752	3811.326557
787.014891	3852.318699
787.337983	3976.878049
787.661030	4131.356647
787.984031	4289.152324
788.306987	4461.711020
788.629897	4544.690933
788.952760	4501.541177
789.275579	4438.128502
789.598351	4374.957804
789.921078	4243.035849
790.243759	4041.866084
790.566395	4017.030839
790.888984	4017.701313
791.211529	3908.041093
791.534027	3847.650591
791.856480	3844.285621
792.178888	3779.584932
792.501249	3728.404617
792.823566	3737.453488
793.145836	3767.758385
793.468062	3720.696693
793.790241	3671.661389
794.112375	3700.295143
794.434464	3761.719082
794.756507	3787.849903
795.078505	3770.709980
795.400457	3799.789876
795.722364	3931.600926
796.044226	4037.419786
796.366042	4110.536682
796.687812	4096.630659
797.009538	4102.591823
797.331218	4060.475503
797.652852	4031.083056
797.974442	4012.813914
798.295986	4012.382896
798.617484	3933.997994
798.938938	3845.145137
799.260346	3884.357752
799.581709	3885.320613
799.903026	3814.580622
800.224299	3778.697688
800.545526	3769.578241
800.866708	3733.135740
801.187845	3669.115607
801.508936	3705.260680
801.829983	3706.583983
802.150984	3628.491468
802.471940	3614.492184
802.792851	3630.500368
803.113717	3627.314359
803.434538	3631.546408
803.755314	3574.830906
804.076045	3545.488870
804.396731	3563.432857
804.717372	3592.056529
805.037967	3578.745362
805.358518	3568.824372
805.679024	3591.078545
805.999485	3603.920885
806.319901	3607.253087
806.640272	3623.500726
806.960598	3639.531595
807.280879	3613.930096
807.601115	3622.550469
807.921306	3641.406905
808.241453	3680.821166
808.561554	3658.327537
808.881611	3593.263885
809.201623	3626.255717
809.521590	3641.091832
809.841513	3614.716516
810.161390	3641.490084
810.481223	3628.335193
810.801011	3567.795976
811.120755	3555.850962
811.440453	3587.973194
811.760107	3599.257817
812.079716	3556.967578
812.399281	3521.954244
812.718801	3544.747821
813.038276	3520.146990
813.357707	3516.598018
813.677093	3533.780791
813.996434	3485.433605
814.315731	3490.956189
814.634983	3494.656396
814.954191	3507.816328
815.273354	3539.076523
815.592473	3535.346069
815.911547	3538.486708
816.230577	3575.992892
816.549562	3623.354533
816.868502	3668.505627
817.187399	3694.187785
817.506250	3693.756767
817.825058	3660.651509
818.143821	3746.076382
818.462539	3851.287783
818.781213	3897.280750
819.099843	3951.989872
819.418429	4181.964790
819.736970	4424.172068
820.055466	4661.938089
820.373919	5017.054610
820.692327	5422.746507
821.010691	5833.159445
821.329011	7139.884495
821.647286	9773.410990
821.965517	14199.080281
822.283704	18214.069453
822.601847	20459.530446
822.919945	18717.179128
823.237999	16211.428238
823.556010	13760.066357
823.873976	11716.858977
824.191897	9643.843254
824.509775	8291.788149
824.827609	7178.693818
825.145398	6626.919365
825.463144	6509.969637
825.780845	6626.332070
826.098502	6788.344672
826.416116	7621.591951
826.733685	8906.952591
827.051210	10019.860399
827.368692	10122.221028
827.686129	8927.149974
828.003522	7418.284737
828.320872	6407.649337
828.638177	5715.627463
828.955439	5168.876520
829.272656	4674.903937
829.589830	4391.744846
829.906960	4219.052559
830.224046	4041.687123
830.541088	3914.337494
830.858086	3866.547356
831.175041	3789.722692
831.491952	3772.045886
831.808819	3783.932927
832.125642	3854.259543
832.442421	3992.324144
832.759157	4256.268878
833.075849	4782.232623
833.392497	5622.008195
833.709101	6385.037241
834.025662	6745.678867
834.342179	6413.305512
834.658653	5760.987766
834.975083	5124.153924
835.291469	4562.231628
835.607811	4144.418277
835.924110	4009.935415
836.240366	3816.637412
836.556578	3611.548150
836.872746	3504.277438
837.188871	3464.752271
837.504952	3402.607447
837.820990	3320.993687
838.136984	3273.208589
838.452935	3298.971406
838.768842	3293.713483
839.084706	3313.071513
839.400526	3463.938125
839.716303	3780.996455
840.032037	4287.226603
840.347727	4567.431578
840.663373	4311.300633
840.978977	3936.296761
841.294537	3634.976913
841.610054	3408.419897
841.925527	3303.944504
842.240957	3230.676374
842.556344	3177.048580
842.871687	3124.872637
843.186987	3073.720049
843.502244	3039.014226
843.817458	3001.719770
844.132629	2969.569811
844.447756	2979.488281
844.762840	2968.324646
845.077881	2937.308947
845.392879	2917.547624
845.707833	2914.974115
846.022745	2910.295924
846.337613	2913.197108
846.652438	2903.780233
846.967221	2900.914337
847.281960	2885.793396
847.596656	2879.799464
847.911309	2881.437839
848.225919	2874.125645
848.540485	2868.235057
848.855009	2872.116745
849.169490	2856.741226
849.483928	2849.166892
849.798323	2847.939372
850.112675	2845.827128
850.426984	2855.433047
850.741251	2856.063191
851.055474	2842.147086
851.369654	2840.549040
851.683792	2845.809484
851.997887	2853.265351
852.311938	2852.209229
852.625947	2845.317972
852.939914	2847.447859
853.253837	2853.671163
853.567718	2839.155161
853.881555	2836.949656
854.195350	2852.330217
854.509103	2845.050790
854.822812	2839.709688
855.136479	2839.029132
855.450103	2834.781960
855.763685	2832.034531
856.077224	2825.281906
856.390720	2840.153309
856.704173	2850.832994
857.017584	2845.549865
857.330953	2839.903772
857.644278	2849.469362
857.957561	2856.201823
858.270802	2861.830271
858.584000	2863.133409
858.897155	2848.597242
859.210268	2847.899042
859.523339	2846.021212
859.836367	2844.536593
860.149352	2837.463854
860.462295	2833.549398
860.775195	2842.220182
861.088054	2841.900069
861.400869	2825.478511
861.713642	2825.680157
862.026373	2837.481498
862.339062	2839.576097
862.651708	2844.387879
862.964312	2850.384331
863.276873	2842.431911
863.589392	2851.931965
863.901869	2863.468646
864.214303	2882.105792
864.526696	2902.472053
864.839045	2895.149777
865.151353	2897.355282
865.463619	2894.098697
865.775842	2894.552401
866.088023	2912.922365
866.400162	2920.146339
866.712258	2892.465363
867.024313	2882.617469
867.336325	2889.211298
867.648296	2909.005389
867.960224	2902.993813
868.272110	2889.634755
868.583954	2893.702966
868.895755	2911.667118
869.207515	2894.658265
869.519233	2896.939387
869.830909	2905.496746
870.142542	2919.425454
870.454134	2917.383786
870.765684	2923.060126
871.077191	2919.125505
871.388657	2927.153543
871.700081	2941.903959
872.011463	2953.919549
872.322803	2953.571709
872.634101	2950.050463
872.945357	2969.037969
873.256571	2994.324397
873.567744	2988.975733
873.878874	2976.546768
874.189963	3002.140706
874.501010	3006.261849
874.812015	2993.573265
875.122979	2994.677278
875.433900	2992.612925
875.744780	2992.849859
876.055618	3003.411077
876.366415	3000.852691
876.677169	3011.055987
876.987882	3008.938702
877.298554	2999.589882
877.609183	3021.350023
877.919771	3044.113353
878.230317	3071.519586
878.540822	3120.711165
878.851285	3159.356650
879.161707	3195.756302
879.472087	3290.996301
879.782425	3505.033611
880.092722	3922.718413
880.402977	4437.826033
880.713191	5039.507909
881.023363	6147.785418
881.333494	7406.664877
881.643583	7981.878175
881.953631	7698.434259
882.263637	7098.874708
882.573602	6528.795826
882.883526	5962.275997
883.193408	5396.925717
883.503248	4941.008804
883.813048	4639.638545
884.122806	4355.070452
884.432522	4047.497053
884.742197	3818.479954
885.051831	3622.792444
885.361424	3487.848317
885.670975	3418.303079
885.980485	3336.676716
886.289954	3266.098042
886.599382	3220.606670
886.908768	3182.014116
887.218113	3138.735811
887.527417	3083.741863
887.836680	3036.929709
888.145901	3029.246990
888.455082	3020.881195
888.764221	2971.114925
889.073319	2943.375976
889.382376	2940.767178
889.691392	2941.442693
890.000366	2944.911007
890.309300	2930.296702
890.618193	2944.512756
890.927044	2962.091259
891.235855	2960.364664
891.544625	2943.988476
891.853353	2955.915846
892.162041	2973.479226
892.470687	3010.839217
892.779293	3063.499110
893.087858	3107.941922
893.396381	3173.217303
893.704864	3286.791978
894.013306	3515.834283
894.321707	3808.387564
894.630068	4012.400540
894.938387	4017.451776
895.246665	3975.743789
895.554903	3857.558979
895.863100	3664.586130
896.171256	3501.661079
896.479371	3367.243753
896.787446	3247.624734
897.095480	3144.747387
897.403473	3083.028540
897.711425	3045.431615
898.019336	3034.923329
898.327207	3013.112777
898.635038	2975.409988
898.942827	2961.856846
899.250576	2952.296297
899.558284	2920.693304
899.865952	2899.878380
900.173579	2879.111346
900.481165	2871.305120
900.788711	2863.418234
901.096216	2837.357990
901.403681	2826.781649
901.711105	2832.757937
902.018489	2833.103256
902.325832	2833.418328
902.633135	2838.850171
902.940397	2867.960314
903.247619	2944.525359
903.554800	3130.846405
903.861941	3457.888740
904.169041	3869.443499
904.476101	4169.213192
904.783121	4140.337463
905.090100	3903.330135
905.397039	3637.605875
905.703938	3391.330386
906.010796	3214.436297
906.317614	3105.149123
906.624391	3012.364166
906.931129	2943.774227
907.237826	2882.098230
907.544483	2836.064934
907.851099	2806.664924
908.157675	2786.013838
908.464211	2765.682864
908.770707	2755.025865
909.077163	2743.842065
909.383578	2727.599467
909.689954	2718.812736
909.996289	2715.790565
910.302584	2717.239896
910.608839	2717.991028
910.915054	2711.629092
911.221229	2702.698688
911.527363	2708.332177
911.833458	2715.367108
912.139513	2716.902139
912.445527	2721.182079
912.751502	2729.562997
913.057436	2735.919892
913.363331	2749.619227
913.669186	2769.304933
913.975000	2801.197793
914.280775	2860.466639
914.586510	2925.855445
914.892205	3001.129955
915.197859	3123.435909
915.503475	3308.637819
915.809050	3511.635002
916.114585	3656.447187
916.420081	3680.811084
916.725536	3627.405100
917.030952	3511.849251
917.336328	3388.517422
917.641665	3261.245931
917.946961	3164.007115
918.252218	3096.301898
918.557435	3024.150384
918.862612	2964.311888
919.167750	2915.989907
919.472848	2877.541027
919.777906	2850.492716
920.082925	2826.912719
920.387904	2797.484983
920.692843	2780.811367
920.997743	2770.882814
921.302603	2758.718510
921.607423	2752.026378
921.912204	2735.766137
922.216946	2725.522512
922.521647	2717.345761
922.826310	2710.910728
923.130932	2702.471836
923.435516	2697.365147
923.740059	2691.272913
924.044564	2681.261181
924.349028	2676.363700
924.653454	2671.199038
924.957840	2662.026659
925.262186	2660.589930
925.566493	2655.044661
925.870761	2651.662047
926.174989	2649.990904
926.479178	2643.313896
926.783328	2640.516055
927.087438	2636.531023
927.391509	2635.784932
927.695541	2632.336783
927.999533	2630.307719
928.303486	2624.465022
928.607400	2625.811010
928.911275	2629.173459
929.215110	2624.674229
929.518906	2620.132150
929.822663	2623.948303
930.126381	2621.745319
930.430060	2623.731534
930.733699	2625.702625
931.037299	2623.421503
931.340861	2627.061216
931.644383	2626.635238
931.947866	2623.960906
932.251309	2623.832357
932.554714	2623.441667
932.858080	2621.367232
933.161407	2618.163579
933.464694	2616.293311
933.767943	2613.218207
934.071153	2616.789865
934.374323	2614.647374
934.677455	2616.184926
934.980548	2612.368773
935.283602	2615.983280
935.586617	2615.622838
935.889593	2613.029164
936.192530	2617.954371
936.495428	2617.087293
936.798287	2618.415637
937.101108	2619.217180
937.403890	2624.525515
937.706632	2629.770836
938.009336	2635.437093
938.312002	2642.910603
938.614628	2650.971408
938.917216	2660.718479
939.219765	2658.752429
939.522275	2658.117244
939.824747	2656.635145
940.127179	2654.974085
940.429573	2650.600884
940.731929	2648.397899
941.034246	2643.961684
941.336524	2639.701909
941.638763	2640.455562
941.940964	2635.434572
942.243126	2636.107566
942.545250	2635.611013
942.847335	2633.473563
943.149381	2627.270424
943.451389	2624.386884
943.753359	2620.510236
944.055290	2620.792541
944.357182	2619.149125
944.659036	2618.035030
944.960851	2618.561830
945.262628	2617.979577
945.564367	2616.091665
945.866067	2618.009824
946.167729	2617.788013
946.469352	2617.639299
946.770937	2617.813219
947.072484	2615.033023
947.373992	2615.532097
947.675462	2613.684514
947.976893	2610.062445
948.278286	2608.910541
948.579641	2608.582866
948.880958	2606.231168
949.182236	2608.066148
949.483476	2608.847527
949.784678	2606.377362
950.085841	2607.468771
950.386967	2607.388113
950.688054	2607.451127
950.989103	2610.012033
951.290114	2609.507918
951.591087	2614.728033
951.892021	2614.407920
952.192917	2619.844804
952.493776	2620.928652
952.794596	2620.326234
953.095378	2619.907818
953.396122	2620.830350
953.696828	2618.554269
953.997496	2617.941768
954.298126	2613.863475
954.598718	2611.791561
954.899272	2610.816097
955.199788	2608.045983
955.500266	2605.323760
955.800706	2605.210334
956.101108	2601.787391
956.401472	2595.896803
956.701798	2598.379571
957.002087	2593.217429
957.302337	2594.570979
957.602550	2592.461256
957.902724	2592.879672
958.202861	2589.930597
958.502960	2590.069229
958.803022	2588.866914
959.103045	2589.287850
959.403031	2589.212233
959.702979	2584.546645
960.002889	2586.633683
960.302762	2586.104361
960.602596	2585.476738
960.902393	2582.714185
961.202153	2583.598908
961.501875	2585.716192
961.801559	2583.515729
962.101205	2583.495564
962.400814	2584.947417
962.700385	2585.519587
962.999918	2581.040522
963.299414	2576.942064
963.598873	2578.484657
963.898293	2576.790830
964.197677	2583.873651
964.497022	2582.235276
964.796331	2583.185533
965.095601	2581.441294
965.394835	2584.922211
965.694030	2580.100347
965.993189	2583.319124
966.292309	2582.114288
966.591393	2580.861561
966.890439	2578.366190
967.189447	2580.372569
967.488419	2580.251582
967.787353	2581.166551
968.086249	2578.194791
968.385108	2582.547827
968.683930	2580.488516
968.982714	2579.031622
969.281462	2578.572877
969.580172	2580.637230
969.878844	2582.310893
970.177480	2582.217632
970.476078	2579.734863
970.774639	2579.457600
971.073162	2581.070769
971.371649	2580.246541
971.670098	2581.960533
971.968510	2578.232600
972.266885	2581.080852
972.565223	2580.735532
972.863524	2580.032292
973.161788	2583.455235
973.460014	2580.065059
973.758204	2582.464648
974.056356	2578.262847
974.354471	2581.103537
974.652550	2576.725295
974.950591	2579.303845
975.248595	2581.400965
975.546563	2580.511201
975.844493	2581.552199
976.142386	2578.961046
976.440243	2578.562795
976.738062	2581.408527
977.035845	2577.829307
977.333590	2582.119329
977.631299	2580.322158
977.928971	2577.443659
978.226606	2576.087589
978.524204	2581.529514
978.821765	2572.548699
979.119290	2579.583629
979.416777	2576.483319
979.714228	2579.271077
980.011642	2580.284349
980.309020	2578.532548
980.606360	2579.835687
980.903664	2580.153279
981.200931	2577.483988
981.498162	2579.601273
981.795356	2579.296283
982.092513	2582.935996
982.389633	2584.312231
982.686717	2587.165524
982.983764	2591.427820
983.280775	2594.497882
983.577749	2598.732452
983.874686	2596.221957
984.171587	2592.057964
984.468451	2589.986050
984.765279	2587.112592
985.062070	2583.533373
985.358824	2583.571182
985.655543	2584.244176
985.952224	2582.588157
986.248869	2580.463310
986.545478	2580.370049
986.842050	2579.147569
987.138586	2578.509863
987.435086	2580.107909
987.731549	2577.380645
988.027975	2578.295614
988.324366	2577.259657
988.620719	2577.897363
988.917037	2575.739749
989.213318	2575.878381
989.509563	2574.237485
989.805772	2578.043556
990.101944	2575.341498
990.398080	2574.270253
990.694180	2578.091447
990.990244	2576.538772
991.286271	2574.386199
991.582262	2572.757907
991.878217	2578.769483
992.174136	2578.540110
992.470019	2574.877712
992.765865	2573.188925
993.061676	2570.622978
993.357450	2569.125755
993.653188	2570.169274
993.948890	2575.661611
994.244556	2573.188925
994.540186	2573.798905
994.835780	2574.643298
995.131337	2576.077506
995.426859	2576.085068
995.722345	2578.146900
996.017795	2577.068093
996.313208	2581.584967
996.608586	2579.450038
996.903928	2579.102199
997.199234	2580.085224
997.494504	2580.543969
997.789738	2579.734863
998.084936	2579.608835
998.380099	2576.823597
998.675225	2576.856365
998.970316	2576.495922
999.265371	2577.219328
999.560390	2575.084399
999.855373	2574.487022
1000.150320	2575.933833
1000.445232	2575.608679
1000.740108	2572.324367
1001.034948	2577.148752
1001.329752	2578.298135
1001.624521	2573.423339
1001.919254	2571.979048
1002.213951	2575.651529
1002.508613	2576.253947
1002.803239	2573.685479
1003.097829	2577.347877
1003.392384	2574.333267
1003.686903	2573.451065
1003.981386	2572.778071
1004.275834	2572.846127
1004.570246	2574.499625
1004.864623	2573.524162
1005.158964	2571.109449
1005.453270	2576.344687
1005.747540	2572.654563
1006.041775	2572.866291
1006.335974	2569.408060
1006.630138	2572.067268
1006.924266	2573.186405
1007.218359	2572.899059
1007.512416	2570.660787
1007.806438	2569.403019
1008.100425	2571.900910
1008.394376	2568.989644
1008.688292	2571.880746
1008.982172	2574.333267
1009.276017	2570.789336
1009.569827	2571.545509
1009.863602	2570.585169
1010.157341	2569.907134
1010.451045	2572.271435
1010.744714	2574.204718
1011.038347	2574.759245
1011.331945	2571.729511
1011.625508	2570.996023
1011.919036	2572.848647
1012.212528	2572.180694
1012.505986	2570.718760
1012.799408	2571.487536
1013.092795	2572.387382
1013.386147	2574.620613
1013.679464	2571.943760
1013.972745	2573.700602
1014.265992	2571.127093
1014.559204	2573.241857
1014.852380	2573.511559
1015.145521	2574.156827
1015.438628	2571.525344
1015.731699	2571.432083
1016.024736	2574.227403
1016.317737	2573.567012
1016.610703	2572.354614
1016.903635	2571.790005
1017.196531	2571.694223
1017.489393	2570.093657
1017.782219	2571.081723
1018.075011	2570.159192
1018.367768	2570.504511
1018.660490	2573.234296
1018.953177	2573.234296
1019.245829	2573.234296
