Dividing Wavelength (nm)	Counts (n)	Blue Motor Position (mm): 12.900000	Red Motor Position (mm): 0.000000	
326.493990	2164.646256
326.888308	2164.646256
327.282561	2164.646256
327.676750	2127.452623
328.070874	2122.174535
328.464933	2121.395676
328.858929	2125.811727
329.252859	2129.101080
329.646726	2140.357977
330.040528	2152.282826
330.434265	2163.345638
330.827938	2182.905315
331.221547	2200.463654
331.615091	2216.713813
332.008571	2237.165774
332.401986	2254.903074
332.795338	2273.431835
333.188625	2293.624177
333.581847	2309.413071
333.975006	2330.490135
334.368100	2344.728874
334.761129	2363.088756
335.154095	2382.545090
335.546996	2403.143244
335.939833	2426.400607
336.332606	2444.032043
336.725315	2455.495627
337.117960	2468.335446
337.510540	2481.535707
337.903056	2491.721358
338.295508	2499.623367
338.687896	2507.767351
339.080220	2515.969308
339.472480	2521.852335
339.864676	2530.334076
340.256807	2534.437576
340.648875	2537.789943
341.040879	2540.328164
341.432818	2544.214893
341.824694	2544.091385
342.216506	2547.622713
342.608253	2546.092723
342.999937	2547.962991
343.391557	2546.521221
343.783113	2543.902342
344.174605	2546.107847
344.566033	2544.582898
344.957397	2545.228165
345.348697	2543.720860
345.739934	2540.376055
346.131106	2542.261446
346.522215	2539.138452
346.913260	2536.630477
347.304241	2536.514531
347.695159	2531.526309
348.086012	2529.708973
348.476802	2528.211751
348.867528	2523.503313
349.258191	2520.927283
349.648789	2519.707324
350.039324	2517.358146
350.429796	2519.039371
350.820203	2517.113650
351.210548	2517.267406
351.600828	2516.503671
351.991045	2518.552900
352.381198	2515.739936
352.771288	2514.341016
353.161314	2513.521828
353.551276	2515.969308
353.941175	2513.879750
354.331010	2513.047960
354.720782	2514.121726
355.110490	2513.771365
355.500135	2510.978566
355.889717	2513.907477
356.279235	2513.383197
356.668689	2513.887312
357.058080	2514.835049
357.447408	2513.567199
357.836672	2510.676097
358.225873	2515.364370
358.615010	2516.191119
359.004084	2516.198681
359.393095	2515.997035
359.782043	2513.927641
360.170927	2514.658608
360.559748	2516.843949
360.948505	2515.278670
361.337199	2521.509537
361.725830	2519.523322
362.114398	2516.823784
362.502903	2515.452590
362.891344	2519.356964
363.279722	2515.276150
363.668037	2522.137160
364.056289	2518.436953
364.444478	2521.834691
364.832603	2519.493075
365.220665	2520.697911
365.608665	2524.710669
365.996601	2525.504651
366.384474	2522.598426
366.772284	2523.707480
367.160031	2522.293436
367.547715	2522.701769
367.935336	2524.703107
368.322893	2521.968282
368.710388	2520.231604
369.097820	2522.487520
369.485189	2524.130937
369.872495	2527.790814
370.259738	2526.522964
370.646918	2524.889630
371.034035	2527.364837
371.421090	2525.915505
371.808081	2528.007584
372.195010	2524.105731
372.581875	2528.942718
372.968678	2528.108407
373.355418	2527.934487
373.742096	2529.507327
374.128710	2528.998171
374.515262	2530.041689
374.901751	2529.434230
375.288177	2530.341638
375.674540	2529.635877
376.060841	2528.851977
376.447079	2528.922553
376.833254	2528.685619
377.219367	2531.163346
377.605417	2529.784591
377.991404	2531.233922
378.377329	2532.133768
378.763191	2530.868439
379.148991	2532.290044
379.534727	2533.847761
379.920402	2533.152081
380.306013	2535.350024
380.691563	2535.607123
381.077049	2531.619571
381.462474	2533.089067
381.847835	2534.074613
382.233134	2534.218285
382.618371	2531.916999
383.003545	2533.804911
383.388657	2532.653007
383.773706	2535.460930
384.158693	2534.629139
384.543618	2536.131403
384.928480	2538.243647
385.313280	2533.545291
385.698017	2532.627801
386.082692	2534.929088
386.467305	2533.807431
386.851856	2536.141486
387.236344	2537.852957
387.620770	2533.202493
388.005133	2532.872297
388.389435	2535.796167
388.773674	2533.084026
389.157851	2538.528472
389.541965	2537.737011
389.926018	2539.408153
390.310008	2534.551002
390.693936	2538.052083
391.077802	2537.336239
391.461606	2542.190870
391.845348	2539.105684
392.229027	2541.240613
392.612645	2538.798174
392.996200	2539.667773
393.379694	2540.736497
393.763125	2540.207176
394.146494	2540.242464
394.529801	2540.209697
394.913047	2539.980324
395.296230	2539.062834
395.679351	2540.242464
396.062410	2541.412012
396.445408	2540.885211
396.828343	2541.769934
397.211217	2540.935623
397.594028	2539.798843
397.976778	2541.936292
398.359466	2541.273380
398.742092	2543.070552
399.124656	2541.807743
399.507158	2544.068700
399.889598	2545.442414
400.271977	2542.132897
400.654294	2540.229861
401.036549	2543.262115
401.418742	2543.738504
401.800874	2541.875798
402.182944	2543.436035
402.564952	2545.807898
402.946898	2545.548279
403.328783	2545.606252
403.710606	2543.897301
404.092367	2544.494677
404.474067	2544.471992
404.855705	2546.364946
405.237282	2547.355532
405.618797	2544.403937
406.000250	2545.008875
406.381642	2547.355532
406.762972	2541.543082
407.144240	2541.971580
407.525447	2545.129863
407.906593	2539.292207
408.287677	2548.976263
408.668700	2547.075748
409.049661	2547.554658
409.430560	2546.460728
409.811399	2547.393341
410.192176	2546.233876
410.572891	2547.342929
410.953545	2549.621531
411.334138	2548.058773
411.714669	2546.077600
412.095139	2548.288146
412.475547	2548.308310
412.855894	2550.975081
413.236180	2548.159596
413.616405	2547.594987
413.996568	2549.606407
414.376670	2548.787220
414.756711	2548.998948
415.136691	2550.307128
415.516609	2550.155893
415.896466	2548.280584
416.276262	2549.253527
416.655997	2551.819474
417.035670	2549.750080
417.415283	2554.140925
417.794834	2549.860986
418.174324	2550.455842
418.553753	2547.990718
418.933121	2550.163455
419.312428	2551.322920
419.691674	2549.029195
420.070859	2549.437529
420.449983	2550.690256
420.829045	2549.354350
421.208047	2548.749411
421.586988	2549.732436
421.965867	2551.290153
422.344686	2550.821326
422.723444	2551.436346
423.102141	2550.579350
423.480777	2551.277550
423.859352	2551.945503
424.237866	2553.321738
424.616319	2552.109340
424.994712	2554.614794
425.373044	2554.849207
425.751314	2551.043136
426.129524	2547.872251
426.507673	2550.743188
426.885762	2545.525593
427.263789	2552.336192
427.641756	2551.121274
428.019662	2556.096893
428.397508	2553.576316
428.775292	2553.064639
429.153016	2555.539846
429.530679	2553.593960
429.908282	2554.075390
430.285824	2554.221584
430.663305	2553.238559
431.040726	2555.658313
431.418086	2556.353992
431.795385	2556.054043
432.172624	2553.137736
432.549802	2553.460370
432.926920	2555.406255
433.303977	2554.743343
433.680974	2553.087324
434.057910	2554.163611
434.434786	2555.116389
434.811601	2553.815771
435.188355	2553.528425
435.565050	2556.543035
435.941683	2553.253682
436.318257	2556.308622
436.694770	2554.705535
437.071222	2552.953734
437.447614	2556.729558
437.823946	2557.621842
438.200218	2557.717624
438.576429	2556.442212
438.952580	2557.137891
439.328670	2556.933725
439.704700	2556.752243
440.080670	2554.612273
440.456580	2554.871893
440.832429	2554.690411
441.208218	2557.415155
441.583947	2558.130999
441.959616	2557.090000
442.335224	2557.163097
442.710773	2557.896585
443.086261	2558.413303
443.461689	2556.631255
443.837057	2557.730227
444.212365	2557.994887
444.587612	2555.257541
444.962800	2556.971533
445.337927	2553.730071
445.712995	2552.767211
446.088002	2557.047151
446.462949	2559.529919
446.837837	2559.761812
447.212664	2556.827860
447.587431	2557.168138
447.962139	2559.653427
448.336786	2559.650907
448.711374	2560.321380
449.085901	2558.365412
449.460369	2559.146791
449.834776	2559.361040
450.209124	2559.887841
450.583412	2560.114693
450.957640	2560.631411
451.331808	2563.313305
451.705917	2560.969168
452.079965	2561.410269
452.453954	2557.775597
452.827883	2560.540670
453.201752	2559.295505
453.575562	2563.537636
453.949311	2558.188972
454.323001	2559.857594
454.696632	2561.347255
455.070202	2558.766184
455.443713	2558.372974
455.817164	2562.365568
456.190556	2560.364230
456.563888	2561.848850
456.937160	2561.069991
457.310373	2560.686864
457.683526	2560.205433
458.056619	2560.812893
458.429653	2561.314487
458.802628	2562.484035
459.175542	2561.889179
459.548398	2562.869683
459.921194	2561.715259
460.293930	2564.518141
460.666607	2562.047975
461.039224	2562.589899
461.411782	2564.195507
461.784280	2563.703994
462.156719	2564.135013
462.529099	2563.741803
462.901419	2560.752399
463.273680	2562.894889
463.645882	2559.522357
464.018024	2561.879097
464.390106	2561.309446
464.762130	2564.003943
465.134094	2564.999571
465.505999	2563.688871
465.877845	2565.191135
466.249631	2567.888152
466.621358	2569.302196
466.993026	2568.866136
467.364634	2570.537278
467.736184	2566.882442
468.107674	2566.413614
468.479105	2566.579972
468.850477	2569.445868
469.221790	2571.530386
469.593043	2566.426217
469.964238	2568.949315
470.335373	2563.585527
470.706449	2568.175498
471.077467	2564.966803
471.448425	2567.036197
471.819324	2568.039387
472.190164	2569.624829
472.560945	2567.235322
472.931667	2566.224571
473.302330	2568.583831
473.672934	2568.669531
474.043479	2567.784808
474.413965	2567.631053
474.784393	2568.404870
475.154761	2571.679100
475.525070	2567.976372
475.895321	2570.363358
476.265513	2568.803121
476.635645	2570.151630
477.005719	2570.406208
477.375734	2570.191959
477.745691	2571.051476
478.115588	2570.880077
478.485427	2572.062227
478.855207	2571.724470
479.224928	2570.348235
479.594591	2571.570715
479.964194	2571.885787
480.333739	2572.092474
480.703226	2572.054666
481.072653	2572.460478
481.442022	2572.810839
481.811333	2570.678431
482.180584	2570.824624
482.549777	2570.499470
482.918912	2566.761454
483.287988	2574.635736
483.657005	2573.743452
484.025964	2572.825962
484.394864	2572.775551
484.763706	2575.563309
485.132489	2573.879563
485.501213	2573.642629
485.869879	2576.037177
486.238487	2573.020047
486.607036	2575.807805
486.975527	2573.214131
487.343959	2575.906107
487.712333	2573.309913
488.080648	2574.557598
488.448905	2576.322002
488.817104	2573.473750
489.185244	2575.959039
489.553326	2575.568350
489.921350	2576.100192
490.289315	2575.744790
490.657222	2578.109091
491.025070	2578.424163
491.392861	2577.441138
491.760593	2577.912486
492.128267	2579.029102
492.495883	2574.224882
492.863440	2579.850810
493.230939	2577.723443
493.598380	2576.115315
493.965763	2576.886612
494.333088	2576.783268
494.700354	2575.936354
495.067563	2575.752352
495.434713	2575.487691
495.801805	2576.616910
496.168839	2575.921231
496.535815	2575.780078
496.902733	2576.616910
497.269593	2578.857703
497.636395	2573.965263
498.003139	2577.849472
498.369825	2577.327712
498.736453	2577.471385
499.103023	2575.505335
499.469535	2579.601273
499.835989	2577.325192
500.202385	2576.165727
500.568723	2571.406877
500.935003	2575.729667
501.301226	2572.364697
501.667390	2579.387024
502.033497	2577.632702
502.399546	2579.076993
502.765537	2578.018351
503.131470	2581.322827
503.497345	2580.092785
503.863163	2581.761407
504.228923	2580.891808
504.594625	2576.599266
504.960269	2577.143710
505.325856	2583.417426
505.691385	2581.327868
506.056856	2578.018351
506.422270	2583.301480
506.787625	2580.155800
507.152924	2581.675708
507.518164	2582.759556
507.883347	2582.063877
508.248472	2581.877354
508.613540	2581.774010
508.978550	2583.971953
509.343503	2579.906263
509.708398	2584.760894
510.073236	2584.904567
510.438016	2586.845411
510.802738	2586.956316
511.167403	2586.515215
511.532010	2587.006728
511.896561	2589.275247
512.261053	2588.251893
512.625488	2588.234249
512.989866	2587.427664
513.354186	2587.896492
513.718449	2589.585278
514.082655	2591.337079
514.446803	2588.763570
514.810894	2590.878334
515.174927	2591.074939
515.538904	2592.874631
515.902822	2592.551997
516.266684	2594.076946
516.630488	2594.870928
516.994235	2591.528643
517.357925	2594.071905
517.721558	2595.904364
518.085133	2598.477873
518.448651	2596.816813
518.812112	2592.788931
519.175516	2597.507451
519.538863	2597.071392
519.902152	2599.017277
520.265385	2602.785539
520.628560	2601.021136
520.991678	2603.450972
521.354739	2602.583893
521.717743	2601.744541
522.080690	2608.376179
522.443580	2607.284769
522.806413	2609.031529
523.169189	2606.241250
523.531908	2609.908690
523.894569	2609.044132
524.257174	2608.708895
524.619722	2612.593104
524.982213	2616.414299
525.344647	2613.954216
525.707025	2614.680142
526.069345	2613.427415
526.431608	2612.071345
526.793815	2615.824484
527.155964	2618.483692
527.518057	2615.968157
527.880093	2619.345730
528.242072	2619.433950
528.603995	2619.799434
528.965860	2623.217336
529.327669	2617.730040
529.689421	2623.050978
530.051117	2624.727162
530.412755	2624.825464
530.774337	2626.100876
531.135862	2624.775052
531.497331	2628.777729
531.858743	2629.407873
532.220098	2629.791001
532.581396	2630.043058
532.942638	2630.161525
533.303824	2632.447689
533.664953	2633.221506
534.026025	2631.464664
534.387040	2633.481125
534.747999	2633.453399
535.108902	2635.807618
535.469748	2634.970786
535.830537	2635.386681
536.191270	2639.409522
536.551947	2634.199490
536.912567	2636.402474
537.273131	2639.467495
537.633638	2638.469347
537.994089	2638.708802
538.354483	2640.558905
538.714821	2645.486633
539.075103	2642.096457
539.435328	2645.395892
539.795497	2645.864720
540.155609	2643.187867
540.515665	2646.147024
540.875665	2647.893784
541.235609	2647.593835
541.595496	2650.101809
541.955328	2648.796151
542.315102	2655.775628
542.674821	2652.529125
543.034483	2653.000473
543.394090	2653.232366
543.753640	2654.326296
544.113134	2658.213026
544.472571	2658.528098
544.831953	2661.469611
545.191278	2660.133706
545.550548	2661.275527
545.909761	2660.920126
546.268918	2664.837102
546.628019	2668.428924
546.987064	2668.383554
547.346053	2668.391116
547.704986	2666.483039
548.063863	2669.046466
548.422684	2669.260715
548.781449	2670.468071
549.140158	2674.286745
549.498811	2672.575273
549.857408	2670.773061
550.215949	2676.923268
550.574434	2677.107271
550.932864	2679.065759
551.291237	2679.774041
551.649555	2681.296469
552.007817	2682.796213
552.366022	2681.261181
552.724173	2683.421316
553.082267	2686.047757
553.440305	2690.186544
553.798288	2689.611853
554.156215	2691.179652
554.514086	2690.751153
554.871902	2688.676719
555.229661	2694.869776
555.587365	2692.712162
555.945014	2696.661906
556.302606	2699.580734
556.660143	2704.894111
557.017625	2708.185984
557.375050	2707.449976
557.732421	2707.984338
558.089735	2710.517518
558.446994	2715.150338
558.804197	2720.534290
559.161345	2720.350288
559.518437	2718.790051
559.875474	2727.475959
560.232455	2724.592419
560.589381	2728.980744
560.946251	2730.258676
561.303065	2734.571383
561.659825	2742.145717
562.016528	2739.720922
562.373177	2741.026581
562.729770	2747.058321
563.086307	2750.156110
563.442789	2753.957140
563.799216	2760.379570
564.155587	2760.180445
564.511904	2766.088677
564.868164	2768.052207
565.224370	2773.738628
565.580520	2775.034205
565.936615	2782.553086
566.292654	2780.687859
566.648638	2788.940227
567.004567	2791.869138
567.360441	2800.184521
567.716260	2795.798717
568.072023	2806.851447
568.427732	2812.673980
568.783385	2813.941830
569.138982	2823.134374
569.494525	2831.588389
569.850013	2839.379492
570.205445	2841.222034
570.560823	2844.549196
570.916145	2852.073118
571.271412	2857.840198
571.626625	2868.630787
571.981782	2876.424411
572.336884	2876.520193
572.691931	2884.941441
573.046923	2885.286760
573.401860	2896.034500
573.756743	2911.566295
574.111570	2917.207346
574.466342	2925.570620
574.821059	2938.654935
575.175722	2936.494801
575.530330	2950.665484
575.884882	2960.684777
576.239380	2975.931747
576.593823	2979.851244
576.948211	2986.082110
577.302544	2995.201558
577.656823	3000.867815
578.011047	3015.406502
578.365216	3026.950745
578.719330	3039.402395
579.073389	3048.100906
579.427394	3070.990265
579.781344	3066.415418
580.135239	3085.642378
580.489080	3095.906167
580.842866	3100.037393
581.196597	3134.281951
581.550273	3136.356386
581.903895	3162.623318
582.257463	3183.271884
582.610975	3189.222966
582.964434	3213.997717
583.317837	3225.673029
583.671186	3248.302769
584.024481	3271.915533
584.377721	3275.114146
584.730906	3296.365130
585.084037	3317.268274
585.437113	3334.143537
585.790135	3355.931403
586.143103	3367.153012
586.496016	3371.886655
586.848874	3417.602359
587.201679	3425.600150
587.554428	3438.765123
587.907124	3480.584015
588.259765	3493.663288
588.612352	3530.695604
588.964884	3531.471942
589.317362	3562.406983
589.669786	3592.674070
590.022155	3617.703399
590.374470	3657.709996
590.726731	3674.688602
591.078937	3682.320909
591.431090	3711.980538
591.783188	3717.185529
592.135232	3738.960793
592.487222	3784.847896
592.839157	3807.888490
593.191038	3834.031914
593.542866	3840.890403
593.894639	3862.106099
594.246358	3907.680651
594.598022	3924.228238
594.949633	3937.151236
595.301190	3955.266622
595.652692	4001.065505
596.004141	4043.436403
596.355535	4025.966285
596.706876	4054.360584
597.058162	4082.757403
597.409395	4118.912559
597.760573	4167.353006
598.111698	4176.868184
598.462768	4209.328173
598.813785	4230.899271
599.164748	4244.563318
599.515657	4282.450110
599.866511	4297.313952
600.217312	4362.344837
600.568060	4347.599462
600.918753	4423.274743
601.269392	4453.556954
601.619978	4455.623827
601.970510	4530.311042
602.320988	4551.746028
602.671412	4617.018888
603.021783	4640.742558
603.372100	4646.769257
603.722363	4704.296384
604.072572	4737.341148
604.422728	4783.218168
604.772830	4806.044513
605.122878	4813.139937
605.472872	4873.127147
605.822813	4917.476698
606.172701	4950.178663
606.522534	5015.567470
606.872314	5058.896187
607.222041	5067.589657
607.571714	5144.338704
607.921333	5178.177449
608.270899	5226.983380
608.620411	5310.666534
608.969870	5292.488133
609.319276	5346.196586
609.668627	5410.683026
610.017926	5478.506710
610.367171	5539.343354
610.716362	5619.101970
611.065500	5612.677019
611.414585	5692.475964
611.763616	5732.779989
612.112594	5781.064161
612.461518	5807.769673
612.810389	5898.951543
613.159207	5901.804837
613.507971	5949.108504
613.856682	6075.991825
614.205340	6109.144974
614.553945	6217.204627
614.902496	6177.326579
615.250994	6315.744061
615.599439	6340.528894
615.947830	6391.429424
616.296169	6441.692249
616.644454	6505.460324
616.992686	6529.040322
617.340864	6654.131513
617.688990	6664.329767
618.037063	6775.845132
618.385082	6794.590662
618.733048	6914.658344
619.080961	6928.645025
619.428821	7010.369691
619.776628	7051.155146
620.124382	7072.549803
620.472083	7142.654609
620.819731	7212.005762
621.167326	7163.797208
621.514868	7222.844243
621.862357	7214.745629
622.209793	7266.346880
622.557176	7273.757376
622.904506	7240.142962
623.251783	7266.840913
623.599007	7271.647653
623.946179	7308.261554
624.293297	7334.420101
624.640363	7315.674571
624.987376	7345.722368
625.334336	7325.076322
625.681243	7329.570511
626.028097	7371.449897
626.374899	7439.578570
626.721647	7405.170175
627.068343	7402.417705
627.414987	7427.089112
627.761577	7496.004205
628.108115	7565.461223
628.454600	7491.631004
628.801032	7561.183804
629.147412	7591.997857
629.493739	7655.135788
629.840014	7641.610372
630.186236	7721.321097
630.532405	7681.211157
630.878521	7813.798544
631.224585	7814.728637
631.570597	7819.779873
631.916556	7843.937082
632.262462	7883.449646
632.608316	7923.065553
632.954117	7934.778674
633.299866	7983.990418
633.645562	8003.232502
633.991206	7943.817463
634.336797	7909.033502
634.682336	7958.625853
635.027823	7946.827032
635.373257	7964.516441
635.718639	7937.531144
636.063968	7956.558980
636.409245	7908.761279
636.754470	7953.650234
637.099642	7940.034077
637.444762	7868.953808
637.789829	7940.525590
638.134845	7910.687000
638.479808	7962.000905
638.824719	7969.464333
639.169577	7939.532482
639.514383	8005.984972
639.859137	7957.915050
640.203839	8036.448665
640.548489	7980.887588
640.893086	8043.191208
641.237632	7982.160479
641.582125	8123.950493
641.926566	8077.723112
642.270955	8119.491592
642.615292	8134.930126
642.959576	8175.163575
643.303809	8248.731654
643.647990	8231.702636
643.992118	8329.564035
644.336195	8220.914567
644.680219	8363.359930
645.024192	8390.246924
645.368112	8528.868573
645.711981	8612.869319
646.055797	8731.195283
646.399562	8757.303418
646.743274	8923.346423
647.086935	9136.274679
647.430544	9152.875199
647.774101	9186.529942
648.117606	9335.312036
648.461059	9326.613525
648.804460	9400.451305
649.147810	9287.973081
649.491108	9236.815452
649.834354	9312.815887
650.177548	9171.512345
650.520690	9104.081871
650.863781	9087.118388
651.206820	9146.359508
651.549807	9075.755627
651.892742	9015.942337
652.235626	9000.997836
652.578458	9040.187766
652.921238	8887.140856
653.263967	9036.679123
653.606644	8964.668761
653.949269	8968.278227
654.291843	8907.706243
654.634365	9016.161627
654.976836	8969.389802
655.319255	9010.054269
655.661622	9009.996296
656.003938	8991.548193
656.346203	8976.268456
656.688416	9048.334271
657.030577	9059.926404
657.372687	9050.907780
657.714746	9052.450373
658.056753	9192.841467
658.398708	9126.958627
658.740612	9148.365887
659.082465	9249.977904
659.424266	9231.698680
659.766016	9282.069890
660.107715	9252.621989
660.449362	9323.130088
660.790958	9344.988531
661.132503	9329.918001
661.473996	9381.602431
661.815438	9436.147716
662.156829	9460.267116
662.498168	9489.500767
662.839456	9508.087502
663.180693	9551.267505
663.521879	9648.045056
663.863013	9669.532974
664.204097	9680.154685
664.545129	9773.083315
664.886110	9778.396692
665.227040	9862.596564
665.567918	9900.019569
665.908746	9955.583167
666.249522	9955.162231
666.590248	10004.376495
666.930922	10113.542682
667.271545	10131.854673
667.612118	10217.710564
667.952639	10183.221510
668.293109	10200.492503
668.633528	10203.497031
668.973896	10203.214726
669.314213	10324.646040
669.654480	10136.162339
669.994695	10197.621566
670.334859	10255.413354
670.674973	10242.119831
671.015035	10295.261154
671.355047	10277.170974
671.695008	10265.528429
672.034918	10306.601230
672.374777	10351.732160
672.714585	10309.570469
673.054342	10358.961174
673.394049	10341.417959
673.733705	10428.080435
674.073310	10399.018183
674.412864	10431.614283
674.752368	10362.626093
675.091820	10366.263286
675.431223	10409.140820
675.770574	10331.207102
676.109875	10286.774372
676.449125	10281.302199
676.788324	10251.761038
677.127473	10152.909052
677.466571	10161.239559
677.805619	10112.657959
678.144616	10058.521008
678.483562	10055.057735
678.822458	9963.538108
679.161303	9964.180855
679.500098	9982.308844
679.838842	9957.682808
680.177535	9996.318211
680.516179	10054.412468
680.854771	10031.603767
681.193314	10234.694211
681.531805	10348.520945
681.870247	10693.416526
682.208638	11018.908707
682.546978	11302.476131
682.885268	11386.328163
683.223508	11153.061372
683.561697	11050.325177
683.899836	10978.735752
684.237925	10828.552217
684.575963	10779.234609
684.913951	10739.313711
685.251889	10680.700216
685.589776	10793.395210
685.927614	10740.238763
686.265401	10700.723679
686.603137	10760.705848
686.940824	10906.622046
687.278460	11002.759370
687.616046	11057.009747
687.953582	11211.606812
688.291068	11138.502520
688.628504	11328.420429
688.965889	11347.100425
689.303224	11353.822803
689.640510	11295.292487
689.977745	11056.921527
690.314930	10879.606502
690.652065	10827.816208
690.989150	10600.515623
691.326185	10423.840824
691.663170	10266.062791
692.000105	10070.639942
692.336990	10011.804635
692.673825	9791.528897
693.010610	9710.693995
693.347345	9531.175986
693.684030	9359.759112
694.020665	9332.378084
694.357251	9165.820882
694.693786	9143.619640
695.030272	8985.967636
695.366707	8890.190754
695.703093	8835.796704
696.039429	8848.081996
696.375716	8800.223802
696.711952	8676.796191
697.048139	8721.924601
697.384276	8679.994803
697.720363	8697.502731
698.056400	8650.640165
698.392388	8619.218653
698.728326	8582.095596
699.064214	8530.557359
699.400053	8592.077080
699.735842	8431.468439
700.071581	8403.603462
700.407270	8344.700099
700.742910	8279.283567
701.078501	8217.050522
701.414042	8105.552802
701.749533	8045.482413
702.084974	7929.356913
702.420366	8034.971607
702.755709	7935.749097
703.091002	7825.030235
703.426246	7849.883123
703.761440	7812.157648
704.096584	7776.451156
704.431679	7715.125519
704.766725	7714.616363
705.101721	7665.016450
705.436668	7711.843728
705.771565	7624.745192
706.106413	7703.971966
706.441212	7756.664627
706.775961	7708.040177
707.110661	7731.695792
707.445311	7893.789052
707.779913	7800.966287
708.114465	7922.800893
708.448967	7971.919375
708.783421	8085.763753
709.117825	8261.344621
709.452180	8304.640570
709.786485	8387.517140
710.120742	8651.666039
710.454949	8650.065473
710.789107	8738.409174
711.123216	8926.590406
711.457275	9078.732429
711.791286	9236.848219
712.125247	9222.942196
712.459159	9216.161844
712.793023	9470.336821
713.126837	9066.885717
713.460602	9208.370741
713.794318	9047.499960
714.127985	9097.099873
714.461602	8824.239859
714.795171	8778.025081
715.128691	8559.523829
715.462162	8314.843866
715.795584	8275.550592
716.128957	8157.431316
716.462281	7986.760532
716.795556	8045.847897
717.128782	7859.239505
717.461960	7591.634894
717.795088	7665.069382
718.128167	7573.620331
718.461198	7423.623318
718.794180	7367.210286
719.127113	7362.650563
719.459997	7237.934937
719.792833	7004.716037
720.125619	7064.236940
720.458357	6929.930519
720.791046	6922.025990
721.123686	6922.033552
721.456278	6778.660616
721.788821	6794.709129
722.121315	6692.625764
722.453761	6750.641883
722.786158	6710.746191
723.118506	6717.521502
723.450805	6691.849426
723.783056	6757.021463
724.115259	6658.615619
724.447412	6655.676627
724.779518	6705.470624
725.111574	6703.242434
725.443582	6793.068234
725.775542	6764.961280
726.107453	6951.042872
726.439315	6867.949533
726.771129	6913.304794
727.102895	7075.602222
727.434612	7189.504572
727.766281	7210.412758
728.097901	7295.759492
728.429473	7282.216432
728.760996	7258.792711
729.092471	7236.205821
729.423897	7202.024278
729.755276	7214.183541
730.086606	7157.029459
730.417887	7249.494303
730.749120	7412.192502
731.080305	7603.968077
731.411442	7741.543686
731.742530	7742.856906
732.073570	7847.281888
732.404562	7931.451513
732.735506	7777.774458
733.066401	7915.382835
733.397249	7856.439144
733.728048	7634.036039
734.058798	7309.978067
734.389501	7107.439629
734.720156	6926.928512
735.050762	6698.082813
735.381320	6598.396516
735.711831	6559.347738
736.042293	6449.334638
736.372707	6471.432536
736.703073	6339.036712
737.033391	6375.093565
737.363661	6381.087497
737.693883	6402.066259
738.024056	6484.912581
738.354182	6532.125508
738.684260	6575.098824
739.014290	6671.669687
739.344272	6777.259175
739.674207	6805.277908
740.004093	6867.495829
740.333931	6889.921402
740.663722	6897.911631
740.993464	6970.146324
741.323159	6978.930535
741.652806	6733.086065
741.982405	6717.241718
742.311956	6791.311392
742.641460	6655.313664
742.970915	6456.296472
743.300323	6448.565862
743.629683	6389.523868
743.958996	6267.301093
744.288260	6176.300705
744.617477	6122.902283
744.946647	6145.630325
745.275768	5979.879707
745.604842	5928.880874
745.933869	5913.616260
746.262847	5867.950968
746.591778	5862.067941
746.920662	5824.125697
747.249498	5806.005269
747.578286	5851.783988
747.907027	5925.919196
748.235720	5987.053269
748.564365	5956.760975
748.892963	5969.784796
749.221514	6135.094313
749.550017	5993.773127
749.878473	5859.073496
750.206881	5901.905660
750.535242	5852.983782
750.863555	5782.112721
751.191821	5805.959899
751.520039	5810.733872
751.848210	5716.814655
752.176334	5731.547427
752.504411	5790.528927
752.832440	5714.664603
753.160421	5636.408251
753.488356	5686.512279
753.816243	5721.676848
754.144082	5576.368109
754.471875	5545.506165
754.799620	5592.141879
755.127318	5601.026913
755.454969	5548.460281
755.782572	5517.608420
756.110129	5562.930913
756.437638	5555.555705
756.765100	5493.859544
757.092515	5486.890149
757.419882	5534.173651
757.747203	5513.988871
758.074477	5577.479683
758.401703	5575.700156
758.728882	5520.723853
759.056014	5563.210697
759.383099	5703.475762
759.710138	5711.460950
760.037129	5693.027971
760.364073	5696.229103
760.690970	5787.862157
761.017820	5770.760042
761.344623	5714.541095
761.671379	5808.367050
761.998088	5919.920223
762.324751	6144.755684
762.651366	6700.772268
762.977935	7945.957433
763.304456	9525.270275
763.630931	10457.704775
763.957359	10135.491865
764.283740	9219.902380
764.610074	8424.798993
764.936362	7455.312012
765.262602	6860.959973
765.588796	6322.960473
765.914943	5983.794163
766.241044	5828.362787
766.567097	5646.840919
766.893104	5381.426690
767.219064	5206.526378
767.544978	5145.538498
767.870845	5072.507303
768.196665	4968.205829
768.522438	4890.446031
768.848165	4863.778327
769.173846	4804.529646
769.499479	4762.062966
769.825066	4704.913926
770.150607	4644.407477
770.476101	4617.628868
770.801548	4617.447386
771.126949	4553.144948
771.452303	4500.641331
771.777611	4451.636274
772.102872	4465.464159
772.428087	4429.752625
772.753256	4397.665681
773.078378	4357.628837
773.403453	4282.185449
773.728482	4273.370992
774.053465	4224.607911
774.378401	4211.132907
774.703291	4217.267991
775.028135	4151.009585
775.352932	4100.383798
775.677683	4082.578442
776.002388	4106.523923
776.327046	4120.830718
776.651658	4044.674007
776.976224	3981.520952
777.300743	3985.722753
777.625216	4004.057430
777.949643	4010.805014
778.274024	3963.962613
778.598359	3913.152823
778.922647	3932.152932
779.246889	3928.465328
779.571086	3924.371911
779.895236	3911.446393
780.219339	3896.353178
780.543397	3886.404461
780.867409	3937.075619
781.191374	3956.232003
781.515294	3893.593146
781.839167	3889.053587
782.162995	3904.779467
782.486776	3892.733630
782.810511	3897.391656
783.134201	3902.647059
783.457844	3863.777242
783.781441	3807.064261
784.104993	3809.809169
784.428498	3825.298115
784.751958	3828.348013
785.075372	3806.000578
785.398739	3767.372736
785.722061	3774.314405
786.045337	3817.408709
786.368568	3857.004452
786.691752	3769.550515
787.014891	3807.218016
787.337983	3926.030451
787.661030	4078.507711
787.984031	4242.282196
788.306987	4416.479267
788.629897	4495.837111
788.952760	4448.929175
789.275579	4380.366962
789.598351	4327.404599
789.921078	4191.648847
790.243759	3998.280268
790.566395	3970.503510
790.888984	3971.778922
791.211529	3865.410576
791.534027	3804.785660
791.856480	3802.320535
792.178888	3740.679827
792.501249	3686.356353
792.823566	3693.177034
793.145836	3728.699525
793.468062	3680.521217
793.790241	3631.556490
794.112375	3660.459946
794.434464	3718.977659
794.756507	3747.180395
795.078505	3732.760174
795.400457	3757.721447
795.722364	3885.214749
796.044226	3989.972446
796.366042	4058.559865
796.687812	4047.791960
797.009538	4060.906522
797.331218	4010.366434
797.652852	3983.431549
797.974442	3963.168631
798.295986	3968.759271
798.617484	3892.642889
798.938938	3800.223415
799.260346	3836.698684
799.581709	3839.501566
799.903026	3771.652676
800.224299	3729.634659
800.545526	3726.564596
800.866708	3688.624872
801.187845	3626.018782
801.508936	3664.331552
801.829983	3669.339938
802.150984	3591.015531
802.471940	3573.726894
802.792851	3587.685849
803.113717	3587.554779
803.434538	3589.667022
803.755314	3536.601316
804.076045	3508.184332
804.396731	3522.733102
804.717372	3551.780230
805.037967	3540.362017
805.358518	3531.416489
805.679024	3552.256619
805.999485	3563.047209
806.319901	3569.189855
806.640272	3581.041608
806.960598	3597.712704
807.280879	3573.865525
807.601115	3580.010692
807.921306	3596.253290
808.241453	3637.857932
808.561554	3621.907722
808.881611	3554.318451
809.201623	3586.188626
809.521590	3599.096500
809.841513	3570.863518
810.161390	3596.049123
810.481223	3581.911207
810.801011	3528.704349
811.120755	3513.555681
811.440453	3550.119170
811.760107	3558.071590
812.079716	3516.875281
812.399281	3484.049808
812.718801	3506.240967
813.038276	3478.401195
813.357707	3476.515803
813.677093	3494.306035
813.996434	3446.089919
814.315731	3448.676031
814.634983	3452.018316
814.954191	3462.584575
815.273354	3493.368381
815.592473	3495.445336
815.911547	3493.663288
816.230577	3532.409597
816.549562	3582.692586
816.868502	3624.634986
817.187399	3650.324706
817.506250	3645.747338
817.825058	3611.648973
818.143821	3696.723486
818.462539	3800.745175
818.781213	3846.397864
819.099843	3898.336872
819.418429	4121.607055
819.736970	4358.014486
820.055466	4590.207511
820.373919	4941.654072
820.692327	5343.373540
821.010691	5732.132201
821.329011	6984.319528
821.647286	9538.450371
821.965517	13864.730793
822.283704	17822.790215
822.601847	20130.025507
822.919945	18430.155992
823.237999	15985.995400
823.556010	13575.050970
823.873976	11564.721995
824.191897	9524.783803
824.509775	8181.591046
824.827609	7077.008703
825.145398	6517.511203
825.463144	6406.638586
825.780845	6526.129055
826.098502	6674.984246
826.416116	7461.132024
826.733685	8727.522802
827.051210	9849.353453
827.368692	9979.994954
827.686129	8813.776944
828.003522	7329.331056
828.320872	6326.159085
828.638177	5644.484180
828.955439	5107.417293
829.272656	4620.338488
829.589830	4335.835929
829.906960	4162.127850
830.224046	3988.606293
830.541088	3862.469062
830.858086	3818.757218
831.175041	3745.783995
831.491952	3722.085531
831.808819	3732.997108
832.125642	3799.207623
832.442421	3936.679888
832.759157	4186.206921
833.075849	4697.500909
833.392497	5520.703688
833.709101	6270.356032
834.025662	6635.650643
834.342179	6331.749725
834.658653	5684.153019
834.975083	5058.460127
835.291469	4505.241384
835.607811	4093.205195
835.924110	3958.939103
836.240366	3770.218468
836.556578	3565.819844
836.872746	3455.330354
837.188871	3425.393462
837.504952	3363.752754
837.820990	3279.303344
838.136984	3231.929101
838.452935	3255.015065
838.768842	3252.129005
839.084706	3271.267745
839.400526	3413.524066
839.716303	3727.449318
840.032037	4218.629102
840.347727	4505.034696
840.663373	4264.982512
840.978977	3895.322262
841.294537	3594.977878
841.610054	3371.148126
841.925527	3260.961106
842.240957	3195.801672
842.556344	3143.729073
842.871687	3088.649427
843.186987	3037.206972
843.502244	3003.776560
843.817458	2968.672486
844.132629	2938.029832
844.447756	2948.210442
844.762840	2934.637135
845.077881	2904.319636
845.392879	2886.428581
845.707833	2881.455483
846.022745	2880.180071
846.337613	2881.226110
846.652438	2868.567773
846.967221	2867.289841
847.281960	2853.061184
847.596656	2852.441122
847.911309	2849.786954
848.225919	2845.451562
848.540485	2838.025942
848.855009	2842.109277
849.169490	2829.380364
849.483928	2821.581699
849.798323	2816.558189
850.112675	2817.430308
850.426984	2826.010352
850.741251	2825.468428
851.055474	2815.285297
851.369654	2811.267498
851.683792	2814.201449
851.997887	2821.145639
852.311938	2824.505568
852.625947	2813.087354
852.939914	2815.098775
853.253837	2821.196050
853.567718	2810.158444
853.881555	2800.849953
854.195350	2819.159424
854.509103	2817.596667
854.822812	2809.626602
855.136479	2807.985707
855.450103	2807.995789
855.763685	2801.379275
856.077224	2795.108079
856.390720	2808.830100
856.704173	2820.996925
857.017584	2811.353197
857.330953	2811.569967
857.644278	2814.856799
857.957561	2824.873572
858.270802	2827.883141
858.584000	2830.668378
858.897155	2815.381079
859.210268	2813.639361
859.523339	2814.461069
859.836367	2814.312355
860.149352	2806.407826
860.462295	2802.296765
860.775195	2812.558033
861.088054	2810.539051
861.400869	2798.064716
861.713642	2790.566000
862.026373	2806.120480
862.339062	2808.121818
862.651708	2812.847900
862.964312	2820.018941
863.276873	2813.566264
863.589392	2817.649599
863.901869	2831.361537
864.214303	2850.079341
864.526696	2868.351003
864.839045	2864.862525
865.151353	2861.908409
865.463619	2860.665764
865.775842	2858.671988
866.088023	2878.556819
866.400162	2887.129302
866.712258	2858.893799
867.024313	2846.958867
867.336325	2853.333406
867.648296	2875.433825
867.960224	2869.366796
868.272110	2861.311032
868.583954	2861.129551
868.895755	2878.032539
869.207515	2863.642566
869.519233	2866.389995
869.830909	2872.368803
870.142542	2887.673746
870.454134	2886.854559
870.765684	2888.066956
871.077191	2888.147615
871.388657	2890.060733
871.700081	2908.395409
872.011463	2914.777510
872.322803	2922.026689
872.634101	2918.601225
872.945357	2933.127310
873.256571	2959.437092
873.567744	2951.474589
873.878874	2943.635595
874.189963	2964.843729
874.501010	2970.227682
874.812015	2959.600929
875.122979	2962.769294
875.433900	2954.839559
875.744780	2963.674182
876.055618	2963.454891
876.366415	2962.658389
876.677169	2976.385451
876.987882	2975.954432
877.298554	2963.560756
877.609183	2982.427274
877.919771	3005.298989
878.230317	3026.471835
878.540822	3081.654826
878.851285	3120.522122
879.161707	3150.630413
879.472087	3243.959815
879.782425	3444.736370
880.092722	3849.646888
880.402977	4348.494267
880.713191	4938.952014
881.023363	6012.395149
881.333494	7244.092707
881.643583	7820.215933
881.953631	7541.876185
882.263637	6968.717157
882.573602	6422.309012
882.883526	5865.160689
883.193408	5306.298374
883.503248	4847.818034
883.813048	4559.554775
884.122806	4287.077889
884.432522	3983.305520
884.742197	3760.539452
885.051831	3572.002819
885.361424	3436.153805
885.670975	3370.185266
885.980485	3291.757515
886.289954	3218.186916
886.599382	3178.248374
886.908768	3138.703043
887.218113	3097.922629
887.527417	3044.688044
887.836680	2995.753564
888.145901	2990.019252
888.455082	2984.663026
888.764221	2936.799790
889.073319	2905.794174
889.382376	2904.687640
889.691392	2905.980696
890.000366	2906.303330
890.309300	2897.269583
890.618193	2906.298289
890.927044	2922.039292
891.235855	2925.714293
891.544625	2907.578742
891.853353	2918.054260
892.162041	2934.158226
892.470687	2971.500573
892.779293	3019.537728
893.087858	3062.362330
893.396381	3130.828761
893.704864	3239.238774
894.013306	3458.828915
894.321707	3741.191504
894.630068	3950.966518
894.938387	3957.802323
895.246665	3907.307605
895.554903	3795.925832
895.863100	3610.522276
896.171256	3449.079324
896.479371	3319.768686
896.787446	3204.706870
897.095480	3105.489401
897.403473	3042.845503
897.711425	3005.513238
898.019336	2995.919922
898.327207	2972.813793
898.635038	2941.011674
898.942827	2924.338058
899.250576	2915.077458
899.558284	2884.064280
899.865952	2866.936960
900.173579	2848.708147
900.481165	2840.521314
900.788711	2828.535970
901.096216	2804.393885
901.403681	2790.941566
901.711105	2799.014973
902.018489	2797.890796
902.325832	2796.373409
902.633135	2806.692651
902.940397	2837.148782
903.247619	2905.751324
903.554800	3081.034764
903.861941	3392.625962
904.169041	3795.966161
904.476101	4099.221812
904.783121	4080.007454
905.090100	3847.862319
905.397039	3585.339192
905.703938	3346.512008
906.010796	3171.949453
906.317614	3064.530026
906.624391	2975.841006
906.931129	2906.147054
907.237826	2848.788806
907.544483	2802.848771
907.851099	2774.658639
908.157675	2755.872779
908.464211	2734.699933
908.770707	2725.711555
909.077163	2709.950388
909.383578	2698.277596
909.689954	2691.005732
909.996289	2686.209074
910.302584	2688.444826
910.608839	2689.080011
910.915054	2682.990297
911.221229	2675.753721
911.527363	2678.818742
911.833458	2683.620441
912.139513	2686.998014
912.445527	2688.006245
912.751502	2700.052082
913.057436	2709.627754
913.363331	2718.583364
913.669186	2739.799060
913.975000	2766.812083
914.280775	2821.659837
914.586510	2890.794220
914.892205	2960.722586
915.197859	3079.764393
915.503475	3253.170003
915.809050	3452.461938
916.114585	3589.745160
916.420081	3620.534007
916.725536	3567.914443
917.030952	3458.929738
917.336328	3340.444979
917.641665	3218.829663
917.946961	3123.244345
918.252218	3055.476114
918.557435	2983.521204
918.862612	2927.345106
919.167750	2878.869371
919.472848	2842.603310
919.777906	2820.041626
920.082925	2796.451547
920.387904	2766.728904
920.692843	2747.340626
920.997743	2738.475757
921.302603	2726.182903
921.607423	2719.578992
921.912204	2708.382589
922.216946	2696.671989
922.521647	2689.899198
922.826310	2682.138342
923.130932	2676.071313
923.435516	2668.575118
923.740059	2658.586071
924.044564	2654.321255
924.349028	2648.113074
924.653454	2639.553195
924.957840	2636.843575
925.262186	2632.583800
925.566493	2629.566669
925.870761	2622.670371
926.174989	2618.019906
926.479178	2613.371962
926.783328	2611.126128
927.087438	2610.233844
927.391509	2608.693772
927.695541	2605.023812
927.999533	2601.885693
928.303486	2597.988882
928.607400	2600.471650
928.911275	2597.575507
929.215110	2594.220619
929.518906	2595.937132
929.822663	2598.162801
930.126381	2594.727255
930.430060	2597.111721
930.733699	2596.413521
931.037299	2599.072730
931.340861	2598.505600
931.644383	2599.460898
931.947866	2598.767740
932.251309	2596.647935
932.554714	2595.188521
932.858080	2593.073757
933.161407	2592.869590
933.464694	2592.831781
933.767943	2588.342634
934.071153	2587.886409
934.374323	2589.512181
934.677455	2591.475711
934.980548	2587.616708
935.283602	2586.580750
935.586617	2584.891964
935.889593	2588.090576
936.192530	2587.112592
936.495428	2589.703745
936.798287	2587.999835
937.101108	2591.697522
937.403890	2598.361927
937.706632	2600.610282
938.009336	2609.248299
938.312002	2615.494288
938.614628	2621.946965
938.917216	2630.400980
939.219765	2629.186062
939.522275	2632.538429
939.824747	2624.386884
940.127179	2627.366206
940.429573	2623.943262
940.731929	2620.122067
941.034246	2618.660133
941.336524	2616.678959
941.638763	2609.933896
941.940964	2610.377517
942.243126	2608.192177
942.545250	2608.232506
942.847335	2605.149841
943.149381	2601.449634
943.451389	2597.041145
943.753359	2594.679364
944.055290	2592.032758
944.357182	2591.876483
944.659036	2592.133581
944.960851	2591.014445
945.262628	2590.969075
945.564367	2590.412027
945.866067	2591.420258
946.167729	2591.092583
946.469352	2594.954107
946.770937	2588.592171
947.072484	2588.667788
947.373992	2588.677870
947.675462	2588.118302
947.976893	2582.169741
948.278286	2579.744946
948.579641	2584.821388
948.880958	2581.350553
949.182236	2584.773497
949.483476	2580.062538
949.784678	2582.096644
950.085841	2580.637230
950.386967	2583.369535
950.688054	2584.050091
950.989103	2586.492530
951.290114	2584.503795
951.591087	2587.634352
951.892021	2591.178283
952.192917	2589.597881
952.493776	2596.917636
952.794596	2595.475866
953.095378	2592.690629
953.396122	2595.009560
953.696828	2592.045361
953.997496	2589.141657
954.298126	2586.918508
954.598718	2583.954309
954.899272	2583.888774
955.199788	2580.864082
955.500266	2579.671849
955.800706	2576.858885
956.101108	2572.289079
956.401472	2572.581466
956.701798	2573.950139
957.002087	2571.583318
957.302337	2567.779767
957.602550	2567.361351
957.902724	2565.019735
958.202861	2563.940928
958.502960	2561.064950
958.803022	2561.458160
959.103045	2561.816082
959.403031	2561.468242
959.702979	2561.286761
960.002889	2561.130485
960.302762	2559.502192
960.602596	2563.260373
960.902393	2557.936914
961.202153	2558.930022
961.501875	2559.721483
961.801559	2559.277861
962.101205	2555.570093
962.400814	2560.001267
962.700385	2558.299877
962.999918	2556.739640
963.299414	2554.019938
963.598873	2557.624363
963.898293	2551.854762
964.197677	2558.582182
964.497022	2557.669733
964.796331	2556.578323
965.095601	2555.088662
965.394835	2557.248797
965.694030	2558.599826
965.993189	2556.535473
966.292309	2556.822819
966.591393	2557.740309
966.890439	2556.963972
967.189447	2558.796431
967.488419	2557.289126
967.787353	2557.339537
968.086249	2557.079918
968.385108	2556.374157
968.683930	2557.586554
968.982714	2554.501368
969.281462	2555.532284
969.580172	2556.661502
969.878844	2556.084290
970.177480	2556.721996
970.476078	2556.177552
970.774639	2558.672923
971.073162	2557.649568
971.371649	2554.377860
971.670098	2556.515309
971.968510	2559.915567
972.266885	2555.441543
972.565223	2560.281051
972.863524	2558.367933
973.161788	2555.262582
973.460014	2556.837943
973.758204	2556.921122
974.056356	2555.882644
974.354471	2558.156204
974.652550	2558.060422
974.950591	2556.306101
975.248595	2559.030845
975.546563	2556.154866
975.844493	2558.385577
976.142386	2559.194682
976.440243	2557.684857
976.738062	2553.984650
977.035845	2555.456667
977.333590	2558.262069
977.631299	2555.340720
977.928971	2556.923642
978.226606	2551.327962
978.524204	2551.733774
978.821765	2551.832077
979.119290	2554.362736
979.416777	2555.794424
979.714228	2553.866183
980.011642	2558.143602
980.309020	2556.913560
980.606360	2556.691749
980.903664	2554.939948
981.200931	2556.727037
981.498162	2555.890206
981.795356	2555.615463
982.092513	2558.466235
982.389633	2558.221739
982.686717	2564.871021
982.983764	2567.245405
983.280775	2570.570046
983.577749	2569.518965
983.874686	2573.435942
984.171587	2569.934860
984.468451	2565.453275
984.765279	2565.375137
985.062070	2562.970506
985.358824	2560.452450
985.655543	2559.534960
985.952224	2559.154353
986.248869	2557.037068
986.545478	2557.019424
986.842050	2555.910370
987.138586	2554.239228
987.435086	2555.181924
987.731549	2553.677139
988.027975	2553.389793
988.324366	2555.960782
988.620719	2555.053374
988.917037	2554.077911
989.213318	2551.645554
989.509563	2554.400545
989.805772	2551.940462
990.101944	2550.334854
990.398080	2555.018086
990.694180	2551.348126
990.990244	2551.905174
991.286271	2552.517674
991.582262	2551.794268
991.878217	2552.603373
992.174136	2554.748384
992.470019	2554.105637
992.765865	2550.942313
993.061676	2552.452139
993.357450	2548.930893
993.653188	2547.622713
993.948890	2556.432130
994.244556	2553.218394
994.540186	2554.975236
994.835780	2552.111861
995.131337	2556.984136
995.426859	2554.985319
995.722345	2555.154197
996.017795	2554.208981
996.313208	2557.452963
996.608586	2557.916750
996.903928	2557.294167
997.199234	2556.946327
997.494504	2558.957748
997.789738	2556.152346
998.084936	2556.825340
998.380099	2556.608570
998.675225	2555.963302
998.970316	2553.956923
999.265371	2553.009186
999.560390	2555.464228
999.855373	2554.677808
1000.150320	2552.817623
1000.445232	2553.064639
1000.740108	2553.967006
1001.034948	2552.439536
1001.329752	2552.563044
1001.624521	2552.668908
1001.919254	2550.697817
1002.213951	2550.861655
1002.508613	2552.419371
1002.803239	2550.110523
1003.097829	2551.796789
1003.392384	2552.810061
1003.686903	2551.693445
1003.981386	2551.683363
1004.275834	2551.053219
1004.570246	2553.964485
1004.864623	2553.662016
1005.158964	2553.861141
1005.453270	2549.997097
1005.747540	2552.608415
1006.041775	2550.702858
1006.335974	2550.334854
1006.630138	2550.854093
1006.924266	2551.998435
1007.218359	2551.605225
1007.512416	2546.296890
1007.806438	2546.627086
1008.100425	2550.433157
1008.394376	2546.248999
1008.688292	2550.629762
1008.982172	2550.962478
1009.276017	2550.937272
1009.569827	2549.147662
1009.863602	2550.312169
1010.157341	2547.506767
1010.451045	2551.784186
1010.744714	2553.735112
1011.038347	2549.979453
1011.331945	2552.444577
1011.625508	2550.844011
1011.919036	2552.069011
1012.212528	2551.821995
1012.505986	2551.043136
1012.799408	2553.021789
1013.092795	2549.654298
1013.386147	2549.745039
1013.679464	2548.293187
1013.972745	2552.023641
1014.265992	2549.581202
1014.559204	2553.669578
1014.852380	2550.705379
1015.145521	2553.021789
1015.438628	2548.348640
1015.731699	2548.998948
1016.024736	2551.640513
1016.317737	2550.929710
1016.610703	2550.055070
1016.903635	2550.723023
1017.196531	2551.862324
1017.489393	2550.932231
1017.782219	2550.884340
1018.075011	2553.508261
1018.367768	2551.663198
1018.660490	2552.459701
1018.953177	2552.459701
1019.245829	2552.459701
