Dividing Wavelength (nm)	Counts (n)	Blue Motor Position (mm): 1.200000	Red Motor Position (mm): 0.000000	
326.493990	2163.895124
326.888308	2163.895124
327.282561	2163.895124
327.676750	2125.731069
328.070874	2121.748557
328.464933	2121.206633
328.858929	2124.856428
329.252859	2129.632922
329.646726	2138.586011
330.040528	2151.889616
330.434265	2162.917140
330.827938	2182.920438
331.221547	2200.307378
331.615091	2213.527804
332.008571	2235.940774
332.401986	2253.531880
332.795338	2273.540220
333.188625	2289.492951
333.581847	2309.254274
333.975006	2330.464929
334.368100	2343.750890
334.761129	2364.815352
335.154095	2380.863865
335.546996	2397.368602
335.939833	2413.775038
336.332606	2427.076122
336.725315	2442.733946
337.117960	2453.708538
337.510540	2467.833851
337.903056	2475.302320
338.295508	2484.061325
338.687896	2493.064826
339.080220	2503.868019
339.472480	2512.654750
339.864676	2514.298166
340.256807	2520.055164
340.648875	2523.286543
341.040879	2525.366019
341.432818	2530.228212
341.824694	2531.743079
342.216506	2532.844571
342.608253	2532.912627
342.999937	2535.932278
343.391557	2535.017308
343.783113	2534.004036
344.174605	2531.884231
344.566033	2529.812317
344.957397	2531.133099
345.348697	2530.820548
345.739934	2527.465660
346.131106	2526.187727
346.522215	2524.375433
346.913260	2523.384846
347.304241	2520.254289
347.695159	2519.354443
348.086012	2517.481655
348.476802	2515.495440
348.867528	2507.424553
349.258191	2505.105622
349.648789	2507.850530
350.039324	2503.124448
350.429796	2510.209790
350.820203	2502.058244
351.210548	2503.036228
351.600828	2505.050169
351.991045	2502.343070
352.381198	2504.387257
352.771288	2502.746362
353.161314	2498.549601
353.551276	2499.774602
353.941175	2501.541526
354.331010	2499.169663
354.720782	2499.918275
355.110490	2498.705877
355.500135	2499.714108
355.889717	2498.128665
356.279235	2497.453150
356.668689	2499.152019
357.058080	2498.557163
357.447408	2498.857112
357.836672	2499.711587
358.225873	2500.399705
358.615010	2500.160250
359.004084	2501.690240
359.393095	2500.472802
359.782043	2501.256701
360.170927	2501.397853
360.559748	2501.080261
360.948505	2504.909017
361.337199	2502.726197
361.725830	2502.834582
362.114398	2504.530930
362.502903	2504.268790
362.891344	2507.152330
363.279722	2506.101250
363.668037	2506.958246
364.056289	2506.895232
364.444478	2506.698627
364.832603	2505.148472
365.220665	2510.179543
365.608665	2510.192146
365.996601	2509.660304
366.384474	2510.136693
366.772284	2507.003616
367.160031	2508.828514
367.547715	2510.335819
367.935336	2510.976046
368.322893	2507.996724
368.710388	2506.048318
369.097820	2509.640140
369.485189	2507.225427
369.872495	2513.305059
370.259738	2513.761283
370.646918	2514.003258
371.034035	2514.134328
371.421090	2515.124915
371.808081	2513.007631
372.195010	2514.272960
372.581875	2512.485871
372.968678	2512.664832
373.355418	2513.317662
373.742096	2516.228928
374.128710	2514.093999
374.515262	2513.267250
374.901751	2513.970491
375.288177	2516.581809
375.674540	2514.159534
376.060841	2517.211953
376.447079	2515.162724
376.833254	2519.493075
377.219367	2516.259175
377.605417	2516.251613
377.991404	2518.142046
378.377329	2519.843435
378.763191	2517.655574
379.148991	2517.428722
379.534727	2516.591891
379.920402	2517.101047
380.306013	2521.854856
380.691563	2517.005266
381.077049	2519.304032
381.462474	2519.281347
381.847835	2518.134484
382.233134	2519.178003
382.618371	2520.216481
383.003545	2519.261182
383.388657	2521.186903
383.773706	2517.927797
384.158693	2520.944927
384.543618	2520.823940
384.928480	2520.972654
385.313280	2520.264372
385.698017	2519.830832
386.082692	2522.376615
386.467305	2520.153466
386.851856	2520.839063
387.236344	2520.065246
387.620770	2522.439629
388.005133	2518.540297
388.389435	2521.827129
388.773674	2518.767149
389.157851	2524.750998
389.541965	2522.245545
389.926018	2522.797551
390.310008	2522.432068
390.693936	2523.823426
391.077802	2520.866789
391.461606	2524.098169
391.845348	2522.177489
392.229027	2526.273427
392.612645	2525.940711
392.996200	2524.256965
393.379694	2527.422810
393.763125	2527.135464
394.146494	2525.038344
394.529801	2526.780063
394.913047	2526.500279
395.296230	2528.758716
395.679351	2524.335103
396.062410	2526.795186
396.445408	2530.150074
396.828343	2529.023376
397.211217	2525.605474
397.594028	2528.597399
397.976778	2524.670340
398.359466	2527.788294
398.742092	2526.898530
399.124656	2527.715197
399.507158	2526.616225
399.889598	2530.283665
400.271977	2529.018335
400.654294	2527.657224
401.036549	2530.263500
401.418742	2529.053623
401.800874	2528.753675
402.182944	2528.804086
402.564952	2530.311391
402.946898	2530.863398
403.328783	2532.605116
403.710606	2531.697708
404.092367	2531.233922
404.474067	2527.773170
404.855705	2530.074457
405.237282	2532.469005
405.618797	2533.275590
406.000250	2531.334745
406.381642	2531.226361
406.762972	2529.898017
407.144240	2528.476411
407.525447	2529.151926
407.906593	2525.852491
408.287677	2532.723583
408.668700	2530.233253
409.049661	2533.111752
409.430560	2534.404808
409.811399	2531.309540
410.192176	2530.933974
410.572891	2532.557225
410.953545	2533.494880
411.334138	2533.852802
411.714669	2533.991433
412.095139	2535.150899
412.475547	2535.405477
412.855894	2533.116793
413.236180	2533.431865
413.616405	2535.090405
413.996568	2533.187369
414.376670	2531.853984
414.756711	2534.372041
415.136691	2534.147709
415.516609	2536.335570
415.896466	2534.402287
416.276262	2534.029242
416.655997	2536.000333
417.035670	2536.822041
417.415283	2535.655014
417.794834	2534.402287
418.174324	2536.842206
418.553753	2533.084026
418.933121	2536.141486
419.312428	2536.020498
419.691674	2538.871270
420.070859	2536.943029
420.449983	2538.183153
420.829045	2533.648635
421.208047	2536.075951
421.586988	2537.994110
421.965867	2538.848585
422.344686	2534.868594
422.723444	2538.281455
423.102141	2535.178625
423.480777	2538.183153
423.859352	2536.189377
424.237866	2536.869932
424.616319	2539.070396
424.994712	2542.195911
425.373044	2538.820859
425.751314	2536.690971
426.129524	2534.964376
426.507673	2536.955632
426.885762	2534.303985
427.263789	2535.644932
427.641756	2541.336395
428.019662	2540.444110
428.397508	2538.296579
428.775292	2537.948739
429.153016	2538.679707
429.530679	2540.081147
429.908282	2539.917310
430.285824	2540.587783
430.663305	2540.507125
431.040726	2539.763555
431.418086	2541.996786
431.795385	2538.939326
432.172624	2539.183822
432.549802	2539.534182
432.926920	2541.593493
433.303977	2540.355890
433.680974	2540.454193
434.057910	2541.694317
434.434786	2543.743546
434.811601	2542.112732
435.188355	2538.515869
435.565050	2541.921168
435.941683	2540.867567
436.318257	2542.168185
436.694770	2541.860675
437.071222	2542.460572
437.447614	2540.706250
437.823946	2543.055428
438.200218	2538.445293
438.576429	2541.348998
438.952580	2543.582229
439.328670	2541.908566
439.704700	2544.524924
440.080670	2541.890922
440.456580	2543.499050
440.832429	2544.882846
441.208218	2541.676672
441.583947	2544.121632
441.959616	2540.880170
442.335224	2545.404606
442.710773	2544.713968
443.086261	2543.468803
443.461689	2541.036446
443.837057	2544.474513
444.212365	2542.581560
444.587612	2540.058462
444.962800	2538.856147
445.337927	2542.838658
445.712995	2535.947401
446.088002	2543.252033
446.462949	2540.542413
446.837837	2546.299411
447.212664	2543.657846
447.587431	2545.026519
447.962139	2545.243289
448.336786	2544.610624
448.711374	2543.143648
449.085901	2546.735470
449.460369	2543.345294
449.834776	2546.687579
450.209124	2541.769934
450.583412	2545.860830
450.957640	2546.939637
451.331808	2546.243958
451.705917	2546.238917
452.079965	2543.274718
452.453954	2544.658515
452.827883	2547.385779
453.201752	2546.743032
453.575562	2545.248330
453.949311	2545.331509
454.323001	2547.093392
454.696632	2549.838301
455.070202	2545.558361
455.443713	2545.623896
455.817164	2544.802188
456.190556	2545.805378
456.563888	2547.884853
456.937160	2546.758156
457.310373	2545.873433
457.683526	2545.334030
458.056619	2546.826211
458.429653	2548.273022
458.802628	2546.070038
459.175542	2545.671787
459.548398	2549.777807
459.921194	2548.197405
460.293930	2549.608928
460.666607	2550.574309
461.039224	2545.281097
461.411782	2547.143804
461.784280	2547.673125
462.156719	2547.907539
462.529099	2549.858465
462.901419	2546.627086
463.273680	2542.672300
463.645882	2544.025850
464.018024	2545.051725
464.390106	2545.046684
464.762130	2548.330996
465.134094	2545.676828
465.505999	2550.443239
465.877845	2550.707900
466.249631	2546.450645
466.621358	2544.325799
466.993026	2548.116747
467.364634	2550.496171
467.736184	2549.288815
468.107674	2547.169010
468.479105	2550.193702
468.850477	2548.726726
469.221790	2547.030378
469.593043	2548.303269
469.964238	2546.995090
470.335373	2547.940306
470.706449	2549.359391
471.077467	2551.093548
471.448425	2551.350647
471.819324	2548.933413
472.190164	2552.076573
472.560945	2549.281253
472.931667	2552.406768
473.302330	2547.572302
473.672934	2550.292004
474.043479	2550.755791
474.413965	2549.989535
474.784393	2549.061963
475.154761	2551.897612
475.525070	2551.627910
475.895321	2551.310318
476.265513	2550.934752
476.635645	2549.624052
477.005719	2548.159596
477.375734	2549.999617
477.745691	2549.276212
478.115588	2550.997766
478.485427	2551.078424
478.855207	2551.890050
479.224928	2549.810574
479.594591	2552.106820
479.964194	2549.016592
480.333739	2550.123126
480.703226	2550.836449
481.072653	2554.221584
481.442022	2551.658157
481.811333	2546.995090
482.180584	2547.494164
482.549777	2546.228834
482.918912	2548.237734
483.287988	2550.488609
483.657005	2549.750080
484.025964	2549.976932
484.394864	2550.894422
484.763706	2552.036244
485.132489	2551.655637
485.501213	2549.757642
485.869879	2551.171686
486.238487	2551.564896
486.607036	2551.222097
486.975527	2551.017931
487.343959	2550.171017
487.712333	2552.154711
488.080648	2550.803682
488.448905	2552.895760
488.817104	2551.035575
489.185244	2554.748384
489.553326	2553.538508
489.921350	2555.239897
490.289315	2550.700338
490.657222	2551.937941
491.025070	2550.594474
491.392861	2552.507592
491.760593	2553.846018
492.128267	2552.684032
492.495883	2551.310318
492.863440	2549.414844
493.230939	2552.951213
493.598380	2553.770401
493.965763	2551.436346
494.333088	2551.282591
494.700354	2551.869886
495.067563	2551.562375
495.434713	2553.780483
495.801805	2553.218394
496.168839	2552.303425
496.535815	2554.148487
496.902733	2552.149670
497.269593	2553.130174
497.636395	2553.629248
498.003139	2551.615307
498.369825	2552.230328
498.736453	2553.316697
499.103023	2552.651264
499.469535	2555.267623
499.835989	2551.169165
500.202385	2550.423074
500.568723	2549.964329
500.935003	2552.381563
501.301226	2549.704710
501.667390	2554.403065
502.033497	2553.656975
502.399546	2552.835267
502.765537	2551.333003
503.131470	2554.801317
503.497345	2550.871737
503.863163	2552.893240
504.228923	2555.048333
504.594625	2553.268806
504.960269	2553.500699
505.325856	2554.140925
505.691385	2553.147818
506.056856	2555.653272
506.422270	2554.163611
506.787625	2554.302242
507.152924	2553.508261
507.518164	2553.478014
507.883347	2555.345761
508.248472	2553.490617
508.613540	2553.203271
508.978550	2556.230484
509.343503	2553.170503
509.708398	2554.138405
510.073236	2553.717468
510.438016	2555.461708
510.802738	2552.699155
511.167403	2552.754608
511.532010	2551.461552
511.896561	2555.570092
512.261053	2555.552448
512.625488	2554.113199
512.989866	2555.892726
513.354186	2553.213353
513.718449	2554.226625
514.082655	2555.567572
514.446803	2551.310318
514.810894	2555.078580
515.174927	2556.527912
515.538904	2556.122099
515.902822	2553.268806
516.266684	2554.017417
516.630488	2551.360729
516.994235	2554.692932
517.357925	2552.202602
517.721558	2555.801986
518.085133	2554.662685
518.448651	2550.402910
518.812112	2550.725544
519.175516	2553.838456
519.538863	2550.670091
519.902152	2554.486244
520.265385	2555.819630
520.628560	2552.870555
520.991678	2554.982798
521.354739	2552.552962
521.717743	2554.924825
522.080690	2555.796944
522.443580	2553.755277
522.806413	2557.115206
523.169189	2555.423899
523.531908	2554.743343
523.894569	2553.823333
524.257174	2555.592778
524.619722	2552.857952
524.982213	2555.746533
525.344647	2555.754095
525.707025	2558.299877
526.069345	2555.411296
526.431608	2554.781152
526.793815	2554.811399
527.155964	2554.274516
527.518057	2555.496996
527.880093	2556.106975
528.242072	2555.859959
528.603995	2555.494475
528.965860	2552.126984
529.327669	2555.255020
529.689421	2554.813919
530.051117	2556.028837
530.412755	2554.909701
530.774337	2554.546738
531.135862	2555.144115
531.497331	2554.060267
531.858743	2553.883827
532.220098	2555.998591
532.581396	2559.620660
532.942638	2556.159908
533.303824	2556.570762
533.664953	2557.142933
534.026025	2552.731923
534.387040	2556.177552
534.747999	2554.730740
535.108902	2553.992211
535.469748	2555.113868
535.830537	2556.480021
536.191270	2554.335010
536.551947	2551.058260
536.912567	2552.832746
537.273131	2553.173024
537.633638	2549.155224
537.994089	2557.548745
538.354483	2557.137891
538.714821	2555.249979
539.075103	2557.213509
539.435328	2556.931204
539.795497	2557.475649
540.155609	2555.635627
540.515665	2554.997922
540.875665	2555.494475
541.235609	2557.147974
541.595496	2552.868034
541.955328	2555.496996
542.315102	2555.577654
542.674821	2556.285936
543.034483	2555.960782
543.394090	2557.760474
543.753640	2556.469938
544.113134	2554.912222
544.472571	2556.028838
544.831953	2556.054043
545.191278	2554.743343
545.550548	2556.437171
545.909761	2554.728220
546.268918	2555.040771
546.628019	2556.071687
546.987064	2557.768036
547.346053	2556.676626
547.704986	2555.640669
548.063863	2555.542366
548.422684	2556.270813
548.781449	2554.755946
549.140158	2555.970864
549.498811	2558.483879
549.857408	2555.625545
550.215949	2557.132850
550.574434	2557.483210
550.932864	2556.948848
551.291237	2559.267779
551.649555	2555.262582
552.007817	2556.197716
552.366022	2557.047151
552.724173	2556.532953
553.082267	2556.709393
553.440305	2557.568910
553.798288	2554.796275
554.156215	2554.912222
554.514086	2555.181924
554.871902	2551.993394
555.229661	2553.447767
555.587365	2550.065152
555.945014	2555.151677
556.302606	2558.055381
556.660143	2554.163611
557.017625	2555.572613
557.375050	2557.397511
557.732421	2556.578323
558.089735	2553.326779
558.446994	2556.124619
558.804197	2557.510937
559.161345	2552.973898
559.518437	2556.411965
559.875474	2556.984136
560.232455	2556.623694
560.589381	2555.638148
560.946251	2557.722665
561.303065	2556.875751
561.659825	2558.307439
562.016528	2557.762994
562.373177	2557.495813
562.729770	2555.144115
563.086307	2557.561348
563.442789	2556.923642
563.799216	2555.408776
564.155587	2554.962633
564.511904	2555.028168
564.868164	2554.082952
565.224370	2557.662171
565.580520	2555.996070
565.936615	2556.911039
566.292654	2557.420196
566.648638	2555.391132
567.004567	2553.228477
567.360441	2555.249979
567.716260	2555.237376
568.072023	2556.031358
568.427732	2556.931204
568.783385	2556.275854
569.138982	2552.628579
569.494525	2558.645196
569.850013	2556.837943
570.205445	2557.190823
570.560823	2555.040771
570.916145	2556.575803
571.271412	2554.244269
571.626625	2556.764846
571.981782	2556.396842
572.336884	2553.188147
572.691931	2550.052550
573.046923	2553.110009
573.401860	2551.690925
573.756743	2557.614280
574.111570	2554.599670
574.466342	2556.263251
574.821059	2555.746533
575.175722	2557.410114
575.530330	2557.263920
575.884882	2555.945658
576.239380	2555.489434
576.593823	2556.837943
576.948211	2556.066646
577.302544	2557.715103
577.656823	2555.020607
578.011047	2558.516647
578.365216	2557.841132
578.719330	2558.178890
579.073389	2557.435319
579.427394	2556.238045
579.781344	2559.683674
580.135239	2557.470608
580.489080	2558.120916
580.842866	2557.165618
581.196597	2563.038562
581.550273	2556.590926
581.903895	2556.648899
582.257463	2558.320042
582.610975	2559.280382
582.964434	2554.818961
583.317837	2558.473797
583.671186	2560.409600
584.024481	2558.677964
584.377721	2559.456822
584.730906	2559.802141
585.084037	2558.458674
585.437113	2557.137891
585.790135	2558.289795
586.143103	2556.258210
586.496016	2559.824826
586.848874	2557.526060
587.201679	2558.526729
587.554428	2558.342727
587.907124	2560.220557
588.259765	2559.250135
588.612352	2555.171841
588.964884	2558.408262
589.317362	2558.362892
589.669786	2557.309291
590.022155	2553.989691
590.374470	2556.084290
590.726731	2557.049671
591.078937	2554.002294
591.431090	2559.166956
591.783188	2558.483879
592.135232	2557.972202
592.487222	2557.616801
592.839157	2558.493962
593.191038	2556.495144
593.542866	2557.800803
593.894639	2558.438509
594.246358	2558.249466
594.598022	2562.284909
594.949633	2559.222408
595.301190	2557.004301
595.652692	2557.203426
596.004141	2554.350133
596.355535	2558.103272
596.706876	2556.018755
597.058162	2556.273333
597.409395	2556.505227
597.760573	2555.857438
598.111698	2558.244425
598.462768	2558.483879
598.813785	2558.191492
599.164748	2558.201575
599.515657	2557.455484
599.866511	2557.490772
600.217312	2557.727706
600.568060	2557.881462
600.918753	2557.150494
601.269392	2555.181924
601.619978	2558.113355
601.970510	2557.699980
602.320988	2556.260731
602.671412	2557.379867
603.021783	2553.717468
603.372100	2555.512119
603.722363	2555.373487
604.072572	2557.730227
604.422728	2559.192162
604.772830	2558.171328
605.122878	2557.916750
605.472872	2559.363561
605.822813	2557.916750
606.172701	2557.667212
606.522534	2556.696790
606.872314	2558.902295
607.222041	2558.047820
607.571714	2556.348951
607.921333	2557.276523
608.270899	2554.284598
608.620411	2553.578837
608.969870	2558.733417
609.319276	2560.951524
609.668627	2565.629715
610.017926	2571.542988
610.367171	2572.599110
610.716362	2569.859243
611.065500	2569.120714
611.414585	2565.826320
611.763616	2566.506876
612.112594	2563.250290
612.461518	2562.912533
612.810389	2560.064281
613.159207	2561.148129
613.507971	2562.965465
613.856682	2561.861453
614.205340	2557.896585
614.553945	2560.152501
614.902496	2561.458160
615.250994	2560.270968
615.599439	2559.784497
615.947830	2562.950342
616.296169	2558.383056
616.644454	2558.834240
616.992686	2557.586554
617.340864	2556.180072
617.688990	2556.384239
618.037063	2556.779969
618.385082	2557.367264
618.733048	2556.643858
619.080961	2557.783159
619.428821	2559.383725
619.776628	2558.161246
620.124382	2558.163766
620.472083	2560.023952
620.819731	2557.820968
621.167326	2558.115875
621.514868	2559.466904
621.862357	2558.536812
622.209793	2558.778787
622.557176	2558.582182
622.904506	2560.422203
623.251783	2556.999260
623.599007	2554.952551
623.946179	2557.132850
624.293297	2557.596636
624.640363	2558.320042
624.987376	2557.528581
625.334336	2554.892057
625.681243	2553.818292
626.028097	2552.389124
626.374899	2559.340876
626.721647	2558.264589
627.068343	2557.402552
627.414987	2558.103272
627.761577	2555.363405
628.108115	2557.609239
628.454600	2557.581513
628.801032	2558.841801
629.147412	2557.924311
629.493739	2561.349775
629.840014	2558.246945
630.186236	2555.741492
630.532405	2558.783828
630.878521	2558.365412
631.224585	2559.318190
631.570597	2556.890875
631.916556	2559.209806
632.262462	2559.867676
632.608316	2556.139743
632.954117	2556.275854
633.299866	2557.079918
633.645562	2558.201575
633.991206	2556.951369
634.336797	2556.530432
634.682336	2556.280895
635.027823	2554.854249
635.373257	2557.621842
635.718639	2557.548745
636.063968	2558.282233
636.409245	2555.668395
636.754470	2559.774415
637.099642	2556.517829
637.444762	2557.684857
637.789829	2557.261400
638.134845	2559.655948
638.479808	2556.391801
638.824719	2556.235525
639.169577	2557.662171
639.514383	2559.124106
639.859137	2555.144115
640.203839	2555.683518
640.548489	2558.325083
640.893086	2557.604198
641.237632	2556.031358
641.582125	2557.352140
641.926566	2554.952551
642.270955	2553.258723
642.615292	2552.457180
642.959576	2552.989022
643.303809	2552.716799
643.647990	2557.911708
643.992118	2555.575134
644.336195	2559.724003
644.680219	2556.323745
645.024192	2556.182593
645.368112	2553.689742
645.711981	2554.733261
646.055797	2555.983467
646.399562	2557.505896
646.743274	2557.173179
647.086935	2556.142263
647.430544	2557.621842
647.774101	2555.655792
648.117606	2556.144784
648.461059	2554.640000
648.804460	2556.389280
649.147810	2556.621173
649.491108	2555.466749
649.834354	2557.155535
650.177548	2557.473128
650.520690	2557.415155
650.863781	2557.369784
651.206820	2556.989177
651.549807	2555.562531
651.892742	2557.387428
652.235626	2558.365412
652.578458	2554.617314
652.921238	2555.083621
653.263967	2559.456822
653.606644	2556.916081
653.949269	2555.880123
654.291843	2556.182593
654.634365	2557.440361
654.976836	2555.673436
655.319255	2557.261400
655.661622	2557.314332
656.003938	2558.962789
656.346203	2554.435833
656.688416	2555.227294
657.030577	2557.468087
657.372687	2556.918601
657.714746	2556.258210
658.056753	2557.410114
658.398708	2555.403734
658.740612	2557.921791
659.082465	2558.705690
659.424266	2552.696635
659.766016	2551.322920
660.107715	2554.587068
660.449362	2551.534649
660.790958	2555.065977
661.132503	2558.350289
661.473996	2557.372305
661.815438	2558.544373
662.156829	2557.160577
662.498168	2553.783003
662.839456	2558.204095
663.180693	2557.009342
663.521879	2556.613611
663.863013	2554.713096
664.204097	2556.268292
664.545129	2556.512788
664.886110	2555.479352
665.227040	2558.337686
665.567918	2556.714434
665.908746	2556.512788
666.249522	2557.200906
666.590248	2555.789383
666.930922	2556.016235
667.271545	2555.300391
667.612118	2556.974054
667.952639	2556.779969
668.293109	2557.541184
668.633528	2555.076059
668.973896	2554.861810
669.314213	2555.093703
669.654480	2555.728889
669.994695	2559.333314
670.334859	2556.573282
670.674973	2554.932387
671.015035	2557.878941
671.355047	2554.773590
671.695008	2554.403065
672.034918	2556.842984
672.374777	2555.834753
672.714585	2552.681511
673.054342	2554.256872
673.394049	2555.965823
673.733705	2556.734599
674.073310	2559.265258
674.412864	2555.534804
674.752368	2557.805844
675.091820	2555.723848
675.431223	2553.220915
675.770574	2556.991698
676.109875	2555.887685
676.449125	2551.869886
676.788324	2552.328631
677.127473	2554.511450
677.466571	2550.778476
677.805619	2556.381718
678.144616	2555.214691
678.483562	2556.361554
678.822458	2557.276523
679.161303	2555.844835
679.500098	2554.783673
679.838842	2555.086142
680.177535	2557.566389
680.516179	2555.834753
680.854771	2555.779300
681.193314	2556.696790
681.531805	2559.759291
681.870247	2554.939948
682.208638	2554.486244
682.546978	2553.457849
682.885268	2557.069836
683.223508	2556.664023
683.561697	2553.125133
683.899836	2554.317366
684.237925	2555.123950
684.575963	2557.291647
684.913951	2555.650751
685.251889	2555.265103
685.589776	2552.868034
685.927614	2553.306614
686.265401	2556.825340
686.603137	2554.287119
686.940824	2555.043292
687.278460	2557.077398
687.616046	2558.705690
687.953582	2552.958775
688.291068	2554.718138
688.628504	2555.383570
688.965889	2554.753426
689.303224	2556.346430
689.640510	2558.357851
689.977745	2556.348951
690.314930	2551.915256
690.652065	2558.239383
690.989150	2555.875082
691.326185	2555.386090
691.663170	2555.514640
692.000105	2555.318035
692.336990	2555.675957
692.673825	2558.587223
693.010610	2554.254351
693.347345	2551.877447
693.684030	2551.784186
694.020665	2551.461552
694.357251	2551.128836
694.693786	2557.084959
695.030272	2555.418858
695.366707	2555.801986
695.703093	2555.592778
696.039429	2554.735782
696.375716	2556.817778
696.711952	2555.844835
697.048139	2555.416337
697.384276	2556.154866
697.720363	2555.628066
698.056400	2558.357851
698.392388	2555.940617
698.728326	2555.968344
699.064214	2554.627397
699.400053	2556.593447
699.735842	2554.506409
700.071581	2553.341903
700.407270	2555.834753
700.742910	2555.882644
701.078501	2554.818961
701.414042	2553.969526
701.749533	2554.904660
702.084974	2554.057746
702.420366	2555.678477
702.755709	2559.197203
703.091002	2555.930535
703.426246	2553.135215
703.761440	2553.881306
704.096584	2559.242573
704.431679	2555.532284
704.766725	2553.820812
705.101721	2556.036399
705.436668	2554.249310
705.771565	2555.882644
706.106413	2557.631924
706.441212	2554.760987
706.775961	2554.370298
707.110661	2553.909032
707.445311	2555.194527
707.779913	2555.534804
708.114465	2557.059753
708.448967	2553.152859
708.783421	2555.093703
709.117825	2554.297201
709.452180	2555.769218
709.786485	2551.796789
710.120742	2553.185627
710.454949	2552.852911
710.789107	2553.629248
711.123216	2551.663198
711.457275	2553.193188
711.791286	2556.850546
712.125247	2558.834240
712.459159	2552.462221
712.793023	2553.583878
713.126837	2555.910370
713.460602	2553.714948
713.794318	2554.803837
714.127985	2555.587737
714.461602	2554.667726
714.795171	2555.975905
715.128691	2554.045143
715.462162	2554.347613
715.795584	2553.329300
716.128957	2555.428940
716.462281	2553.853580
716.795556	2556.999260
717.128782	2555.517160
717.461960	2555.257541
717.795088	2553.200750
718.128167	2555.232335
718.461198	2553.677139
718.794180	2554.662685
719.127113	2553.843497
719.459997	2554.289639
719.792833	2553.989691
720.125619	2552.084135
720.458357	2553.984650
720.791046	2554.602191
721.123686	2556.217881
721.456278	2552.976419
721.788821	2555.985988
722.121315	2556.230484
722.453761	2554.952551
722.786158	2553.568754
723.118506	2554.055226
723.450805	2553.543549
723.783056	2555.310473
724.115259	2553.062118
724.447412	2552.530277
724.779518	2553.906512
725.111574	2552.610935
725.443582	2556.951369
725.775542	2553.059598
726.107453	2553.697304
726.439315	2554.602191
726.771129	2554.123281
727.102895	2550.992725
727.434612	2553.057077
727.766281	2550.377704
728.097901	2553.094886
728.429473	2553.193188
728.760996	2556.787531
729.092471	2556.159907
729.423897	2554.934907
729.755276	2555.194527
730.086606	2555.998591
730.417887	2555.832233
730.749120	2555.055895
731.080305	2555.565051
731.411442	2554.256872
731.742530	2556.545556
732.073570	2553.558672
732.404562	2553.694783
732.735506	2553.989691
733.066401	2553.808209
733.397249	2556.618653
733.728048	2556.555638
734.058798	2553.077242
734.389501	2556.563200
734.720156	2550.473486
735.050762	2555.078580
735.381320	2552.880637
735.711831	2552.956254
736.042293	2553.241079
736.372707	2554.967675
736.703073	2553.296532
737.033391	2554.302242
737.363661	2555.421378
737.693883	2551.711089
738.024056	2556.558159
738.354182	2554.493806
738.684260	2555.444064
739.014290	2551.945503
739.344272	2553.087324
739.674207	2554.526574
740.004093	2556.243087
740.333931	2553.810730
740.663722	2552.189999
740.993464	2553.490617
741.323159	2553.208312
741.652806	2553.697304
741.982405	2554.990360
742.311956	2555.940617
742.641460	2554.370298
742.970915	2553.694783
743.300323	2552.983981
743.629683	2549.573640
743.958996	2550.932231
744.288260	2547.922662
744.617477	2556.933725
744.946647	2553.830894
745.275768	2555.312994
745.604842	2555.623025
745.933869	2554.173693
746.262847	2553.087324
746.591778	2553.520863
746.920662	2552.684032
747.249498	2555.575134
747.578286	2554.274516
747.907027	2553.210832
748.235720	2554.690411
748.564365	2554.824002
748.892963	2555.128992
749.221514	2553.629248
749.550017	2551.882488
749.878473	2553.573796
750.206881	2556.545556
750.535242	2553.024310
750.863555	2554.652603
751.191821	2554.221584
751.520039	2552.477345
751.848210	2553.087324
752.176334	2554.569423
752.504411	2554.690411
752.832440	2553.218394
753.160421	2552.684032
753.488356	2554.319886
753.816243	2554.508930
754.144082	2553.120092
754.471875	2553.024310
754.799620	2553.578837
755.127318	2553.725030
755.454969	2554.597150
755.782572	2555.421378
756.110129	2555.131512
756.437638	2553.190668
756.765100	2554.128323
757.092515	2554.783672
757.419882	2553.654454
757.747203	2555.323076
758.074477	2551.600184
758.401703	2554.246790
758.728882	2553.800648
759.056014	2551.713610
759.383099	2554.876934
759.710138	2552.568085
760.037129	2550.168496
760.364073	2550.612118
760.690970	2546.717826
761.017820	2553.873744
761.344623	2552.621017
761.671379	2555.018086
761.998088	2554.506409
762.324751	2556.858107
762.651366	2554.881975
762.977935	2556.285936
763.304456	2550.944834
763.630931	2551.867365
763.957359	2550.266799
764.283740	2554.629917
764.610074	2552.558003
764.936362	2551.504402
765.262602	2553.241079
765.588796	2552.137067
765.914943	2554.317366
766.241044	2555.827191
766.567097	2557.906667
766.893104	2551.370811
767.219064	2554.168652
767.544978	2550.692776
767.870845	2552.731923
768.196665	2554.251831
768.522438	2552.056408
768.848165	2550.347457
769.173846	2554.788714
769.499479	2551.290153
769.825066	2554.604712
770.150607	2551.680842
770.476101	2555.769218
770.801548	2552.502550
771.126949	2555.330638
771.452303	2554.408107
771.777611	2551.670760
772.102872	2553.513302
772.428087	2553.987170
772.753256	2553.911553
773.078378	2553.495658
773.403453	2555.703683
773.728482	2553.326779
774.053465	2555.297870
774.378401	2553.682180
774.703291	2549.316541
775.028135	2553.783003
775.352932	2551.340564
775.677683	2552.202602
776.002388	2550.995245
776.327046	2548.537683
776.651658	2550.607077
776.976224	2549.218239
777.300743	2554.632438
777.625216	2552.494989
777.949643	2553.399876
778.274024	2551.569937
778.598359	2552.941131
778.922647	2553.339382
779.246889	2552.898281
779.571086	2552.595812
779.895236	2557.203426
780.219339	2552.726882
780.543397	2554.168652
780.867409	2554.009855
781.191374	2553.215874
781.515294	2554.861810
781.839167	2553.916594
782.162995	2552.071532
782.486776	2552.343754
782.810511	2553.372149
783.134201	2550.027344
783.457844	2553.223435
783.781441	2554.269475
784.104993	2550.443239
784.428498	2553.984650
784.751958	2553.483055
785.075372	2551.310318
785.398739	2549.929041
785.722061	2553.069680
786.045337	2553.858621
786.368568	2550.836449
786.691752	2551.491799
787.014891	2553.467931
787.337983	2554.030020
787.661030	2553.843497
787.984031	2550.634803
788.306987	2553.828374
788.629897	2552.590771
788.952760	2553.029351
789.275579	2553.087324
789.598351	2554.108158
789.921078	2552.164793
790.243759	2552.137067
790.566395	2551.758980
790.888984	2552.255534
791.211529	2551.794268
791.534027	2554.156049
791.856480	2553.268806
792.178888	2551.806871
792.501249	2549.011551
792.823566	2550.818805
793.145836	2546.536345
793.468062	2550.884340
793.790241	2553.546069
794.112375	2552.363919
794.434464	2554.385421
794.756507	2555.126471
795.078505	2552.563044
795.400457	2552.517674
795.722364	2551.481717
796.044226	2553.556152
796.366042	2551.796789
796.687812	2553.344423
797.009538	2554.576985
797.331218	2556.457336
797.652852	2554.216543
797.974442	2553.863662
798.295986	2553.253682
798.617484	2550.750749
798.938938	2553.041954
799.260346	2553.271326
799.581709	2552.187478
799.903026	2554.720658
800.224299	2553.130174
800.545526	2552.071532
800.866708	2554.992880
801.187845	2554.398024
801.508936	2551.315359
801.829983	2551.340564
802.150984	2555.272664
802.471940	2554.718138
802.792851	2551.267468
803.113717	2554.075390
803.434538	2552.558003
803.755314	2554.834084
804.076045	2551.678322
804.396731	2553.523384
804.717372	2549.714792
805.037967	2553.351985
805.358518	2552.797458
805.679024	2553.130174
805.999485	2552.462221
806.319901	2552.293343
806.640272	2549.946685
806.960598	2553.223435
807.280879	2551.005328
807.601115	2553.359547
807.921306	2555.149156
808.241453	2550.720503
808.561554	2550.531459
808.881611	2549.006510
809.201623	2547.660522
809.521590	2551.640513
809.841513	2551.779145
810.161390	2550.624721
810.481223	2549.122457
810.801011	2550.967519
811.120755	2552.837787
811.440453	2550.362581
811.760107	2553.694783
812.079716	2552.472303
812.399281	2553.772921
812.718801	2551.375852
813.038276	2550.150852
813.357707	2553.067160
813.677093	2550.327293
813.996434	2548.504915
814.315731	2552.580688
814.634983	2554.544218
814.954191	2552.522715
815.273354	2549.934083
815.592473	2551.080945
815.911547	2553.543549
816.230577	2549.240924
816.549562	2553.712427
816.868502	2553.500699
817.187399	2550.057591
817.506250	2553.014227
817.825058	2553.041954
818.143821	2552.653785
818.462539	2552.094217
818.781213	2555.441543
819.099843	2550.846531
819.418429	2551.239741
819.736970	2554.554300
820.055466	2551.572457
820.373919	2554.352654
820.692327	2551.201933
821.010691	2552.379042
821.329011	2551.048177
821.647286	2550.024823
821.965517	2553.541028
822.283704	2551.786707
822.601847	2554.519012
822.919945	2553.029351
823.237999	2552.212684
823.556010	2553.253682
823.873976	2550.070194
824.191897	2550.057591
824.509775	2547.766386
824.827609	2550.032385
825.145398	2547.350491
825.463144	2551.809392
825.780845	2551.217056
826.098502	2550.947354
826.416116	2551.587581
826.733685	2553.798127
827.051210	2553.253682
827.368692	2551.587581
827.686129	2552.805020
828.003522	2553.712427
828.320872	2553.291491
828.638177	2551.764021
828.955439	2550.402910
829.272656	2550.261757
829.589830	2549.999618
829.906960	2549.369473
830.224046	2550.987684
830.541088	2552.492468
830.858086	2552.265616
831.175041	2550.503733
831.491952	2553.271326
831.808819	2552.464742
832.125642	2549.906356
832.442421	2549.704710
832.759157	2552.870555
833.075849	2554.652602
833.392497	2551.191850
833.709101	2551.222097
834.025662	2552.510112
834.342179	2549.462735
834.658653	2552.447098
834.975083	2549.674463
835.291469	2558.067984
835.607811	2554.037582
835.924110	2549.727395
836.240366	2551.302756
836.556578	2550.879299
836.872746	2551.479196
837.188871	2553.309135
837.504952	2550.488609
837.820990	2552.772252
838.136984	2551.055739
838.452935	2552.434495
838.768842	2552.066491
839.084706	2549.757642
839.400526	2553.079763
839.716303	2551.995914
840.032037	2547.433670
840.347727	2547.456355
840.663373	2547.466438
840.978977	2546.115408
841.294537	2549.528270
841.610054	2549.916438
841.925527	2550.211346
842.240957	2554.090514
842.556344	2553.684701
842.871687	2549.813095
843.186987	2551.998435
843.502244	2550.806202
843.817458	2551.693445
844.132629	2551.711089
844.447756	2552.011038
844.762840	2551.083466
845.077881	2549.820657
845.392879	2555.491955
845.707833	2551.277550
846.022745	2549.535831
846.337613	2552.860472
846.652438	2553.727551
846.967221	2550.410472
847.281960	2551.426264
847.596656	2552.535318
847.911309	2548.729247
848.225919	2553.183106
848.540485	2550.541542
848.855009	2549.339226
849.169490	2551.408620
849.483928	2552.031202
849.798323	2549.921480
850.112675	2553.309135
850.426984	2550.506253
850.741251	2549.437529
851.055474	2549.245965
851.369654	2550.833928
851.683792	2550.234031
851.997887	2549.629093
852.311938	2551.668239
852.625947	2554.571944
852.939914	2549.752601
853.253837	2553.006666
853.567718	2550.707900
853.881555	2551.456511
854.195350	2550.846531
854.509103	2549.707231
854.822812	2553.341902
855.136479	2551.123795
855.450103	2551.275029
855.763685	2550.521377
856.077224	2545.893598
856.390720	2546.163299
856.704173	2542.826056
857.017584	2548.862837
857.330953	2551.829556
857.644278	2549.477858
857.957561	2553.450287
858.270802	2551.937941
858.584000	2550.793599
858.897155	2550.607077
859.210268	2549.243444
859.523339	2552.600853
859.836367	2550.392828
860.149352	2550.302087
860.462295	2548.860317
860.775195	2553.878785
861.088054	2551.053219
861.400869	2551.390976
861.713642	2551.282591
862.026373	2550.964998
862.339062	2549.150183
862.651708	2551.451470
862.964312	2549.147662
863.276873	2547.950388
863.589392	2549.843342
863.901869	2550.405430
864.214303	2547.778989
864.526696	2550.493651
864.839045	2549.195553
865.151353	2550.705379
865.463619	2549.059442
865.775842	2552.331151
866.088023	2549.470296
866.400162	2551.557334
866.712258	2550.392828
867.024313	2551.388455
867.336325	2550.410472
867.648296	2552.126984
867.960224	2548.762014
868.272110	2552.169834
868.583954	2550.133208
868.895755	2551.365770
869.207515	2549.858465
869.519233	2550.599515
869.830909	2547.852086
870.142542	2551.726213
870.454134	2550.062632
870.765684	2553.180586
871.077191	2551.388455
871.388657	2549.351829
871.700081	2545.787733
872.011463	2548.310831
872.322803	2544.958464
872.634101	2548.323434
872.945357	2551.948023
873.256571	2548.593136
873.567744	2550.811243
873.878874	2549.485420
874.189963	2551.280071
874.501010	2552.159752
874.812015	2549.472817
875.122979	2552.300904
875.433900	2550.004659
875.744780	2548.875440
876.055618	2548.517518
876.366415	2550.806202
876.677169	2550.158414
876.987882	2550.881819
877.298554	2545.079451
877.609183	2550.102961
877.919771	2550.022303
878.230317	2551.529608
878.540822	2549.530790
878.851285	2550.004659
879.161707	2549.021634
879.472087	2550.869217
879.782425	2550.544062
880.092722	2550.607077
880.402977	2550.468445
880.713191	2549.268650
881.023363	2547.683207
881.333494	2551.824515
881.643583	2549.974412
881.953631	2549.868547
882.263637	2548.688918
882.573602	2552.152190
882.883526	2551.501881
883.193408	2550.138249
883.503248	2551.708569
883.813048	2549.528270
884.122806	2550.899463
884.432522	2549.069525
884.742197	2551.441387
885.051831	2549.399720
885.361424	2549.238403
885.670975	2548.850234
885.980485	2548.376366
886.289954	2548.799823
886.599382	2551.776624
886.908768	2549.067004
887.218113	2544.161961
887.527417	2545.807898
887.836680	2544.880326
888.145901	2548.212528
888.455082	2549.815615
888.764221	2552.585729
889.073319	2551.403579
889.382376	2550.506253
889.691392	2550.465924
890.000366	2551.874927
890.309300	2551.363250
890.618193	2551.945503
890.927044	2549.629093
891.235855	2550.050029
891.544625	2548.900646
891.853353	2548.714123
892.162041	2547.181613
892.470687	2549.825698
892.779293	2546.911911
893.087858	2550.450801
893.396381	2548.905687
893.704864	2548.817467
894.013306	2548.953578
894.321707	2550.198743
894.630068	2549.954247
894.938387	2550.024823
895.246665	2548.197405
895.554903	2549.959288
895.863100	2549.518187
896.171256	2549.739998
896.479371	2549.808054
896.787446	2551.678322
897.095480	2545.727240
897.403473	2548.083979
897.711425	2551.043136
898.019336	2549.863506
898.327207	2548.131870
898.635038	2548.235214
898.942827	2550.975081
899.250576	2550.947354
899.558284	2547.927703
899.865952	2548.179761
900.173579	2548.850234
900.481165	2548.842673
900.788711	2548.565409
901.096216	2551.511964
901.403681	2549.107333
901.711105	2547.297559
902.018489	2550.647406
902.325832	2545.681869
902.633135	2547.529452
902.940397	2547.456355
903.247619	2543.241951
903.554800	2549.621531
903.861941	2548.857796
904.169041	2548.661191
904.476101	2548.086500
904.783121	2551.542211
905.090100	2548.825029
905.397039	2550.506253
905.703938	2549.646737
906.010796	2549.429967
906.317614	2550.778476
906.624391	2551.935421
906.931129	2549.014072
907.237826	2550.675132
907.544483	2548.562889
907.851099	2550.007179
908.157675	2549.566078
908.464211	2548.699000
908.770707	2552.101779
909.077163	2548.502395
909.383578	2550.440718
909.689954	2548.177240
909.996289	2548.600697
910.302584	2551.030533
910.608839	2550.682694
910.915054	2549.573640
911.221229	2546.995090
911.527363	2547.383259
911.833458	2548.346119
912.139513	2548.993907
912.445527	2549.341747
912.751502	2548.509957
913.057436	2547.582384
913.363331	2547.264792
913.669186	2545.765048
913.975000	2550.004659
914.280775	2548.696479
914.586510	2550.702858
914.892205	2549.220759
915.197859	2548.378887
915.503475	2549.838301
915.809050	2544.068700
916.114585	2550.110523
916.420081	2546.979966
916.725536	2548.683876
917.030952	2546.785882
917.336328	2547.557178
917.641665	2548.298228
917.946961	2544.600542
918.252218	2546.586756
918.557435	2544.212373
918.862612	2552.011038
919.167750	2550.372663
919.472848	2551.174206
919.777906	2549.538352
920.082925	2548.303269
920.387904	2549.414844
920.692843	2547.484082
920.997743	2546.276725
921.302603	2548.971222
921.607423	2546.793444
921.912204	2550.284443
922.216946	2546.521221
922.521647	2550.990204
922.826310	2549.934083
923.130932	2547.945347
923.435516	2548.043650
923.740059	2549.440049
924.044564	2549.051881
924.349028	2550.539021
924.653454	2547.388300
924.957840	2548.416695
925.262186	2548.991387
925.566493	2549.573640
925.870761	2551.524567
926.174989	2548.383928
926.479178	2549.979453
926.783328	2547.756304
927.087438	2547.920142
927.391509	2550.216387
927.695541	2547.799154
927.999533	2548.787220
928.303486	2548.247817
928.607400	2548.898125
928.911275	2548.872920
929.215110	2547.781510
929.518906	2548.688917
929.822663	2548.164638
930.126381	2547.786551
930.430060	2549.840821
930.733699	2549.697148
931.037299	2549.175389
931.340861	2551.030533
931.644383	2546.609442
931.947866	2546.448125
932.251309	2549.404761
932.554714	2548.124308
932.858080	2548.164638
933.161407	2545.417209
933.464694	2547.368135
933.767943	2543.791437
934.071153	2550.319731
934.374323	2547.539534
934.677455	2550.980122
934.980548	2548.194884
935.283602	2549.558517
935.586617	2547.325285
935.889593	2549.545914
936.192530	2548.925852
936.495428	2548.537683
936.798287	2549.291335
937.101108	2549.455173
937.403890	2548.530121
937.706632	2548.804864
938.009336	2545.379400
938.312002	2548.436860
938.614628	2548.141952
938.917216	2550.286963
939.219765	2547.791592
939.522275	2544.146838
939.824747	2549.634134
940.127179	2547.209339
940.429573	2546.092723
940.731929	2548.189843
941.034246	2548.096582
941.336524	2547.042981
941.638763	2550.816284
941.940964	2548.361243
942.243126	2547.738660
942.545250	2549.770245
942.847335	2545.916283
943.149381	2548.073897
943.451389	2547.912580
943.753359	2550.844011
944.055290	2548.023485
944.357182	2550.034906
944.659036	2547.484082
944.960851	2548.497354
945.262628	2548.361243
945.564367	2550.176058
945.866067	2545.545758
946.167729	2546.864020
946.469352	2551.632951
946.770937	2549.757642
947.072484	2547.400903
947.373992	2550.055070
947.675462	2548.207487
947.976893	2547.983156
948.278286	2544.955943
948.579641	2544.126673
948.880958	2544.320758
949.182236	2548.462066
949.483476	2550.728064
949.784678	2550.579350
950.085841	2546.294369
950.386967	2544.993752
950.688054	2551.242262
950.989103	2546.463248
951.290114	2547.373176
951.591087	2547.320244
951.892021	2548.509957
952.192917	2545.702034
952.493776	2548.028526
952.794596	2546.997610
953.095378	2547.889895
953.396122	2545.235727
953.696828	2546.702703
953.997496	2548.751932
954.298126	2545.795295
954.598718	2549.283774
954.899272	2547.040460
955.199788	2548.860317
955.500266	2547.715975
955.800706	2545.855789
956.101108	2546.611962
956.401472	2548.487271
956.701798	2546.271684
957.002087	2549.339226
957.302337	2545.770089
957.602550	2546.737991
957.902724	2546.629606
958.202861	2547.138763
958.502960	2547.370656
958.803022	2549.303938
959.103045	2548.451983
959.403031	2548.086500
959.702979	2543.922507
960.002889	2548.651109
960.302762	2547.574822
960.602596	2545.485264
960.902393	2547.995759
961.202153	2549.770245
961.501875	2547.015254
961.801559	2546.569112
962.101205	2547.773948
962.400814	2548.278063
962.700385	2547.723537
962.999918	2545.969215
963.299414	2543.093237
963.598873	2546.221273
963.898293	2540.842362
964.197677	2548.018444
964.497022	2548.336037
964.796331	2545.800336
965.095601	2547.776469
965.394835	2545.366797
965.694030	2547.867209
965.993189	2547.829401
966.292309	2547.080789
966.591393	2548.935934
966.890439	2546.788402
967.189447	2546.196067
967.488419	2548.010882
967.787353	2547.857127
968.086249	2547.287477
968.385108	2549.064483
968.683930	2547.738660
968.982714	2547.786551
969.281462	2550.037426
969.580172	2549.397200
969.878844	2547.675646
970.177480	2547.350491
970.476078	2547.400903
970.774639	2545.444935
971.073162	2548.472148
971.371649	2549.021634
971.670098	2543.781354
971.968510	2548.575492
972.266885	2548.237734
972.565223	2549.112374
972.863524	2547.037940
973.161788	2548.908208
973.460014	2547.156407
973.758204	2546.884184
974.056356	2547.181612
974.354471	2547.572302
974.652550	2545.820501
974.950591	2548.847714
975.248595	2548.819987
975.546563	2545.233207
975.844493	2548.273022
976.142386	2547.385779
976.440243	2548.111705
976.738062	2548.837632
977.035845	2547.713454
977.333590	2548.905687
977.631299	2546.359904
977.928971	2544.030891
978.226606	2544.396375
978.524204	2543.925027
978.821765	2544.746735
979.119290	2547.761345
979.416777	2546.241437
979.714228	2548.908208
980.011642	2549.800492
980.309020	2546.430481
980.606360	2546.521221
980.903664	2549.308979
981.200931	2546.866540
981.498162	2548.003321
981.795356	2547.136242
982.092513	2548.910728
982.389633	2548.903167
982.686717	2550.725544
982.983764	2548.807385
983.280775	2548.615821
983.577749	2548.111705
983.874686	2548.184802
984.171587	2547.131201
984.468451	2548.668753
984.765279	2546.838814
985.062070	2544.845038
985.358824	2545.318906
985.655543	2547.383259
985.952224	2545.744884
986.248869	2545.649102
986.545478	2545.563402
986.842050	2545.961653
987.138586	2548.330996
987.435086	2545.644061
987.731549	2546.879143
988.027975	2547.572302
988.324366	2548.086500
988.620719	2546.969884
988.917037	2548.451983
989.213318	2547.547096
989.509563	2547.791592
989.805772	2549.795451
990.101944	2547.756304
990.398080	2545.412167
990.694180	2545.528114
990.990244	2547.867209
991.286271	2546.453166
991.582262	2544.177085
991.878217	2548.068856
992.174136	2547.446273
992.470019	2548.825029
992.765865	2541.222969
993.061676	2541.321271
993.357450	2544.073741
993.653188	2542.178267
993.948890	2548.323434
994.244556	2546.629606
994.540186	2548.013403
994.835780	2545.124822
995.131337	2547.945347
995.426859	2545.623896
995.722345	2544.567774
996.017795	2547.269833
996.313208	2548.235214
996.608586	2549.389638
996.903928	2545.248330
997.199234	2546.269164
997.494504	2548.328475
997.789738	2545.790254
998.084936	2545.041643
998.380099	2545.570964
998.675225	2545.893598
998.970316	2548.081458
999.265371	2546.715306
999.560390	2547.975594
999.855373	2547.524411
1000.150320	2544.570295
1000.445232	2547.849565
1000.740108	2546.841335
1001.034948	2548.900646
1001.329752	2548.240255
1001.624521	2545.036602
1001.919254	2544.270346
1002.213951	2549.288815
1002.508613	2547.254709
1002.803239	2547.214380
1003.097829	2546.007024
1003.392384	2546.120450
1003.686903	2545.823022
1003.981386	2546.269164
1004.275834	2544.706406
1004.570246	2545.160110
1004.864623	2549.921480
1005.158964	2547.201777
1005.453270	2546.700182
1005.747540	2546.453166
1006.041775	2546.049873
1006.335974	2546.032229
1006.630138	2545.341591
1006.924266	2546.876623
1007.218359	2546.894267
1007.512416	2544.613145
1007.806438	2542.110212
1008.100425	2544.547610
1008.394376	2541.958977
1008.688292	2547.174051
1008.982172	2546.680018
1009.276017	2546.160779
1009.569827	2546.533824
1009.863602	2546.745553
1010.157341	2545.273536
1010.451045	2545.969215
1010.744714	2546.546427
1011.038347	2545.084493
1011.331945	2546.496016
1011.625508	2545.424770
1011.919036	2546.778320
1012.212528	2547.083310
1012.505986	2547.786551
1012.799408	2550.992725
1013.092795	2544.424101
1013.386147	2548.993907
1013.679464	2545.893598
1013.972745	2546.299411
1014.265992	2543.667928
1014.559204	2547.670604
1014.852380	2542.694986
1015.145521	2548.169679
1015.438628	2545.828063
1015.731699	2545.492826
1016.024736	2544.381252
1016.317737	2546.735470
1016.610703	2547.325285
1016.903635	2545.747404
1017.196531	2546.768238
1017.489393	2545.129863
1017.782219	2542.553833
1018.075011	2544.620706
1018.367768	2546.725388
1018.660490	2546.672456
1018.953177	2546.672456
1019.245829	2546.672456
