Dividing Wavelength (nm)	Counts (n)	Blue Motor Position (mm): 31.400000	Red Motor Position (mm): 0.000000	
326.493990	2217.404451
326.888308	2217.404451
327.282561	2217.404451
327.676750	2176.923986
328.070874	2172.079437
328.464933	2170.960301
328.858929	2177.833914
329.252859	2183.313648
329.646726	2190.187262
330.040528	2204.000023
330.434265	2214.813298
330.827938	2233.195866
331.221547	2251.081880
331.615091	2268.516710
332.008571	2288.976233
332.401986	2306.980714
332.795338	2325.023004
333.188625	2341.242916
333.581847	2363.421473
333.975006	2382.071221
334.368100	2401.441855
334.761129	2418.465831
335.154095	2436.331681
335.546996	2461.955866
335.939833	2499.003305
336.332606	2514.139370
336.725315	2526.389373
337.117960	2542.276570
337.510540	2549.450132
337.903056	2566.227092
338.295508	2571.285890
338.687896	2581.834504
339.080220	2587.707448
339.472480	2593.368664
339.864676	2600.950559
340.256807	2603.524068
340.648875	2611.756273
341.040879	2612.751901
341.432818	2615.627879
341.824694	2617.926645
342.216506	2620.608539
342.608253	2619.522170
342.999937	2620.081738
343.391557	2620.815226
343.783113	2619.663322
344.174605	2618.662653
344.566033	2618.924793
344.957397	2617.188116
345.348697	2613.321551
345.739934	2615.244751
346.131106	2612.706530
346.522215	2610.861468
346.913260	2608.103957
347.304241	2606.221086
347.695159	2607.471292
348.086012	2605.366610
348.476802	2601.946187
348.867528	2598.671958
349.258191	2594.412183
349.648789	2591.566452
350.039324	2590.472521
350.429796	2594.868407
350.820203	2593.101483
351.210548	2592.042841
351.600828	2588.866914
351.991045	2589.499578
352.381198	2586.323652
352.771288	2587.057139
353.161314	2584.261820
353.551276	2586.580750
353.941175	2586.018662
354.331010	2583.848445
354.720782	2586.253075
355.110490	2587.049578
355.500135	2584.808785
355.889717	2584.854155
356.279235	2586.643765
356.668689	2583.989597
357.058080	2582.235276
357.447408	2585.010431
357.836672	2587.271388
358.225873	2586.006059
358.615010	2588.766091
359.004084	2589.739033
359.393095	2588.846749
359.782043	2586.875658
360.170927	2586.235431
360.559748	2590.313725
360.948505	2590.802717
361.337199	2591.339600
361.725830	2590.845567
362.114398	2592.211719
362.502903	2592.625094
362.891344	2592.362954
363.279722	2592.010073
363.668037	2589.890268
364.056289	2594.931422
364.444478	2595.228850
364.832603	2595.208685
365.220665	2594.906216
365.608665	2597.119282
365.996601	2596.955445
366.384474	2595.695157
366.772284	2595.422934
367.160031	2595.806062
367.547715	2599.922164
367.935336	2597.280599
368.322893	2595.352358
368.710388	2595.019642
369.097820	2597.414190
369.485189	2596.920157
369.872495	2599.544077
370.259738	2601.132041
370.646918	2600.063316
371.034035	2601.663883
371.421090	2603.614809
371.808081	2601.694130
372.195010	2601.273193
372.581875	2602.750251
372.968678	2603.889552
373.355418	2603.761003
373.742096	2604.073554
374.128710	2604.008019
374.515262	2602.225971
374.901751	2604.822166
375.288177	2605.079264
375.674540	2602.702360
376.060841	2606.450458
376.447079	2603.950046
376.833254	2604.108842
377.219367	2607.262084
377.605417	2606.213524
377.991404	2604.814604
378.377329	2608.098916
378.763191	2606.420211
379.148991	2607.438524
379.534727	2606.657146
379.920402	2607.972887
380.306013	2609.449945
380.691563	2607.675459
381.077049	2607.231837
381.462474	2609.883484
381.847835	2607.665376
382.233134	2610.417846
382.618371	2606.193359
383.003545	2612.721654
383.388657	2610.594287
383.773706	2612.862806
384.158693	2612.978752
384.543618	2611.231993
384.928480	2610.188474
385.313280	2612.174688
385.698017	2609.220572
386.082692	2615.305245
386.467305	2614.871706
386.851856	2614.538990
387.236344	2613.969339
387.620770	2612.767024
388.005133	2613.510594
388.389435	2611.272322
388.773674	2610.203597
389.157851	2615.577467
389.541965	2616.802468
389.926018	2616.631068
390.310008	2614.649895
390.693936	2618.027468
391.077802	2619.045781
391.461606	2618.637448
391.845348	2619.418827
392.229027	2620.442181
392.612645	2617.674587
392.996200	2619.880092
393.379694	2620.056532
393.763125	2619.920421
394.146494	2621.999897
394.529801	2622.725823
394.913047	2622.151132
395.296230	2623.159363
395.679351	2624.293622
396.062410	2624.986781
396.445408	2624.596092
396.828343	2624.777573
397.211217	2627.512399
397.594028	2625.816051
397.976778	2624.404528
398.359466	2628.623973
398.742092	2625.271606
399.124656	2626.738582
399.507158	2627.600619
399.889598	2627.323356
400.271977	2629.491052
400.654294	2631.023563
401.036549	2631.331073
401.418742	2628.515589
401.800874	2630.506844
402.182944	2630.642956
402.564952	2633.536578
402.946898	2633.859212
403.328783	2632.729993
403.710606	2633.231588
404.092367	2634.275107
404.474067	2634.585138
404.855705	2633.801238
405.237282	2635.192597
405.618797	2636.846095
406.000250	2638.550005
406.381642	2639.210397
406.762972	2637.882052
407.144240	2637.219141
407.525447	2636.347021
407.906593	2635.474902
408.287677	2640.899183
408.668700	2641.448669
409.049661	2641.252064
409.430560	2643.082003
409.811399	2646.215080
410.192176	2644.435552
410.572891	2646.265491
410.953545	2644.559061
411.334138	2645.708444
411.714669	2646.015954
412.095139	2646.915800
412.475547	2649.506953
412.855894	2649.867396
413.236180	2649.373363
413.616405	2646.867909
413.996568	2649.224649
414.376670	2652.075421
414.756711	2653.391162
415.136691	2659.306956
415.516609	2658.306287
415.896466	2659.425423
416.276262	2663.964982
416.655997	2667.461023
417.035670	2673.515448
417.415283	2675.849503
417.794834	2682.644978
418.174324	2688.187727
418.553753	2696.092256
418.933121	2711.442569
419.312428	2723.823643
419.691674	2734.732700
420.070859	2760.205651
420.449983	2770.615633
420.829045	2805.545788
421.208047	2822.012717
421.586988	2862.283975
421.965867	2891.573079
422.344686	2935.063113
422.723444	2972.042497
423.102141	2980.128508
423.480777	3075.723908
423.859352	3092.752926
424.237866	3195.158925
424.616319	3246.971904
424.994712	3351.888398
425.373044	3378.596431
425.751314	3502.444978
426.129524	3562.079308
426.507673	3662.960358
426.885762	3764.887448
427.263789	3840.303109
427.641756	3914.566867
428.019662	4031.960217
428.397508	4170.798635
428.775292	4198.197306
429.153016	4392.342223
429.530679	4451.043939
429.908282	4565.445363
430.285824	4582.459258
430.663305	4884.683993
431.040726	4831.761959
431.418086	4925.572791
431.795385	5143.597654
432.172624	5282.569663
432.549802	5361.231827
432.926920	5513.086505
433.303977	5572.385597
433.680974	5764.554382
434.057910	5923.479278
434.434786	6059.214865
434.811601	6122.514114
435.188355	6507.645665
435.565050	6489.928529
435.941683	6575.819709
436.318257	6963.302958
436.694770	7146.861452
437.071222	7322.447361
437.447614	7358.920109
437.823946	7408.220073
438.200218	7644.309910
438.576429	7628.188300
438.952580	7896.513796
439.328670	8060.636121
439.704700	8024.128085
440.080670	8123.713559
440.456580	8640.494842
440.832429	8564.943070
441.208218	8366.971917
441.583947	8719.628355
441.959616	8926.537473
442.335224	8881.794713
442.710773	9090.087628
443.086261	9349.109674
443.461689	8854.627934
443.837057	9458.220408
444.212365	9790.218197
444.587612	9573.935053
444.962800	9874.778512
445.337927	9749.044573
445.712995	9428.104555
446.088002	10466.846908
446.462949	10220.279032
446.837837	10257.069373
447.212664	10338.960396
447.587431	10832.106230
447.962139	11522.285562
448.336786	13621.530408
448.711374	14249.562396
449.085901	12319.410452
449.460369	12006.180879
449.834776	11547.909747
450.209124	12360.276566
450.583412	12791.166670
450.957640	13751.052774
451.331808	13029.227599
451.705917	12054.946480
452.079965	11441.596854
452.453954	12316.327787
452.827883	11986.084319
453.201752	12281.251438
453.575562	11830.340391
453.949311	12244.201478
454.323001	12214.317518
454.696632	12446.071963
455.070202	12745.375349
455.443713	13020.259386
455.817164	13474.391731
456.190556	13491.430831
456.563888	13854.943393
456.937160	14055.011666
457.310373	13395.643866
457.683526	13469.274959
458.056619	13040.424002
458.429653	13167.597190
458.802628	12646.523364
459.175542	12993.334584
459.548398	13946.074852
459.921194	14276.446869
460.293930	14326.699611
460.666607	15225.131529
461.039224	16243.222795
461.411782	16945.934436
461.784280	16864.565172
462.156719	16900.523722
462.529099	16596.766476
462.901419	15527.565472
463.273680	15313.303831
463.645882	15178.538665
464.018024	14918.967133
464.390106	15135.797242
464.762130	15861.819178
465.134094	16599.350068
465.505999	18566.398216
465.877845	21808.011374
466.249631	24641.709486
466.621358	24381.202820
466.993026	22923.780037
467.364634	22378.362479
467.736184	20931.942014
468.107674	20125.886720
468.479105	20261.960065
468.850477	19722.233970
469.221790	19300.612027
469.593043	18628.391806
469.964238	18078.308660
470.335373	17758.719670
470.706449	18158.904107
471.077467	17700.761525
471.448425	19521.563279
471.819324	23492.855730
472.190164	25582.368629
472.560945	22103.042382
472.931667	19699.994920
473.302330	19054.139933
473.672934	18533.499646
474.043479	18911.873530
474.413965	18716.473366
474.784393	18356.993727
475.154761	19022.420993
475.525070	19042.222645
475.895321	18682.387604
476.265513	19258.586448
476.635645	19831.153140
477.005719	19630.457244
477.375734	19830.636422
477.745691	20300.522372
478.115588	20813.845424
478.485427	21316.488792
478.855207	22367.992825
479.224928	24119.370330
479.594591	26327.917474
479.964194	26419.469869
480.333739	26617.322555
480.703226	26176.816449
481.072653	25842.282959
481.442022	26405.916727
481.811333	27299.433520
482.180584	27241.818172
482.549777	26291.144777
482.918912	25931.604644
483.287988	26051.004373
483.657005	25744.774441
484.025964	25465.451668
484.394864	25405.154427
484.763706	25094.868887
485.132489	24520.389077
485.501213	24681.408572
485.869879	24607.437201
486.238487	24408.972016
486.607036	24559.405087
486.975527	24239.664864
487.343959	24586.866773
487.712333	24536.099833
488.080648	24199.053328
488.448905	24662.766385
488.817104	24416.831174
489.185244	25074.074128
489.553326	25056.732558
489.921350	26019.585381
490.289315	28273.583568
490.657222	30092.361300
491.025070	30586.860684
491.392861	30383.450126
491.760593	29531.603511
492.128267	28648.259766
492.495883	27611.067568
492.863440	26731.096356
493.230939	25849.194381
493.598380	25702.723656
493.965763	25296.184846
494.333088	24867.066707
494.700354	24773.376863
495.067563	24667.116901
495.434713	24412.687346
495.801805	24559.710077
496.168839	24379.917325
496.535815	24205.432908
496.902733	24427.924233
497.269593	24092.367389
497.636395	24276.624083
498.003139	24265.689820
498.369825	24022.978427
498.736453	24204.172620
499.103023	24081.944804
499.469535	24106.820378
499.835989	24310.873682
500.202385	24340.006510
500.568723	23839.132588
500.935003	24096.528862
501.301226	23697.894580
501.667390	24536.268712
502.033497	24770.760504
502.399546	24504.035574
502.765537	24074.599843
503.131470	24456.157216
503.497345	24592.613688
503.863163	23811.741478
504.228923	24421.375775
504.594625	24621.285251
504.960269	24125.727225
505.325856	24638.455421
505.691385	24047.070102
506.056856	24649.639221
506.422270	24612.185968
506.787625	24186.004302
507.152924	24602.186840
507.518164	24625.605520
507.883347	24439.231542
508.248472	24122.299240
508.613540	24910.037502
508.978550	24691.788308
509.343503	24675.661657
509.708398	24945.640651
510.073236	25106.249292
510.438016	25299.277593
510.802738	24983.529963
511.167403	25230.717901
511.532010	24926.791777
511.896561	25707.321189
512.261053	25680.340933
512.625488	25522.325966
512.989866	25414.404944
513.354186	25261.048003
513.718449	25360.242787
514.082655	25734.954273
514.446803	25469.174560
514.810894	25930.152792
515.174927	25413.308493
515.538904	25452.937004
515.902822	25939.584790
516.266684	25696.787698
516.630488	25600.854540
516.994235	25588.271820
517.357925	25874.195984
517.721558	26059.229015
518.085133	26158.096124
518.448651	26062.488121
518.812112	25795.821165
519.175516	25997.429510
519.538863	26155.270558
519.902152	25940.620747
520.265385	26227.260755
520.628560	26014.670256
520.991678	26030.108790
521.354739	26097.635046
521.717743	26165.433524
522.080690	25950.899660
522.443580	26281.508612
522.806413	26282.491637
523.169189	26373.602931
523.531908	26419.013645
523.894569	26032.276486
524.257174	26102.015808
524.619722	26293.398173
524.982213	25975.482847
525.344647	26052.844394
525.707025	26182.449939
526.069345	26160.964541
526.431608	26109.617868
526.793815	26304.163557
527.155964	25761.082574
527.518057	25942.307013
527.880093	25855.959610
528.242072	26092.699756
528.603995	25805.729553
528.965860	25599.682472
529.327669	25647.633927
529.689421	25640.793081
530.051117	25462.739527
530.412755	25644.775593
530.774337	25450.827281
531.135862	25313.617156
531.497331	25527.059609
531.858743	25059.795059
532.220098	25557.646810
532.581396	25226.760595
532.942638	25170.672718
533.303824	25250.635500
533.664953	25286.596571
534.026025	24939.976915
534.387040	25172.371587
534.747999	25248.135088
535.108902	25400.743417
535.469748	24899.690534
535.830537	25075.092441
536.191270	25209.081269
536.551947	25072.372738
536.912567	24730.121242
537.273131	25078.361629
537.633638	24785.034531
537.994089	24996.132848
538.354483	24525.667165
538.714821	25023.279462
539.075103	25069.537089
539.435328	24863.842889
539.795497	24417.988119
540.155609	24814.754653
540.515665	25106.309786
540.875665	24351.185269
541.235609	24636.189422
541.595496	24598.524441
541.955328	24947.654592
542.315102	24865.889597
542.674821	24424.287041
543.034483	24305.953516
543.394090	24466.186591
543.753640	24261.273770
544.113134	24893.779781
544.472571	24489.872452
544.831953	24782.997905
545.191278	24390.995261
545.550548	24323.438758
545.909761	24520.197513
546.268918	24765.245481
546.628019	24745.285033
546.987064	24429.537403
547.346053	24187.572100
547.704986	24303.296828
548.063863	24453.586227
548.422684	24471.124401
548.781449	24014.174052
549.140158	24410.570061
549.498811	23991.435928
549.857408	23721.956008
550.215949	24166.202649
550.574434	23841.103679
550.932864	24063.284973
551.291237	24214.345668
551.649555	24072.822836
552.007817	24128.860302
552.366022	23996.923224
552.724173	24034.583163
553.082267	23977.295491
553.440305	24454.607061
553.798288	23720.383168
554.156215	24230.563060
554.514086	24329.054604
554.871902	23702.391290
555.229661	23985.071471
555.587365	23842.943700
555.945014	23696.808212
556.302606	23955.489980
556.660143	23902.966198
557.017625	24155.233098
557.375050	23684.049051
557.732421	24075.091355
558.089735	23884.560946
558.446994	23955.673982
558.804197	23972.766014
559.161345	23932.645992
559.518437	23682.244318
559.875474	23876.815213
560.232455	24052.073447
560.589381	23883.976172
560.946251	23858.387275
561.303065	24184.076060
561.659825	24273.538897
562.016528	23875.343196
562.373177	23607.080714
562.729770	23966.426763
563.086307	23829.385517
563.442789	24001.273739
563.799216	23822.993334
564.155587	23850.061809
564.511904	23821.707839
564.868164	23755.860288
565.224370	23751.013218
565.580520	23645.310305
565.936615	23774.930973
566.292654	23464.048056
566.648638	23759.129476
567.004567	23582.540377
567.360441	23528.146327
567.716260	23255.959308
568.072023	23595.722995
568.427732	23348.109080
568.783385	23128.503815
569.138982	23370.068346
569.494525	23396.940216
569.850013	23152.061127
570.205445	23257.227158
570.560823	23054.376168
570.916145	22816.007729
571.271412	22994.280573
571.626625	22740.778591
571.981782	22867.992108
572.336884	22665.748577
572.691931	22798.376294
573.046923	22534.492055
573.401860	22414.772213
573.756743	22422.190270
574.111570	22336.518381
574.466342	22261.206063
574.821059	22350.212676
575.175722	22058.566802
575.530330	22039.256663
575.884882	22069.349830
576.239380	21978.288948
576.593823	21870.587217
576.948211	21852.658353
577.302544	21702.815096
577.656823	21569.312739
578.011047	21653.469762
578.365216	21531.753623
578.719330	21412.694172
579.073389	21306.829941
579.427394	21450.293618
579.781344	21215.821990
580.135239	21108.006833
580.489080	21087.103689
580.842866	20852.357319
581.196597	21037.523941
581.550273	21019.085920
581.903895	20893.548587
582.257463	21220.190150
582.610975	20744.000237
582.964434	21055.999769
583.317837	20762.917167
583.671186	20852.566527
584.024481	20823.622742
584.377721	20592.626990
584.730906	20656.432874
585.084037	20679.665032
585.437113	20587.311093
585.790135	20786.434150
586.143103	20244.406768
586.496016	20257.609550
586.848874	20509.137921
587.201679	20433.989440
587.554428	20112.751994
587.907124	20451.215063
588.259765	20223.612008
588.612352	20292.270003
588.964884	19867.487256
589.317362	20038.200890
589.669786	20088.987995
590.022155	20139.223093
590.374470	20335.208031
590.726731	20115.610328
591.078937	19884.735564
591.431090	19982.881788
591.783188	19732.961545
592.135232	19695.445278
592.487222	19802.733635
592.839157	19821.839608
593.191038	19700.529282
593.542866	19587.609957
593.894639	19308.158634
594.246358	19522.180821
594.598022	19437.255022
594.949633	19186.767650
595.301190	19148.464963
595.652692	19324.134051
596.004141	19549.856755
596.355535	18879.879847
596.706876	18902.050842
597.058162	18787.480539
597.409395	19022.751189
597.760573	19094.164174
598.111698	18866.556078
598.462768	18804.648188
598.813785	18768.916490
599.164748	18589.179190
599.515657	18624.406773
599.866511	18412.713600
600.217312	18777.645248
600.568060	18290.896638
600.918753	18605.681407
601.269392	18507.247837
601.619978	18295.574829
601.970510	18497.921703
602.320988	18440.366849
602.671412	18662.654008
603.021783	18557.959325
603.372100	18285.774826
603.722363	18433.336960
604.072572	18369.715078
604.422728	18517.909878
604.772830	18268.922248
605.122878	18222.838540
605.472872	18213.819916
605.822813	18195.807873
606.172701	18175.408844
606.522534	18365.314151
606.872314	18395.157782
607.222041	18222.072285
607.571714	18442.083362
607.921333	18271.634389
608.270899	18349.071553
608.620411	18522.653604
608.969870	18298.339902
609.319276	18293.727246
609.668627	18320.672213
610.017926	18452.417728
610.367171	18581.897244
610.716362	18621.828223
611.065500	18438.685625
611.414585	18566.751097
611.763616	18554.609478
612.112594	18497.062186
612.461518	18469.676118
612.810389	18653.285023
613.159207	18517.753602
613.507971	18425.001412
613.856682	18715.381956
614.205340	18636.210635
614.553945	18780.080125
614.902496	18524.533954
615.250994	18751.895034
615.599439	18693.470581
615.947830	18684.993881
616.296169	18739.987828
616.644454	18709.700576
616.992686	18668.075769
617.340864	18894.650428
617.688990	18649.960382
618.037063	18815.842070
618.385082	18672.446449
618.733048	18951.184448
619.080961	18814.909457
619.428821	18859.168267
619.776628	18739.647550
620.124382	18660.428338
620.472083	18701.919555
620.819731	18725.741528
621.167326	18417.951359
621.514868	18461.194377
621.862357	18234.387824
622.209793	18236.227845
622.557176	18068.710303
622.904506	17895.586997
623.251783	17808.750602
623.599007	17566.939055
623.946179	17520.797373
624.293297	17455.325388
624.640363	17214.466619
624.987376	17228.677632
625.334336	17027.598608
625.681243	16867.131119
626.028097	16885.072585
626.374899	16803.471428
626.721647	16661.295766
627.068343	16505.445974
627.414987	16432.301353
627.761577	16412.197231
628.108115	16449.526975
628.454600	16174.146385
628.801032	16276.139009
629.147412	16203.417845
629.493739	16212.096191
629.840014	16026.533838
630.186236	16134.858152
630.532405	15894.889147
630.878521	16093.124960
631.224585	15980.593803
631.570597	15809.779347
631.916556	15838.408059
632.262462	15812.451158
632.608316	15734.766977
632.954117	15681.945767
633.299866	15668.087635
633.645562	15589.097796
633.991206	15350.633575
634.336797	15218.033585
634.682336	15186.226424
635.027823	15072.419856
635.373257	14957.103462
635.718639	14856.212329
636.063968	14804.167457
636.409245	14552.044229
636.754470	14582.097068
637.099642	14428.876238
637.444762	14195.049879
637.789829	14242.908073
638.134845	14080.414040
638.479808	14119.659423
638.824719	14061.426534
639.169577	13903.703954
639.514383	13954.334782
639.859137	13772.926341
640.203839	13858.625956
640.548489	13707.295559
640.893086	13683.254296
641.237632	13554.735120
641.582125	13713.070201
641.926566	13537.272563
642.270955	13550.513154
642.615292	13512.467566
642.959576	13521.251776
643.303809	13556.892734
643.647990	13480.385663
643.992118	13550.039285
644.336195	13314.733347
644.680219	13529.925081
645.024192	13448.296198
645.368112	13683.466025
645.711981	13741.885436
646.055797	13924.382767
646.399562	13889.573600
646.743274	14163.285568
647.086935	14436.493422
647.430544	14399.254418
647.774101	14432.092494
648.117606	14580.809053
648.461059	14553.347368
648.804460	14540.865471
649.147810	14264.335497
649.491108	14174.514738
649.834354	14186.520246
650.177548	13877.298390
650.520690	13687.645141
650.863781	13607.246299
651.206820	13652.488134
651.549807	13488.794307
651.892742	13291.191159
652.235626	13230.543557
652.578458	13220.201630
652.921238	12917.167790
653.263967	13115.610291
653.606644	12940.586470
653.949269	12912.114033
654.291843	12722.269221
654.634365	12875.258158
654.976836	12734.373031
655.319255	12734.899832
655.661622	12692.564222
656.003938	12606.635234
656.346203	12540.288608
656.688416	12611.036161
657.030577	12575.506109
657.372687	12485.110659
657.714746	12462.561578
658.056753	12652.847491
658.398708	12466.551651
658.740612	12471.522228
659.082465	12570.180130
659.424266	12537.238710
659.766016	12565.297772
660.107715	12472.727064
660.449362	12546.726162
660.790958	12502.404337
661.132503	12447.927108
661.473996	12519.970238
661.815438	12534.082948
662.156829	12551.227912
662.498168	12529.520703
662.839456	12529.452648
663.180693	12545.483517
663.521879	12635.364770
663.863013	12611.492386
664.204097	12592.552771
664.545129	12708.663147
664.886110	12672.565964
665.227040	12775.314762
665.567918	12778.841049
665.908746	12812.039568
666.249522	12789.379581
666.590248	12849.525588
666.930922	12952.942338
667.271545	12935.207559
667.612118	13018.721834
667.952639	12916.963623
668.293109	12935.263012
668.633528	12892.148544
668.973896	12863.237526
669.314213	12946.414044
669.654480	12679.290864
669.994695	12749.020104
670.334859	12784.963531
670.674973	12727.529665
671.015035	12759.175508
671.355047	12695.299048
671.695008	12671.429184
672.034918	12684.747913
672.374777	12721.996998
672.714585	12632.209007
673.054342	12673.884226
673.394049	12623.941515
673.733705	12714.077346
674.073310	12620.818520
674.412864	12633.950726
674.752368	12498.288235
675.091820	12522.654652
675.431223	12513.711645
675.770574	12381.809855
676.109875	12297.163840
676.449125	12258.167995
676.788324	12202.727905
677.127473	12039.898636
677.466571	12025.617047
677.805619	11925.164495
678.144616	11845.320180
678.483562	11819.164153
678.822458	11685.634070
679.161303	11664.062973
679.500098	11652.732980
679.838842	11611.924839
680.177535	11630.163734
680.516179	11693.062210
680.854771	11637.014662
681.193314	11849.983247
681.531805	12014.009791
681.870247	12433.514449
682.208638	12846.132891
682.546978	13153.981033
682.885268	13199.800081
683.223508	12891.382288
683.561697	12738.950399
683.899836	12637.746715
684.237925	12442.727158
684.575963	12351.789783
684.913951	12278.846808
685.251889	12225.274466
685.589776	12327.723315
685.927614	12252.960483
686.265401	12211.660830
686.603137	12264.267791
686.940824	12410.163824
687.278460	12543.235163
687.616046	12578.654309
687.953582	12751.699477
688.291068	12683.401925
688.628504	12912.774425
688.965889	12922.133327
689.303224	12888.281979
689.640510	12777.633693
689.977745	12470.080458
690.314930	12242.800037
690.652065	12155.527582
690.989150	11858.722088
691.326185	11639.368881
691.663170	11433.410020
692.000105	11184.288800
692.336990	11073.605226
692.673825	10819.261370
693.010610	10702.011693
693.347345	10494.855558
693.684030	10293.942892
694.020665	10232.213964
694.357251	10040.763543
694.693786	9976.491353
695.030272	9820.011417
695.366707	9694.211943
695.703093	9630.224577
696.039429	9628.863466
696.375716	9546.738028
696.711952	9420.063914
697.048139	9463.332138
697.384276	9418.178523
697.720363	9431.053630
698.056400	9363.814720
698.392388	9319.104726
698.728326	9278.263818
699.064214	9214.057162
699.400053	9263.314277
699.735842	9081.089168
700.071581	9035.063433
700.407270	8963.766395
700.742910	8887.609683
701.078501	8790.446484
701.414042	8665.998040
701.749533	8599.280889
702.084974	8459.736710
702.420366	8577.616531
702.755709	8457.899209
703.091002	8323.086152
703.426246	8349.665636
703.761440	8304.363307
704.096584	8261.654652
704.431679	8191.663272
704.766725	8181.843104
705.101721	8134.743603
705.436668	8170.903800
705.771565	8065.604178
706.106413	8145.030078
706.441212	8193.105042
706.775961	8140.051938
707.110661	8186.964916
707.445311	8328.129827
707.779913	8224.302222
708.114465	8354.285853
708.448967	8395.729179
708.783421	8537.040283
709.117825	8720.984425
709.452180	8753.146987
709.786485	8843.524793
710.120742	9119.782544
710.454949	9126.535170
710.789107	9228.265655
711.123216	9440.722563
711.457275	9604.194579
711.791286	9769.718345
712.125247	9758.363146
712.459159	9748.442155
712.793023	9989.641202
713.126837	9567.348786
713.460602	9719.997445
713.794318	9545.273573
714.127985	9577.763810
714.461602	9255.470241
714.795171	9201.287920
715.128691	8956.605436
715.462162	8706.178557
715.795584	8651.469434
716.128957	8500.645673
716.462281	8332.528233
716.795556	8387.496975
717.128782	8171.349942
717.461960	7910.389572
717.795088	7981.134605
718.128167	7893.393322
718.461198	7722.558700
718.794180	7664.182139
719.127113	7659.193917
719.459997	7501.804053
719.792833	7268.098681
720.125619	7336.141655
720.458357	7194.346600
720.791046	7186.847884
721.123686	7182.232708
721.456278	7020.709097
721.788821	7037.869185
722.121315	6930.091836
722.453761	7001.958526
722.786158	6943.637417
723.118506	6955.506813
723.450805	6923.200579
723.783056	6989.363203
724.115259	6903.499750
724.447412	6895.146558
724.779518	6940.325379
725.111574	6936.395799
725.443582	7021.235898
725.775542	7002.437435
726.107453	7198.545882
726.439315	7107.081707
726.771129	7168.997158
727.102895	7339.229362
727.434612	7446.903367
727.766281	7486.231929
728.097901	7560.135244
728.429473	7555.562918
728.760996	7529.719442
729.092471	7501.914958
729.423897	7456.347969
729.755276	7460.607744
730.086606	7387.279120
730.417887	7482.153635
730.749120	7685.470932
731.080305	7876.996969
731.411442	7997.591451
731.742530	7990.954772
732.073570	8098.792615
732.404562	8181.825460
732.735506	8034.475053
733.066401	8173.379007
733.397249	8108.953060
733.728048	7865.692182
734.058798	7537.825618
734.389501	7304.223590
734.720156	7128.612475
735.050762	6894.428193
735.381320	6799.833462
735.711831	6748.494351
736.042293	6643.240100
736.372707	6662.963615
736.703073	6518.595051
737.033391	6561.598614
737.363661	6568.109264
737.693883	6601.295180
738.024056	6689.598551
738.354182	6728.302010
738.684260	6763.297700
739.014290	6877.121912
739.344272	6988.052503
739.674207	7015.990577
740.004093	7087.872390
740.333931	7102.670697
740.663722	7114.104034
740.993464	7188.690426
741.323159	7176.127870
741.652806	6921.519354
741.982405	6938.253464
742.311956	6998.165057
742.641460	6829.510735
742.970915	6635.882536
743.300323	6627.189066
743.629683	6580.170224
743.958996	6445.899092
744.288260	6354.944073
744.617477	6301.452390
744.946647	6310.486138
745.275768	6139.162524
745.604842	6093.595535
745.933869	6078.204892
746.262847	6037.595877
746.591778	6021.749010
746.920662	5984.202496
747.249498	5974.629345
747.578286	6024.050297
747.907027	6096.935299
748.235720	6155.450492
748.564365	6128.382017
748.892963	6159.778323
749.221514	6308.941024
749.550017	6141.355426
749.878473	6022.633732
750.206881	6073.544345
750.535242	6016.937229
750.863555	5944.402587
751.191821	5965.824970
751.520039	5965.971163
751.848210	5875.512699
752.176334	5893.983486
752.504411	5948.516168
752.832440	5871.230238
753.160421	5800.210463
753.488356	5847.599830
753.816243	5877.526640
754.144082	5729.659515
754.471875	5703.634558
754.799620	5750.139202
755.127318	5760.463486
755.454969	5709.227718
755.782572	5676.636659
756.110129	5719.168874
756.437638	5702.762439
756.765100	5641.290609
757.092515	5645.613398
757.419882	5692.541499
757.747203	5675.903171
758.074477	5740.757615
758.401703	5725.939143
758.728882	5674.937790
759.056014	5729.677159
759.383099	5861.813363
759.710138	5872.392224
760.037129	5858.534093
760.364073	5863.338312
760.690970	5940.967040
761.017820	5922.110604
761.344623	5883.374378
761.671379	5984.515048
761.998088	6100.660712
762.324751	6352.541964
762.651366	6951.330218
762.977935	8271.134541
763.304456	9902.905630
763.630931	10800.049533
763.957359	10392.568026
764.283740	9448.755642
764.610074	8614.986604
764.936362	7619.351158
765.262602	7019.350506
765.588796	6487.324773
765.914943	6148.778525
766.241044	5991.975955
766.567097	5783.443585
766.893104	5527.864647
767.219064	5346.410835
767.544978	5282.814159
767.870845	5202.707703
768.196665	5100.808340
768.522438	5032.863669
768.848165	4996.763966
769.173846	4931.712917
769.499479	4885.823293
769.825066	4833.929656
770.150607	4773.624853
770.476101	4750.490998
770.801548	4744.083691
771.126949	4668.360519
771.452303	4617.568374
771.777611	4576.717383
772.102872	4594.489971
772.428087	4555.239547
772.753256	4513.604658
773.078378	4470.492710
773.403453	4402.558121
773.728482	4384.992220
774.053465	4343.019573
774.378401	4326.197243
774.703291	4331.800486
775.028135	4258.255092
775.352932	4207.238615
775.677683	4192.505843
776.002388	4212.244481
776.327046	4226.115216
776.651658	4148.163854
776.976224	4091.148404
777.300743	4097.533025
777.625216	4114.173874
777.949643	4108.810086
778.274024	4064.495823
778.598359	4017.625696
778.922647	4044.426990
779.246889	4035.521792
779.571086	4031.365360
779.895236	4016.314996
780.219339	4000.488293
780.543397	3995.174917
780.867409	4051.083834
781.191374	4064.326945
781.515294	3998.348323
781.839167	3994.411182
782.162995	4015.180736
782.486776	3997.879496
782.810511	4009.050693
783.134201	4006.174715
783.457844	3959.390286
783.781441	3904.298037
784.104993	3908.454468
784.428498	3930.035647
784.751958	3926.355605
785.075372	3907.486566
785.398739	3868.911657
785.722061	3881.769120
786.045337	3920.991817
786.368568	3956.995738
786.691752	3864.908981
787.014891	3917.992331
787.337983	4045.750293
787.661030	4206.066547
787.984031	4367.524622
788.306987	4534.359088
788.629897	4621.127428
788.952760	4569.952155
789.275579	4506.766333
789.598351	4442.345428
789.921078	4298.183551
790.243759	4101.061833
790.566395	4082.649018
790.888984	4075.503183
791.211529	3971.070640
791.534027	3907.216865
791.856480	3899.723189
792.178888	3835.627439
792.501249	3786.834111
792.823566	3800.916574
793.145836	3826.825584
793.468062	3776.444293
793.790241	3730.027869
794.112375	3758.850666
794.434464	3825.741736
794.756507	3850.183771
795.078505	3832.993436
795.400457	3862.219525
795.722364	4003.994416
796.044226	4106.196248
796.366042	4178.524203
796.687812	4159.690452
797.009538	4165.581040
797.331218	4125.592088
797.652852	4094.657047
797.974442	4077.847319
798.295986	4076.181218
798.617484	3993.823888
798.938938	3910.160898
799.260346	3950.583391
799.581709	3942.807411
799.903026	3869.398128
800.224299	3834.594002
800.545526	3828.519412
800.866708	3788.185140
801.187845	3729.203640
801.508936	3764.421141
801.829983	3758.321345
802.150984	3681.758821
802.471940	3672.485618
802.792851	3680.879139
803.113717	3684.808719
803.434538	3688.604707
803.755314	3625.512147
804.076045	3603.391563
804.396731	3624.831591
804.717372	3647.453769
805.037967	3634.664361
805.358518	3624.012403
805.679024	3649.886125
805.999485	3664.341634
806.319901	3668.666944
806.640272	3679.986855
806.960598	3693.824822
807.280879	3672.518386
807.601115	3682.240251
807.921306	3698.810523
808.241453	3735.908375
808.561554	3717.135118
808.881611	3649.558450
809.201623	3690.222918
809.521590	3700.595092
809.841513	3671.512675
810.161390	3698.634083
810.481223	3678.557688
810.801011	3623.445273
811.120755	3614.272894
811.440453	3652.116836
811.760107	3655.610356
812.079716	3611.434724
812.399281	3578.400043
812.718801	3598.645317
813.038276	3575.529106
813.357707	3572.514496
813.677093	3590.587033
813.996434	3535.963610
814.315731	3546.043397
814.634983	3548.019530
814.954191	3562.185172
815.273354	3595.686160
815.592473	3590.405551
815.911547	3597.896706
816.230577	3636.791728
816.549562	3690.069163
816.868502	3728.064339
817.187399	3754.200201
817.506250	3750.787340
817.825058	3724.611149
818.143821	3816.685303
818.462539	3918.125922
818.781213	3964.446564
819.099843	4022.835728
819.418429	4269.882513
819.736970	4509.705325
820.055466	4758.705558
820.373919	5122.626454
820.692327	5530.218866
821.010691	5979.516744
821.329011	7369.345215
821.647286	10136.071598
821.965517	14725.233070
822.283704	18761.831148
822.601847	20899.444216
822.919945	19059.720490
823.237999	16466.495499
823.556010	13960.114465
823.873976	11863.624610
824.191897	9766.746585
824.509775	8424.814116
824.827609	7291.872763
825.145398	6749.681543
825.463144	6639.716334
825.780845	6749.895792
826.098502	6948.774352
826.416116	7828.831265
826.733685	9159.693359
827.051210	10268.671588
827.368692	10298.142174
827.686129	9032.590748
828.003522	7523.619646
828.320872	6505.127608
828.638177	5799.280370
828.955439	5240.390328
829.272656	4740.930449
829.589830	4462.862924
829.906960	4288.557468
830.224046	4102.478397
830.541088	3979.718739
830.858086	3933.123354
831.175041	3855.298021
831.491952	3837.848067
831.808819	3848.164788
832.125642	3925.102878
832.442421	4068.926998
832.759157	4352.045759
833.075849	4900.488010
833.392497	5771.609477
833.709101	6546.084463
834.025662	6875.070163
834.342179	6510.803948
834.658653	5846.483214
834.975083	5193.515159
835.291469	4619.345380
835.607811	4212.438565
835.924110	4072.879262
836.240366	3874.051113
836.556578	3670.194414
836.872746	3561.290367
837.188871	3520.373842
837.504952	3453.775158
837.820990	3371.702653
838.136984	3327.254800
838.452935	3350.534848
838.768842	3346.696010
839.084706	3370.848178
839.400526	3528.210316
839.716303	3869.567007
840.032037	4400.259355
840.347727	4660.332482
840.663373	4374.443606
840.978977	3991.431860
841.294537	3683.132535
841.610054	3460.505099
841.925527	3351.653984
842.240957	3280.689662
842.556344	3227.462639
842.871687	3171.634381
843.186987	3118.583798
843.502244	3084.361925
843.817458	3045.908004
844.132629	3018.269878
844.447756	3027.023841
844.762840	3008.600945
845.077881	2979.878971
845.392879	2958.358285
845.707833	2956.024231
846.022745	2954.960547
846.337613	2958.133953
846.652438	2944.968980
846.967221	2942.624844
847.281960	2929.318718
847.596656	2922.709765
847.911309	2925.679005
848.225919	2917.010741
848.540485	2914.011254
848.855009	2913.756676
849.169490	2901.761251
849.483928	2893.415620
849.798323	2895.437123
850.112675	2888.543345
850.426984	2901.529358
850.741251	2896.576424
851.055474	2888.460166
851.369654	2885.294322
851.683792	2886.088303
851.997887	2896.155488
852.311938	2898.199675
852.625947	2885.569064
852.939914	2888.495454
853.253837	2895.288409
853.567718	2880.454814
853.881555	2878.912221
854.195350	2893.587020
854.509103	2890.418654
854.822812	2881.132849
855.136479	2878.944988
855.450103	2880.986656
855.763685	2876.865512
856.077224	2872.605737
856.390720	2884.006307
856.704173	2892.538460
857.017584	2885.269116
857.330953	2884.157541
857.644278	2891.268089
857.957561	2900.369892
858.270802	2905.859709
858.584000	2904.448186
858.897155	2891.250445
859.210268	2887.870351
859.523339	2888.087121
859.836367	2887.575444
860.149352	2884.833056
860.462295	2878.743342
860.775195	2887.416647
861.088054	2885.337171
861.400869	2869.089533
861.713642	2867.385623
862.026373	2883.250134
862.339062	2886.126112
862.651708	2888.271123
862.964312	2894.280178
863.276873	2884.951523
863.589392	2895.285888
863.901869	2907.505645
864.214303	2928.764191
864.526696	2944.638785
864.839045	2940.149637
865.151353	2940.348763
865.463619	2937.634101
865.775842	2942.037549
866.088023	2960.762915
866.400162	2965.340283
866.712258	2934.853905
867.024313	2926.624221
867.336325	2935.501693
867.648296	2954.038016
867.960224	2949.569033
868.272110	2935.403391
868.583954	2940.986469
868.895755	2952.664302
869.207515	2940.517641
869.519233	2945.989814
869.830909	2955.865434
870.142542	2964.702577
870.454134	2962.446661
870.765684	2967.729790
871.077191	2966.703915
871.388657	2974.482415
871.700081	2989.598315
872.011463	2998.150633
872.322803	2999.584841
872.634101	2998.616939
872.945357	3016.865916
873.256571	3044.393137
873.567744	3035.258566
873.878874	3025.493851
874.189963	3050.472768
874.501010	3053.409241
874.812015	3042.449772
875.122979	3042.550595
875.433900	3040.350132
875.744780	3043.621840
876.055618	3051.155845
876.366415	3049.850186
876.677169	3061.265879
876.987882	3056.131464
877.298554	3052.108623
877.609183	3072.389185
877.919771	3098.721652
878.230317	3122.972122
878.540822	3174.495235
878.851285	3212.848334
879.161707	3256.119078
879.472087	3363.104965
879.782425	3591.622990
880.092722	4030.894012
880.402977	4559.847162
880.713191	5195.985325
881.023363	6363.534200
881.333494	7653.935994
881.643583	8204.419911
881.953631	7897.781646
882.263637	7260.801611
882.573602	6667.493091
882.883526	6085.408701
883.193408	5509.141802
883.503248	5048.967635
883.813048	4741.583279
884.122806	4438.589768
884.432522	4118.695789
884.742197	3888.909914
885.051831	3693.078732
885.361424	3556.460942
885.670975	3481.809015
885.980485	3396.553021
886.289954	3320.255158
886.599382	3276.868467
886.908768	3240.549474
887.218113	3192.938297
887.527417	3138.778660
887.836680	3084.689600
888.145901	3080.311358
888.455082	3070.909606
888.764221	3019.986391
889.073319	2989.121926
889.382376	2987.755773
889.691392	2993.626197
890.000366	2993.664006
890.309300	2979.994917
890.618193	2992.791886
890.927044	3008.981552
891.235855	3005.261180
891.544625	2993.848008
891.853353	3004.038700
892.162041	3022.857328
892.470687	3063.799059
892.779293	3112.146245
893.087858	3158.108965
893.396381	3234.522775
893.704864	3360.811240
894.013306	3598.852004
894.321707	3904.340886
894.630068	4109.445272
894.938387	4101.192903
895.246665	4058.058270
895.554903	3936.163170
895.863100	3735.197572
896.171256	3568.078281
896.479371	3430.348917
896.787446	3303.357210
897.095480	3201.049513
897.403473	3135.217085
897.711425	3098.431786
898.019336	3092.117740
898.327207	3062.327042
898.635038	3024.286495
898.942827	3013.790813
899.250576	2998.896723
899.558284	2969.693319
899.865952	2948.618776
900.173579	2927.771084
900.481165	2925.205137
900.788711	2908.629823
901.096216	2883.978580
901.403681	2872.028525
901.711105	2882.496481
902.018489	2878.798795
902.325832	2876.968856
902.633135	2890.237173
902.940397	2920.355547
903.247619	3002.365037
903.554800	3195.804193
903.861941	3545.350239
904.169041	3977.951815
904.476101	4277.532464
904.783121	4227.594794
905.090100	3979.098677
905.397039	3702.747665
905.703938	3455.022844
906.010796	3266.740789
906.317614	3158.431599
906.624391	3061.144891
906.931129	2991.108141
907.237826	2929.031372
907.544483	2878.894577
907.851099	2851.357274
908.157675	2829.057730
908.464211	2807.978145
908.770707	2795.614715
909.077163	2782.061573
909.383578	2766.854932
909.689954	2755.840011
909.996289	2755.189702
910.302584	2758.521905
910.608839	2758.471494
910.915054	2750.975298
911.221229	2740.877867
911.527363	2747.338105
911.833458	2753.526122
912.139513	2758.113572
912.445527	2761.518871
912.751502	2767.701846
913.057436	2781.549896
913.363331	2794.092287
913.669186	2815.638178
913.975000	2849.938189
914.280775	2912.151069
914.586510	2983.208653
914.892205	3058.697411
915.197859	3192.207329
915.503475	3385.132287
915.809050	3599.618260
916.114585	3745.957915
916.420081	3766.437602
916.725536	3708.325701
917.030952	3587.093513
917.336328	3456.411682
917.641665	3325.331600
917.946961	3222.915518
918.252218	3152.422543
918.557435	3073.485636
918.862612	3013.334588
919.167750	2964.586630
919.472848	2927.781166
919.777906	2900.059861
920.082925	2875.718650
920.387904	2842.353773
920.692843	2826.988336
920.997743	2817.662202
921.302603	2799.662762
921.607423	2789.381328
921.912204	2780.609721
922.216946	2768.694954
922.521647	2756.553335
922.826310	2750.080493
923.130932	2741.845768
923.435516	2733.137175
923.740059	2727.886813
924.044564	2718.689228
924.349028	2714.069011
924.653454	2706.726570
924.957840	2703.255736
925.262186	2697.667617
925.566493	2692.303829
925.870761	2687.355936
926.174989	2684.797551
926.479178	2678.470903
926.783328	2674.788340
927.087438	2672.018226
927.391509	2675.007630
927.695541	2667.725683
927.999533	2667.947494
928.303486	2661.779642
928.607400	2665.303409
928.911275	2661.527585
929.215110	2661.295692
929.518906	2659.531288
929.822663	2657.978612
930.126381	2658.099600
930.430060	2661.217554
930.733699	2658.787717
931.037299	2661.484735
931.340861	2664.348110
931.644383	2662.387101
931.947866	2662.855929
932.251309	2661.149498
932.554714	2659.208654
932.858080	2657.197233
933.161407	2656.309990
933.464694	2655.584064
933.767943	2651.354536
934.071153	2654.051553
934.374323	2651.097437
934.677455	2655.884013
934.980548	2649.907725
935.283602	2652.259423
935.586617	2654.593478
935.889593	2652.161121
936.192530	2651.939310
936.495428	2652.115750
936.798287	2651.712458
937.101108	2654.966523
937.403890	2661.227636
937.706632	2662.906340
938.009336	2671.206600
938.312002	2682.932324
938.614628	2689.939528
938.917216	2694.852132
939.219765	2698.159129
939.522275	2694.589992
939.824747	2691.320804
940.127179	2691.098993
940.429573	2687.988601
940.731929	2683.602797
941.034246	2682.846624
941.336524	2679.194308
941.638763	2678.249092
941.940964	2675.211797
942.243126	2670.949501
942.545250	2671.554440
942.847335	2667.912206
943.149381	2666.162926
943.451389	2661.996412
943.753359	2656.070536
944.055290	2656.352840
944.357182	2658.994405
944.659036	2656.710762
944.960851	2655.631955
945.262628	2654.033909
945.564367	2655.712614
945.866067	2653.000473
946.167729	2652.314876
946.469352	2654.144815
946.770937	2653.882675
947.072484	2650.419402
947.373992	2652.261944
947.675462	2649.348157
947.976893	2645.085861
948.278286	2643.969246
948.579641	2646.270532
948.880958	2642.721560
949.182236	2645.708444
949.483476	2644.221303
949.784678	2644.889256
950.085841	2644.317085
950.386967	2644.180974
950.688054	2646.126860
950.989103	2645.907569
951.290114	2646.222642
951.591087	2651.112561
951.892021	2649.277581
952.192917	2654.666574
952.493776	2655.170690
952.794596	2657.303098
953.095378	2656.315032
953.396122	2658.704538
953.696828	2654.278405
953.997496	2652.708086
954.298126	2649.088537
954.598718	2651.420071
954.899272	2646.323465
955.199788	2643.346663
955.500266	2642.199801
955.800706	2639.911117
956.101108	2637.635036
956.401472	2634.023049
956.701798	2635.036321
957.002087	2633.508852
957.302337	2630.708491
957.602550	2630.910137
957.902724	2627.479632
958.202861	2626.642800
958.502960	2624.593571
958.803022	2626.284878
959.103045	2623.547532
959.403031	2621.727675
959.702979	2623.708848
960.002889	2623.068622
960.302762	2621.248765
960.602596	2621.936883
960.902393	2622.355299
961.202153	2620.563168
961.501875	2619.885133
961.801559	2617.820781
962.101205	2618.047633
962.400814	2620.331275
962.700385	2620.190123
962.999918	2615.794237
963.299414	2614.876747
963.598873	2613.860954
963.898293	2611.612600
964.197677	2617.798096
964.497022	2618.667695
964.796331	2616.391614
965.095601	2615.542179
965.394835	2616.419340
965.694030	2615.254833
965.993189	2615.070831
966.292309	2616.066459
966.591393	2615.995883
966.890439	2616.968826
967.189447	2614.697786
967.488419	2615.761469
967.787353	2615.088475
968.086249	2614.831377
968.385108	2616.421861
968.683930	2617.311624
968.982714	2616.205091
969.281462	2616.595780
969.580172	2617.261213
969.878844	2619.297839
970.177480	2614.662498
970.476078	2617.253651
970.774639	2617.828342
971.073162	2616.981429
971.371649	2616.832715
971.670098	2618.135853
971.968510	2614.922117
972.266885	2617.954371
972.565223	2618.019906
972.863524	2617.150307
973.161788	2616.726850
973.460014	2616.557972
973.758204	2618.181223
974.056356	2617.112499
974.354471	2617.094855
974.652550	2616.568054
974.950591	2616.379011
975.248595	2616.510081
975.546563	2614.239041
975.844493	2615.640482
976.142386	2614.165944
976.440243	2614.919597
976.738062	2616.714248
977.035845	2615.655605
977.333590	2613.931531
977.631299	2615.189298
977.928971	2609.908690
978.226606	2611.484050
978.524204	2613.377004
978.821765	2610.417846
979.119290	2614.735595
979.416777	2612.416664
979.714228	2613.644185
980.011642	2613.712240
980.309020	2612.797271
980.606360	2614.828856
980.903664	2616.220214
981.200931	2614.947323
981.498162	2614.087806
981.795356	2616.540328
982.092513	2615.884978
982.389633	2620.858076
982.686717	2621.697428
982.983764	2624.868314
983.280775	2633.670168
983.577749	2632.397277
983.874686	2629.344858
984.171587	2628.223202
984.468451	2626.708335
984.765279	2623.514764
985.062070	2623.882768
985.358824	2619.580143
985.655543	2619.403703
985.952224	2617.021758
986.248869	2617.200719
986.545478	2615.451438
986.842050	2614.838938
987.138586	2615.678290
987.435086	2612.686366
987.731549	2610.715274
988.027975	2610.294338
988.324366	2612.817436
988.620719	2610.843824
988.917037	2612.023454
989.213318	2613.198043
989.509563	2610.737960
989.805772	2614.304576
990.101944	2608.466920
990.398080	2609.744852
990.694180	2608.305603
990.990244	2612.338526
991.286271	2608.880294
991.582262	2611.862137
991.878217	2611.463886
992.174136	2609.540686
992.470019	2609.528083
992.765865	2608.469440
993.061676	2606.377362
993.357450	2607.022629
993.653188	2608.056066
993.948890	2610.337188
994.244556	2611.070676
994.540186	2611.821808
994.835780	2614.130656
995.131337	2612.731736
995.426859	2613.692076
995.722345	2612.963629
996.017795	2614.649895
996.313208	2615.544700
996.608586	2616.436984
996.903928	2613.913887
997.199234	2616.232817
997.494504	2614.992693
997.789738	2614.244082
998.084936	2613.129987
998.380099	2613.790378
998.675225	2613.263578
998.970316	2612.436828
999.265371	2610.395161
999.560390	2611.824328
999.855373	2610.984976
1000.150320	2611.292487
1000.445232	2610.679986
1000.740108	2609.598659
1001.034948	2612.462034
1001.329752	2610.811056
1001.624521	2609.333998
1001.919254	2606.533637
1002.213951	2611.622682
1002.508613	2610.548916
1002.803239	2609.465068
1003.097829	2610.324585
1003.392384	2611.761314
1003.686903	2606.904162
1003.981386	2608.628237
1004.275834	2607.317537
1004.570246	2607.201590
1004.864623	2609.470109
1005.158964	2611.728546
1005.453270	2608.577825
1005.747540	2606.752927
1006.041775	2609.419698
1006.335974	2608.429111
1006.630138	2608.948350
1006.924266	2607.521703
1007.218359	2606.609255
1007.512416	2604.829727
1007.806438	2604.360900
1008.100425	2605.658997
1008.394376	2603.513986
1008.688292	2607.642691
1008.982172	2606.886518
1009.276017	2606.616816
1009.569827	2607.241919
1009.863602	2609.233175
1010.157341	2605.994234
1010.451045	2607.766199
1010.744714	2608.996241
1011.038347	2607.567074
1011.331945	2610.254009
1011.625508	2606.256374
1011.919036	2607.415839
1012.212528	2608.182095
1012.505986	2607.219234
1012.799408	2609.006323
1013.092795	2608.103957
1013.386147	2606.248812
1013.679464	2608.061107
1013.972745	2606.523555
1014.265992	2607.002465
1014.559204	2607.388113
1014.852380	2608.671087
1015.145521	2606.689913
1015.438628	2607.352825
1015.731699	2605.820314
1016.024736	2608.482043
1016.317737	2605.346446
1016.610703	2608.542537
1016.903635	2607.940119
1017.196531	2607.622527
1017.489393	2607.244440
1017.782219	2607.282249
1018.075011	2607.186467
1018.367768	2606.523555
1018.660490	2606.155551
1018.953177	2606.155551
1019.245829	2606.155551
