Dividing Wavelength (nm)	Counts (n)	Blue Motor Position (mm): 49.000000	Red Motor Position (mm): 0.000000	
326.493990	2283.410799
326.888308	2283.410799
327.282561	2283.410799
327.676750	2242.413616
328.070874	2240.182905
328.464933	2243.305900
328.858929	2243.739439
329.252859	2250.058525
329.646726	2259.699732
330.040528	2271.095260
330.434265	2283.010028
330.827938	2302.360497
331.221547	2320.997642
331.615091	2334.709581
332.008571	2355.201871
332.401986	2376.218442
332.795338	2394.679147
333.188625	2417.795358
333.581847	2436.407298
333.975006	2455.861111
334.368100	2474.049594
334.761129	2491.648262
335.154095	2506.746518
335.546996	2536.385982
335.939833	2577.456262
336.332606	2588.050247
336.725315	2601.293358
337.117960	2618.801285
337.510540	2626.809158
337.903056	2637.395581
338.295508	2646.852786
338.687896	2654.225473
339.080220	2659.992553
339.472480	2669.832886
339.864676	2673.258350
340.256807	2678.473423
340.648875	2681.409895
341.040879	2684.923580
341.432818	2689.430371
341.824694	2689.790814
342.216506	2691.358612
342.608253	2691.903057
342.999937	2690.297450
343.391557	2691.930783
343.783113	2691.436750
344.174605	2691.030937
344.566033	2689.609332
344.957397	2687.383663
345.348697	2688.490196
345.739934	2686.085566
346.131106	2683.333096
346.522215	2683.091120
346.913260	2681.467869
347.304241	2679.678259
347.695159	2678.307065
348.086012	2678.498629
348.476802	2675.267249
348.867528	2669.795077
349.258191	2668.199552
349.648789	2667.526558
350.039324	2663.596978
350.429796	2668.723832
350.820203	2665.810045
351.210548	2665.951197
351.600828	2664.569921
351.991045	2663.622184
352.381198	2662.750064
352.771288	2664.559839
353.161314	2663.914571
353.551276	2660.872235
353.941175	2662.359375
354.331010	2660.761329
354.720782	2661.273006
355.110490	2659.642193
355.500135	2659.722852
355.889717	2658.926349
356.279235	2659.334683
356.668689	2662.324087
357.058080	2658.855773
357.447408	2662.256031
357.836672	2663.952380
358.225873	2662.613953
358.615010	2663.632266
359.004084	2661.709066
359.393095	2664.534633
359.782043	2664.632935
360.170927	2667.087977
360.559748	2665.953718
360.948505	2667.813903
361.337199	2670.158040
361.725830	2667.234171
362.114398	2669.096877
362.502903	2668.315498
362.891344	2670.382371
363.279722	2667.952535
363.668037	2671.892197
364.056289	2671.584687
364.444478	2668.058399
364.832603	2675.839420
365.220665	2671.332629
365.608665	2675.557116
365.996601	2674.647187
366.384474	2674.160716
366.772284	2674.748011
367.160031	2676.474606
367.547715	2678.027281
367.935336	2677.019050
368.322893	2676.068793
368.710388	2674.034687
369.097820	2677.636592
369.485189	2677.291273
369.872495	2683.199505
370.259738	2685.679753
370.646918	2687.648323
371.034035	2691.459436
371.421090	2697.660055
371.808081	2703.011240
372.195010	2711.820656
372.581875	2718.318703
372.968678	2726.235835
373.355418	2739.105901
373.742096	2752.979157
374.128710	2765.352669
374.515262	2780.002262
374.901751	2796.101187
375.288177	2812.774803
375.674540	2832.591579
376.060841	2854.850793
376.447079	2883.320710
376.833254	2906.812487
377.219367	2923.536515
377.605417	2962.290385
377.991404	2981.966008
378.377329	3022.151566
378.763191	3037.862322
379.148991	3086.030547
379.534727	3123.072946
379.920402	3161.547032
380.306013	3179.579239
380.691563	3243.569125
381.077049	3265.422527
381.462474	3305.595482
381.847835	3361.091024
382.233134	3404.601223
382.618371	3432.993002
383.003545	3501.209896
383.388657	3518.488450
383.773706	3581.482709
384.158693	3611.694344
384.543618	3642.082419
384.928480	3701.643652
385.313280	3756.219183
385.698017	3778.395219
386.082692	3867.840412
386.467305	3872.498438
386.851856	3906.455650
387.236344	3987.834997
387.620770	4014.311137
388.005133	4061.524063
388.389435	4108.368985
388.773674	4116.863330
389.157851	4190.330585
389.541965	4263.255917
389.926018	4229.389445
390.310008	4331.079601
390.693936	4382.060789
391.077802	4416.920368
391.461606	4411.876694
391.845348	4475.579234
392.229027	4537.938308
392.612645	4536.612484
392.996200	4640.553515
393.379694	4699.882854
393.763125	4803.458401
394.146494	4832.485365
394.529801	4893.256475
394.913047	4978.189835
395.296230	4920.493829
395.679351	5029.372670
396.062410	5084.633798
396.445408	5052.418304
396.828343	5114.447182
397.211217	5171.084545
397.594028	5054.079365
397.976778	5171.606305
398.359466	5216.522986
398.742092	5238.953600
399.124656	5163.381662
399.507158	5281.712667
399.889598	5342.506461
400.271977	5461.268484
400.654294	5463.879802
401.036549	5509.847563
401.418742	5431.387045
401.800874	5634.424557
402.182944	5696.803795
402.564952	5802.776410
402.946898	5858.486202
403.328783	5687.545716
403.710606	5722.339760
404.092367	6044.716507
404.474067	6063.464558
404.855705	5961.086285
405.237282	5889.751438
405.618797	6162.321585
406.000250	6127.283045
406.381642	6337.554613
406.762972	6363.919848
407.144240	6410.134626
407.525447	6402.046094
407.906593	6407.934162
408.287677	6582.595019
408.668700	6497.699468
409.049661	6604.466065
409.430560	6631.945395
409.811399	6496.129149
410.192176	6755.083139
410.572891	6787.964065
410.953545	6972.155224
411.334138	6699.922834
411.714669	6867.153031
412.095139	6666.447052
412.475547	6914.744043
412.855894	6982.270299
413.236180	7173.408168
413.616405	6820.333314
413.996568	7038.080913
414.376670	7103.847807
414.756711	6993.998544
415.136691	7090.173677
415.516609	7302.607900
415.896466	7269.142200
416.276262	7486.178997
416.655997	7471.254661
417.035670	7641.086093
417.415283	7990.226326
417.794834	8060.999084
418.174324	7917.154801
418.553753	7844.617638
418.933121	8129.203375
419.312428	8236.121207
419.691674	8005.740477
420.070859	8491.886668
420.449983	8176.118874
420.829045	8540.836272
421.208047	8305.187536
421.586988	8624.700907
421.965867	8651.537490
422.344686	8732.195952
422.723444	8820.141401
423.102141	8135.194787
423.480777	8920.919108
423.859352	8444.293135
424.237866	9055.548162
424.616319	8916.840814
424.994712	9358.231642
425.373044	8887.783603
425.751314	9381.882215
426.129524	9267.531202
426.507673	9332.713321
426.885762	9493.395059
427.263789	9411.493953
427.641756	9360.764822
428.019662	9444.488305
428.397508	9724.121109
428.775292	9363.391263
429.153016	9760.286346
429.530679	9593.083876
429.908282	9595.085214
430.285824	9322.562958
430.663305	10011.855047
431.040726	9462.664185
431.418086	9443.394374
431.795385	9779.745200
432.172624	9880.671621
432.549802	9778.552967
432.926920	9849.038380
433.303977	9722.618845
433.680974	9920.153938
434.057910	10033.695846
434.434786	10109.393812
434.811601	9916.350387
435.188355	10483.691923
435.565050	10242.170242
435.941683	10149.639864
436.318257	10629.209870
436.694770	10818.769858
437.071222	10857.112874
437.447614	10677.360451
437.823946	10611.964083
438.200218	10685.489312
438.576429	10545.196521
438.952580	10796.303956
439.328670	10803.570779
439.704700	10619.840886
440.080670	10603.719276
440.456580	11111.066040
440.832429	10917.362224
441.208218	10510.969607
441.583947	10784.361462
441.959616	10993.329892
442.335224	10804.291664
442.710773	10890.482792
443.086261	11139.414969
443.461689	10397.992308
443.837057	11096.257651
444.212365	11317.350055
444.587612	10954.578542
444.962800	11154.326702
445.337927	10895.483616
445.712995	10599.164593
446.088002	11619.090839
446.462949	11327.923876
446.837837	11290.657146
447.212664	11190.706188
447.587431	11815.539564
447.962139	12584.983478
448.336786	14898.825203
448.711374	15360.390728
449.085901	13149.020538
449.460369	12811.162407
449.834776	12264.267791
450.209124	13210.835166
450.583412	13646.632834
450.957640	14560.883893
451.331808	13571.247419
451.705917	12668.820387
452.079965	11886.410625
452.453954	12808.394814
452.827883	12477.266623
453.201752	12757.108635
453.575562	12327.458654
453.949311	12734.642733
454.323001	12726.297103
454.696632	12967.990183
455.070202	13239.821801
455.443713	13414.885951
455.817164	13929.076081
456.190556	13893.833375
456.563888	14246.998969
456.937160	14384.768663
457.310373	13747.556734
457.683526	13870.291186
458.056619	13378.428326
458.429653	13607.127832
458.802628	12941.347685
459.175542	13371.728632
459.548398	14320.733406
459.921194	14700.720459
460.293930	14771.089926
460.666607	15594.461583
461.039224	16668.222312
461.411782	17410.123882
461.784280	17146.295095
462.156719	17284.392464
462.529099	16930.427847
462.901419	15905.644449
463.273680	15655.625903
463.645882	15574.798563
464.018024	15281.854592
464.390106	15520.217990
464.762130	16223.990793
465.134094	17040.861883
465.505999	19138.173447
465.877845	22417.312954
466.249631	25205.350815
466.621358	24798.713702
466.993026	23374.232339
467.364634	22766.450667
467.736184	21282.728184
468.107674	20507.434011
468.479105	20634.917230
468.850477	20078.063814
469.221790	19696.055258
469.593043	18997.875615
469.964238	18414.871214
470.335373	18051.988795
470.706449	18583.049147
471.077467	18177.253907
471.448425	20072.200952
471.819324	24239.927004
472.190164	26009.079617
472.560945	22280.309516
472.931667	20013.635347
473.302330	19418.779194
473.672934	19094.141489
474.043479	19282.758781
474.413965	19091.210058
474.784393	18668.758845
475.154761	19482.943000
475.525070	19356.982209
475.895321	19104.896791
476.265513	19711.944975
476.635645	20304.968669
477.005719	20046.138187
477.375734	20233.356558
477.745691	20732.403063
478.115588	21271.965321
478.485427	21852.060976
478.855207	22967.864927
479.224928	24763.980152
479.594591	27012.750662
479.964194	26860.495213
480.333739	27099.907171
480.703226	26679.074169
481.072653	26419.628665
481.442022	27068.410042
481.811333	28015.186625
482.180584	27856.891874
482.549777	26903.382830
482.918912	26598.992919
483.287988	26744.208397
483.657005	26339.471799
484.025964	26143.265050
484.394864	25999.572001
484.763706	25623.869928
485.132489	25141.703727
485.501213	25300.406812
485.869879	25212.267278
486.238487	25069.199332
486.607036	25203.193201
486.975527	24965.696882
487.343959	25230.549022
487.712333	25139.599045
488.080648	24808.428005
488.448905	25309.377545
488.817104	25101.097233
489.185244	25805.114532
489.553326	25736.693472
489.921350	26812.344632
490.289315	29208.576455
490.657222	30875.065970
491.025070	31405.009706
491.392861	31121.845574
491.760593	30258.948749
492.128267	29326.799074
492.495883	28254.389375
492.863440	27410.033915
493.230939	26528.084049
493.598380	26358.436619
493.965763	25992.695867
494.333088	25474.208152
494.700354	25461.189373
495.067563	25280.174141
495.434713	25063.555760
495.801805	25237.851134
496.168839	24992.483053
496.535815	24884.073039
496.902733	25100.431801
497.269593	24810.956144
497.636395	24961.830317
498.003139	24889.076384
498.369825	24632.738752
498.736453	24854.920047
499.103023	24714.259251
499.469535	24695.947260
499.835989	24933.488950
500.202385	24946.265754
500.568723	24513.999415
500.935003	24671.278374
501.301226	24377.858014
501.667390	25235.295269
502.033497	25407.392699
502.399546	25149.673791
502.765537	24671.212839
503.131470	25052.871035
503.497345	25211.722833
503.863163	24467.653567
504.228923	24979.928059
504.594625	25248.293884
504.960269	24826.162784
505.325856	25290.032117
505.691385	24686.744634
506.056856	25297.699712
506.422270	25298.760875
506.787625	24796.959380
507.152924	25242.287349
507.518164	25272.224241
507.883347	25078.654016
508.248472	24766.954433
508.613540	25526.303436
508.978550	25331.732542
509.343503	25368.374169
509.708398	25556.928446
510.073236	25718.958692
510.438016	25923.579127
510.802738	25590.734424
511.167403	25842.388824
511.532010	25604.527021
511.896561	26355.986619
512.261053	26298.961086
512.625488	26139.201880
512.989866	26027.313470
513.354186	25855.642017
513.718449	25994.099828
514.082655	26368.045059
514.446803	26081.652068
514.810894	26568.993013
515.174927	26061.474849
515.538904	26102.671158
515.902822	26613.385413
516.266684	26354.186927
516.630488	26265.258452
516.994235	26190.465373
517.357925	26551.822843
517.721558	26702.109721
518.085133	26829.051016
518.448651	26704.723559
518.812112	26494.484759
519.175516	26726.360192
519.538863	26865.380091
519.902152	26656.220098
520.265385	26896.118527
520.628560	26711.093057
520.991678	26675.195001
521.354739	26736.107263
521.717743	26846.707657
522.080690	26605.657325
522.443580	26945.335312
522.806413	26900.645483
523.169189	27023.551334
523.531908	27070.272748
523.894569	26701.419083
524.257174	26802.380792
524.619722	26928.649093
524.982213	26649.351526
525.344647	26656.978791
525.707025	26833.003281
526.069345	26773.752079
526.431608	26747.628820
526.793815	26907.622440
527.155964	26426.502279
527.518057	26610.164116
527.880093	26507.516142
528.242072	26729.435296
528.603995	26449.933562
528.965860	26239.049493
529.327669	26289.193851
529.689421	26272.812621
530.051117	26125.885672
530.412755	26283.174713
530.774337	26053.744240
531.135862	25975.969318
531.497331	26143.895194
531.858743	25759.353458
532.220098	26184.337851
532.581396	25890.824230
532.942638	25771.021209
533.303824	25892.807924
533.664953	25885.790638
534.026025	25550.316973
534.387040	25797.136906
534.747999	25836.498235
535.108902	25996.983368
535.469748	25514.698700
535.830537	25662.996843
536.191270	25805.676621
536.551947	25607.667659
536.912567	25231.277469
537.273131	25705.723143
537.633638	25350.031930
537.994089	25570.990745
538.354483	25049.584202
538.714821	25578.179430
539.075103	25620.134433
539.435328	25385.367898
539.795497	24996.442879
540.155609	25312.830736
540.515665	25641.052701
540.875665	24843.257337
541.235609	25209.282915
541.595496	25114.073163
541.955328	25490.864125
542.315102	25416.247486
542.674821	24904.877881
543.034483	24798.706140
543.394090	24972.119312
543.753640	24788.235663
544.113134	25415.904688
544.472571	24988.414842
544.831953	25295.194259
545.191278	24960.721263
545.550548	24835.574619
545.909761	25039.879981
546.268918	25284.575068
546.628019	25265.431287
546.987064	24935.354177
547.346053	24671.464896
547.704986	24767.574494
548.063863	24921.599388
548.422684	24963.256963
548.781449	24442.352016
549.140158	24863.573187
549.498811	24445.122130
549.857408	24209.974988
550.215949	24573.245575
550.574434	24295.208297
550.932864	24483.490352
551.291237	24682.197513
551.649555	24502.644216
552.007817	24579.562141
552.366022	24425.577576
552.724173	24425.065899
553.082267	24419.543315
553.440305	24897.777416
553.798288	24118.019301
554.156215	24601.839000
554.514086	24750.464818
554.871902	24148.697243
555.229661	24404.457662
555.587365	24259.617751
555.945014	24163.966898
556.302606	24364.209090
556.660143	24376.396079
557.017625	24606.645740
557.375050	24118.659527
557.732421	24499.337219
558.089735	24325.213244
558.446994	24371.483475
558.804197	24435.664925
559.161345	24292.793584
559.518437	24110.626449
559.875474	24260.671352
560.232455	24449.812923
560.589381	24257.825620
560.946251	24262.702937
561.303065	24560.672938
561.659825	24651.696012
562.016528	24263.514562
562.373177	23983.954855
562.729770	24349.753581
563.086307	24196.439490
563.442789	24364.864440
563.799216	24225.552153
564.155587	24210.756367
564.511904	24189.810373
564.868164	24163.319109
565.224370	24110.482776
565.580520	24062.846393
565.936615	24172.867055
566.292654	23887.189907
566.648638	24100.700417
567.004567	23934.254120
567.360441	23880.916191
567.716260	23596.426236
568.072023	23897.914962
568.427732	23693.687737
568.783385	23450.938536
569.138982	23708.949831
569.494525	23732.895312
569.850013	23497.327233
570.205445	23608.913174
570.560823	23427.368621
570.916145	23202.739847
571.271412	23386.920923
571.626625	23141.893120
571.981782	23244.019335
572.336884	23050.197052
572.691931	23181.322505
573.046923	22927.046705
573.401860	22795.303711
573.756743	22844.986802
574.111570	22736.188620
574.466342	22637.477787
574.821059	22725.824008
575.175722	22442.170884
575.530330	22378.213765
575.884882	22378.964897
576.239380	22312.535092
576.593823	22195.862627
576.948211	22173.981499
577.302544	22032.793903
577.656823	21882.499463
578.011047	22006.254749
578.365216	21864.938604
578.719330	21738.486301
579.073389	21611.673555
579.427394	21785.361470
579.781344	21517.134276
580.135239	21417.326992
580.489080	21359.794824
580.842866	21135.002212
581.196597	21364.946883
581.550273	21309.073254
581.903895	21180.967453
582.257463	21497.856904
582.610975	21036.916482
582.964434	21375.477853
583.317837	21026.030110
583.671186	21117.320365
584.024481	21112.012030
584.377721	20867.218640
584.730906	20983.762555
585.084037	20941.389137
585.437113	20871.672500
585.790135	21075.907286
586.143103	20535.079698
586.496016	20565.248484
586.848874	20786.804675
587.201679	20694.730520
587.554428	20411.324413
587.907124	20747.327399
588.259765	20488.466669
588.612352	20560.535005
588.964884	20133.030035
589.317362	20303.345418
589.669786	20370.733042
590.022155	20350.044147
590.374470	20610.933940
590.726731	20343.014258
591.078937	20155.949641
591.431090	20234.921837
591.783188	20015.790441
592.135232	19961.456885
592.487222	20063.467153
592.839157	20058.846936
593.191038	19938.169274
593.542866	19830.026442
593.894639	19537.211021
594.246358	19749.665409
594.598022	19627.488004
594.949633	19400.459641
595.301190	19383.319717
595.652692	19549.992867
596.004141	19758.005998
596.355535	19086.557073
596.706876	19117.212329
597.058162	19009.969343
597.409395	19274.486247
597.760573	19290.275141
598.111698	19057.605726
598.462768	19017.584006
598.813785	18997.235388
599.164748	18793.227454
599.515657	18854.880766
599.866511	18650.530033
600.217312	18989.028390
600.568060	18497.581425
600.918753	18813.341658
601.269392	18709.274598
601.619978	18514.350823
601.970510	18690.082926
602.320988	18639.545358
602.671412	18835.847889
603.021783	18789.580179
603.372100	18470.306262
603.722363	18642.527201
604.072572	18593.766640
604.422728	18737.759638
604.772830	18476.418661
605.122878	18450.018138
605.472872	18421.928829
605.822813	18406.747394
606.172701	18402.328823
606.522534	18560.527793
606.872314	18608.864896
607.222041	18447.563097
607.571714	18655.167894
607.921333	18472.171489
608.270899	18553.525630
608.620411	18696.976704
608.969870	18505.828753
609.319276	18501.102671
609.668627	18521.347945
610.017926	18659.720056
610.367171	18770.017982
610.716362	18831.305810
611.065500	18637.344895
611.414585	18785.590106
611.763616	18781.559703
612.112594	18707.177478
612.461518	18683.466411
612.810389	18883.033089
613.159207	18728.100788
613.507971	18646.701276
613.856682	18873.666625
614.205340	18802.689700
614.553945	18965.342529
614.902496	18700.134987
615.250994	18902.837262
615.599439	18862.039204
615.947830	18847.389611
616.296169	18942.133056
616.644454	18888.555673
616.992686	18866.699751
617.340864	19084.250745
617.688990	18819.287699
618.037063	19004.101440
618.385082	18865.406695
618.733048	19125.172311
619.080961	19029.216468
619.428821	19050.666578
619.776628	18916.166073
620.124382	18852.433285
620.472083	18919.026928
620.819731	18910.056194
621.167326	18613.139795
621.514868	18644.621800
621.862357	18435.308052
622.209793	18427.191794
622.557176	18266.963760
622.904506	18089.747038
623.251783	18037.117392
623.599007	17773.296167
623.946179	17719.252477
624.293297	17649.845871
624.640363	17366.601080
624.987376	17390.975059
625.334336	17198.045060
625.681243	17048.441258
626.028097	17067.443888
626.374899	16979.732852
626.721647	16852.405908
627.068343	16699.797579
627.414987	16619.449148
627.761577	16582.195021
628.108115	16609.210565
628.454600	16341.711818
628.801032	16439.893330
629.147412	16386.467182
629.493739	16385.209414
629.840014	16193.890064
630.186236	16295.761701
630.532405	16060.536421
630.878521	16248.072385
631.224585	16162.561813
631.570597	15981.581870
631.916556	16019.340112
632.262462	15982.020450
632.608316	15897.220681
632.954117	15836.247925
633.299866	15831.151318
633.645562	15742.873153
633.991206	15527.263003
634.336797	15390.138577
634.682336	15364.736203
635.027823	15213.312544
635.373257	15082.048460
635.718639	15003.434186
636.063968	14942.922696
636.409245	14693.062947
636.754470	14735.091046
637.099642	14581.781996
637.444762	14362.806876
637.789829	14403.650304
638.134845	14232.858533
638.479808	14263.849026
638.824719	14163.038552
639.169577	14043.706878
639.514383	14065.464498
639.859137	13901.352256
640.203839	14000.501669
640.548489	13851.026417
640.893086	13834.103263
641.237632	13714.864851
641.582125	13872.158934
641.926566	13691.030276
642.270955	13704.361607
642.615292	13652.727589
642.959576	13668.846678
643.303809	13684.093648
643.647990	13627.199186
643.992118	13697.787943
644.336195	13462.993682
644.680219	13692.295606
645.024192	13595.870935
645.368112	13838.597452
645.711981	13877.278225
646.055797	14064.683120
646.399562	14044.505901
646.743274	14302.673472
647.086935	14567.870932
647.430544	14549.364856
647.774101	14591.148460
648.117606	14718.593870
648.461059	14700.256673
648.804460	14666.178473
649.147810	14394.288882
649.491108	14324.151308
649.834354	14332.693543
650.177548	14000.741124
650.520690	13815.945027
650.863781	13743.125560
651.206820	13783.200212
651.549807	13624.827323
651.892742	13393.488773
652.235626	13337.955422
652.578458	13340.198736
652.921238	13049.593861
653.263967	13249.611722
653.606644	13084.183738
653.949269	13064.450141
654.291843	12855.035569
654.634365	13018.305939
654.976836	12868.021581
655.319255	12850.531298
655.661622	12825.605313
656.003938	12748.997418
656.346203	12664.500118
656.688416	12757.922781
657.030577	12697.905324
657.372687	12595.869850
657.714746	12598.791198
658.056753	12783.647789
658.398708	12593.019077
658.740612	12595.085950
659.082465	12717.840567
659.424266	12683.646421
659.766016	12718.725290
660.107715	12623.739869
660.449362	12705.681304
660.790958	12649.548056
661.132503	12584.217223
661.473996	12677.614680
661.815438	12674.489165
662.156829	12707.075183
662.498168	12678.214577
662.839456	12681.508971
663.180693	12693.799304
663.521879	12795.625571
663.863013	12756.833892
664.204097	12725.969428
664.545129	12866.471427
664.886110	12846.906708
665.227040	12939.303497
665.567918	12934.781582
665.908746	12950.509982
666.249522	12945.829270
666.590248	12998.796674
666.930922	13113.601391
667.271545	13081.390938
667.612118	13164.713650
667.952639	13070.164289
668.293109	13099.345008
668.633528	13035.672714
668.973896	13020.697967
669.314213	13076.886667
669.654480	12816.387563
669.994695	12917.452615
670.334859	12938.138990
670.674973	12866.065614
671.015035	12904.892581
671.355047	12858.950025
671.695008	12829.260149
672.034918	12841.313548
672.374777	12879.273437
672.714585	12795.615489
673.054342	12834.674349
673.394049	12789.162812
673.733705	12881.108417
674.073310	12770.475254
674.412864	12791.413687
674.752368	12634.195222
675.091820	12692.453316
675.431223	12657.528203
675.770574	12518.145340
676.109875	12443.258999
676.449125	12398.685117
676.788324	12351.477232
677.127473	12185.945904
677.466571	12176.471056
677.805619	12057.194835
678.144616	12001.623676
678.483562	11978.671302
678.822458	11837.796258
679.161303	11818.511324
679.500098	11804.224694
679.838842	11748.129254
680.177535	11803.922225
680.516179	11870.404962
680.854771	11802.288891
681.193314	12022.224351
681.531805	12198.407637
681.870247	12645.822643
682.208638	13047.274930
682.546978	13342.280732
682.885268	13358.596427
683.223508	13063.043659
683.561697	12923.870004
683.899836	12826.631188
684.237925	12617.839198
684.575963	12530.173533
684.913951	12441.718927
685.251889	12410.100810
685.589776	12506.177641
685.927614	12410.559555
686.265401	12396.749314
686.603137	12457.419601
686.940824	12605.130449
687.278460	12752.687543
687.616046	12770.699586
687.953582	12913.565886
688.291068	12867.880429
688.628504	13098.737549
688.965889	13103.768620
689.303224	13051.862380
689.640510	12922.541660
689.977745	12608.984412
690.314930	12394.881567
690.652065	12303.545941
690.989150	11996.640495
691.326185	11777.685539
691.663170	11570.597460
692.000105	11336.710607
692.336990	11211.112779
692.673825	10948.617378
693.010610	10835.647641
693.347345	10630.366815
693.684030	10444.678434
694.020665	10379.927333
694.357251	10186.359628
694.693786	10100.292009
695.030272	9958.469228
695.366707	9843.384726
695.703093	9786.006313
696.039429	9770.003170
696.375716	9672.527420
696.711952	9551.670797
697.048139	9606.818500
697.384276	9555.441580
697.720363	9580.463347
698.056400	9501.458384
698.392388	9454.820150
698.728326	9424.928628
699.064214	9362.435964
699.400053	9392.902177
699.735842	9211.718067
700.071581	9176.903859
700.407270	9101.508362
700.742910	9021.114561
701.078501	8923.164942
701.414042	8790.325497
701.749533	8736.513700
702.084974	8592.626566
702.420366	8722.262358
702.755709	8589.324610
703.091002	8454.574568
703.426246	8496.388419
703.761440	8446.969988
704.096584	8399.008450
704.431679	8337.461003
704.766725	8324.900968
705.101721	8274.481868
705.436668	8330.229467
705.771565	8219.278712
706.106413	8302.306516
706.441212	8338.585180
706.775961	8297.993809
707.110661	8354.250565
707.445311	8476.813618
707.779913	8371.380406
708.114465	8496.272472
708.448967	8532.382257
708.783421	8702.072537
709.117825	8870.522692
709.452180	8903.978310
709.786485	8991.076846
710.120742	9281.285990
710.454949	9292.111868
710.789107	9396.186489
711.123216	9619.325602
711.457275	9791.975039
711.791286	9937.379560
712.125247	9939.479201
712.459159	9934.329662
712.793023	10142.199121
713.126837	9723.216222
713.460602	9891.023630
713.794318	9713.327998
714.127985	9744.754551
714.461602	9399.987519
714.795171	9352.247792
715.128691	9098.276982
715.462162	8863.943987
715.795584	8798.819841
716.128957	8626.873645
716.462281	8463.114283
716.795556	8501.570725
717.128782	8296.393243
717.461960	8044.310345
717.795088	8108.706044
718.128167	8018.270264
718.461198	7856.623146
718.794180	7814.340468
719.127113	7800.535268
719.459997	7616.583564
719.792833	7404.323261
720.125619	7476.265568
720.458357	7329.840213
720.791046	7326.140006
721.123686	7308.594270
721.456278	7141.633775
721.788821	7162.917527
722.121315	7073.593322
722.453761	7143.814074
722.786158	7077.101965
723.118506	7085.810558
723.450805	7044.412603
723.783056	7104.934175
724.115259	7028.404419
724.447412	7034.393309
724.779518	7084.081442
725.111574	7087.022956
725.443582	7158.143554
725.775542	7128.367979
726.107453	7328.484143
726.439315	7232.500573
726.771129	7324.655386
727.102895	7499.109556
727.434612	7597.338959
727.766281	7643.425188
728.097901	7708.861885
728.429473	7729.255873
728.760996	7719.740695
729.092471	7688.631735
729.423897	7626.638146
729.755276	7616.424768
730.086606	7531.761110
730.417887	7640.813870
730.749120	7867.406174
731.080305	8045.812608
731.411442	8153.443764
731.742530	8134.841906
732.073570	8238.664469
732.404562	8318.216398
732.735506	8195.222326
733.066401	8315.025347
733.397249	8228.766164
733.728048	7982.364646
734.058798	7647.929459
734.389501	7418.156187
734.720156	7245.105978
735.050762	7032.442383
735.381320	6953.873480
735.711831	6882.158025
736.042293	6774.073166
736.372707	6786.981040
736.703073	6662.837586
737.033391	6705.962136
737.363661	6710.889864
737.693883	6750.079794
738.024056	6830.876888
738.354182	6865.214707
738.684260	6899.615541
739.014290	7028.343925
739.344272	7130.044162
739.674207	7165.367528
740.004093	7247.145125
740.333931	7255.316836
740.663722	7262.553412
740.993464	7337.298600
741.323159	7304.596635
741.652806	7065.225006
741.982405	7111.369208
742.311956	7143.211656
742.641460	6951.269724
742.970915	6771.061077
743.300323	6756.497183
743.629683	6726.255301
743.958996	6580.732313
744.288260	6489.905844
744.617477	6436.575478
744.946647	6419.269197
745.275768	6274.154542
745.604842	6221.499690
745.933869	6206.981167
746.262847	6157.789588
746.591778	6148.526468
746.920662	6107.088183
747.249498	6110.140602
747.578286	6158.147510
747.907027	6230.989662
748.235720	6294.256143
748.564365	6264.175578
748.892963	6314.430841
749.221514	6444.177538
749.550017	6249.082363
749.878473	6144.092773
750.206881	6210.015942
750.535242	6163.937275
750.863555	6094.263488
751.191821	6097.673828
751.520039	6092.214258
751.848210	6000.510629
752.176334	6038.359612
752.504411	6073.743471
752.832440	5995.388817
753.160421	5929.208549
753.488356	5982.165870
753.816243	6004.929200
754.144082	5856.734401
754.471875	5834.752449
754.799620	5875.689139
755.127318	5889.333022
755.454969	5851.219378
755.782572	5814.418955
756.110129	5856.757086
756.437638	5828.186346
756.765100	5779.864366
757.092515	5793.089833
757.419882	5848.348441
757.747203	5812.793183
758.074477	5870.733685
758.401703	5850.687537
758.728882	5813.304860
759.056014	5891.720008
759.383099	5994.723384
759.710138	6010.905488
760.037129	5994.627602
760.364073	6004.634293
760.690970	6079.883596
761.017820	6056.091871
761.344623	6025.028281
761.671379	6133.839066
761.998088	6260.225834
762.324751	6525.811462
762.651366	7184.322266
762.977935	8570.642094
763.304456	10242.157640
763.630931	11072.667571
763.957359	10588.124466
764.283740	9609.500394
764.610074	8730.302998
764.936362	7731.284938
765.262602	7148.406565
765.588796	6624.625640
765.914943	6295.526514
766.241044	6122.904803
766.567097	5900.211832
766.893104	5647.173635
767.219064	5474.604857
767.544978	5408.991719
767.870845	5326.957022
768.196665	5222.567329
768.522438	5148.558149
768.848165	5115.026915
769.173846	5046.389084
769.499479	5000.880068
769.825066	4953.964570
770.150607	4892.742277
770.476101	4873.779977
770.801548	4860.657853
771.126949	4773.471097
771.452303	4721.713571
771.777611	4687.544630
772.102872	4712.342066
772.428087	4668.620139
772.753256	4625.135146
773.078378	4575.273093
773.403453	4505.264069
773.728482	4492.580526
774.053465	4447.875573
774.378401	4441.334676
774.703291	4428.774642
775.028135	4353.195143
775.352932	4310.907423
775.677683	4298.549035
776.002388	4310.821724
776.327046	4320.752797
776.651658	4243.756734
776.976224	4183.676262
777.300743	4192.483158
777.625216	4212.057958
777.949643	4193.347716
778.274024	4162.120288
778.598359	4127.142242
778.922647	4150.901200
779.246889	4136.438130
779.571086	4128.044609
779.895236	4117.281745
780.219339	4105.112400
780.543397	4102.695167
780.867409	4159.670288
781.191374	4165.679343
781.515294	4100.598047
781.839167	4095.140998
782.162995	4120.021613
782.486776	4103.037965
782.810511	4118.831900
783.134201	4101.878500
783.457844	4055.961150
783.781441	4002.499713
784.104993	4011.646887
784.428498	4032.366029
784.751958	4018.233155
785.075372	3998.459229
785.398739	3966.203406
785.722061	3978.193790
786.045337	4025.860420
786.368568	4052.268505
786.691752	3959.286943
787.014891	4026.359495
787.337983	4160.534845
787.661030	4323.044001
787.984031	4481.311026
788.306987	4645.975276
788.629897	4738.064553
788.952760	4686.102860
789.275579	4617.127273
789.598351	4543.712949
789.921078	4388.029516
790.243759	4192.556255
790.566395	4190.708672
790.888984	4177.737783
791.211529	4069.305084
791.534027	4010.880632
791.856480	3991.817508
792.178888	3931.389197
792.501249	3892.610121
792.823566	3899.682860
793.145836	3921.667332
793.468062	3868.059702
793.790241	3829.923373
794.112375	3862.915205
794.434464	3930.131429
794.756507	3949.197073
795.078505	3922.115995
795.400457	3969.543170
795.722364	4117.022126
796.044226	4218.240933
796.366042	4292.086276
796.687812	4260.626955
797.009538	4264.438067
797.331218	4229.906163
797.652852	4205.862380
797.974442	4181.415305
798.295986	4175.910365
798.617484	4087.750666
798.938938	4009.373327
799.260346	4057.589443
799.581709	4042.793656
799.903026	3962.898929
800.224299	3934.154270
800.545526	3924.240841
800.866708	3888.856982
801.187845	3832.282633
801.508936	3863.626007
801.829983	3850.519007
802.150984	3779.758851
802.471940	3773.399436
802.792851	3777.129890
803.113717	3778.680044
803.434538	3778.022174
803.755314	3719.653174
804.076045	3698.427396
804.396731	3723.600398
804.717372	3741.380547
805.037967	3723.981005
805.358518	3717.084706
805.679024	3750.434459
805.999485	3761.393928
806.319901	3768.055813
806.640272	3775.365486
806.960598	3786.566930
807.280879	3762.755039
807.601115	3782.806229
807.921306	3801.002274
808.241453	3836.247501
808.561554	3804.664672
808.881611	3743.520517
809.201623	3784.883184
809.521590	3791.124133
809.841513	3765.031120
810.161390	3799.351296
810.481223	3764.325359
810.801011	3718.695355
811.120755	3720.958833
811.440453	3746.910693
811.760107	3744.775764
812.079716	3698.180379
812.399281	3674.267666
812.718801	3700.751368
813.038276	3670.058302
813.357707	3666.698373
813.677093	3681.814273
813.996434	3626.749750
814.315731	3645.210455
814.634983	3645.248264
814.954191	3663.071263
815.273354	3689.189481
815.592473	3679.528110
815.911547	3697.875389
816.230577	3741.907348
816.549562	3793.115388
816.868502	3830.772808
817.187399	3849.651929
817.506250	3853.694934
817.825058	3832.373374
818.143821	3931.815175
818.462539	4027.571892
818.781213	4070.537646
819.099843	4140.559273
819.418429	4411.145727
819.736970	4654.230165
820.055466	4910.605606
820.373919	5282.415907
820.692327	5701.154311
821.010691	6214.033741
821.329011	7740.784992
821.647286	10685.000320
821.965517	15473.231916
822.283704	19471.108891
822.601847	21368.387470
822.919945	19405.125228
823.237999	16719.024539
823.556010	14195.813613
823.873976	12014.110614
824.191897	9899.717100
824.509775	8574.599400
824.827609	7455.067516
825.145398	6940.078362
825.463144	6822.261556
825.780845	6927.165447
826.098502	7176.848755
826.416116	8152.364957
826.733685	9536.489363
827.051210	10616.564136
827.368692	10514.054793
827.686129	9162.667640
828.003522	7661.850605
828.320872	6632.394058
828.638177	5911.262041
828.955439	5340.870607
829.272656	4842.706304
829.589830	4575.268052
829.906960	4395.250968
830.224046	4205.348183
830.541088	4082.482660
830.858086	4030.868807
831.175041	3956.955409
831.491952	3942.983851
831.808819	3952.965336
832.125642	4038.082698
832.442421	4199.853325
832.759157	4499.116382
833.075849	5097.052681
833.392497	6003.328634
833.709101	6793.723584
834.025662	7087.580003
834.342179	6639.209698
834.658653	5958.916068
834.975083	5301.975584
835.291469	4708.883834
835.607811	4315.603258
835.924110	4171.295188
836.240366	3965.338848
836.556578	3761.908126
836.872746	3654.090448
837.188871	3610.681072
837.504952	3541.468550
837.820990	3456.696507
838.136984	3418.194695
838.452935	3444.670835
838.768842	3437.288065
839.084706	3462.153556
839.400526	3638.026811
839.716303	4013.759131
840.032037	4571.409048
840.347727	4788.982728
840.663373	4466.769818
840.978977	4069.297522
841.294537	3760.544493
841.610054	3536.059392
841.925527	3433.381171
842.240957	3363.505737
842.556344	3308.738642
842.871687	3247.087851
843.186987	3194.523740
843.502244	3161.156342
843.817458	3124.807102
844.132629	3099.056889
844.447756	3104.236674
844.762840	3086.973243
845.077881	3054.959395
845.392879	3037.872404
845.707833	3037.113711
846.022745	3034.608257
846.337613	3034.615819
846.652438	3021.748274
846.967221	3018.224507
847.281960	3004.023577
847.596656	3001.208093
847.911309	3003.078361
848.225919	2996.988647
848.540485	2991.629900
848.855009	2991.309787
849.169490	2980.136069
849.483928	2970.237764
849.798323	2972.836479
850.112675	2968.944708
850.426984	2980.539362
850.741251	2974.565594
851.055474	2967.150057
851.369654	2959.852987
851.683792	2966.865232
851.997887	2975.145327
852.311938	2973.764051
852.625947	2962.532360
852.939914	2965.161322
853.253837	2970.419245
853.567718	2957.881896
853.881555	2957.161011
854.195350	2971.193063
854.509103	2966.383802
854.822812	2960.001701
855.136479	2956.120013
855.450103	2958.350723
855.763685	2952.127419
856.077224	2952.659260
856.390720	2962.507154
856.704173	2970.875470
857.017584	2962.030765
857.330953	2960.248718
857.644278	2974.129535
857.957561	2981.293014
858.270802	2982.853251
858.584000	2980.428456
858.897155	2964.511013
859.210268	2967.502938
859.523339	2965.027731
859.836367	2965.546970
860.149352	2957.486165
860.462295	2955.177317
860.775195	2960.115127
861.088054	2961.645117
861.400869	2943.759103
861.713642	2947.242541
862.026373	2958.174283
862.339062	2960.258800
862.651708	2967.611323
862.964312	2966.953452
863.276873	2963.827937
863.589392	2974.507621
863.901869	2989.132008
864.214303	3008.716891
864.526696	3023.963861
864.839045	3019.595701
865.151353	3019.686442
865.463619	3018.322810
865.775842	3021.753315
866.088023	3043.258877
866.400162	3043.742828
866.712258	3012.565812
867.024313	3003.650532
867.336325	3014.741070
867.648296	3036.465923
867.960224	3026.633152
868.272110	3012.346522
868.583954	3014.965401
868.895755	3031.339069
869.207515	3018.088396
869.519233	3030.598019
869.830909	3038.305944
870.142542	3045.703837
870.454134	3041.675955
870.765684	3047.218704
871.077191	3046.618806
871.388657	3058.223542
871.700081	3071.741397
872.011463	3080.260947
872.322803	3083.416709
872.634101	3077.498394
872.945357	3101.509410
873.256571	3124.625621
873.567744	3118.369549
873.878874	3114.258488
874.189963	3134.786067
874.501010	3134.876807
874.812015	3124.804582
875.122979	3120.257461
875.433900	3121.018675
875.744780	3131.567290
876.055618	3135.920326
876.366415	3133.601395
876.677169	3142.473826
876.987882	3137.170532
877.298554	3139.829741
877.609183	3164.377640
877.919771	3186.631813
878.230317	3214.978221
878.540822	3264.724328
878.851285	3307.488436
879.161707	3360.380222
879.472087	3473.833910
879.782425	3731.734299
880.092722	4194.373591
880.402977	4748.345987
880.713191	5419.885652
881.023363	6660.017060
881.333494	7976.665622
881.643583	8482.124474
881.953631	8136.472719
882.263637	7440.092768
882.573602	6806.906201
882.883526	6216.796293
883.193408	5654.228730
883.503248	5201.470100
883.813048	4880.033528
884.122806	4545.222775
884.432522	4219.904514
884.742197	3978.622288
885.051831	3785.115077
885.361424	3663.787107
885.670975	3586.599480
885.980485	3492.012310
886.289954	3411.855444
886.599382	3361.569934
886.908768	3329.601457
887.218113	3287.338944
887.527417	3226.792165
887.836680	3176.098322
888.145901	3172.871984
888.455082	3157.688028
888.764221	3105.736417
889.073319	3077.324474
889.382376	3074.324988
889.691392	3077.563929
890.000366	3078.698189
890.309300	3062.899213
890.618193	3079.499732
890.927044	3091.197730
891.235855	3090.804520
891.544625	3080.707089
891.853353	3093.299891
892.162041	3111.009464
892.470687	3153.405568
892.779293	3206.884649
893.087858	3255.819129
893.396381	3332.381653
893.704864	3467.809731
894.013306	3727.494689
894.321707	4045.009243
894.630068	4233.445053
894.938387	4219.145821
895.246665	4179.691230
895.554903	4042.458419
895.863100	3835.584589
896.171256	3663.746778
896.479371	3514.810929
896.787446	3388.061198
897.095480	3285.413223
897.403473	3224.160683
897.711425	3189.974098
898.019336	3177.950946
898.327207	3143.161944
898.635038	3108.592231
898.942827	3092.858790
899.250576	3081.858992
899.558284	3050.954199
899.865952	3031.192876
900.173579	3009.094978
900.481165	2998.926970
900.788711	2985.799806
901.096216	2962.328193
901.403681	2952.845783
901.711105	2959.250569
902.018489	2955.293263
902.325832	2957.284519
902.633135	2968.922023
902.940397	3007.469206
903.247619	3098.822475
903.554800	3309.835093
903.861941	3691.500850
904.169041	4145.706291
904.476101	4431.723717
904.783121	4350.051983
905.090100	4079.490736
905.397039	3792.744864
905.703938	3539.648694
906.010796	3354.295549
906.317614	3238.510327
906.624391	3141.846203
906.931129	3067.521951
907.237826	3002.286899
907.544483	2959.956331
907.851099	2931.400715
908.157675	2904.148237
908.464211	2884.379352
908.770707	2871.358052
909.077163	2854.697038
909.383578	2841.000223
909.689954	2830.184428
909.996289	2829.904644
910.302584	2832.750375
910.608839	2830.353306
910.915054	2822.226966
911.221229	2818.493992
911.527363	2820.984322
911.833458	2828.162925
912.139513	2834.386229
912.445527	2838.908144
912.751502	2844.108095
913.057436	2854.235773
913.363331	2868.814790
913.669186	2898.227402
913.975000	2935.090839
914.280775	2998.362361
914.586510	3065.565983
914.892205	3151.999086
915.197859	3294.147022
915.503475	3509.326153
915.809050	3738.718818
916.114585	3885.005541
916.420081	3884.377917
916.725536	3814.903255
917.030952	3690.621169
917.336328	3555.039336
917.641665	3421.461362
917.946961	3318.168120
918.252218	3241.590472
918.557435	3160.190961
918.862612	3099.087136
919.167750	3044.723332
919.472848	3007.224710
919.777906	2977.706233
920.082925	2949.788323
920.387904	2919.939651
920.692843	2902.136817
920.997743	2892.195661
921.302603	2877.029350
921.607423	2866.195910
921.912204	2853.656040
922.216946	2839.311437
922.521647	2829.786177
922.826310	2825.929694
923.130932	2816.966522
923.435516	2807.254739
923.740059	2796.748975
924.044564	2787.899229
924.349028	2784.899743
924.653454	2779.276336
924.957840	2773.531941
925.262186	2766.784356
925.566493	2763.300919
925.870761	2758.630290
926.174989	2751.313055
926.479178	2750.524115
926.783328	2743.164030
927.087438	2745.893815
927.391509	2742.279307
927.695541	2734.949470
927.999533	2734.629357
928.303486	2732.847309
928.607400	2732.260014
928.911275	2730.661968
929.215110	2730.276320
929.518906	2726.865980
929.822663	2730.356979
930.126381	2728.794221
930.430060	2728.582492
930.733699	2727.763305
931.037299	2731.309757
931.340861	2730.193141
931.644383	2732.466702
931.947866	2733.447206
932.251309	2726.790362
932.554714	2728.217009
932.858080	2727.763305
933.161407	2725.814899
933.464694	2724.158880
933.767943	2719.959599
934.071153	2720.950186
934.374323	2722.885989
934.677455	2723.879096
934.980548	2721.038406
935.283602	2721.242572
935.586617	2719.465566
935.889593	2719.415154
936.192530	2720.010010
936.495428	2719.790720
936.798287	2723.674929
937.101108	2728.224571
937.403890	2729.474777
937.706632	2734.800756
938.009336	2743.348032
938.312002	2751.139135
938.614628	2761.276896
938.917216	2766.761671
939.219765	2765.672782
939.522275	2766.597834
939.824747	2762.045672
940.127179	2764.669592
940.429573	2757.758170
940.731929	2755.550145
941.034246	2752.195257
941.336524	2749.054618
941.638763	2748.731984
941.940964	2742.831314
942.243126	2738.226220
942.545250	2741.767630
942.847335	2737.444841
943.149381	2733.169942
943.451389	2729.739437
943.753359	2728.769015
944.055290	2725.777090
944.357182	2727.022255
944.659036	2725.494786
944.960851	2723.405227
945.262628	2722.772563
945.564367	2723.077552
945.866067	2722.898592
946.167729	2723.143087
946.469352	2722.139898
946.770937	2725.237687
947.072484	2722.144939
947.373992	2722.659137
947.675462	2719.397510
947.976893	2716.019937
948.278286	2716.307283
948.579641	2711.341746
948.880958	2711.621530
949.182236	2713.564895
949.483476	2711.140100
949.784678	2714.162272
950.085841	2714.994062
950.386967	2714.595811
950.688054	2716.332489
950.989103	2713.743856
951.290114	2712.758311
951.591087	2719.689897
951.892021	2722.359188
952.192917	2723.158211
952.493776	2725.154508
952.794596	2726.550907
953.095378	2726.971844
953.396122	2725.172152
953.696828	2723.584188
953.997496	2722.535628
954.298126	2720.315000
954.598718	2718.774928
954.899272	2714.303424
955.199788	2712.165975
955.500266	2709.239585
955.800706	2706.116590
956.101108	2704.306816
956.401472	2704.458051
956.701798	2702.993596
957.002087	2696.722400
957.302337	2698.396063
957.602550	2698.448995
957.902724	2694.811803
958.202861	2694.426155
958.502960	2694.491690
958.803022	2695.535208
959.103045	2691.305680
959.403031	2689.921884
959.702979	2688.570854
960.002889	2691.489682
960.302762	2690.733509
960.602596	2687.872655
960.902393	2689.064887
961.202153	2692.066895
961.501875	2688.714527
961.801559	2688.021369
962.101205	2687.769311
962.400814	2687.580268
962.700385	2685.710000
962.999918	2685.914166
963.299414	2681.074659
963.598873	2683.610359
963.898293	2683.297807
964.197677	2683.872499
964.497022	2685.170596
964.796331	2687.597912
965.095601	2686.314938
965.394835	2684.840401
965.694030	2685.301666
965.993189	2684.094310
966.292309	2685.994825
966.591393	2683.625482
966.890439	2684.520287
967.189447	2683.081038
967.488419	2681.510718
967.787353	2683.166737
968.086249	2685.730164
968.385108	2683.723785
968.683930	2681.755214
968.982714	2686.042716
969.281462	2683.585153
969.580172	2683.144052
969.878844	2681.790502
970.177480	2685.561286
970.476078	2686.687983
970.774639	2685.135308
971.073162	2685.838549
971.371649	2686.461132
971.670098	2688.091945
971.968510	2682.607169
972.266885	2684.583302
972.565223	2686.246882
972.863524	2686.476255
973.161788	2685.460462
973.460014	2685.052129
973.758204	2685.362160
974.056356	2686.549352
974.354471	2686.453570
974.652550	2685.334434
974.950591	2683.315452
975.248595	2682.443332
975.546563	2685.740247
975.844493	2682.425688
976.142386	2683.731347
976.440243	2684.336285
976.738062	2683.839732
977.035845	2683.577592
977.333590	2682.939886
977.631299	2683.239834
977.928971	2681.419978
978.226606	2679.789164
978.524204	2682.801254
978.821765	2680.268074
979.119290	2682.236645
979.416777	2681.629186
979.714228	2681.934175
980.011642	2683.885102
980.309020	2682.776048
980.606360	2683.996007
980.903664	2681.107426
981.200931	2684.784948
981.498162	2682.773527
981.795356	2683.156655
982.092513	2685.359639
982.389633	2690.587316
982.686717	2691.575382
982.983764	2697.392874
983.280775	2697.443285
983.577749	2700.841023
983.874686	2701.942515
984.171587	2697.274407
984.468451	2696.745085
984.765279	2692.470187
985.062070	2690.489013
985.358824	2690.224353
985.655543	2687.582788
985.952224	2685.848631
986.248869	2685.354598
986.545478	2683.869978
986.842050	2682.612211
987.138586	2681.908970
987.435086	2681.067097
987.731549	2680.767148
988.027975	2680.081551
988.324366	2680.878054
988.620719	2680.895698
988.917037	2678.445697
989.213318	2681.480472
989.509563	2679.383352
989.805772	2678.702796
990.101944	2680.255471
990.398080	2678.528876
990.694180	2676.971159
990.990244	2679.491736
991.286271	2680.678928
991.582262	2677.099709
991.878217	2677.833197
992.174136	2679.985769
992.470019	2678.609534
992.765865	2677.044256
993.061676	2675.715912
993.357450	2676.419153
993.653188	2675.393278
993.948890	2680.850327
994.244556	2679.988290
994.540186	2678.347394
994.835780	2681.140194
995.131337	2681.709844
995.426859	2681.109947
995.722345	2681.669515
996.017795	2683.199505
996.313208	2681.888805
996.608586	2685.105061
996.903928	2686.786286
997.199234	2685.258816
997.494504	2683.292766
997.789738	2682.728157
998.084936	2683.338137
998.380099	2684.192612
998.675225	2680.762107
998.970316	2681.372087
999.265371	2681.246058
999.560390	2679.690862
999.855373	2681.215811
1000.150320	2678.332271
1000.445232	2679.285049
1000.740108	2678.712878
1001.034948	2678.702796
1001.329752	2679.103567
1001.624521	2678.296983
1001.919254	2677.629030
1002.213951	2678.002075
1002.508613	2676.915707
1002.803239	2677.878567
1003.097829	2675.967970
1003.392384	2675.070644
1003.686903	2677.535769
1003.981386	2678.811181
1004.275834	2676.368742
1004.570246	2678.203722
1004.864623	2675.967970
1005.158964	2675.526869
1005.453270	2674.780778
1005.747540	2677.031653
1006.041775	2675.110974
1006.335974	2676.046108
1006.630138	2675.748680
1006.924266	2675.645336
1007.218359	2675.852023
1007.512416	2673.981755
1007.806438	2672.482012
1008.100425	2673.074347
1008.394376	2671.756086
1008.688292	2674.748011
1008.982172	2674.916889
1009.276017	2676.678772
1009.569827	2674.193484
1009.863602	2676.197342
1010.157341	2675.980573
1010.451045	2678.208763
1010.744714	2676.255316
1011.038347	2677.581139
1011.331945	2673.444872
1011.625508	2677.160203
1011.919036	2676.978721
1012.212528	2677.603824
1012.505986	2677.087106
1012.799408	2677.094668
1013.092795	2676.840089
1013.386147	2676.293124
1013.679464	2677.152641
1013.972745	2675.156344
1014.265992	2675.181550
1014.559204	2675.209276
1014.852380	2677.041736
1015.145521	2676.764472
1015.438628	2677.868485
1015.731699	2675.594924
1016.024736	2677.084585
1016.317737	2673.555778
1016.610703	2676.381344
1016.903635	2676.371262
1017.196531	2673.891014
1017.489393	2674.158196
1017.782219	2675.158865
1018.075011	2676.078875
1018.367768	2674.259019
1018.660490	2675.789009
1018.953177	2675.789009
1019.245829	2675.789009
