Dividing Wavelength (nm)	Counts (n)	Blue Motor Position (mm): 20.700000	Red Motor Position (mm): 0.000000	
326.493990	2185.942610
326.888308	2185.942610
327.282561	2185.942610
327.676750	2143.922072
328.070874	2141.096506
328.464933	2140.859571
328.858929	2144.088430
329.252859	2150.586478
329.646726	2160.041162
330.040528	2172.996927
330.434265	2183.474965
330.827938	2203.329550
331.221547	2222.191027
331.615091	2237.669890
332.008571	2255.140008
332.401986	2274.417381
332.795338	2292.023611
333.188625	2309.090437
333.581847	2327.641883
333.975006	2348.759277
334.368100	2368.618902
334.761129	2386.378887
335.154095	2401.666186
335.546996	2427.623087
335.939833	2457.396142
336.332606	2474.417598
336.725315	2483.804226
337.117960	2497.327122
337.510540	2508.473113
337.903056	2521.234794
338.295508	2529.217461
338.687896	2542.543751
339.080220	2546.538865
339.472480	2555.698642
339.864676	2559.492110
340.256807	2562.874724
340.648875	2568.808162
341.040879	2570.363358
341.432818	2572.883935
341.824694	2578.474575
342.216506	2575.555747
342.608253	2578.956005
342.999937	2576.319482
343.391557	2577.307548
343.783113	2575.328895
344.174605	2578.109091
344.566033	2573.859399
344.957397	2573.546847
345.348697	2572.614234
345.739934	2570.141548
346.131106	2568.137689
346.522215	2567.787329
346.913260	2566.521999
347.304241	2565.319684
347.695159	2561.886658
348.086012	2559.393808
348.476802	2558.970351
348.867528	2553.467931
349.258191	2551.244782
349.648789	2549.193033
350.039324	2545.487785
350.429796	2552.394166
350.820203	2549.739998
351.210548	2548.421736
351.600828	2547.670604
351.991045	2544.444266
352.381198	2545.351674
352.771288	2544.542568
353.161314	2544.703885
353.551276	2546.173382
353.941175	2543.751107
354.331010	2546.077600
354.720782	2543.917465
355.110490	2541.686755
355.500135	2543.332692
355.889717	2542.354708
356.279235	2542.972249
356.668689	2543.378062
357.058080	2544.046015
357.447408	2542.294214
357.836672	2545.971736
358.225873	2542.826056
358.615010	2542.485778
359.004084	2545.525593
359.393095	2544.862682
359.782043	2546.392672
360.170927	2544.784544
360.559748	2547.378218
360.948505	2548.031047
361.337199	2547.751263
361.725830	2547.700851
362.114398	2548.141952
362.502903	2550.168496
362.891344	2547.675646
363.279722	2548.053732
363.668037	2551.093548
364.056289	2551.643034
364.444478	2550.697817
364.832603	2551.373332
365.220665	2549.946685
365.608665	2554.254351
365.996601	2551.920297
366.384474	2555.423899
366.772284	2551.665719
367.160031	2555.244938
367.547715	2552.973898
367.935336	2552.623538
368.322893	2554.902140
368.710388	2551.287632
369.097820	2553.304094
369.485189	2549.840821
369.872495	2555.872562
370.259738	2558.143602
370.646918	2556.474980
371.034035	2558.221739
371.421090	2557.770556
371.808081	2556.699311
372.195010	2558.080587
372.581875	2556.747202
372.968678	2558.977913
373.355418	2561.422872
373.742096	2560.480176
374.128710	2560.449929
374.515262	2561.816082
374.901751	2557.768036
375.288177	2560.303736
375.674540	2558.761143
376.060841	2564.142575
376.447079	2561.501010
376.833254	2562.322718
377.219367	2561.962276
377.605417	2562.363047
377.991404	2560.593602
378.377329	2562.300033
378.763191	2564.762637
379.148991	2562.695763
379.534727	2563.804817
379.920402	2562.020249
380.306013	2561.453119
380.691563	2565.170970
381.077049	2564.192986
381.462474	2563.562842
381.847835	2563.945970
382.233134	2565.692729
382.618371	2564.354303
383.003545	2567.232802
383.388657	2563.734241
383.773706	2565.720456
384.158693	2564.157698
384.543618	2566.559808
384.928480	2567.376475
385.313280	2565.849005
385.698017	2563.600651
386.082692	2567.202555
386.467305	2563.638459
386.851856	2568.785477
387.236344	2568.039387
387.620770	2567.010991
388.005133	2562.925136
388.389435	2566.491752
388.773674	2563.298181
389.157851	2568.145251
389.541965	2567.252967
389.926018	2570.350756
390.310008	2567.747000
390.693936	2569.261866
391.077802	2569.718091
391.461606	2570.237330
391.845348	2568.621640
392.229027	2571.769840
392.612645	2571.038873
392.996200	2572.150447
393.379694	2570.159192
393.763125	2573.027608
394.146494	2571.991651
394.529801	2573.572053
394.913047	2572.412587
395.296230	2574.171950
395.679351	2572.183215
396.062410	2573.332598
396.445408	2570.955694
396.828343	2572.647001
397.211217	2571.091805
397.594028	2574.660942
397.976778	2575.228072
398.359466	2575.676735
398.742092	2575.681776
399.124656	2572.508369
399.507158	2576.077506
399.889598	2575.712023
400.271977	2574.572722
400.654294	2574.335788
401.036549	2576.054821
401.418742	2577.259657
401.800874	2576.969791
402.182944	2575.870819
402.564952	2576.425346
402.946898	2573.745973
403.328783	2575.525500
403.710606	2576.788309
404.092367	2574.242526
404.474067	2578.376272
404.855705	2575.994327
405.237282	2577.244533
405.618797	2577.610017
406.000250	2581.040522
406.381642	2578.318299
406.762972	2574.136662
407.144240	2574.439131
407.525447	2576.490881
407.906593	2572.468040
408.287677	2581.257292
408.668700	2577.453741
409.049661	2579.666808
409.430560	2579.044225
409.811399	2581.418609
410.192176	2579.893660
410.572891	2579.823084
410.953545	2581.209401
411.334138	2581.627817
411.714669	2581.532035
412.095139	2582.613362
412.475547	2580.327199
412.855894	2584.415575
413.236180	2582.257961
413.616405	2583.276274
413.996568	2582.663774
414.376670	2584.327355
414.756711	2582.668815
415.136691	2584.387848
415.516609	2581.905080
415.896466	2582.731829
416.276262	2584.609659
416.655997	2582.530183
417.035670	2583.193095
417.415283	2584.483630
417.794834	2584.715523
418.174324	2581.602611
418.553753	2581.222004
418.933121	2583.493044
419.312428	2584.022365
419.691674	2583.072107
420.070859	2587.140318
420.449983	2588.987901
420.829045	2583.430029
421.208047	2585.849783
421.586988	2585.030596
421.965867	2585.960688
422.344686	2586.215267
422.723444	2589.134095
423.102141	2584.975143
423.480777	2586.767273
423.859352	2588.514033
424.237866	2587.072263
424.616319	2589.716348
424.994712	2589.847418
425.373044	2587.828436
425.751314	2584.730647
426.129524	2585.438929
426.507673	2586.598394
426.885762	2585.133939
427.263789	2588.493868
427.641756	2589.005545
428.019662	2587.785586
428.397508	2588.624938
428.775292	2589.670978
429.153016	2589.247521
429.530679	2589.015628
429.908282	2592.307501
430.285824	2589.696183
430.663305	2590.883375
431.040726	2590.447315
431.418086	2590.127202
431.795385	2589.693663
432.172624	2589.923035
432.549802	2591.858838
432.926920	2591.067377
433.303977	2593.293047
433.680974	2592.594847
434.057910	2592.196596
434.434786	2592.743561
434.811601	2593.235073
435.188355	2591.853797
435.565050	2592.252048
435.941683	2595.007039
436.318257	2594.026535
436.694770	2594.132399
437.071222	2594.051740
437.447614	2595.911926
437.823946	2592.521750
438.200218	2593.230032
438.576429	2594.097111
438.952580	2594.795311
439.328670	2594.026535
439.704700	2593.202306
440.080670	2596.335383
440.456580	2595.816144
440.832429	2598.581217
441.208218	2596.479056
441.583947	2596.463932
441.959616	2596.819334
442.335224	2594.369333
442.710773	2596.784046
443.086261	2597.570466
443.461689	2598.024170
443.837057	2595.894282
444.212365	2596.620208
444.587612	2594.313880
444.962800	2594.036617
445.337927	2595.153232
445.712995	2593.214909
446.088002	2598.974427
446.462949	2596.552153
446.837837	2602.036928
447.212664	2598.820672
447.587431	2599.183635
447.962139	2604.635643
448.336786	2602.357041
448.711374	2604.093719
449.085901	2601.316043
449.460369	2600.844695
449.834776	2604.318050
450.209124	2602.664552
450.583412	2602.402412
450.957640	2605.200252
451.331808	2605.752258
451.705917	2606.352156
452.079965	2602.246136
452.453954	2602.578852
452.827883	2605.207814
453.201752	2603.153544
453.575562	2599.914602
453.949311	2602.162957
454.323001	2602.301589
454.696632	2606.304265
455.070202	2603.665221
455.443713	2606.057248
455.817164	2603.216558
456.190556	2605.069182
456.563888	2608.305603
456.937160	2607.955243
457.310373	2607.720829
457.683526	2606.518514
458.056619	2607.085644
458.429653	2608.043463
458.802628	2607.002465
459.175542	2607.204111
459.548398	2609.596138
459.921194	2612.575460
460.293930	2610.657301
460.666607	2609.384410
461.039224	2615.592591
461.411782	2614.397837
461.784280	2613.629061
462.156719	2614.362549
462.529099	2616.379011
462.901419	2612.086468
463.273680	2610.808536
463.645882	2610.506067
464.018024	2611.194184
464.390106	2609.591097
464.762130	2616.247941
465.134094	2616.041253
465.505999	2619.292798
465.877845	2624.785135
466.249631	2629.276803
466.621358	2627.963582
466.993026	2630.595065
467.364634	2632.765281
467.736184	2627.711525
468.107674	2624.512912
468.479105	2625.095166
468.850477	2623.940742
469.221790	2625.279168
469.593043	2625.009466
469.964238	2624.097017
470.335373	2625.493417
470.706449	2627.726648
471.077467	2624.943931
471.448425	2629.944756
471.819324	2640.415232
472.190164	2641.972949
472.560945	2639.641415
472.931667	2637.057824
473.302330	2635.185035
473.672934	2635.875673
474.043479	2638.184522
474.413965	2636.652011
474.784393	2642.169554
475.154761	2644.082672
475.525070	2644.604431
475.895321	2646.141983
476.265513	2646.033598
476.635645	2652.768580
477.005719	2656.385608
477.375734	2657.313180
477.745691	2662.455157
478.115588	2666.977072
478.485427	2673.215500
478.855207	2680.719257
479.224928	2693.342307
479.594591	2707.674307
479.964194	2712.750749
480.333739	2715.291490
480.703226	2720.153683
481.072653	2728.494272
481.442022	2735.050293
481.811333	2754.763725
482.180584	2757.488469
482.549777	2765.355189
482.918912	2767.923657
483.287988	2790.903757
483.657005	2798.412556
484.025964	2808.386478
484.394864	2821.493478
484.763706	2832.122751
485.132489	2840.639781
485.501213	2860.126361
485.869879	2878.824001
486.238487	2897.403173
486.607036	2918.709610
486.975527	2934.979934
487.343959	2966.194758
487.712333	2990.117554
488.080648	3012.553209
488.448905	3046.112170
488.817104	3072.127045
489.185244	3125.722072
489.553326	3167.248577
489.921350	3227.102196
490.289315	3350.146679
490.657222	3461.384780
491.025070	3527.030686
491.392861	3574.084816
491.760593	3602.642952
492.128267	3624.708083
492.495883	3631.012045
492.863440	3660.054133
493.230939	3682.028522
493.598380	3745.045466
493.965763	3787.766724
494.333088	3831.034948
494.700354	3897.079104
495.067563	3967.587202
495.434713	4030.710010
495.801805	4099.083180
496.168839	4184.117363
496.535815	4255.298455
496.902733	4352.406202
497.269593	4399.077204
497.636395	4512.011653
498.003139	4598.732102
498.369825	4687.474054
498.736453	4779.845637
499.103023	4862.651630
499.469535	4968.546107
499.835989	5091.454479
500.202385	5211.000402
500.568723	5250.258387
500.935003	5368.100399
501.301226	5444.796514
501.667390	5648.212113
502.033497	5839.319735
502.399546	5882.608123
502.765537	5965.512418
503.131470	6127.525021
503.497345	6275.172855
503.863163	6270.812257
504.228923	6503.050653
504.594625	6677.018352
504.960269	6701.765376
505.325856	6938.734895
505.691385	6980.820967
506.056856	7209.333951
506.422270	7389.643421
506.787625	7406.259064
507.152924	7683.036054
507.518164	7800.633571
507.883347	7900.637460
508.248472	7967.972152
508.613540	8311.216756
508.978550	8445.225748
509.343503	8595.195034
509.708398	8827.413265
510.073236	9013.651132
510.438016	9230.677847
510.802738	9334.059309
511.167403	9555.630624
511.532010	9628.427406
511.896561	10046.891066
512.261053	10239.813503
512.625488	10339.003246
512.989866	10478.290327
513.354186	10574.558721
513.718449	10829.116826
514.082655	11105.485483
514.446803	11223.445962
514.810894	11559.819473
515.174927	11541.605784
515.538904	11729.671070
515.902822	12083.532343
516.266684	12208.207640
516.630488	12330.470744
516.994235	12520.862522
517.357925	12833.746776
517.721558	13126.990696
518.085133	13343.188140
518.448651	13486.593843
518.812112	13574.728336
519.175516	13805.865240
519.538863	14116.206232
519.902152	14167.540302
520.265385	14523.239076
520.628560	14593.585858
520.991678	14806.682992
521.354739	15020.654767
521.717743	15251.504326
522.080690	15292.340192
522.443580	15702.412852
522.806413	15850.771489
523.169189	16132.650127
523.531908	16296.469983
523.894569	16302.766384
524.257174	16516.821338
524.619722	16812.908468
524.982213	16785.666073
525.344647	17039.309208
525.707025	17270.224301
526.069345	17465.357284
526.431608	17631.639744
526.793815	17961.905897
527.155964	17704.149180
527.518057	18015.584103
527.880093	18174.143515
528.242072	18430.546682
528.603995	18406.152538
528.965860	18435.096323
529.327669	18696.923772
529.689421	18795.823648
530.051117	18827.895469
530.412755	19162.426438
530.774337	19134.914341
531.135862	19182.608698
531.497331	19493.136213
531.858743	19296.115318
532.220098	19827.150464
532.581396	19676.361991
532.942638	19833.696402
533.303824	20004.047073
533.664953	20169.976652
534.026025	20053.848632
534.387040	20349.545072
534.747999	20560.376208
535.108902	20793.027979
535.469748	20511.154382
535.830537	20799.972168
536.191270	20985.524439
536.551947	21060.065460
536.912567	20863.054647
537.273131	21221.273998
537.633638	21089.188206
537.994089	21402.695043
538.354483	21116.044953
538.714821	21631.628962
539.075103	21796.827574
539.435328	21705.534798
539.795497	21410.833986
540.155609	21866.231660
540.515665	22209.014998
540.875665	21632.475876
541.235609	21958.366308
541.595496	22039.833875
541.955328	22413.317840
542.315102	22425.847627
542.674821	22147.621306
543.034483	22105.368875
543.394090	22311.063075
543.753640	22187.030526
544.113134	22832.928362
544.472571	22558.971898
544.831953	22899.801789
545.191278	22585.054828
545.550548	22602.713990
545.909761	22838.776101
546.268918	23124.468372
546.628019	23128.347539
546.987064	22943.067492
547.346053	22761.437239
547.704986	22928.833794
548.063863	23138.329024
548.422684	23150.838647
548.781449	22809.761740
549.140158	23221.634091
549.498811	22875.460577
549.857408	22649.206031
550.215949	23128.702941
550.574434	22839.670906
550.932864	23094.443259
551.291237	23249.718359
551.649555	23175.321011
552.007817	23255.346808
552.366022	23171.114168
552.724173	23240.125044
553.082267	23204.698335
553.440305	23696.931720
553.798288	23010.142564
554.156215	23562.237130
554.514086	23661.691534
554.871902	23064.191295
555.229661	23370.796792
555.587365	23261.255040
555.945014	23114.812041
556.302606	23414.357403
556.660143	23342.629345
557.017625	23626.002685
557.375050	23197.585267
557.732421	23586.182611
558.089735	23419.927878
558.446994	23492.238189
558.804197	23531.050032
559.161345	23510.749306
559.518437	23242.315425
559.875474	23472.610456
560.232455	23651.609226
560.589381	23517.819524
560.946251	23479.143792
561.303065	23815.151819
561.659825	23911.221088
562.016528	23525.169526
562.373177	23282.879069
562.729770	23630.023006
563.086307	23525.242623
563.442789	23702.676115
563.799216	23521.053424
564.155587	23546.291961
564.511904	23537.883316
564.868164	23471.519046
565.224370	23476.913081
565.580520	23363.504763
565.936615	23511.066898
566.292654	23181.975334
566.648638	23513.637887
567.004567	23330.177695
567.360441	23289.603969
567.716260	23016.968286
568.072023	23348.598072
568.427732	23107.479683
568.783385	22901.987129
569.138982	23130.651347
569.494525	23177.092977
569.850013	22930.459566
570.205445	23025.755018
570.560823	22826.851251
570.916145	22602.535029
571.271412	22777.425258
571.626625	22539.639073
571.981782	22643.423827
572.336884	22462.330458
572.691931	22586.955343
573.046923	22323.502122
573.401860	22216.238971
573.756743	22212.130431
574.111570	22135.051188
574.466342	22076.243608
574.821059	22159.019354
575.175722	21859.763859
575.530330	21846.682065
575.884882	21874.080736
576.239380	21789.467489
576.593823	21672.361486
576.948211	21657.984115
577.302544	21500.082573
577.656823	21375.808049
578.011047	21458.336778
578.365216	21350.705623
578.719330	21231.668858
579.073389	21138.896503
579.427394	21275.093357
579.781344	21052.423071
580.135239	20955.191816
580.489080	20928.909760
580.842866	20681.202584
581.196597	20866.250739
581.550273	20851.341526
581.903895	20744.224569
582.257463	21052.788554
582.610975	20591.598595
582.964434	20876.824559
583.317837	20601.222158
583.671186	20700.643794
584.024481	20667.583907
584.377721	20442.193918
584.730906	20486.979529
585.084037	20522.978409
585.437113	20428.376116
585.790135	20611.364959
586.143103	20098.351938
586.496016	20095.468398
586.848874	20345.318065
587.201679	20296.013060
587.554428	19962.351689
587.907124	20290.876124
588.259765	20074.134235
588.612352	20149.970833
588.964884	19727.234795
589.317362	19899.072606
589.669786	19936.404871
590.022155	20005.526652
590.374470	20167.350211
590.726731	19973.779985
591.078937	19721.210616
591.431090	19830.220527
591.783188	19570.265867
592.135232	19551.414472
592.487222	19656.638476
592.839157	19683.033958
593.191038	19555.139885
593.542866	19459.231933
593.894639	19165.670421
594.246358	19386.523371
594.598022	19305.360794
594.949633	19055.498524
595.301190	19006.722840
595.652692	19167.104629
596.004141	19422.665923
596.355535	18750.831350
596.706876	18759.892824
597.058162	18651.848294
597.409395	18866.833341
597.760573	18956.815417
598.111698	18744.731554
598.462768	18677.359053
598.813785	18632.452455
599.164748	18462.184963
599.515657	18494.632350
599.866511	18283.534033
600.217312	18641.884454
600.568060	18192.432821
600.918753	18482.689857
601.269392	18387.568325
601.619978	18158.049631
601.970510	18372.903608
602.320988	18321.786308
602.671412	18528.153503
603.021783	18427.554757
603.372100	18173.291560
603.722363	18294.312020
604.072572	18249.181090
604.422728	18367.557464
604.772830	18134.194891
605.122878	18080.153722
605.472872	18085.270493
605.822813	18074.144667
606.172701	18027.435856
606.522534	18231.468996
606.872314	18248.775277
607.222041	18080.017611
607.571714	18304.076735
607.921333	18130.910579
608.270899	18207.011838
608.620411	18404.315038
608.969870	18156.184404
609.319276	18166.722936
609.668627	18187.374023
610.017926	18331.677052
610.367171	18438.572199
610.716362	18471.105285
611.065500	18302.294687
611.414585	18436.838042
611.763616	18411.047499
612.112594	18373.251448
612.461518	18332.634871
612.810389	18529.968318
613.159207	18380.432571
613.507971	18286.160474
613.856682	18573.176048
614.205340	18499.804574
614.553945	18638.395975
614.902496	18378.748826
615.250994	18624.744531
615.599439	18564.404440
615.947830	18547.940031
616.296169	18582.454291
616.644454	18562.256908
616.992686	18536.988125
617.340864	18739.395493
617.688990	18500.964039
618.037063	18684.451957
618.385082	18520.871556
618.733048	18812.963571
619.080961	18673.558023
619.428821	18708.077324
619.776628	18601.492209
620.124382	18528.531589
620.472083	18556.613337
620.819731	18588.591896
621.167326	18272.503988
621.514868	18326.232606
621.862357	18089.260566
622.209793	18095.045290
622.557176	17928.233510
622.904506	17765.162265
623.251783	17656.003640
623.599007	17434.563396
623.946179	17383.743524
624.293297	17320.527455
624.640363	17081.458295
624.987376	17094.179647
625.334336	16889.773461
625.681243	16739.277375
626.028097	16745.407418
626.374899	16677.611461
626.721647	16540.257662
627.068343	16369.022269
627.414987	16303.560366
627.761577	16274.898886
628.108115	16334.666806
628.454600	16042.035387
628.801032	16136.196579
629.147412	16072.342803
629.493739	16089.144969
629.840014	15899.043058
630.186236	15995.828170
630.532405	15768.267965
630.878521	15966.309694
631.224585	15848.238309
631.570597	15679.102557
631.916556	15706.186156
632.262462	15697.918663
632.608316	15603.384426
632.954117	15557.003290
633.299866	15548.902156
633.645562	15472.213603
633.991206	15223.871241
634.336797	15089.514408
634.682336	15055.781528
635.027823	14953.365446
635.373257	14838.971583
635.718639	14732.993926
636.063968	14684.830742
636.409245	14431.038893
636.754470	14460.527122
637.099642	14311.523218
637.444762	14077.822887
637.789829	14136.640550
638.134845	13973.138286
638.479808	13991.281399
638.824719	13944.179378
639.169577	13789.226912
639.514383	13845.549203
639.859137	13658.998784
640.203839	13738.288573
640.548489	13582.012803
640.893086	13576.966608
641.237632	13443.623048
641.582125	13585.836519
641.926566	13423.556735
642.270955	13430.110235
642.615292	13393.138413
642.959576	13402.988828
643.303809	13438.740691
643.647990	13373.855999
643.992118	13432.993775
644.336195	13208.289384
644.680219	13397.909865
645.024192	13332.846213
645.368112	13565.243405
645.711981	13627.042910
646.055797	13804.625116
646.399562	13764.679013
646.743274	14033.185990
647.086935	14315.291480
647.430544	14279.620276
647.774101	14303.389316
648.117606	14462.707422
648.461059	14430.900261
648.804460	14418.541873
649.147810	14158.688036
649.491108	14052.017221
649.834354	14069.736876
650.177548	13770.410805
650.520690	13580.253441
650.863781	13505.679652
651.206820	13547.178430
651.549807	13372.799878
651.892742	13182.692925
652.235626	13121.858801
652.578458	13124.633956
652.921238	12805.181078
653.263967	13004.021830
653.606644	12833.403978
653.949269	12802.153865
654.291843	12617.667799
654.634365	12763.594079
654.976836	12613.508847
655.319255	12624.044859
655.661622	12587.395670
656.003938	12499.631702
656.346203	12428.548913
656.688416	12494.300682
657.030577	12457.795167
657.372687	12387.836554
657.714746	12352.119979
658.056753	12539.454297
658.398708	12362.872760
658.740612	12369.363246
659.082465	12467.171713
659.424266	12421.256883
659.766016	12444.937704
660.107715	12359.855630
660.449362	12427.628902
660.790958	12389.099363
661.132503	12335.907628
661.473996	12396.361145
661.815438	12423.394333
662.156829	12432.044953
662.498168	12401.293914
662.839456	12403.658215
663.180693	12424.523551
663.521879	12517.333714
663.863013	12495.523162
664.204097	12472.016262
664.545129	12585.941297
664.886110	12551.767315
665.227040	12645.366419
665.567918	12657.528202
665.908746	12680.977130
666.249522	12665.256291
666.590248	12715.012480
666.930922	12827.389881
667.271545	12810.355823
667.612118	12892.251887
667.952639	12798.183957
668.293109	12804.024133
668.633528	12774.735029
668.973896	12733.815984
669.314213	12828.289727
669.654480	12562.830128
669.994695	12620.823561
670.334859	12649.873210
670.674973	12594.118049
671.015035	12639.364925
671.355047	12572.456211
671.695008	12543.721634
672.034918	12549.687839
672.374777	12594.586876
672.714585	12501.890139
673.054342	12539.479503
673.394049	12494.525013
673.733705	12579.148343
674.073310	12493.340342
674.412864	12524.199766
674.752368	12391.599775
675.091820	12390.553736
675.431223	12391.420814
675.770574	12263.488933
676.109875	12181.335769
676.449125	12146.103145
676.788324	12082.549318
677.127473	11929.915783
677.466571	11913.426168
677.805619	11819.348155
678.144616	11726.240564
678.483562	11697.311903
678.822458	11567.179558
679.161303	11545.709283
679.500098	11539.997656
679.838842	11494.334885
680.177535	11514.076043
680.516179	11576.157853
680.854771	11513.178718
681.193314	11731.811039
681.531805	11874.838656
681.870247	12282.022735
682.208638	12687.538191
682.546978	13008.226152
682.885268	13074.524887
683.223508	12761.323040
683.561697	12602.173813
683.899836	12501.804440
684.237925	12306.850418
684.575963	12229.060372
684.913951	12154.657983
685.251889	12095.747059
685.589776	12189.769619
685.927614	12119.004422
686.265401	12089.090215
686.603137	12123.634722
686.940824	12274.377825
687.278460	12389.588355
687.616046	12443.962240
687.953582	12617.135957
688.291068	12531.839634
688.628504	12763.699944
688.965889	12780.275258
689.303224	12741.544073
689.640510	12639.644709
689.977745	12346.118485
690.314930	12119.092642
690.652065	12035.162472
690.989150	11742.473080
691.326185	11521.834379
691.663170	11310.158849
692.000105	11061.761035
692.336990	10970.304422
692.673825	10710.632067
693.010610	10591.287790
693.347345	10391.837059
693.684030	10186.646974
694.020665	10135.839705
694.357251	9931.189023
694.693786	9890.002797
695.030272	9714.094254
695.366707	9596.239638
695.703093	9530.346717
696.039429	9526.785141
696.375716	9453.915262
696.711952	9320.647319
697.048139	9358.909677
697.384276	9314.355959
697.720363	9331.432868
698.056400	9267.846274
698.392388	9218.538748
698.728326	9181.395527
699.064214	9118.282801
699.400053	9162.811313
699.735842	8985.345054
700.071581	8935.523330
700.407270	8862.804686
700.742910	8784.114795
701.078501	8699.617495
701.414042	8572.129235
701.749533	8506.747990
702.084974	8366.372020
702.420366	8476.717836
702.755709	8359.589147
703.091002	8229.058551
703.426246	8260.086853
703.761440	8214.431643
704.096584	8164.030187
704.431679	8101.048531
704.766725	8082.320645
705.101721	8034.507821
705.436668	8077.012310
705.771565	7974.550858
706.106413	8056.023466
706.441212	8097.481915
706.775961	8047.110706
707.110661	8082.476920
707.445311	8233.235147
707.779913	8124.048796
708.114465	8256.137109
708.448967	8293.882748
708.783421	8423.810927
709.117825	8605.660469
709.452180	8644.303434
709.786485	8732.153102
710.120742	9010.631481
710.454949	9011.634671
710.789107	9114.428839
711.123216	9319.593718
711.457275	9488.502619
711.791286	9649.771651
712.125247	9641.930136
712.459159	9628.190472
712.793023	9887.794771
713.126837	9463.783321
713.460602	9611.131207
713.794318	9438.832130
714.127985	9467.707859
714.461602	9156.925766
714.795171	9104.263352
715.128691	8867.429945
715.462162	8602.459337
715.795584	8556.907471
716.128957	8419.115092
716.462281	8233.283038
716.795556	8290.908467
717.128782	8085.456242
717.461960	7813.591857
717.795088	7890.587920
718.128167	7796.104094
718.461198	7635.976883
718.794180	7574.142090
719.127113	7566.431645
719.459997	7420.976713
719.792833	7193.169491
720.125619	7248.478510
720.458357	7109.234279
720.791046	7099.225068
721.123686	7099.318330
721.456278	6941.595749
721.788821	6960.555529
722.121315	6848.813313
722.453761	6911.469814
722.786158	6861.716146
723.118506	6873.933383
723.450805	6839.383835
723.783056	6909.503764
724.115259	6810.510626
724.447412	6808.496685
724.779518	6853.746082
725.111574	6858.920826
725.443582	6931.510921
725.775542	6911.174907
726.107453	7102.529545
726.439315	7015.796493
726.771129	7062.772485
727.102895	7240.021975
727.434612	7348.799992
727.766281	7377.610187
728.097901	7468.174516
728.429473	7457.729245
728.760996	7432.329391
729.092471	7409.873571
729.423897	7361.536468
729.755276	7371.976697
730.086606	7295.131869
730.417887	7392.252218
730.749120	7571.286276
731.080305	7771.546113
731.411442	7898.832727
731.742530	7888.911736
732.073570	8003.177050
732.404562	8087.109741
732.735506	7928.741893
733.066401	8070.090805
733.397249	8010.695931
733.728048	7776.466279
734.058798	7444.710465
734.389501	7227.189718
734.720156	7046.842439
735.050762	6813.116903
735.381320	6710.305090
735.711831	6667.616600
736.042293	6560.383696
736.372707	6580.782725
736.703073	6442.803823
737.033391	6477.625593
737.363661	6483.685060
737.693883	6510.705645
738.024056	6598.333502
738.354182	6640.888402
738.684260	6675.319483
739.014290	6777.929649
739.344272	6891.504324
739.674207	6922.053717
740.004093	6990.905796
740.333931	7008.542272
740.663722	7017.099631
740.993464	7096.777588
741.323159	7093.654593
741.652806	6839.323341
741.982405	6837.178330
742.311956	6908.056953
742.641460	6752.066009
742.970915	6561.500311
743.300323	6547.737961
743.629683	6492.300392
743.958996	6361.495053
744.288260	6269.120950
744.617477	6222.281069
744.946647	6230.475464
745.275768	6061.445576
745.604842	6021.330594
745.933869	6001.165979
746.262847	5956.612261
746.591778	5946.051044
746.920662	5904.769035
747.249498	5890.711778
747.578286	5940.029386
747.907027	6017.111148
748.235720	6074.855045
748.564365	6043.952772
748.892963	6067.336164
749.221514	6227.654939
749.550017	6072.142904
749.878473	5941.297236
750.206881	5994.620041
750.535242	5932.155103
750.863555	5867.756883
751.191821	5886.709101
751.520039	5891.967025
751.848210	5796.595956
752.176334	5809.828985
752.504411	5865.654722
752.832440	5790.208814
753.160421	5720.083843
753.488356	5766.527994
753.816243	5799.419002
754.144082	5655.171426
754.471875	5620.505931
754.799620	5666.546789
755.127318	5678.264952
755.454969	5630.404237
755.782572	5596.255461
756.110129	5637.653416
756.437638	5631.420029
756.765100	5571.095062
757.092515	5561.879833
757.419882	5607.650989
757.747203	5593.613896
758.074477	5659.597559
758.401703	5646.334283
758.728882	5594.864102
759.056014	5645.315970
759.383099	5780.940653
759.710138	5787.211848
760.037129	5772.690804
760.364073	5781.525426
760.690970	5862.067941
761.017820	5846.195868
761.344623	5793.115039
761.671379	5897.978601
761.998088	6008.372308
762.324751	6239.042905
762.651366	6819.201575
762.977935	8091.291378
763.304456	9696.009114
763.630931	10625.514704
763.957359	10266.662688
764.283740	9343.662707
764.610074	8529.415538
764.936362	7544.963892
765.262602	6951.630166
765.588796	6407.273771
765.914943	6063.837603
766.241044	5905.721813
766.567097	5719.136106
766.893104	5457.585921
767.219064	5277.241163
767.544978	5210.551739
767.870845	5141.881141
768.196665	5030.028020
768.522438	4959.376248
768.848165	4929.454480
769.173846	4866.687073
769.499479	4821.714940
769.825066	4768.082104
770.150607	4706.779153
770.476101	4680.655893
770.801548	4680.706305
771.126949	4607.662506
771.452303	4553.981780
771.777611	4510.035521
772.102872	4527.056977
772.428087	4494.158407
772.753256	4447.056386
773.078378	4410.182866
773.403453	4339.924305
773.728482	4324.130370
774.053465	4279.543885
774.378401	4266.963685
774.703291	4272.697998
775.028135	4199.626473
775.352932	4150.724760
775.677683	4137.224550
776.002388	4152.002693
776.327046	4171.194365
776.651658	4091.755863
776.976224	4029.389228
777.300743	4034.992471
777.625216	4054.940316
777.949643	4055.605749
778.274024	4011.505735
778.598359	3964.711224
778.922647	3987.484637
779.246889	3978.566836
779.571086	3975.353100
779.895236	3962.044454
780.219339	3944.178605
780.543397	3939.273562
780.867409	3989.637209
781.191374	4006.000795
781.515294	3943.437555
781.839167	3940.344807
782.162995	3953.499698
782.486776	3940.755661
782.810511	3950.170016
783.134201	3950.661528
783.457844	3907.935229
783.781441	3851.086137
784.104993	3853.818442
784.428498	3873.279817
784.751958	3869.735886
785.075372	3854.115871
785.398739	3816.839058
785.722061	3820.007424
786.045337	3866.685988
786.368568	3901.056575
786.691752	3813.607679
787.014891	3857.679966
787.337983	3983.769306
787.661030	4138.736896
787.984031	4298.801093
788.306987	4469.534891
788.629897	4552.696285
788.952760	4508.828165
789.275579	4439.267803
789.598351	4380.293865
789.921078	4244.817897
790.243759	4045.904048
790.566395	4023.690204
790.888984	4021.550234
791.211529	3916.117022
791.534027	3852.210314
791.856480	3848.721836
792.178888	3786.098102
792.501249	3731.663723
792.823566	3742.197214
793.145836	3776.991258
793.468062	3722.660222
793.790241	3677.947708
794.112375	3703.899568
794.434464	3766.666975
794.756507	3793.886685
795.078505	3773.540588
795.400457	3803.943787
795.722364	3939.686937
796.044226	4046.093091
796.366042	4117.276704
796.687812	4101.815485
797.009538	4109.805714
797.331218	4063.842994
797.652852	4036.741751
797.974442	4017.930685
798.295986	4018.573432
798.617484	3940.367492
798.938938	3851.620499
799.260346	3891.748084
799.581709	3890.376890
799.903026	3819.631858
800.224299	3776.376237
800.545526	3772.683592
800.866708	3735.495000
801.187845	3674.628108
801.508936	3708.245043
801.829983	3714.601938
802.150984	3634.014052
802.471940	3620.160962
802.792851	3633.300729
803.113717	3630.248311
803.434538	3635.901965
803.755314	3578.805856
804.076045	3549.005075
804.396731	3569.542736
804.717372	3597.001901
805.037967	3587.965633
805.358518	3572.196903
805.679024	3597.697580
805.999485	3612.231227
806.319901	3614.330867
806.640272	3628.131026
806.960598	3645.331443
807.280879	3619.230869
807.601115	3628.630100
807.921306	3642.339518
808.241453	3688.327444
808.561554	3663.560255
808.881611	3595.686160
809.201623	3631.483393
809.521590	3645.349087
809.841513	3618.542751
810.161390	3646.992503
810.481223	3627.072384
810.801011	3571.017273
811.120755	3563.551325
811.440453	3599.255297
811.760107	3605.707974
812.079716	3562.258269
812.399281	3528.825336
812.718801	3547.802760
813.038276	3521.959285
813.357707	3520.817463
813.677093	3539.147099
813.996434	3488.811178
814.315731	3495.959534
814.634983	3500.536902
814.954191	3515.723377
815.273354	3543.505176
815.592473	3537.357489
815.911547	3545.188922
816.230577	3584.058738
816.549562	3633.822489
816.868502	3673.040145
817.187399	3694.517981
817.506250	3694.699462
817.825058	3668.334228
818.143821	3750.870519
818.462539	3860.374463
818.781213	3902.445412
819.099843	3955.180923
819.418429	4188.220862
819.736970	4426.952264
820.055466	4666.848173
820.373919	5027.792268
820.692327	5431.238331
821.010691	5841.802503
821.329011	7161.962228
821.647286	9799.781266
821.965517	14250.215225
822.283704	18254.176873
822.601847	20498.763226
822.919945	18750.007122
823.237999	16244.238588
823.556010	13788.178352
823.873976	11740.577606
824.191897	9664.222119
824.509775	8319.002818
824.827609	7195.932043
825.145398	6645.261603
825.463144	6524.163005
825.780845	6638.312372
826.098502	6810.354350
826.416116	7637.519476
826.733685	8928.402700
827.051210	10049.618330
827.368692	10140.807762
827.686129	8935.160367
828.003522	7427.220182
828.320872	6419.443116
828.638177	5728.545420
828.955439	5181.832285
829.272656	4687.579918
829.589830	4398.870517
829.906960	4226.717634
830.224046	4046.050242
830.541088	3921.112805
830.858086	3872.304354
831.175041	3798.867345
831.491952	3780.625930
831.808819	3793.795944
832.125642	3860.495451
832.442421	4001.151205
832.759157	4263.528139
833.075849	4789.585146
833.392497	5635.649557
833.709101	6399.422174
834.025662	6752.827223
834.342179	6424.867398
834.658653	5769.461945
834.975083	5137.465090
835.291469	4567.789500
835.607811	4151.584277
835.924110	4015.210983
836.240366	3822.056653
836.556578	3617.103502
836.872746	3506.785412
837.188871	3472.898776
837.504952	3408.422418
837.820990	3325.361847
838.136984	3274.713374
838.452935	3300.398053
838.768842	3297.864873
839.084706	3316.680980
839.400526	3467.381233
839.716303	3791.529946
840.032037	4297.225732
840.347727	4580.251232
840.663373	4319.610976
840.978977	3945.816980
841.294537	3640.212151
841.610054	3410.927871
841.925527	3306.623878
842.240957	3233.504462
842.556344	3182.782892
842.871687	3124.262658
843.186987	3076.091912
843.502244	3042.933723
843.817458	3006.155985
844.132629	2970.043679
844.447756	2984.239569
844.762840	2970.315902
845.077881	2937.684513
845.392879	2919.460742
845.707833	2918.265988
846.022745	2915.465627
846.337613	2914.432191
846.652438	2905.675707
846.967221	2903.170253
847.281960	2889.115516
847.596656	2883.177037
847.911309	2883.504712
848.225919	2877.414998
848.540485	2870.367465
848.855009	2874.702857
849.169490	2862.757843
849.483928	2854.913808
849.798323	2853.068746
850.112675	2849.756708
850.426984	2860.771629
850.741251	2860.217102
851.055474	2850.447346
851.369654	2843.921572
851.683792	2847.563806
851.997887	2855.793489
852.311938	2857.724251
852.625947	2845.615400
852.939914	2848.814012
853.253837	2856.340454
853.567718	2840.546519
853.881555	2836.707681
854.195350	2853.222501
854.509103	2848.957685
854.822812	2843.367045
855.136479	2840.276818
855.450103	2839.394616
855.763685	2834.187104
856.077224	2826.275013
856.390720	2840.919565
856.704173	2853.189733
857.017584	2844.808815
857.330953	2843.059535
857.644278	2852.531863
857.957561	2859.150898
858.270802	2861.915971
858.584000	2863.622401
858.897155	2852.635206
859.210268	2849.855010
859.523339	2848.486337
859.836367	2849.227386
860.149352	2841.176664
860.462295	2837.305057
860.775195	2846.732015
861.088054	2844.791171
861.400869	2829.012359
861.713642	2826.191834
862.026373	2840.468382
862.339062	2844.466017
862.651708	2850.349043
862.964312	2853.366174
863.276873	2844.740759
863.589392	2855.932121
863.901869	2867.294882
864.214303	2887.923283
864.526696	2904.785943
864.839045	2900.357289
865.151353	2899.689336
865.463619	2895.442164
865.775842	2895.762278
866.088023	2914.404464
866.400162	2921.925866
866.712258	2896.329407
867.024313	2883.724002
867.336325	2890.602657
867.648296	2914.643919
867.960224	2906.714184
868.272110	2891.666340
868.583954	2897.239336
868.895755	2914.197777
869.207515	2897.919891
869.519233	2900.458112
869.830909	2914.530493
870.142542	2918.145001
870.454134	2921.119281
870.765684	2925.225301
871.077191	2924.963161
871.388657	2929.399377
871.700081	2944.727005
872.011463	2957.024900
872.322803	2956.563634
872.634101	2955.288222
872.945357	2969.274903
873.256571	2999.564676
873.567744	2992.093686
873.878874	2981.580360
874.189963	3006.758403
874.501010	3009.034484
874.812015	2997.659120
875.122979	2998.090139
875.433900	2995.204078
875.744780	2998.279182
876.055618	3007.106243
876.366415	3003.678258
876.677169	3017.034795
876.987882	3012.815349
877.298554	3005.714884
877.609183	3025.950076
877.919771	3049.023437
878.230317	3073.604103
878.540822	3124.580251
878.851285	3160.390087
879.161707	3200.762167
879.472087	3296.244142
879.782425	3512.388654
880.092722	3934.640742
880.402977	4451.157365
880.713191	5055.944592
881.023363	6167.534138
881.333494	7432.639422
881.643583	8005.006989
881.953631	7720.786735
882.263637	7120.153419
882.573602	6547.672426
882.883526	5976.426516
883.193408	5410.685547
883.503248	4953.808294
883.813048	4656.465917
884.122806	4361.616390
884.432522	4054.153896
884.742197	3823.591684
885.051831	3632.080770
885.361424	3493.877537
885.670975	3425.809358
885.980485	3342.819362
886.289954	3269.160543
886.599382	3224.180848
886.908768	3188.522246
887.218113	3144.323930
887.527417	3088.740167
887.836680	3040.834082
888.145901	3032.337218
888.455082	3026.171886
888.764221	2974.651294
889.073319	2947.653395
889.382376	2944.611058
889.691392	2947.098868
890.000366	2944.293466
890.309300	2932.149326
890.618193	2945.163065
890.927044	2964.243832
891.235855	2962.479428
891.544625	2949.997531
891.853353	2960.720065
892.162041	2979.561378
892.470687	3015.421626
892.779293	3067.738720
893.087858	3111.140534
893.396381	3178.540761
893.704864	3293.287505
894.013306	3521.273688
894.321707	3817.519614
894.630068	4025.484854
894.938387	4023.523846
895.246665	3978.753358
895.554903	3864.117520
895.863100	3669.357582
896.171256	3509.747090
896.479371	3370.210472
896.787446	3256.194695
897.095480	3150.181750
897.403473	3086.002821
897.711425	3047.979918
898.019336	3039.914072
898.327207	3013.410205
898.635038	2981.368632
898.942827	2965.632670
899.250576	2956.702266
899.558284	2923.057605
899.865952	2902.887948
900.173579	2887.605691
900.481165	2878.975235
900.788711	2865.835468
901.096216	2842.164730
901.403681	2830.048317
901.711105	2836.319512
902.018489	2832.823472
902.325832	2833.632577
902.633135	2843.069617
902.940397	2875.269987
903.247619	2951.101544
903.554800	3133.485449
903.861941	3464.432158
904.169041	3879.543451
904.476101	4177.019418
904.783121	4150.379441
905.090100	3911.925302
905.397039	3640.834734
905.703938	3399.572672
906.010796	3219.079200
906.317614	3111.163220
906.624391	3015.656039
906.931129	2946.042746
907.237826	2886.935217
907.544483	2839.298834
907.851099	2810.271870
908.157675	2790.235804
908.464211	2769.670417
908.770707	2754.935124
909.077163	2743.824421
909.383578	2729.255487
909.689954	2719.687377
909.996289	2718.109495
910.302584	2719.440360
910.608839	2719.447922
910.915054	2716.332489
911.221229	2705.239430
911.527363	2707.933926
911.833458	2714.603373
912.139513	2719.553786
912.445527	2723.879096
912.751502	2733.066599
913.057436	2740.414081
913.363331	2753.329517
913.669186	2773.297527
913.975000	2806.276756
914.280775	2864.008049
914.586510	2931.040272
914.892205	3007.663290
915.197859	3126.851290
915.503475	3314.946823
915.809050	3520.517515
916.114585	3666.713497
916.420081	3692.236859
916.725536	3633.487252
917.030952	3519.320241
917.336328	3399.877662
917.641665	3268.747168
917.946961	3168.672703
918.252218	3103.183073
918.557435	3028.347144
918.862612	2969.816828
919.167750	2920.547110
919.472848	2885.311966
919.777906	2857.008407
920.082925	2832.997392
920.387904	2801.175108
920.692843	2783.629372
920.997743	2772.876591
921.302603	2762.159098
921.607423	2752.079311
921.912204	2739.698237
922.216946	2728.194324
922.521647	2720.123436
922.826310	2710.789740
923.130932	2708.017105
923.435516	2695.734334
923.740059	2689.672347
924.044564	2682.551717
924.349028	2679.683300
924.653454	2670.631908
924.957840	2664.418686
925.262186	2660.950372
925.566493	2657.366112
925.870761	2654.021307
926.174989	2650.807571
926.479178	2643.089564
926.783328	2642.976138
927.087438	2639.543113
927.391509	2637.269552
927.695541	2634.728811
927.999533	2629.947276
928.303486	2627.829992
928.607400	2628.293778
928.911275	2628.102214
929.215110	2627.222533
929.518906	2624.966616
929.822663	2625.949641
930.126381	2621.914198
930.430060	2626.032820
930.733699	2624.311266
931.037299	2628.815537
931.340861	2627.998870
931.644383	2624.449898
931.947866	2628.593727
932.251309	2626.463839
932.554714	2626.892337
932.858080	2623.572737
933.161407	2619.963271
933.464694	2620.946296
933.767943	2614.193671
934.071153	2618.564351
934.374323	2618.350102
934.677455	2618.261882
934.980548	2616.804988
935.283602	2618.221553
935.586617	2614.901953
935.889593	2616.835235
936.192530	2616.177365
936.495428	2616.454628
936.798287	2619.721296
937.101108	2620.676594
937.403890	2626.693212
937.706632	2630.690847
938.009336	2638.832310
938.312002	2645.927734
938.614628	2651.465442
938.917216	2660.189158
939.219765	2661.020949
939.522275	2660.504230
939.824747	2657.446771
940.127179	2655.132881
940.429573	2650.777324
940.731929	2651.175575
941.034246	2646.318423
941.336524	2645.683238
941.638763	2639.749800
941.940964	2637.745941
942.243126	2636.778040
942.545250	2636.704943
942.847335	2632.548512
943.149381	2631.109262
943.451389	2624.593571
943.753359	2625.309415
944.055290	2622.146091
944.357182	2624.732203
944.659036	2621.770525
944.960851	2618.584516
945.262628	2619.539814
945.564367	2620.485031
945.866067	2618.375308
946.167729	2620.744650
946.469352	2621.551235
946.770937	2618.123250
947.072484	2620.842952
947.373992	2616.666357
947.675462	2615.983280
947.976893	2613.135028
948.278286	2610.831221
948.579641	2612.227621
948.880958	2608.376179
949.182236	2610.672425
949.483476	2609.311313
949.784678	2612.036057
950.085841	2609.248299
950.386967	2611.670573
950.688054	2612.325923
950.989103	2611.688217
951.290114	2613.631582
951.591087	2613.896242
951.892021	2618.435802
952.192917	2620.916049
952.493776	2622.289764
952.794596	2622.962758
953.095378	2621.780607
953.396122	2620.038888
953.696828	2620.298508
953.997496	2619.575102
954.298126	2615.958074
954.598718	2613.046808
954.899272	2613.054370
955.199788	2612.401540
955.500266	2606.871395
955.800706	2607.292331
956.101108	2605.089347
956.401472	2602.238574
956.701798	2602.321753
957.002087	2599.259252
957.302337	2595.153232
957.602550	2595.735486
957.902724	2593.638366
958.202861	2591.276585
958.502960	2591.488314
958.803022	2591.717686
959.103045	2589.308015
959.403031	2589.403797
959.702979	2588.201481
960.002889	2588.771132
960.302762	2586.547983
960.602596	2587.848601
960.902393	2586.981522
961.202153	2584.526480
961.501875	2586.356419
961.801559	2584.133270
962.101205	2585.950606
962.400814	2584.912128
962.700385	2582.444484
962.999918	2583.409865
963.299414	2578.862744
963.598873	2580.428022
963.898293	2577.796540
964.197677	2586.487489
964.497022	2584.463466
964.796331	2583.107395
965.095601	2582.373907
965.394835	2582.073959
965.694030	2582.802406
965.993189	2584.521439
966.292309	2582.731829
966.591393	2583.195616
966.890439	2583.724937
967.189447	2585.068404
967.488419	2581.670667
967.787353	2585.275092
968.086249	2585.098651
968.385108	2581.751325
968.683930	2581.935327
968.982714	2583.377097
969.281462	2582.809967
969.580172	2583.863568
969.878844	2584.518918
970.177480	2581.726119
970.476078	2582.762076
970.774639	2583.140163
971.073162	2581.456417
971.371649	2582.625965
971.670098	2583.359453
971.968510	2584.433219
972.266885	2582.883064
972.565223	2585.048240
972.863524	2585.207036
973.161788	2582.996490
973.460014	2585.950606
973.758204	2582.595718
974.056356	2582.081521
974.354471	2583.992118
974.652550	2581.942889
974.950591	2579.074472
975.248595	2580.533886
975.546563	2582.404154
975.844493	2582.542786
976.142386	2582.499936
976.440243	2581.920204
976.738062	2583.233424
977.035845	2580.987590
977.333590	2580.584298
977.631299	2583.261151
977.928971	2579.029102
978.226606	2576.178329
978.524204	2578.517425
978.821765	2576.120356
979.119290	2582.573033
979.416777	2581.390882
979.714228	2582.510019
980.011642	2582.073959
980.309020	2579.381983
980.606360	2582.570512
980.903664	2579.616396
981.200931	2582.086562
981.498162	2581.960533
981.795356	2583.092272
982.092513	2585.867427
982.389633	2588.456060
982.686717	2591.752974
982.983764	2593.043510
983.280775	2597.358737
983.577749	2598.286310
983.874686	2598.694643
984.171587	2596.237081
984.468451	2589.880186
984.765279	2591.480752
985.062070	2586.671491
985.358824	2585.602767
985.655543	2585.005390
985.952224	2584.634865
986.248869	2583.084710
986.545478	2579.513053
986.842050	2580.750656
987.138586	2577.002558
987.435086	2581.557241
987.731549	2580.438104
988.027975	2579.674370
988.324366	2578.855182
988.620719	2577.642785
988.917037	2577.388206
989.213318	2580.289390
989.509563	2577.806622
989.805772	2580.143197
990.101944	2576.538772
990.398080	2576.649677
990.694180	2578.547672
990.990244	2578.552713
991.286271	2579.513053
991.582262	2577.378124
991.878217	2577.655387
992.174136	2578.093968
992.470019	2577.184040
992.765865	2576.425346
993.061676	2575.170099
993.357450	2575.356621
993.653188	2572.180694
993.948890	2574.257650
994.244556	2576.921900
994.540186	2578.041036
994.835780	2578.242682
995.131337	2578.981211
995.426859	2580.700244
995.722345	2580.135635
996.017795	2579.505491
996.313208	2581.229566
996.608586	2584.644947
996.903928	2582.308372
997.199234	2585.000349
997.494504	2580.322158
997.789738	2585.627972
998.084936	2581.660584
998.380099	2581.574885
998.675225	2580.654874
998.970316	2581.264854
999.265371	2579.755028
999.560390	2579.553382
999.855373	2577.741087
1000.150320	2575.868298
1000.445232	2576.846282
1000.740108	2579.334092
1001.034948	2575.366704
1001.329752	2575.704461
1001.624521	2575.275963
1001.919254	2577.418453
1002.213951	2578.351067
1002.508613	2577.138669
1002.803239	2576.080027
1003.097829	2577.554564
1003.392384	2575.727146
1003.686903	2574.799574
1003.981386	2575.649008
1004.275834	2575.956519
1004.570246	2576.359811
1004.864623	2575.719584
1005.158964	2574.867629
1005.453270	2576.536251
1005.747540	2576.442990
1006.041775	2577.211766
1006.335974	2576.659760
1006.630138	2574.960891
1006.924266	2577.476427
1007.218359	2572.435273
1007.512416	2570.320509
1007.806438	2573.899728
1008.100425	2572.268915
1008.394376	2570.504511
1008.688292	2572.415108
1008.982172	2573.824111
1009.276017	2573.456106
1009.569827	2573.040211
1009.863602	2574.713874
1010.157341	2575.328895
1010.451045	2575.631364
1010.744714	2574.842424
1011.038347	2574.529872
1011.331945	2574.134142
1011.625508	2576.110274
1011.919036	2574.668504
1012.212528	2573.486353
1012.505986	2576.659760
1012.799408	2575.951478
1013.092795	2571.411918
1013.386147	2571.333781
1013.679464	2574.744121
1013.972745	2575.316292
1014.265992	2575.921231
1014.559204	2576.639595
1014.852380	2574.378638
1015.145521	2575.638926
1015.438628	2574.474419
1015.731699	2574.761765
1016.024736	2571.280848
1016.317737	2573.108267
1016.610703	2574.524831
1016.903635	2574.618092
1017.196531	2574.953329
1017.489393	2573.229254
1017.782219	2573.836713
1018.075011	2569.060220
1018.367768	2572.271435
1018.660490	2573.335119
1018.953177	2573.335119
1019.245829	2573.335119
