Dividing Wavelength (nm)	Counts (n)	Blue Motor Position (mm): 39.300000	Red Motor Position (mm): 0.000000	
326.493990	2245.569378
326.888308	2245.569378
327.282561	2245.569378
327.676750	2202.089426
328.070874	2204.267204
328.464933	2200.864426
328.858929	2206.366845
329.252859	2213.217773
329.646726	2219.461242
330.040528	2234.776268
330.434265	2244.661970
330.827938	2264.750968
331.221547	2281.885850
331.615091	2297.503345
332.008571	2315.674184
332.401986	2336.632781
332.795338	2355.504340
333.188625	2373.108050
333.581847	2393.416338
333.975006	2411.723288
334.368100	2433.362441
334.761129	2450.023454
335.154095	2467.221351
335.546996	2495.159425
335.939833	2534.263656
336.332606	2548.328475
336.725315	2561.183417
337.117960	2575.041549
337.510540	2588.060329
337.903056	2597.220106
338.295508	2605.802670
338.687896	2615.010337
339.080220	2620.555607
339.472480	2626.612553
339.864676	2633.902062
340.256807	2637.934985
340.648875	2644.153248
341.040879	2644.407826
341.432818	2648.055101
341.824694	2650.129536
342.216506	2649.156593
342.608253	2652.110709
342.999937	2651.009217
343.391557	2653.280257
343.783113	2651.798158
344.174605	2649.562406
344.566033	2650.248003
344.957397	2649.937972
345.348697	2648.198774
345.739934	2646.751963
346.131106	2641.723412
346.522215	2644.516211
346.913260	2642.562764
347.304241	2640.909265
347.695159	2638.242495
348.086012	2638.363483
348.476802	2634.968266
348.867528	2629.533902
349.258191	2626.826802
349.648789	2624.908643
350.039324	2624.291102
350.429796	2625.919394
350.820203	2625.740433
351.210548	2624.780094
351.600828	2622.919908
351.991045	2623.723972
352.381198	2624.878396
352.771288	2621.031996
353.161314	2621.210957
353.551276	2622.236832
353.941175	2619.839763
354.331010	2619.002931
354.720782	2618.846656
355.110490	2618.876902
355.500135	2619.993518
355.889717	2619.254989
356.279235	2618.639968
356.668689	2618.960082
357.058080	2618.534104
357.447408	2618.604680
357.836672	2622.294805
358.225873	2618.196347
358.615010	2618.486213
359.004084	2621.016872
359.393095	2621.420165
359.782043	2621.455453
360.170927	2623.633231
360.559748	2623.779425
360.948505	2625.405197
361.337199	2625.475773
361.725830	2622.577109
362.114398	2625.367388
362.502903	2628.324025
362.891344	2627.267903
363.279722	2625.909312
363.668037	2629.123048
364.056289	2628.419807
364.444478	2627.993829
364.832603	2628.049282
365.220665	2630.635394
365.608665	2630.191772
365.996601	2629.712863
366.384474	2631.903244
366.772284	2631.608337
367.160031	2631.716721
367.547715	2632.482977
367.935336	2630.305198
368.322893	2633.256794
368.710388	2629.843933
369.097820	2634.340642
369.485189	2630.274951
369.872495	2635.427011
370.259738	2634.958183
370.646918	2636.611682
371.034035	2638.882722
371.421090	2639.817856
371.808081	2638.335756
372.195010	2640.115284
372.581875	2639.550674
372.968678	2640.755510
373.355418	2641.816673
373.742096	2640.936992
374.128710	2640.642084
374.515262	2641.741056
374.901751	2640.810963
375.288177	2644.372538
375.674540	2641.199132
376.060841	2642.850110
376.447079	2643.558392
376.833254	2645.524442
377.219367	2645.721047
377.605417	2645.000162
377.991404	2645.847076
378.377329	2646.361273
378.763191	2645.448824
379.148991	2649.459062
379.534727	2650.802530
379.920402	2649.837149
380.306013	2648.380255
380.691563	2649.643064
381.077049	2650.558034
381.462474	2653.865031
381.847835	2651.609114
382.233134	2652.282108
382.618371	2652.662716
383.003545	2654.379228
383.388657	2654.056595
383.773706	2656.259579
384.158693	2655.788231
384.543618	2657.129178
384.928480	2653.055926
385.313280	2656.642707
385.698017	2655.389980
386.082692	2658.649086
386.467305	2659.279230
386.851856	2658.417193
387.236344	2660.242090
387.620770	2659.347286
388.005133	2658.321411
388.389435	2662.729900
388.773674	2661.870383
389.157851	2668.791887
389.541965	2670.374810
389.926018	2673.807835
390.310008	2679.090965
390.693936	2687.645803
391.077802	2694.403469
391.461606	2704.773123
391.845348	2715.014227
392.229027	2736.860067
392.612645	2752.437232
392.996200	2779.840945
393.379694	2810.360090
393.763125	2851.662264
394.146494	2889.070146
394.529801	2939.947991
394.913047	3001.145078
395.296230	3040.171171
395.679351	3111.657253
396.062410	3177.295596
396.445408	3230.336097
396.828343	3306.197900
397.211217	3378.644322
397.594028	3412.231010
397.976778	3511.498891
398.359466	3593.198350
398.742092	3671.321112
399.124656	3701.164742
399.507158	3820.284687
399.889598	3919.424019
400.271977	4052.059297
400.654294	4110.042648
401.036549	4209.867577
401.418742	4233.745002
401.800874	4422.105195
402.182944	4520.997510
402.564952	4669.456970
402.946898	4778.575266
403.328783	4735.037341
403.710606	4807.004853
404.092367	5103.389411
404.474067	5189.623389
404.855705	5171.369371
405.237282	5173.849618
405.618797	5427.457465
406.000250	5471.789372
406.381642	5680.331825
406.762972	5749.262042
407.144240	5852.215006
407.525447	5877.745930
407.906593	5950.202434
408.287677	6129.269260
408.668700	6082.409214
409.049661	6230.722481
409.430560	6281.537312
409.811399	6177.084604
410.192176	6468.949768
410.572891	6485.671275
410.953545	6708.989349
411.334138	6472.236600
411.714669	6656.952039
412.095139	6471.813143
412.475547	6725.229426
412.855894	6805.603063
413.236180	6981.322562
413.616405	6686.732655
413.996568	6905.249030
414.376670	6942.553569
414.756711	6845.833991
415.136691	6946.430216
415.516609	7150.155846
415.896466	7154.125754
416.276262	7346.796134
416.655997	7334.856161
417.035670	7532.459309
417.415283	7865.596400
417.794834	7913.290756
418.174324	7777.172041
418.553753	7693.236829
418.933121	8019.898557
419.312428	8116.839946
419.691674	7900.955053
420.070859	8370.697330
420.449983	8057.689567
420.829045	8411.349194
421.208047	8195.199641
421.586988	8487.952048
421.965867	8507.292434
422.344686	8626.117472
422.723444	8656.414806
423.102141	8032.627471
423.480777	8774.748331
423.859352	8300.408522
424.237866	8924.042102
424.616319	8790.585116
424.994712	9197.859935
425.373044	8765.346579
425.751314	9221.409685
426.129524	9095.186755
426.507673	9215.380465
426.885762	9365.755564
427.263789	9278.825907
427.641756	9208.438797
428.019662	9295.708731
428.397508	9543.741062
428.775292	9237.886697
429.153016	9619.280232
429.530679	9443.492677
429.908282	9488.958843
430.285824	9204.209268
430.663305	9883.529955
431.040726	9333.073764
431.418086	9326.895830
431.795385	9643.956680
432.172624	9739.035362
432.549802	9648.408019
432.926920	9730.109999
433.303977	9602.359599
433.680974	9815.222320
434.057910	9898.862624
434.434786	9962.247572
434.811601	9804.036000
435.188355	10378.084791
435.565050	10101.368295
435.941683	10029.627635
436.318257	10520.762048
436.694770	10665.526342
437.071222	10718.362676
437.447614	10568.002701
437.823946	10458.508839
438.200218	10597.541342
438.576429	10409.884390
438.952580	10653.762810
439.328670	10709.137364
439.704700	10495.762966
440.080670	10483.550771
440.456580	11038.990143
440.832429	10794.554675
441.208218	10391.738757
441.583947	10718.914682
441.959616	10867.293484
442.335224	10678.161995
442.710773	10808.465739
443.086261	11022.412308
443.461689	10307.274224
443.837057	10957.230189
444.212365	11229.276057
444.587612	10872.334638
444.962800	11096.035840
445.337927	10863.310972
445.712995	10463.817174
446.088002	11541.396576
446.462949	11207.140350
446.837837	11179.124137
447.212664	11147.760599
447.587431	11678.871362
447.962139	12407.839852
448.336786	14685.549107
448.711374	15219.792947
449.085901	13066.844689
449.460369	12680.203313
449.834776	12129.558078
450.209124	13018.210157
450.583412	13429.855657
450.957640	14373.327764
451.331808	13494.158095
451.705917	12499.137669
452.079965	11793.678600
452.453954	12699.977238
452.827883	12333.850838
453.201752	12621.514199
453.575562	12142.579378
453.949311	12567.533524
454.323001	12536.593442
454.696632	12766.674224
455.070202	13047.017831
455.443713	13277.005352
455.817164	13744.176640
456.190556	13724.097725
456.563888	14094.166308
456.937160	14250.938631
457.310373	13606.180095
457.683526	13690.821068
458.056619	13230.500707
458.429653	13394.232343
458.802628	12810.633086
459.175542	13189.611909
459.548398	14144.532476
459.921194	14483.149300
460.293930	14556.256113
460.666607	15425.368681
461.039224	16470.762836
461.411782	17179.372626
461.784280	17021.534099
462.156719	17087.580777
462.529099	16777.698529
462.901419	15708.406784
463.273680	15493.199926
463.645882	15371.977820
464.018024	15110.286483
464.390106	15332.984495
464.762130	16040.664193
465.134094	16826.449007
465.505999	18837.577005
465.877845	22091.130136
466.249631	24920.644090
466.621358	24580.966103
466.993026	23143.501248
467.364634	22578.334970
467.736184	21114.368769
468.107674	20308.603341
468.479105	20445.863878
468.850477	19914.659853
469.221790	19496.317181
469.593043	18810.322007
469.964238	18255.727028
470.335373	17902.863903
470.706449	18363.436321
471.077467	17927.943643
471.448425	19779.919893
471.819324	23846.709442
472.190164	25800.864839
472.560945	22197.795910
472.931667	19864.991885
473.302330	19237.453931
473.672934	18798.954205
474.043479	19086.294933
474.413965	18909.234486
474.784393	18509.052571
475.154761	19237.612727
475.525070	19190.843422
475.895321	18882.738182
476.265513	19489.413321
476.635645	20063.431865
477.005719	19835.196145
477.375734	20018.366470
477.745691	20509.057262
478.115588	21036.992099
478.485427	21585.504925
478.855207	22653.632164
479.224928	24431.289204
479.594591	26653.858317
479.964194	26646.979663
480.333739	26849.316455
480.703226	26436.569463
481.072653	26135.647866
481.442022	26716.824849
481.811333	27638.115879
482.180584	27544.007619
482.549777	26613.385413
482.918912	26258.331907
483.287988	26375.999999
483.657005	26027.789859
484.025964	25796.451309
484.394864	25690.566914
484.763706	25367.474323
485.132489	24813.252389
485.501213	24982.073070
485.869879	24891.692743
486.238487	24719.585230
486.607036	24862.970769
486.975527	24579.630197
487.343959	24899.793878
487.712333	24818.107021
488.080648	24486.348686
488.448905	24979.812112
488.817104	24738.489557
489.185244	25433.405053
489.553326	25381.040068
489.921350	26400.212661
490.289315	28707.251349
490.657222	30471.592180
491.025070	30969.441411
491.392861	30724.302702
491.760593	29879.927077
492.128267	28971.682553
492.495883	27917.121059
492.863440	27051.507053
493.230939	26173.632961
493.598380	26021.558993
493.965763	25628.815300
494.333088	25159.347766
494.700354	25112.129798
495.067563	24963.748476
495.434713	24724.770057
495.801805	24885.154367
496.168839	24673.912377
496.535815	24535.391551
496.902733	24733.980245
497.269593	24426.648822
497.636395	24603.857982
498.003139	24557.933071
498.369825	24302.565861
498.736453	24502.427446
499.103023	24370.780234
499.469535	24383.733479
499.835989	24611.457522
500.202385	24624.902279
500.568723	24143.598115
500.935003	24365.529872
501.301226	24009.994936
501.667390	24842.410423
502.033497	25074.490023
502.399546	24794.819410
502.765537	24352.513613
503.131470	24744.203705
503.497345	24879.409972
503.863163	24115.067705
504.228923	24687.654562
504.594625	24900.817232
504.960269	24444.217243
505.325856	24928.767909
505.691385	24332.835469
506.056856	24937.998262
506.422270	24914.627473
506.787625	24462.493946
507.152924	24876.561720
507.518164	24926.207003
507.883347	24727.459513
508.248472	24412.939404
508.613540	25197.501738
508.978550	24985.299408
509.343503	24983.240097
509.708398	25220.955707
510.073236	25388.342179
510.438016	25593.668375
510.802738	25259.117241
511.167403	25522.595668
511.532010	25240.522945
511.896561	26003.151220
512.261053	25960.145136
512.625488	25794.391998
512.989866	25693.815937
513.354186	25527.379723
513.718449	25655.919063
514.082655	26031.701795
514.446803	25761.884117
514.810894	26226.703708
515.174927	25719.180503
515.538904	25746.251499
515.902822	26245.131646
516.266684	25997.227864
516.630488	25895.948563
516.994235	25865.918409
517.357925	26186.893716
517.721558	26362.005756
518.085133	26467.270090
518.448651	26350.509405
518.812112	26107.671983
519.175516	26318.601422
519.538863	26471.398795
519.902152	26273.823373
520.265385	26545.125670
520.628560	26330.836302
520.991678	26317.928428
521.354739	26389.298563
521.717743	26470.919885
522.080690	26247.979898
522.443580	26575.733035
522.806413	26550.199591
523.169189	26671.746852
523.531908	26711.884518
523.894569	26322.382287
524.257174	26412.361842
524.619722	26574.956698
524.982213	26269.198114
525.344647	26310.545658
525.707025	26462.702804
526.069345	26435.813290
526.431608	26402.604689
526.793815	26582.803254
527.155964	26057.704066
527.518057	26235.911375
527.880093	26150.103375
528.242072	26377.605607
528.603995	26099.868277
528.965860	25886.103189
529.327669	25920.529229
529.689421	25910.260398
530.051117	25752.666367
530.412755	25931.113131
530.774337	25720.891975
531.135862	25601.956032
531.497331	25802.364583
531.858743	25370.093202
532.220098	25856.357861
532.581396	25534.356680
532.942638	25446.232269
533.303824	25564.286010
533.664953	25557.286368
534.026025	25218.684667
534.387040	25464.745907
534.747999	25514.328175
535.108902	25688.169845
535.469748	25177.662277
535.830537	25344.857186
536.191270	25480.360881
536.551947	25329.915206
536.912567	24959.014832
537.273131	25363.577511
537.633638	25049.468256
537.994089	25266.931030
538.354483	24775.655464
538.714821	25284.171776
539.075103	25324.221223
539.435328	25095.950215
539.795497	24682.739437
540.155609	25053.637290
540.515665	25355.632652
540.875665	24577.694394
541.235609	24899.042746
541.595496	24837.328940
541.955328	25202.563057
542.315102	25129.554546
542.674821	24642.952130
543.034483	24526.501476
543.394090	24705.288518
543.753640	24500.892415
544.113134	25122.325532
544.472571	24725.826179
544.831953	25023.196282
545.191278	24668.629247
545.550548	24574.079886
545.909761	24761.454534
546.268918	24989.783515
546.628019	24970.496060
546.987064	24656.442258
547.346053	24406.151490
547.704986	24517.432441
548.063863	24672.722664
548.422684	24687.394943
548.781449	24208.949113
549.140158	24618.028666
549.498811	24193.744993
549.857408	23953.539054
550.215949	24351.696946
550.574434	24045.663620
550.932864	24255.942749
551.291237	24413.625001
551.649555	24264.429532
552.007817	24335.172044
552.366022	24186.357182
552.724173	24220.016967
553.082267	24171.538711
553.440305	24664.487939
553.798288	23901.340426
554.156215	24415.212964
554.514086	24523.716239
554.871902	23909.214708
555.229661	24179.186141
555.587365	24030.938409
555.945014	23917.514968
556.302606	24150.517099
556.660143	24119.818993
557.017625	24369.182188
557.375050	23887.033632
557.732421	24278.776656
558.089735	24085.692902
558.446994	24146.539629
558.804197	24187.249467
559.161345	24092.316978
559.518437	23871.975705
559.875474	24051.281986
560.232455	24238.465069
560.589381	24055.992944
560.946251	24035.669532
561.303065	24342.489279
561.659825	24444.670947
562.016528	24057.747265
562.373177	23792.620382
562.729770	24159.881042
563.086307	24009.977292
563.442789	24170.245655
563.799216	24023.938767
564.155587	24010.960317
564.511904	23997.717205
564.868164	23942.612353
565.224370	23902.164655
565.580520	23840.811292
565.936615	23955.124497
566.292654	23650.500173
566.648638	23924.438993
567.004567	23744.868052
567.360441	23690.400905
567.716260	23419.156581
568.072023	23743.194389
568.427732	23522.447303
568.783385	23285.215644
569.138982	23518.293392
569.494525	23566.012955
569.850013	23318.746879
570.205445	23417.540892
570.560823	23245.340117
570.916145	23001.378518
571.271412	23178.380991
571.626625	22927.124843
571.981782	23023.751159
572.336884	22837.873734
572.691931	22988.465603
573.046923	22714.952759
573.401860	22592.551023
573.756743	22615.422738
574.111570	22515.340711
574.466342	22446.206327
574.821059	22520.729705
575.175722	22224.632492
575.530330	22185.097243
575.884882	22217.766441
576.239380	22141.647538
576.593823	22025.040609
576.948211	21997.523470
577.302544	21845.421777
577.656823	21712.332794
578.011047	21822.973518
578.365216	21683.767096
578.719330	21560.906615
579.073389	21453.726643
579.427394	21603.156526
579.781344	21364.117613
580.135239	21248.476064
580.489080	21202.513344
580.842866	20985.978143
581.196597	21186.598422
581.550273	21153.601549
581.903895	21036.324146
582.257463	21348.071620
582.610975	20885.253368
582.964434	21208.098943
583.317837	20887.025334
583.671186	20983.006382
584.024481	20958.609718
584.377721	20724.349820
584.730906	20804.852005
585.084037	20795.634256
585.437113	20721.259592
585.790135	20921.257289
586.143103	20385.796010
586.496016	20394.068543
586.848874	20639.968466
587.201679	20551.385311
587.554428	20250.660319
587.907124	20581.125598
588.259765	20342.989052
588.612352	20419.019734
588.964884	19980.323403
589.317362	20155.327059
589.669786	20215.510874
590.022155	20230.326825
590.374470	20441.775502
590.726731	20223.594364
591.078937	20002.474233
591.431090	20093.903120
591.783188	19848.451859
592.135232	19824.108127
592.487222	19914.866541
592.839157	19923.451626
593.191038	19813.010027
593.542866	19712.212156
593.894639	19412.533204
594.246358	19630.424476
594.598022	19517.938690
594.949633	19273.241082
595.301190	19262.236243
595.652692	19422.585265
596.004141	19651.047837
596.355535	18983.311722
596.706876	19005.046656
597.058162	18894.642867
597.409395	19127.677765
597.760573	19187.027269
598.111698	18962.204410
598.462768	18905.226769
598.813785	18871.047746
599.164748	18680.774435
599.515657	18722.482422
599.866511	18520.821144
600.217312	18871.433394
600.568060	18399.946878
600.918753	18706.418785
601.269392	18601.358618
601.619978	18395.939161
601.970510	18585.534436
602.320988	18532.236837
602.671412	18740.186954
603.021783	18668.095933
603.372100	18371.683649
603.722363	18523.913892
604.072572	18471.606880
604.422728	18630.536817
604.772830	18367.807002
605.122878	18331.069593
605.472872	18316.558632
605.822813	18305.977250
606.172701	18285.197613
606.522534	18465.005489
606.872314	18491.826948
607.222041	18319.540474
607.571714	18541.320996
607.921333	18365.576291
608.270899	18438.768804
608.620411	18604.043033
608.969870	18391.732318
609.319276	18384.785608
609.668627	18417.641328
610.017926	18557.235919
610.367171	18661.396240
610.716362	18720.821361
611.065500	18528.420684
611.414585	18677.341409
611.763616	18656.725611
612.112594	18600.335264
612.461518	18578.917922
612.810389	18753.445188
613.159207	18615.826730
613.507971	18521.834416
613.856682	18785.791752
614.205340	18708.654537
614.553945	18860.002578
614.902496	18607.702910
615.250994	18821.306681
615.599439	18777.148694
615.947830	18767.116798
616.296169	18828.301282
616.644454	18785.968192
616.992686	18752.913347
617.340864	18977.564806
617.688990	18728.786384
618.037063	18902.680986
618.385082	18754.140868
618.733048	19040.135608
619.080961	18919.112627
619.428821	18940.666081
619.776628	18822.592175
620.124382	18750.980064
620.472083	18808.297983
620.819731	18810.107758
621.167326	18508.024175
621.514868	18541.900729
621.862357	18326.202359
622.209793	18326.315785
622.557176	18160.978542
622.904506	17986.047982
623.251783	17906.221311
623.599007	17662.738622
623.946179	17613.491590
624.293297	17543.369140
624.640363	17273.596833
624.987376	17307.294426
625.334336	17106.046523
625.681243	16948.515507
626.028097	16970.263044
626.374899	16884.974283
626.721647	16751.786998
627.068343	16583.392295
627.414987	16524.163779
627.761577	16484.235320
628.108115	16518.119435
628.454600	16241.551653
628.801032	16345.273393
629.147412	16282.233764
629.493739	16297.798327
629.840014	16114.411232
630.186236	16211.163577
630.532405	15963.884899
630.878521	16168.659089
631.224585	16066.169911
631.570597	15888.224742
631.916556	15910.254584
632.262462	15892.343364
632.608316	15807.725076
632.954117	15761.059115
633.299866	15740.062709
633.645562	15661.564382
633.991206	15432.159115
634.336797	15299.274299
634.682336	15261.274082
635.027823	15138.711029
635.373257	15009.907028
635.718639	14930.445840
636.063968	14876.616399
636.409245	14622.922852
636.754470	14656.081042
637.099642	14504.879194
637.444762	14273.288586
637.789829	14311.382065
638.134845	14147.073217
638.479808	14173.143545
638.824719	14098.806690
639.169577	13963.267707
639.514383	14005.762113
639.859137	13831.859950
640.203839	13934.886011
640.548489	13773.054890
640.893086	13764.918468
641.237632	13629.679434
641.582125	13788.972333
641.926566	13598.704064
642.270955	13620.544863
642.615292	13585.150922
642.959576	13587.714348
643.303809	13614.137556
643.647990	13556.141602
643.992118	13602.374024
644.336195	13381.505950
644.680219	13601.252367
645.024192	13502.720495
645.368112	13752.373557
645.711981	13807.962360
646.055797	13986.819978
646.399562	13963.038335
646.743274	14228.646648
647.086935	14506.409184
647.430544	14464.237412
647.774101	14511.379762
648.117606	14644.045287
648.461059	14621.402945
648.804460	14599.247073
649.147810	14328.015353
649.491108	14246.509977
649.834354	14258.061781
650.177548	13931.987348
650.520690	13744.388369
650.863781	13665.585052
651.206820	13715.071539
651.549807	13547.254048
651.892742	13332.286645
652.235626	13285.943317
652.578458	13288.421045
652.921238	12972.960760
653.263967	13176.353674
653.606644	13007.974094
653.949269	12990.272083
654.291843	12780.756688
654.634365	12941.183847
654.976836	12798.937609
655.319255	12798.259574
655.661622	12754.756937
656.003938	12677.904546
656.346203	12600.747166
656.688416	12680.745237
657.030577	12633.365952
657.372687	12540.293649
657.714746	12531.910210
658.056753	12711.221532
658.398708	12531.728729
658.740612	12534.728215
659.082465	12644.428764
659.424266	12606.733536
659.766016	12637.870223
660.107715	12544.734906
660.449362	12628.874284
660.790958	12574.422261
661.132503	12518.830937
661.473996	12587.413314
661.815438	12598.092999
662.156829	12622.973613
662.498168	12596.762134
662.839456	12603.771858
663.180693	12618.466822
663.521879	12707.740615
663.863013	12681.304805
664.204097	12658.531392
664.545129	12781.568313
664.886110	12758.222730
665.227040	12849.457532
665.567918	12855.385929
665.908746	12873.932334
666.249522	12864.757434
666.590248	12923.635591
666.930922	13031.244061
667.271545	13006.847397
667.612118	13090.903596
667.952639	12986.234118
668.293109	13014.746885
668.633528	12963.007002
668.973896	12941.188888
669.314213	13007.278415
669.654480	12751.883479
669.994695	12839.836490
670.334859	12853.180424
670.674973	12799.222434
671.015035	12842.740195
671.355047	12778.326852
671.695008	12753.174014
672.034918	12762.618616
672.374777	12806.330461
672.714585	12717.936349
673.054342	12750.212337
673.394049	12694.552957
673.733705	12794.786219
674.073310	12694.394161
674.412864	12712.622973
674.752368	12571.221128
675.091820	12605.407713
675.431223	12588.045979
675.770574	12443.916870
676.109875	12371.856096
676.449125	12322.291472
676.788324	12279.103907
677.127473	12112.536622
677.466571	12099.656474
677.805619	11993.227634
678.144616	11921.348342
678.483562	11896.014023
678.822458	11761.553847
679.161303	11739.367729
679.500098	11734.054353
679.838842	11682.511075
680.177535	11714.497197
680.516179	11779.447423
680.854771	11723.167981
681.193314	11936.123964
681.531805	12103.762494
681.870247	12532.331147
682.208638	12944.851287
682.546978	13251.726486
682.885268	13280.103141
683.223508	12980.502327
683.561697	12828.168740
683.899836	12733.299265
684.237925	12523.267152
684.575963	12438.202722
684.913951	12362.635826
685.251889	12321.031183
685.589776	12416.389649
685.927614	12337.498112
686.265401	12302.716671
686.603137	12351.240298
686.940824	12512.267354
687.278460	12637.681180
687.616046	12668.885922
687.953582	12826.648832
688.291068	12771.107919
688.628504	13007.429650
688.965889	13015.414837
689.303224	12973.603508
689.640510	12850.785876
689.977745	12539.449256
690.314930	12321.505052
690.652065	12228.735218
690.989150	11938.495827
691.326185	11713.660365
691.663170	11503.824857
692.000105	11265.348033
692.336990	11150.288737
692.673825	10885.958356
693.010610	10778.914495
693.347345	10564.531866
693.684030	10370.853256
694.020665	10313.926026
694.357251	10118.006623
694.693786	10041.383605
695.030272	9895.172500
695.366707	9777.171691
695.703093	9711.871105
696.039429	9700.107572
696.375716	9615.466599
696.711952	9487.943051
697.048139	9542.153099
697.384276	9491.938165
697.720363	9510.802163
698.056400	9441.135937
698.392388	9388.057629
698.728326	9349.729736
699.064214	9293.707393
699.400053	9329.650820
699.735842	9146.394796
700.071581	9109.826266
700.407270	9035.323053
700.742910	8961.024007
701.078501	8859.898461
701.414042	8731.790139
701.749533	8668.425355
702.084974	8528.876135
702.420366	8650.030185
702.755709	8533.536681
703.091002	8390.740958
703.426246	8427.092718
703.761440	8376.068679
704.096584	8330.143768
704.431679	8266.373172
704.766725	8251.461438
705.101721	8205.145838
705.436668	8256.636183
705.771565	8146.587794
706.106413	8231.153150
706.441212	8265.949715
706.775961	8224.677788
707.110661	8268.641691
707.445311	8407.419615
707.779913	8305.794995
708.114465	8426.820496
708.448967	8462.693346
708.783421	8618.981718
709.117825	8796.379922
709.452180	8832.242691
709.786485	8920.248634
710.120742	9206.903765
710.454949	9207.725473
710.789107	9310.701123
711.123216	9531.796048
711.457275	9705.655362
711.791286	9852.146252
712.125247	9851.861427
712.459159	9841.711063
712.793023	10073.664634
713.126837	9653.605449
713.460602	9808.507503
713.794318	9639.127255
714.127985	9663.279423
714.461602	9330.154936
714.795171	9282.508470
715.128691	9034.130820
715.462162	8787.580588
715.795584	8732.379954
716.128957	8568.716373
716.462281	8402.320488
716.795556	8447.317827
717.128782	8242.546158
717.461960	7983.481262
717.795088	8052.847539
718.128167	7963.601472
718.461198	7795.020246
718.794180	7737.692244
719.127113	7735.625371
719.459997	7568.851399
719.792833	7347.617842
720.125619	7410.349960
720.458357	7265.066427
720.791046	7261.895541
721.123686	7247.394662
721.456278	7089.480518
721.788821	7106.048270
722.121315	7002.855851
722.453761	7074.767911
722.786158	7008.459093
723.118506	7024.865529
723.450805	6984.911864
723.783056	7044.533590
724.115259	6966.224307
724.447412	6970.577343
724.779518	7019.131216
725.111574	7010.853642
725.443582	7094.826662
725.775542	7067.070069
726.107453	7261.346056
726.439315	7176.485792
726.771129	7248.707883
727.102895	7421.364882
727.434612	7528.252467
727.766281	7565.708240
728.097901	7643.616752
728.429473	7639.525855
728.760996	7622.857280
729.092471	7595.506500
729.423897	7534.218672
729.755276	7539.159003
730.086606	7461.978938
730.417887	7568.778302
730.749120	7775.770600
731.080305	7970.144889
731.411442	8073.511228
731.742530	8060.515134
732.073570	8176.565016
732.404562	8266.141278
732.735506	8117.220553
733.066401	8248.983711
733.397249	8179.123401
733.728048	7937.369828
734.058798	7604.278108
734.389501	7372.543827
734.720156	7195.364913
735.050762	6973.022302
735.381320	6881.711883
735.711831	6817.147305
736.042293	6711.467076
736.372707	6729.418625
736.703073	6597.410971
737.033391	6638.730788
737.363661	6645.483414
737.693883	6683.705442
738.024056	6770.698113
738.354182	6803.165665
738.684260	6834.365366
739.014290	6957.372040
739.344272	7068.080820
739.674207	7097.145592
740.004093	7172.243661
740.333931	7185.103645
740.663722	7193.441713
740.993464	7266.482991
741.323159	7245.985660
741.652806	7002.107240
741.982405	7030.002464
742.311956	7078.246307
742.641460	6897.296610
742.970915	6705.601694
743.300323	6698.690272
743.629683	6654.212172
743.958996	6516.092118
744.288260	6429.863181
744.617477	6376.928545
744.946647	6370.964860
745.275768	6207.762546
745.604842	6163.924672
745.933869	6149.330532
746.262847	6109.026507
746.591778	6092.443631
746.920662	6053.150357
747.249498	6047.819337
747.578286	6094.757521
747.907027	6172.015724
748.235720	6228.602676
748.564365	6200.069745
748.892963	6238.440488
749.221514	6385.382560
749.550017	6200.987235
749.878473	6089.154278
750.206881	6150.376571
750.535242	6100.065856
750.863555	6022.812693
751.191821	6032.383324
751.520039	6030.467686
751.848210	5943.157422
752.176334	5971.516433
752.504411	6010.595457
752.832440	5937.839004
753.160421	5872.823243
753.488356	5917.538278
753.816243	5945.539367
754.144082	5798.461183
754.471875	5775.854128
754.799620	5815.928781
755.127318	5825.663249
755.454969	5781.182628
755.782572	5745.108131
756.110129	5791.421211
756.437638	5772.050578
756.765100	5709.046237
757.092515	5717.346497
757.419882	5771.080156
757.747203	5748.888996
758.074477	5802.357995
758.401703	5792.225275
758.728882	5747.732052
759.056014	5811.593388
759.383099	5929.374907
759.710138	5944.705056
760.037129	5926.546820
760.364073	5933.990083
760.690970	6016.947311
761.017820	5996.263457
761.344623	5958.537982
761.671379	6060.528086
761.998088	6182.942425
762.324751	6439.665705
762.651366	7072.905204
762.977935	8424.037779
763.304456	10079.376261
763.630931	10949.544950
763.957359	10508.660758
764.283740	9551.398575
764.610074	8690.160290
764.936362	7692.949483
765.262602	7096.671724
765.588796	6559.148613
765.914943	6229.436987
766.241044	6057.944495
766.567097	5855.864802
766.893104	5589.933854
767.219064	5416.951701
767.544978	5346.791442
767.870845	5272.071460
768.196665	5167.674205
768.522438	5095.464717
768.848165	5057.209921
769.173846	4993.353625
769.499479	4946.738076
769.825066	4896.954161
770.150607	4833.559131
770.476101	4815.408456
770.801548	4805.462260
771.126949	4722.799940
771.452303	4668.262217
771.777611	4635.038492
772.102872	4652.022140
772.428087	4613.540492
772.753256	4567.981064
773.078378	4523.709651
773.403453	4455.943940
773.728482	4440.397022
774.053465	4390.560175
774.378401	4386.010533
774.703291	4380.724884
775.028135	4304.830313
775.352932	4259.974126
775.677683	4245.508535
776.002388	4260.563941
776.327046	4273.575159
776.651658	4199.702090
776.976224	4137.529540
777.300743	4141.499448
777.625216	4164.348478
777.949643	4157.641223
778.274024	4117.075058
778.598359	4075.440168
778.922647	4101.243314
779.246889	4089.646140
779.571086	4085.325871
779.895236	4068.685022
780.219339	4053.637178
780.543397	4050.057959
780.867409	4101.641566
781.191374	4113.679841
781.515294	4050.478895
781.839167	4042.229047
782.162995	4067.061771
782.486776	4054.758835
782.810511	4063.722006
783.134201	4053.823701
783.457844	4006.663707
783.781441	3953.623206
784.104993	3959.770893
784.428498	3981.077330
784.751958	3974.309581
785.075372	3950.467444
785.398739	3916.880757
785.722061	3925.387704
786.045337	3973.681957
786.368568	4000.664733
786.691752	3912.575611
787.014891	3972.698932
787.337983	4099.340279
787.661030	4266.812451
787.984031	4424.552675
788.306987	4590.678859
788.629897	4679.751006
788.952760	4627.650681
789.275579	4565.478131
789.598351	4499.033203
789.921078	4345.235161
790.243759	4148.829286
790.566395	4135.558449
790.888984	4130.010659
791.211529	4019.579143
791.534027	3961.411789
791.856480	3947.291517
792.178888	3888.047877
792.501249	3837.348993
792.823566	3850.632433
793.145836	3875.407184
793.468062	3820.740912
793.790241	3781.936630
794.112375	3810.749345
794.434464	3879.162843
794.756507	3900.134043
795.078505	3877.176629
795.400457	3915.159202
795.722364	4058.665729
796.044226	4161.376718
796.366042	4234.297008
796.687812	4211.931929
797.009538	4217.681365
797.331218	4176.175025
797.652852	4153.262981
797.974442	4129.892192
798.295986	4126.275164
798.617484	4041.830796
798.938938	3958.276191
799.260346	4001.418386
799.581709	3997.317407
799.903026	3918.977877
800.224299	3883.157958
800.545526	3876.246536
800.866708	3834.014270
801.187845	3782.861682
801.508936	3813.199345
801.829983	3803.502686
802.150984	3728.674319
802.471940	3721.029409
802.792851	3730.511819
803.113717	3730.983167
803.434538	3732.220771
803.755314	3674.683561
804.076045	3649.623985
804.396731	3668.616532
804.717372	3695.054864
805.037967	3679.102132
805.358518	3668.475380
805.679024	3698.329093
805.999485	3709.492728
806.319901	3718.332392
806.640272	3727.661047
806.960598	3741.456164
807.280879	3717.578739
807.601115	3730.012745
807.921306	3748.788523
808.241453	3786.181281
808.561554	3758.086931
808.881611	3692.521684
809.201623	3735.575658
809.521590	3745.100919
809.841513	3716.000858
810.161390	3746.943460
810.481223	3721.349522
810.801011	3668.359434
811.120755	3665.352385
811.440453	3697.046120
811.760107	3698.971840
812.079716	3656.502640
812.399281	3625.900315
812.718801	3647.514262
813.038276	3621.567444
813.357707	3617.824387
813.677093	3638.601502
813.996434	3582.962287
814.315731	3594.940069
814.634983	3599.003239
814.954191	3616.228862
815.273354	3640.446565
815.592473	3637.323570
815.911547	3645.936381
816.230577	3690.565716
816.549562	3736.543560
816.868502	3784.038791
817.187399	3804.705001
817.506250	3803.749703
817.825058	3779.995786
818.143821	3874.620764
818.462539	3975.242195
818.781213	4017.938247
819.099843	4079.430242
819.418429	4345.247763
819.736970	4578.207044
820.055466	4836.830840
820.373919	5207.794228
820.692327	5618.199603
821.010691	6098.596359
821.329011	7550.002525
821.647286	10410.557384
821.965517	15099.163177
822.283704	19115.561352
822.601847	21160.956592
822.919945	19260.479401
823.237999	16625.453162
823.556010	14117.206902
823.873976	11973.199130
824.191897	9868.202327
824.509775	8524.548304
824.827609	7394.591313
825.145398	6860.360076
825.463144	6742.162662
825.780845	6857.214396
826.098502	7061.938174
826.416116	7995.562387
826.733685	9356.925983
827.051210	10453.026584
827.368692	10426.638665
827.686129	9120.780693
828.003522	7608.573171
828.320872	6582.872283
828.638177	5870.847111
828.955439	5297.546931
829.272656	4794.225528
829.589830	4521.090771
829.906960	4348.146427
830.224046	4154.908918
830.541088	4033.006256
830.858086	3984.704440
831.175041	3904.295516
831.491952	3891.869072
831.808819	3902.715114
832.125642	3981.566322
832.442421	4138.409221
832.759157	4424.842542
833.075849	4997.263040
833.392497	5888.216406
833.709101	6670.837897
834.025662	6990.815055
834.342179	6584.165339
834.658653	5912.817237
834.975083	5255.833903
835.291469	4671.755736
835.607811	4267.455198
835.924110	4123.250472
836.240366	3921.513577
836.556578	3714.188563
836.872746	3605.110597
837.188871	3564.088207
837.504952	3497.360975
837.820990	3411.968870
838.136984	3369.151829
838.452935	3397.732651
838.768842	3387.589850
839.084706	3413.098088
839.400526	3580.421546
839.716303	3939.117286
840.032037	4482.316737
840.347727	4723.488057
840.663373	4426.022172
840.978977	4036.358623
841.294537	3723.938155
841.610054	3497.529853
841.925527	3393.646796
842.240957	3321.981753
842.556344	3266.697939
842.871687	3206.670400
843.186987	3154.081083
843.502244	3118.735033
843.817458	3084.495516
844.132629	3055.657595
844.447756	3063.350396
844.762840	3046.036553
845.077881	3016.051770
845.392879	3000.126765
845.707833	2994.742813
846.022745	2991.730723
846.337613	2992.950683
846.652438	2980.390648
846.967221	2978.439721
847.281960	2963.477577
847.596656	2959.797534
847.911309	2960.576393
848.225919	2954.171607
848.540485	2951.935855
848.855009	2952.568520
849.169490	2939.819442
849.483928	2930.112700
849.798323	2928.073553
850.112675	2923.360074
850.426984	2938.765840
850.741251	2935.002619
851.055474	2923.597008
851.369654	2917.288004
851.683792	2927.145981
851.997887	2933.333997
852.311938	2932.502207
852.625947	2920.310176
852.939914	2924.632966
853.253837	2929.502720
853.567718	2916.534352
853.881555	2914.343971
854.195350	2930.279058
854.509103	2924.443922
854.822812	2919.052408
855.136479	2913.267684
855.450103	2915.589136
855.763685	2911.294073
856.077224	2907.989596
856.390720	2918.439908
856.704173	2928.789397
857.017584	2919.942172
857.330953	2917.645926
857.644278	2926.553645
857.957561	2938.181067
858.270802	2940.779781
858.584000	2938.324739
858.897155	2927.400559
859.210268	2925.679005
859.523339	2922.810588
859.836367	2923.067687
860.149352	2916.836821
860.462295	2914.462438
860.775195	2921.489806
861.088054	2918.621390
861.400869	2902.318298
861.713642	2902.328380
862.026373	2916.935124
862.339062	2918.079466
862.651708	2926.253697
862.964312	2926.263779
863.276873	2920.302614
863.589392	2929.880807
863.901869	2942.561829
864.214303	2968.249029
864.526696	2980.599856
864.839045	2975.354535
865.151353	2976.589618
865.463619	2974.467292
865.775842	2978.326295
866.088023	2995.501506
866.400162	3001.676920
866.712258	2972.377734
867.024313	2961.758543
867.336325	2973.181798
867.648296	2991.476145
867.960224	2985.951040
868.272110	2969.864718
868.583954	2979.251347
868.895755	2989.164776
869.207515	2976.884525
869.519233	2984.322748
869.830909	2994.221053
870.142542	3004.441993
870.454134	3000.890500
870.765684	3005.057013
871.077191	3003.988289
871.388657	3015.139321
871.700081	3028.226157
872.011463	3039.364586
872.322803	3040.004813
872.634101	3040.897097
872.945357	3055.531566
873.256571	3078.952767
873.567744	3071.847261
873.878874	3068.971283
874.189963	3093.335179
874.501010	3090.184458
874.812015	3081.364959
875.122979	3080.966708
875.433900	3081.959815
875.744780	3084.518201
876.055618	3091.832915
876.366415	3090.917946
876.677169	3101.191817
876.987882	3097.620160
877.298554	3092.014397
877.609183	3115.450721
877.919771	3139.277735
878.230317	3169.461643
878.540822	3221.156155
878.851285	3259.945314
879.161707	3302.381747
879.472087	3414.582708
879.782425	3657.372239
880.092722	4113.783185
880.402977	4650.693796
880.713191	5305.648065
881.023363	6503.577453
881.333494	7802.745814
881.643583	8331.567894
881.953631	8015.295984
882.263637	7353.316866
882.573602	6743.221304
882.883526	6153.537374
883.193408	5586.510910
883.503248	5126.876147
883.813048	4815.335360
884.122806	4493.974405
884.432522	4173.367103
884.742197	3932.485648
885.051831	3741.241915
885.361424	3607.462295
885.670975	3531.703835
885.980485	3439.533899
886.289954	3364.670244
886.599382	3317.389262
886.908768	3280.997172
887.218113	3235.720049
887.527417	3180.020340
887.836680	3129.805407
888.145901	3122.793162
888.455082	3110.651543
888.764221	3056.413768
889.073319	3029.017618
889.382376	3030.398894
889.691392	3030.892927
890.000366	3030.724048
890.309300	3018.300125
890.618193	3031.565921
890.927044	3046.956564
891.235855	3043.959598
891.544625	3032.901827
891.853353	3047.037222
892.162041	3061.507854
892.470687	3106.167436
892.779293	3160.556445
893.087858	3206.430945
893.396381	3282.895167
893.704864	3410.297727
894.013306	3656.608504
894.321707	3969.185248
894.630068	4171.572452
894.938387	4161.911080
895.246665	4120.762662
895.554903	3988.139987
895.863100	3789.510963
896.171256	3610.784416
896.479371	3472.999599
896.787446	3344.545958
897.095480	3240.998137
897.403473	3176.357942
897.711425	3141.349649
898.019336	3133.500572
898.327207	3098.207454
898.635038	3060.676064
898.942827	3047.251471
899.250576	3035.649256
899.558284	3005.840913
899.865952	2983.889208
900.173579	2966.633339
900.481165	2957.970116
900.788711	2943.602828
901.096216	2919.193561
901.403681	2910.490008
901.711105	2917.479568
902.018489	2916.796492
902.325832	2911.881367
902.633135	2924.307811
902.940397	2960.609160
903.247619	3046.187788
903.554800	3252.101278
903.861941	3617.942854
904.169041	4059.308476
904.476101	4352.867468
904.783121	4284.622847
905.090100	4032.638252
905.397039	3750.845313
905.703938	3496.846777
906.010796	3310.992038
906.317614	3196.920808
906.624391	3101.030500
906.931129	3026.192051
907.237826	2964.006898
907.544483	2914.464958
907.851099	2882.589743
908.157675	2864.643235
908.464211	2843.639267
908.770707	2830.993533
909.077163	2815.605411
909.383578	2799.844243
909.689954	2791.498613
909.996289	2788.670526
910.302584	2791.985084
910.608839	2790.200516
910.915054	2784.279681
911.221229	2775.533279
911.527363	2779.326747
911.833458	2787.503499
912.139513	2793.890641
912.445527	2796.141516
912.751502	2802.760551
913.057436	2814.317396
913.363331	2828.500682
913.669186	2848.846779
913.975000	2888.674415
914.280775	2949.571554
914.586510	3022.650640
914.892205	3101.017898
915.197859	3239.397571
915.503475	3438.928960
915.809050	3659.461797
916.114585	3809.531906
916.420081	3821.943227
916.725536	3759.097682
917.030952	3635.039927
917.336328	3503.251563
917.641665	3371.377499
917.946961	3268.737086
918.252218	3197.654296
918.557435	3115.218828
918.862612	3052.920249
919.167750	3002.554081
919.472848	2963.142340
919.777906	2935.010181
920.082925	2910.066552
920.387904	2878.942468
920.692843	2860.698532
920.997743	2848.622448
921.302603	2833.456137
921.607423	2826.827019
921.912204	2812.167344
922.216946	2796.978347
922.521647	2790.848304
922.826310	2782.837911
923.130932	2772.924482
923.435516	2765.720673
923.740059	2760.014087
924.044564	2750.196440
924.349028	2744.535224
924.653454	2738.634553
924.957840	2731.587020
925.262186	2725.759446
925.566493	2722.858262
925.870761	2717.476831
926.174989	2715.266285
926.479178	2709.431149
926.783328	2704.571477
927.087438	2702.575180
927.391509	2705.219265
927.695541	2701.103163
927.999533	2695.192410
928.303486	2693.019673
928.607400	2691.983716
928.911275	2694.864735
929.215110	2692.187882
929.518906	2689.057326
929.822663	2689.664785
930.126381	2689.997501
930.430060	2691.388859
930.733699	2692.306349
931.037299	2693.919519
931.340861	2695.595702
931.644383	2691.882892
931.947866	2692.901206
932.251309	2692.356761
932.554714	2691.290557
932.858080	2687.456759
933.161407	2684.180009
933.464694	2687.469362
933.767943	2680.202539
934.071153	2684.099351
934.374323	2682.115657
934.677455	2684.084227
934.980548	2682.241686
935.283602	2682.760925
935.586617	2681.198167
935.889593	2682.186233
936.192530	2681.261181
936.495428	2681.735050
936.798287	2684.074145
937.101108	2687.799558
937.403890	2691.230063
937.706632	2697.687781
938.009336	2703.583411
938.312002	2712.181098
938.614628	2721.376163
938.917216	2727.170969
939.219765	2725.819940
939.522275	2727.163408
939.824747	2724.698283
940.127179	2721.739126
940.429573	2718.744681
940.731929	2718.074207
941.034246	2714.147148
941.336524	2708.475850
941.638763	2708.281766
941.940964	2705.224306
942.243126	2703.250694
942.545250	2702.033256
942.847335	2699.500076
943.149381	2692.906247
943.451389	2692.250897
943.753359	2689.722758
944.055290	2685.722603
944.357182	2688.238138
944.659036	2687.353416
944.960851	2684.580781
945.262628	2681.687159
945.564367	2681.833352
945.866067	2686.342664
946.167729	2683.617921
946.469352	2684.931141
946.770937	2683.312931
947.072484	2683.043229
947.373992	2683.864937
947.675462	2680.815039
947.976893	2678.909483
948.278286	2674.269101
948.579641	2676.162054
948.880958	2672.746672
949.182236	2675.655418
949.483476	2672.781961
949.784678	2674.488391
950.085841	2675.907476
950.386967	2678.866633
950.688054	2674.180881
950.989103	2675.602486
951.290114	2677.981911
951.591087	2679.733712
951.892021	2682.723116
952.192917	2685.967098
952.493776	2687.885257
952.794596	2686.693025
953.095378	2686.750998
953.396122	2684.353929
953.696828	2685.105061
953.997496	2682.062725
954.298126	2681.558609
954.598718	2681.611542
954.899272	2675.302537
955.199788	2673.989317
955.500266	2672.116528
955.800706	2670.747855
956.101108	2666.752741
956.401472	2665.799962
956.701798	2664.058244
957.002087	2659.072543
957.302337	2660.907523
957.602550	2660.123623
957.902724	2656.660351
958.202861	2657.628252
958.502960	2655.510967
958.803022	2654.787562
959.103045	2654.923673
959.403031	2650.616007
959.702979	2652.571975
960.002889	2651.841007
960.302762	2649.665750
960.602596	2652.604742
960.902393	2650.938641
961.202153	2649.580050
961.501875	2647.936634
961.801559	2651.306645
962.101205	2647.283804
962.400814	2649.602735
962.700385	2648.922179
962.999918	2647.200625
963.299414	2645.436222
963.598873	2644.228865
963.898293	2642.076292
964.197677	2646.270532
964.497022	2647.157776
964.796331	2645.564771
965.095601	2645.819349
965.394835	2647.324134
965.694030	2646.265491
965.993189	2647.891263
966.292309	2642.963536
966.591393	2646.310862
966.890439	2645.201808
967.189447	2644.990079
967.488419	2645.118629
967.787353	2645.239617
968.086249	2644.186015
968.385108	2645.658032
968.683930	2648.095430
968.982714	2646.436891
969.281462	2644.554020
969.580172	2649.143990
969.878844	2644.601911
970.177480	2645.148876
970.476078	2646.981335
970.774639	2645.257261
971.073162	2645.088382
971.371649	2644.775830
971.670098	2646.139462
971.968510	2649.196922
972.266885	2646.988897
972.565223	2646.903197
972.863524	2648.823877
973.161788	2647.225831
973.460014	2644.551499
973.758204	2646.888074
974.056356	2645.423619
974.354471	2647.127529
974.652550	2647.792961
974.950591	2646.978815
975.248595	2646.865389
975.546563	2646.043681
975.844493	2647.311531
976.142386	2646.429329
976.440243	2648.158445
976.738062	2643.223155
977.035845	2644.357415
977.333590	2646.147024
977.631299	2642.653505
977.928971	2639.545633
978.226606	2640.884060
978.524204	2643.434883
978.821765	2639.149903
979.119290	2642.232568
979.416777	2645.284987
979.714228	2642.093937
980.011642	2644.979997
980.309020	2645.007723
980.606360	2644.344812
980.903664	2645.053094
981.200931	2644.672487
981.498162	2646.845224
981.795356	2645.431180
982.092513	2648.314720
982.389633	2651.178096
982.686717	2653.681029
982.983764	2654.875782
983.280775	2659.702687
983.577749	2663.125630
983.874686	2661.900630
984.171587	2658.578510
984.468451	2655.717655
984.765279	2653.658343
985.062070	2651.762870
985.358824	2652.607263
985.655543	2649.985863
985.952224	2647.941675
986.248869	2647.190543
986.545478	2645.219452
986.842050	2644.952271
987.138586	2643.654174
987.435086	2643.840696
987.731549	2642.570326
988.027975	2642.204842
988.324366	2641.851961
988.620719	2642.247692
988.917037	2641.047897
989.213318	2642.953453
989.509563	2640.866416
989.805772	2641.675521
990.101944	2639.550674
990.398080	2640.488329
990.694180	2638.333236
990.990244	2639.732156
991.286271	2639.291055
991.582262	2636.039511
991.878217	2638.398771
992.174136	2641.673000
992.470019	2638.741569
992.765865	2637.912299
993.061676	2638.189563
993.357450	2635.469860
993.653188	2635.976496
993.948890	2642.081334
994.244556	2638.371044
994.540186	2643.094606
994.835780	2641.743576
995.131337	2642.028402
995.426859	2642.308186
995.722345	2642.368679
996.017795	2644.947230
996.313208	2644.516211
996.608586	2645.758855
996.903928	2647.694658
997.199234	2645.279946
997.494504	2642.930768
997.789738	2643.724750
998.084936	2644.216262
998.380099	2643.311375
998.675225	2644.208701
998.970316	2643.268525
999.265371	2642.353556
999.560390	2641.549492
999.855373	2641.327681
1000.150320	2639.482619
1000.445232	2639.149903
1000.740108	2641.002527
1001.034948	2640.143010
1001.329752	2638.151754
1001.624521	2638.547485
1001.919254	2640.707619
1002.213951	2638.640746
1002.508613	2637.067906
1002.803239	2638.802063
1003.097829	2638.224851
1003.392384	2641.095788
1003.686903	2636.742752
1003.981386	2637.113277
1004.275834	2638.991106
1004.570246	2639.291055
1004.864623	2639.893473
1005.158964	2637.047742
1005.453270	2638.262660
1005.747540	2639.613689
1006.041775	2637.574542
1006.335974	2637.672845
1006.630138	2637.725777
1006.924266	2639.185191
1007.218359	2638.366003
1007.512416	2632.843419
1007.806438	2633.387864
1008.100425	2637.032618
1008.394376	2633.443317
1008.688292	2640.011940
1008.982172	2638.809625
1009.276017	2637.173770
1009.569827	2637.992958
1009.863602	2639.911117
1010.157341	2638.638226
1010.451045	2634.449027
1010.744714	2637.604789
1011.038347	2639.459934
1011.331945	2635.563122
1011.625508	2636.944398
1011.919036	2637.960190
1012.212528	2637.075468
1012.505986	2638.154275
1012.799408	2637.733338
1013.092795	2638.905407
1013.386147	2637.473719
1013.679464	2637.025056
1013.972745	2638.169398
1014.265992	2636.089922
1014.559204	2636.974645
1014.852380	2636.316774
1015.145521	2637.410705
1015.438628	2638.613020
1015.731699	2637.556898
1016.024736	2637.347690
1016.317737	2637.004892
1016.610703	2637.836682
1016.903635	2636.815848
1017.196531	2634.549850
1017.489393	2640.309368
1017.782219	2637.425828
1018.075011	2636.150416
1018.367768	2637.201497
1018.660490	2637.960190
1018.953177	2637.960190
1019.245829	2637.960190
