Dividing Wavelength (nm)	Counts (n)	Blue Motor Position (mm): 20.300000	Red Motor Position (mm): 0.000000	
326.493990	2185.849349
326.888308	2185.849349
327.282561	2185.849349
327.676750	2144.872330
328.070874	2141.497277
328.464933	2141.099026
328.858929	2144.819398
329.252859	2150.480613
329.646726	2158.803558
330.040528	2172.770075
330.434265	2184.679801
330.827938	2202.563294
331.221547	2218.359750
331.615091	2237.291803
332.008571	2253.423496
332.401986	2273.928389
332.795338	2292.991512
333.188625	2312.664615
333.581847	2332.650269
333.975006	2349.964112
334.368100	2367.320805
334.761129	2389.151522
335.154095	2403.770868
335.546996	2430.499066
335.939833	2457.446553
336.332606	2471.876856
336.725315	2485.525780
337.117960	2498.179077
337.510540	2510.532424
337.903056	2521.902747
338.295508	2528.098325
338.687896	2537.406815
339.080220	2545.964174
339.472480	2554.098076
339.864676	2557.556307
340.256807	2563.252811
340.648875	2568.790518
341.040879	2569.274469
341.432818	2572.520972
341.824694	2577.196643
342.216506	2575.961560
342.608253	2577.836869
342.999937	2574.794533
343.391557	2581.166551
343.783113	2577.967939
344.174605	2575.911148
344.566033	2576.042218
344.957397	2575.344018
345.348697	2574.176991
345.739934	2569.108111
346.131106	2570.207083
346.522215	2567.333625
346.913260	2567.303378
347.304241	2564.394632
347.695159	2560.961607
348.086012	2560.167625
348.476802	2558.163766
348.867528	2553.518343
349.258191	2548.295707
349.648789	2550.564227
350.039324	2545.064328
350.429796	2552.893240
350.820203	2547.887374
351.210548	2549.969371
351.600828	2546.717826
351.991045	2546.324616
352.381198	2544.477033
352.771288	2546.697662
353.161314	2544.338402
353.551276	2542.387475
353.941175	2543.947712
354.331010	2543.410829
354.720782	2542.889070
355.110490	2542.014430
355.500135	2540.756662
355.889717	2537.737011
356.279235	2546.105326
356.668689	2540.794471
357.058080	2542.203473
357.447408	2541.354039
357.836672	2546.140614
358.225873	2541.449821
358.615010	2543.867054
359.004084	2545.666746
359.393095	2544.199770
359.782043	2545.848227
360.170927	2546.664894
360.559748	2548.096582
360.948505	2545.926365
361.337199	2548.918290
361.725830	2549.654298
362.114398	2549.041798
362.502903	2549.646737
362.891344	2552.139587
363.279722	2551.108671
363.668037	2549.167827
364.056289	2548.552806
364.444478	2551.927859
364.832603	2550.700338
365.220665	2551.637992
365.608665	2553.334341
365.996601	2552.873075
366.384474	2553.230997
366.772284	2551.249824
367.160031	2551.224618
367.547715	2557.095042
367.935336	2553.503219
368.322893	2554.594629
368.710388	2550.173537
369.097820	2551.680842
369.485189	2552.469783
369.872495	2557.049671
370.259738	2556.061605
370.646918	2554.050185
371.034035	2560.212995
371.421090	2558.824157
371.808081	2558.904816
372.195010	2558.879610
372.581875	2557.974723
372.968678	2557.652089
373.355418	2558.375495
373.742096	2558.501523
374.128710	2558.037737
374.515262	2560.603685
374.901751	2559.086297
375.288177	2560.908674
375.674540	2561.465722
376.060841	2560.616287
376.447079	2560.588561
376.833254	2560.737275
377.219367	2561.490928
377.605417	2562.768860
377.991404	2561.841288
378.377329	2561.808520
378.763191	2563.623336
379.148991	2563.373799
379.534727	2561.533778
379.920402	2562.882286
380.306013	2563.784653
380.691563	2567.709191
381.077049	2562.652914
381.462474	2562.431103
381.847835	2564.808007
382.233134	2566.322874
382.618371	2564.039231
383.003545	2565.604509
383.388657	2565.841443
383.773706	2565.329766
384.158693	2565.125600
384.543618	2566.973182
384.928480	2564.699622
385.313280	2566.751372
385.698017	2566.363203
386.082692	2567.588203
386.467305	2566.607699
386.851856	2570.045766
387.236344	2570.708677
387.620770	2565.619633
388.005133	2562.693243
388.389435	2566.048131
388.773674	2561.962276
389.157851	2568.709860
389.541965	2569.287072
389.926018	2569.458471
390.310008	2568.389747
390.693936	2567.741958
391.077802	2570.726322
391.461606	2567.378995
391.845348	2571.192628
392.229027	2566.940415
392.612645	2571.774882
392.996200	2570.386044
393.379694	2572.697413
393.763125	2572.432752
394.146494	2571.089285
394.529801	2572.536096
394.913047	2573.602300
395.296230	2572.594069
395.679351	2572.253791
396.062410	2573.226734
396.445408	2571.681620
396.828343	2572.599110
397.211217	2573.768658
397.594028	2573.375448
397.976778	2571.555591
398.359466	2573.589697
398.742092	2575.291086
399.124656	2573.718246
399.507158	2572.654563
399.889598	2574.272773
400.271977	2575.896025
400.654294	2574.602969
401.036549	2573.186405
401.418742	2575.293607
401.800874	2575.918710
402.182944	2573.904769
402.564952	2579.334092
402.946898	2578.187229
403.328783	2575.364183
403.710606	2576.737897
404.092367	2575.807805
404.474067	2577.408371
404.855705	2576.231262
405.237282	2579.480285
405.618797	2576.833679
406.000250	2581.837025
406.381642	2577.673032
406.762972	2577.917527
407.144240	2577.390727
407.525447	2577.461303
407.906593	2574.227403
408.287677	2577.713361
408.668700	2578.136818
409.049661	2579.374421
409.430560	2576.354770
409.811399	2580.115471
410.192176	2581.075810
410.572891	2580.135635
410.953545	2584.087900
411.334138	2581.393403
411.714669	2580.362487
412.095139	2581.907601
412.475547	2580.339802
412.855894	2582.651171
413.236180	2580.533886
413.616405	2582.787282
413.996568	2581.065728
414.376670	2581.650502
414.756711	2584.279464
415.136691	2581.504308
415.516609	2580.506160
415.896466	2579.911304
416.276262	2582.492375
416.655997	2584.529001
417.035670	2583.440112
417.415283	2587.316759
417.794834	2585.998497
418.174324	2584.788620
418.553753	2583.331727
418.933121	2584.246696
419.312428	2586.288363
419.691674	2586.369022
420.070859	2584.856676
420.449983	2586.487489
420.829045	2585.446491
421.208047	2585.254927
421.586988	2585.544793
421.965867	2584.415575
422.344686	2585.726275
422.723444	2584.042529
423.102141	2585.829618
423.480777	2585.627972
423.859352	2587.936821
424.237866	2584.042529
424.616319	2585.416244
424.994712	2589.590319
425.373044	2588.864393
425.751314	2585.759042
426.129524	2584.355081
426.507673	2586.477407
426.885762	2580.140676
427.263789	2588.771132
427.641756	2587.727613
428.019662	2589.451687
428.397508	2589.600402
428.775292	2588.685432
429.153016	2590.366657
429.530679	2590.855649
429.908282	2587.926738
430.285824	2590.873293
430.663305	2589.638210
431.040726	2590.583427
431.418086	2589.179465
431.795385	2588.151070
432.172624	2588.629979
432.549802	2591.155598
432.926920	2591.516040
433.303977	2593.033427
433.680974	2590.500247
434.057910	2590.875813
434.434786	2591.871441
434.811601	2591.558890
435.188355	2595.294385
435.565050	2591.919332
435.941683	2588.934969
436.318257	2593.270362
436.694770	2592.688108
437.071222	2592.277254
437.447614	2595.168356
437.823946	2594.586103
438.200218	2592.284816
438.576429	2592.572162
438.952580	2594.659199
439.328670	2592.388160
439.704700	2591.526122
440.080670	2593.860177
440.456580	2595.082656
440.832429	2594.661720
441.208218	2592.526791
441.583947	2597.018459
441.959616	2596.768922
442.335224	2592.826740
442.710773	2595.561566
443.086261	2594.349168
443.461689	2596.569797
443.837057	2596.595002
444.212365	2596.463932
444.587612	2595.435537
444.962800	2594.946545
445.337927	2593.391349
445.712995	2592.501586
446.088002	2598.258583
446.462949	2597.426793
446.837837	2599.042483
447.212664	2596.887389
447.587431	2598.485435
447.962139	2599.866711
448.336786	2601.772267
448.711374	2602.301589
449.085901	2598.185487
449.460369	2599.533995
449.834776	2601.174891
450.209124	2600.151537
450.583412	2602.145313
450.957640	2604.557505
451.331808	2602.167998
451.705917	2600.305292
452.079965	2600.282607
452.453954	2604.877618
452.827883	2602.057093
453.201752	2601.134562
453.575562	2603.173708
453.949311	2601.905858
454.323001	2602.309150
454.696632	2602.866198
455.070202	2601.545416
455.443713	2602.485591
455.817164	2603.645056
456.190556	2605.129676
456.563888	2604.925509
456.937160	2604.774275
457.310373	2605.684203
457.683526	2604.229830
458.056619	2604.902824
458.429653	2606.316868
458.802628	2604.970880
459.175542	2607.350304
459.548398	2610.238885
459.921194	2609.765017
460.293930	2608.771910
460.666607	2606.863833
461.039224	2608.542537
461.411782	2610.480861
461.784280	2609.149996
462.156719	2612.512446
462.529099	2611.907507
462.901419	2611.599997
463.273680	2612.323402
463.645882	2606.150510
464.018024	2609.127311
464.390106	2606.452979
464.762130	2612.870368
465.134094	2613.621500
465.505999	2614.735595
465.877845	2621.364712
466.249631	2624.785135
466.621358	2624.684312
466.993026	2623.033334
467.364634	2626.146246
467.736184	2622.831688
468.107674	2617.624176
468.479105	2621.556276
468.850477	2622.778756
469.221790	2620.590895
469.593043	2617.815740
469.964238	2619.562499
470.335373	2620.651389
470.706449	2621.117695
471.077467	2622.287243
471.448425	2623.827316
471.819324	2629.354941
472.190164	2633.768471
472.560945	2631.091618
472.931667	2627.454426
473.302330	2626.151287
473.672934	2629.238994
474.043479	2629.677575
474.413965	2630.955507
474.784393	2630.829478
475.154761	2634.597741
475.525070	2633.055148
475.895321	2635.880714
476.265513	2634.612864
476.635645	2637.256949
477.005719	2636.969604
477.375734	2640.155613
477.745691	2644.664925
478.115588	2645.476551
478.485427	2649.070893
478.855207	2655.458035
479.224928	2659.927018
479.594591	2668.302895
479.964194	2672.426559
480.333739	2673.200376
480.703226	2677.739935
481.072653	2678.218845
481.442022	2686.375432
481.811333	2694.398428
482.180584	2695.535208
482.549777	2697.647452
482.918912	2697.559232
483.287988	2710.416695
483.657005	2713.453990
484.025964	2717.590257
484.394864	2723.261555
484.763706	2727.518809
485.132489	2727.828840
485.501213	2742.193608
485.869879	2750.456059
486.238487	2758.728592
486.607036	2766.028183
486.975527	2772.664862
487.343959	2790.427368
487.712333	2799.463636
488.080648	2815.534835
488.448905	2826.418686
488.817104	2842.197497
489.185244	2864.428986
489.553326	2886.042933
489.921350	2917.051070
490.289315	2987.034888
490.657222	3040.062786
491.025070	3075.739032
491.392861	3102.063937
491.760593	3113.923251
492.128267	3129.177783
492.495883	3135.088536
492.863440	3153.070332
493.230939	3165.829492
493.598380	3207.860112
493.965763	3235.594020
494.333088	3260.545211
494.700354	3298.285809
495.067563	3342.872294
495.434713	3379.740773
495.801805	3428.067794
496.168839	3476.631750
496.535815	3529.707538
496.902733	3593.611725
497.269593	3626.737147
497.636395	3706.223540
498.003139	3765.094135
498.369825	3830.339268
498.736453	3895.503744
499.103023	3953.885346
499.469535	4028.895195
499.835989	4117.616982
500.202385	4201.466494
500.568723	4240.104418
500.935003	4329.688242
501.301226	4392.506060
501.667390	4534.747257
502.033497	4669.141898
502.399546	4709.912230
502.765537	4783.059372
503.131470	4903.048916
503.497345	5014.423128
503.863163	5031.396693
504.228923	5195.496333
504.594625	5332.560265
504.960269	5361.546899
505.325856	5542.768818
505.691385	5586.203400
506.056856	5757.353094
506.422270	5897.580350
506.787625	5930.065545
507.152924	6142.565303
507.518164	6237.943934
507.883347	6322.262273
508.248472	6388.397170
508.613540	6646.146325
508.978550	6771.726509
509.343503	6892.210086
509.708398	7079.617501
510.073236	7226.582259
510.438016	7405.853251
510.802738	7502.376224
511.167403	7694.426541
511.532010	7773.514683
511.896561	8092.927232
512.261053	8269.070189
512.625488	8362.427317
512.989866	8485.411306
513.354186	8582.687931
513.718449	8795.868245
514.082655	9023.463738
514.446803	9149.638778
514.810894	9421.513246
515.174927	9431.582951
515.538904	9606.039642
515.902822	9909.270087
516.266684	10033.322800
516.630488	10146.315223
516.994235	10311.539040
517.357925	10577.137272
517.721558	10829.202526
518.085133	11034.972343
518.448651	11170.037458
518.812112	11272.138467
519.175516	11473.741771
519.538863	11750.722928
519.902152	11820.114411
520.265385	12130.410033
520.628560	12220.603837
520.991678	12427.397009
521.354739	12643.770894
521.717743	12872.825801
522.080690	12936.321654
522.443580	13308.794868
522.806413	13454.640490
523.169189	13717.456004
523.531908	13883.383063
523.894569	13921.993260
524.257174	14123.132778
524.619722	14408.111725
524.982213	14411.711109
525.344647	14658.636907
525.707025	14876.417274
526.069345	15083.472586
526.431608	15248.023409
526.793815	15536.190886
527.155964	15369.532861
527.518057	15651.532486
527.880093	15811.687423
528.242072	16057.458797
528.603995	16072.352886
528.965860	16127.190557
529.327669	16392.940023
529.689421	16509.282293
530.051117	16574.850060
530.412755	16900.543887
530.774337	16892.639357
531.135862	16982.727297
531.497331	17277.090352
531.858743	17131.128784
532.220098	17655.139082
532.581396	17531.797171
532.942638	17732.848469
533.303824	17919.676151
533.664953	18095.380527
534.026025	18030.722688
534.387040	18323.782605
534.747999	18575.197550
535.108902	18801.840265
535.469748	18603.985059
535.830537	18893.223782
536.191270	19082.405683
536.551947	19200.993786
536.912567	19045.769097
537.273131	19402.657584
537.633638	19313.015786
537.994089	19641.772113
538.354483	19405.190763
538.714821	19924.714435
539.075103	20097.767164
539.435328	20057.352234
539.795497	19820.407921
540.155609	20273.395923
540.515665	20618.311669
540.875665	20118.289701
541.235609	20450.632810
541.595496	20572.220399
541.955328	20951.708379
542.315102	20991.427630
542.674821	20772.991913
543.034483	20756.625807
543.394090	20972.293930
543.753640	20892.240407
544.113134	21539.781660
544.472571	21303.810290
544.831953	21666.007111
545.191278	21389.371273
545.550548	21462.664609
545.909761	21692.430319
546.268918	21989.470227
546.628019	22035.654758
546.987064	21884.967108
547.346053	21762.915732
547.704986	21933.102565
548.063863	22154.303355
548.422684	22192.631248
548.781449	21898.318604
549.140158	22324.326351
549.498811	22029.479345
549.857408	21827.515598
550.215949	22309.384371
550.574434	22063.121485
550.932864	22328.923883
551.291237	22506.995081
551.649555	22459.802319
552.007817	22555.576681
552.366022	22493.290704
552.724173	22586.395775
553.082267	22569.107137
553.440305	23066.255647
553.798288	22441.591151
554.156215	22977.468325
554.514086	23099.416357
554.871902	22535.676726
555.229661	22842.814065
555.587365	22761.928752
555.945014	22638.538949
556.302606	22943.448099
556.660143	22896.552765
557.017625	23192.967570
557.375050	22784.059417
557.732421	23178.323018
558.089735	23032.401779
558.446994	23117.564511
558.804197	23161.601511
559.161345	23168.913704
559.518437	22920.404984
559.875474	23171.968644
560.232455	23351.791643
560.589381	23220.351118
560.946251	23197.766748
561.303065	23548.149626
561.659825	23653.832375
562.016528	23290.491212
562.373177	23061.524525
562.729770	23405.469849
563.086307	23317.317712
563.442789	23491.154341
563.799216	23321.781654
564.155587	23372.198233
564.511904	23368.122460
564.868164	23304.364467
565.224370	23309.062822
565.580520	23220.431776
565.936615	23367.935938
566.292654	23042.647924
566.648638	23376.526064
567.004567	23200.647768
567.360441	23157.422394
567.716260	22909.314446
568.072023	23240.929108
568.427732	23007.662316
568.783385	22811.057316
569.138982	23041.692625
569.494525	23077.583120
569.850013	22837.740144
570.205445	22939.037089
570.560823	22745.650866
570.916145	22536.042209
571.271412	22698.805944
571.626625	22465.050160
571.981782	22581.402512
572.336884	22389.662225
572.691931	22517.911700
573.046923	22271.787445
573.401860	22160.771155
573.756743	22156.130773
574.111570	22082.839958
574.466342	22011.643742
574.821059	22108.280141
575.175722	21805.246301
575.530330	21803.592802
575.884882	21825.627686
576.239380	21732.845249
576.593823	21626.958333
576.948211	21621.271912
577.302544	21467.753654
577.656823	21336.708860
578.011047	21433.995567
578.365216	21316.289666
578.719330	21193.182168
579.073389	21095.484607
579.427394	21237.851833
579.781344	21027.907940
580.135239	20919.729819
580.489080	20900.780122
580.842866	20658.469501
581.196597	20830.952579
581.550273	20827.569965
581.903895	20723.144984
582.257463	21032.656707
582.610975	20563.350489
582.964434	20852.145590
583.317837	20580.865978
583.671186	20672.955256
584.024481	20626.899275
584.377721	20419.251627
584.730906	20454.685897
585.084037	20505.183136
585.437113	20394.497041
585.790135	20599.225861
586.143103	20080.385266
586.496016	20082.399207
586.848874	20333.849440
587.201679	20273.108577
587.554428	19938.680952
587.907124	20271.402147
588.259765	20046.445697
588.612352	20129.652462
588.964884	19694.172387
589.317362	19870.396002
589.669786	19919.340565
590.022155	19987.224743
590.374470	20146.918414
590.726731	19964.544591
591.078937	19701.048521
591.431090	19818.807354
591.783188	19547.479851
592.135232	19534.698006
592.487222	19624.483476
592.839157	19665.276493
593.191038	19543.209994
593.542866	19430.215051
593.894639	19159.016098
594.246358	19369.585094
594.598022	19286.804307
594.949633	19029.438279
595.301190	18995.168515
595.652692	19152.449995
596.004141	19406.090609
596.355535	18736.000276
596.706876	18741.611080
597.058162	18641.397982
597.409395	18853.386063
597.760573	18951.028172
598.111698	18728.370489
598.462768	18655.389705
598.813785	18615.599878
599.164748	18457.663048
599.515657	18475.808682
599.866511	18270.888298
600.217312	18641.569382
600.568060	18165.137493
600.918753	18482.112644
601.269392	18376.777735
601.619978	18148.907499
601.970510	18364.154686
602.320988	18303.582702
602.671412	18515.452315
603.021783	18410.888702
603.372100	18163.491557
603.722363	18285.058982
604.072572	18226.500939
604.422728	18363.587556
604.772830	18120.281307
605.122878	18065.642761
605.472872	18064.508501
605.822813	18058.101194
606.172701	18014.417076
606.522534	18223.559425
606.872314	18242.380573
607.222041	18077.310511
607.571714	18285.285834
607.921333	18125.075444
608.270899	18188.185649
608.620411	18387.689312
608.969870	18137.980798
609.319276	18149.996388
609.668627	18179.933280
610.017926	18309.377508
610.367171	18424.562832
610.716362	18471.773238
611.065500	18282.740051
611.414585	18427.547195
611.763616	18404.297394
612.112594	18352.252521
612.461518	18320.049631
612.810389	18527.495632
613.159207	18354.279065
613.507971	18273.842414
613.856682	18552.587975
614.205340	18486.558942
614.553945	18630.708216
614.902496	18366.178709
615.250994	18614.538715
615.599439	18553.399601
615.947830	18546.374753
616.296169	18588.289427
616.644454	18548.537408
616.992686	18525.219551
617.340864	18733.154544
617.688990	18498.466147
618.037063	18682.082615
618.385082	18522.860291
618.733048	18796.814235
619.080961	18655.949273
619.428821	18698.834369
619.776628	18601.313248
620.124382	18522.933388
620.472083	18549.911123
620.819731	18580.160566
621.167326	18272.196478
621.514868	18317.176173
621.862357	18067.863389
622.209793	18087.717973
622.557176	17915.718845
622.904506	17748.899503
623.251783	17654.753434
623.599007	17434.679342
623.946179	17379.614819
624.293297	17320.928226
624.640363	17070.201399
624.987376	17094.101509
625.334336	16880.769961
625.681243	16728.481744
626.028097	16732.333186
626.374899	16672.731624
626.721647	16537.661468
627.068343	16371.089142
627.414987	16293.835980
627.761577	16268.342865
628.108115	16321.388406
628.454600	16034.055240
628.801032	16132.448481
629.147412	16063.334262
629.493739	16081.673979
629.840014	15897.755043
630.186236	15991.064280
630.532405	15759.443425
630.878521	15952.388548
631.224585	15849.985069
631.570597	15683.105233
631.916556	15710.529110
632.262462	15689.147056
632.608316	15601.662872
632.954117	15541.151382
633.299866	15547.629264
633.645562	15469.229240
633.991206	15221.607763
634.336797	15083.356639
634.682336	15059.186827
635.027823	14952.584067
635.373257	14840.168857
635.718639	14725.850611
636.063968	14680.006358
636.409245	14434.411425
636.754470	14467.090705
637.099642	14316.201408
637.444762	14080.978649
637.789829	14127.435403
638.134845	13966.935147
638.479808	13981.930059
638.824719	13943.284573
639.169577	13786.870172
639.514383	13843.210108
639.859137	13653.713135
640.203839	13745.661260
640.548489	13584.200664
640.893086	13567.038056
641.237632	13436.371348
641.582125	13584.488010
641.926566	13418.545828
642.270955	13435.733642
642.615292	13395.815266
642.959576	13404.319692
643.303809	13437.417388
643.647990	13374.622255
643.992118	13438.188684
644.336195	13209.277450
644.680219	13399.250812
645.024192	13330.108866
645.368112	13557.394329
645.711981	13620.149132
646.055797	13799.967090
646.399562	13762.342438
646.743274	14028.850598
647.086935	14304.019460
647.430544	14270.672228
647.774101	14301.841682
648.117606	14462.788080
648.461059	14425.415486
648.804460	14421.450618
649.147810	14152.550431
649.491108	14053.642993
649.834354	14067.070106
650.177548	13764.757151
650.520690	13583.051281
650.863781	13502.912058
651.206820	13539.525959
651.549807	13368.719064
651.892742	13172.890401
652.235626	13111.862193
652.578458	13113.792955
652.921238	12806.910194
653.263967	13000.792971
653.606644	12831.402640
653.949269	12795.733956
654.291843	12611.812499
654.634365	12753.239549
654.976836	12610.224535
655.319255	12630.588276
655.661622	12568.430849
656.003938	12505.993638
656.346203	12428.160744
656.688416	12494.958553
657.030577	12454.742748
657.372687	12378.817930
657.714746	12346.040347
658.056753	12540.016386
658.398708	12361.597348
658.740612	12357.801359
659.082465	12457.086884
659.424266	12418.073395
659.766016	12446.097169
660.107715	12345.266530
660.449362	12426.809714
660.790958	12382.008980
661.132503	12338.733195
661.473996	12392.265208
661.815438	12411.149370
662.156829	12425.809045
662.498168	12402.594532
662.839456	12403.141497
663.180693	12422.980958
663.521879	12505.373577
663.863013	12494.963594
664.204097	12466.624748
664.545129	12584.431472
664.886110	12555.291082
665.227040	12640.559679
665.567918	12648.776759
665.908746	12679.248014
666.249522	12657.122390
666.590248	12707.269268
666.930922	12820.213799
667.271545	12803.749390
667.612118	12889.804407
667.952639	12791.096094
668.293109	12801.561530
668.633528	12762.190118
668.973896	12736.296231
669.314213	12822.061382
669.654480	12561.849623
669.994695	12626.018470
670.334859	12648.479331
670.674973	12589.938932
671.015035	12629.748924
671.355047	12569.822208
671.695008	12539.101416
672.034918	12546.033003
672.374777	12593.966814
672.714585	12503.221004
673.054342	12539.179554
673.394049	12487.361534
673.733705	12575.705234
674.073310	12495.755055
674.412864	12512.390863
674.752368	12389.704302
675.091820	12388.464178
675.431223	12382.329093
675.770574	12260.494487
676.109875	12180.892148
676.449125	12138.370015
676.788324	12084.001171
677.127473	11917.191910
677.466571	11900.558623
677.805619	11810.359778
678.144616	11723.722508
678.483562	11694.952643
678.822458	11560.444576
679.161303	11545.762216
679.500098	11531.203363
679.838842	11481.910961
680.177535	11504.162614
680.516179	11561.132694
680.854771	11519.328925
681.193314	11722.626057
681.531805	11872.839839
681.870247	12271.479162
682.208638	12683.283458
682.546978	13004.704906
682.885268	13066.832086
683.223508	12752.117893
683.561697	12603.703803
683.899836	12496.589366
684.237925	12304.259264
684.575963	12227.366545
684.913951	12148.742189
685.251889	12096.472985
685.589776	12182.124710
685.927614	12120.317643
686.265401	12065.739591
686.603137	12118.764967
686.940824	12269.530756
687.278460	12383.576779
687.616046	12435.639295
687.953582	12616.566307
688.291068	12524.724046
688.628504	12758.071495
688.965889	12766.880912
689.303224	12740.009041
689.640510	12640.179072
689.977745	12338.597084
690.314930	12110.978905
690.652065	12027.051256
690.989150	11736.821946
691.326185	11519.623833
691.663170	11302.274485
692.000105	11063.452342
692.336990	10958.392175
692.673825	10707.461181
693.010610	10594.002452
693.347345	10389.558458
693.684030	10181.943577
694.020665	10120.411254
694.357251	9930.710114
694.693786	9881.687413
695.030272	9715.571312
695.366707	9593.746788
695.703093	9523.047126
696.039429	9521.217187
696.375716	9450.673801
696.711952	9313.826638
697.048139	9346.868881
697.384276	9310.418818
697.720363	9325.625459
698.056400	9261.403679
698.392388	9210.276297
698.728326	9175.754476
699.064214	9109.556564
699.400053	9160.394080
699.735842	8977.231317
700.071581	8935.034338
700.407270	8861.685550
700.742910	8774.803784
701.078501	8687.654837
701.414042	8567.864418
701.749533	8500.597782
702.084974	8366.490487
702.420366	8470.766754
702.755709	8357.449178
703.091002	8226.469918
703.426246	8250.244000
703.761440	8199.784570
704.096584	8160.340062
704.431679	8091.838343
704.766725	8081.771159
705.101721	8026.472222
705.436668	8070.995692
705.771565	7972.952812
706.106413	8047.513998
706.441212	8093.207016
706.775961	8047.612300
707.110661	8071.565343
707.445311	8224.458498
707.779913	8122.528888
708.114465	8251.204340
708.448967	8292.743447
708.783421	8417.428826
709.117825	8605.700799
709.452180	8641.997106
709.786485	8727.668995
710.120742	9005.113938
710.454949	9006.109566
710.789107	9107.199824
711.123216	9313.695568
711.457275	9478.639602
711.791286	9640.624477
712.125247	9635.444692
712.459159	9629.339855
712.793023	9881.067351
713.126837	9454.255540
713.460602	9609.049210
713.794318	9434.060678
714.127985	9456.403072
714.461602	9156.570365
714.795171	9100.563145
715.128691	8861.315025
715.462162	8605.005119
715.795584	8547.107468
716.128957	8404.563801
716.462281	8237.021053
716.795556	8281.574771
717.128782	8081.057836
717.461960	7808.633882
717.795088	7883.300932
718.128167	7785.731920
718.461198	7629.864484
718.794180	7565.483908
719.127113	7561.680358
719.459997	7416.996722
719.792833	7182.212543
720.125619	7247.636638
720.458357	7105.662622
720.791046	7089.858605
721.123686	7096.374296
721.456278	6934.429749
721.788821	6954.307019
722.121315	6840.598753
722.453761	6907.857827
722.786158	6857.247163
723.118506	6867.369800
723.450805	6829.924109
723.783056	6901.879019
724.115259	6807.911911
724.447412	6808.708413
724.779518	6846.799372
725.111574	6846.262489
725.443582	6927.800632
725.775542	6909.949906
726.107453	7095.602999
726.439315	7011.324989
726.771129	7063.740387
727.102895	7232.172898
727.434612	7348.610949
727.766281	7382.147225
728.097901	7461.981458
728.429473	7447.309180
728.760996	7423.804800
729.092471	7403.766213
729.423897	7354.138574
729.755276	7368.856223
730.086606	7291.678678
730.417887	7391.493524
730.749120	7565.524238
731.080305	7765.637881
731.411442	7887.628762
731.742530	7886.882672
732.073570	7989.150039
732.404562	8078.058349
732.735506	7924.114113
733.066401	8063.058396
733.397249	7999.655804
733.728048	7768.924713
734.058798	7440.143180
734.389501	7217.722431
734.720156	7043.406893
735.050762	6805.040974
735.381320	6703.708741
735.711831	6661.942781
736.042293	6555.271966
736.372707	6573.825932
736.703073	6437.508091
737.033391	6476.032589
737.363661	6482.477704
737.693883	6509.621797
738.024056	6589.269507
738.354182	6640.112064
738.684260	6675.642117
739.014290	6783.840402
739.344272	6892.081536
739.674207	6919.986843
740.004093	6985.922615
740.333931	7005.686459
740.663722	7010.861203
740.993464	7086.291988
741.323159	7086.561690
741.652806	6833.374779
741.982405	6835.557599
742.311956	6906.065697
742.641460	6752.370999
742.970915	6550.283744
743.300323	6543.251334
743.629683	6492.817111
743.958996	6356.973138
744.288260	6269.141114
744.617477	6211.424944
744.946647	6234.949488
745.275768	6059.897942
745.604842	6009.874572
745.933869	5996.558364
746.262847	5947.480211
746.591778	5937.559220
746.920662	5905.414303
747.249498	5885.070726
747.578286	5934.458911
747.907027	6012.440519
748.235720	6073.420837
748.564365	6038.757863
748.892963	6064.087141
749.221514	6219.994906
749.550017	6066.960598
749.878473	5937.861689
750.206881	5990.282128
750.535242	5932.694507
750.863555	5861.984762
751.191821	5885.146344
751.520039	5883.649121
751.848210	5795.199556
752.176334	5805.803623
752.504411	5862.287232
752.832440	5791.156551
753.160421	5716.693667
753.488356	5767.503457
753.816243	5798.753570
754.144082	5648.481815
754.471875	5612.659375
754.799620	5661.800543
755.127318	5675.706566
755.454969	5629.353156
755.782572	5592.724132
756.110129	5636.504033
756.437638	5627.215707
756.765100	5566.273198
757.092515	5558.371190
757.419882	5604.817861
757.747203	5590.790850
758.074477	5658.672507
758.401703	5648.917874
758.728882	5596.094144
759.056014	5642.387060
759.383099	5779.390498
759.710138	5787.771416
760.037129	5772.413541
760.364073	5772.300115
760.690970	5858.471078
761.017820	5841.552966
761.344623	5793.843486
761.671379	5888.536520
761.998088	6003.913408
762.324751	6233.606021
762.651366	6813.540359
762.977935	8084.516067
763.304456	9699.132109
763.630931	10620.234096
763.957359	10263.955589
764.283740	9338.576183
764.610074	8520.356585
764.936362	7540.464662
765.262602	6947.861904
765.588796	6402.598101
765.914943	6064.160237
766.241044	5903.556638
766.567097	5712.985899
766.893104	5454.389830
767.219064	5272.295791
767.544978	5211.350762
767.870845	5136.892919
768.196665	5030.234707
768.522438	4956.656546
768.848165	4924.224283
769.173846	4862.893605
769.499479	4822.703006
769.825066	4766.166466
770.150607	4706.040624
770.476101	4676.078526
770.801548	4678.168084
771.126949	4608.015387
771.452303	4549.033887
771.777611	4508.611395
772.102872	4526.469683
772.428087	4487.012571
772.753256	4450.885142
773.078378	4407.730345
773.403453	4340.065457
773.728482	4323.820339
774.053465	4274.779994
774.378401	4267.631638
774.703291	4268.400414
775.028135	4194.149259
775.352932	4147.311899
775.677683	4131.684322
776.002388	4153.711644
776.327046	4167.884848
776.651658	4094.152932
776.976224	4027.672715
777.300743	4033.490207
777.625216	4052.132394
777.949643	4052.568453
778.274024	4005.211854
778.598359	3963.398004
778.922647	3983.330726
779.246889	3975.650528
779.571086	3975.489211
779.895236	3962.543528
780.219339	3945.312864
780.543397	3932.687294
780.867409	3986.229389
781.191374	3999.676667
781.515294	3942.820014
781.839167	3937.859518
782.162995	3950.583391
782.486776	3940.425466
782.810511	3947.712453
783.134201	3945.406126
783.457844	3903.980444
783.781441	3847.141434
784.104993	3853.760469
784.428498	3870.061040
784.751958	3868.523488
785.075372	3849.099923
785.398739	3811.407215
785.722061	3820.912311
786.045337	3864.349413
786.368568	3899.771080
786.691752	3810.197338
787.014891	3855.184595
787.337983	3973.387050
787.661030	4133.794045
787.984031	4294.475783
788.306987	4467.833502
788.629897	4549.490112
788.952760	4505.445550
789.275579	4435.633131
789.598351	4375.650962
789.921078	4244.649018
790.243759	4044.835323
790.566395	4020.312631
790.888984	4019.553937
791.211529	3913.616609
791.534027	3853.853731
791.856480	3844.814942
792.178888	3783.181795
792.501249	3731.477200
792.823566	3741.703181
793.145836	3772.915485
793.468062	3722.476220
793.790241	3672.034435
794.112375	3705.001060
794.434464	3768.988426
794.756507	3791.426602
795.078505	3774.004374
795.400457	3802.249959
795.722364	3935.454888
796.044226	4044.056465
796.366042	4115.000623
796.687812	4095.997994
797.009538	4111.194552
797.331218	4062.249989
797.652852	4036.283006
797.974442	4013.123945
798.295986	4016.602341
798.617484	3940.276752
798.938938	3848.994058
799.260346	3891.634658
799.581709	3887.498391
799.903026	3814.923420
800.224299	3780.711629
800.545526	3774.561422
800.866708	3733.266810
801.187845	3674.844878
801.508936	3708.789488
801.829983	3709.762430
802.150984	3631.616984
802.471940	3617.698358
802.792851	3631.170842
803.113717	3629.134216
803.434538	3633.293167
803.755314	3576.015577
804.076045	3549.093295
804.396731	3566.162642
804.717372	3595.156839
805.037967	3584.633430
805.358518	3569.852767
805.679024	3595.353444
805.999485	3611.527986
806.319901	3612.528655
806.640272	3626.442239
806.960598	3641.953870
807.280879	3619.525776
807.601115	3627.629431
807.921306	3644.804642
808.241453	3684.586908
808.561554	3661.717713
808.881611	3596.649020
809.201623	3628.173876
809.521590	3647.408398
809.841513	3616.100312
810.161390	3645.099550
810.481223	3628.872076
810.801011	3569.993919
811.120755	3563.130388
811.440453	3596.890996
811.760107	3600.896192
812.079716	3559.730130
812.399281	3523.605222
812.718801	3547.379303
813.038276	3522.390303
813.357707	3517.361752
813.677093	3542.171791
813.996434	3488.264213
814.315731	3493.393587
814.634983	3497.418948
814.954191	3509.416894
815.273354	3541.531565
815.592473	3536.424876
815.911547	3540.263714
816.230577	3579.725867
816.549562	3630.076911
816.868502	3673.450999
817.187399	3695.954710
817.506250	3693.996222
817.825058	3664.374402
818.143821	3750.941095
818.462539	3854.924976
818.781213	3897.527767
819.099843	3952.907362
819.418429	4187.310934
819.736970	4424.913118
820.055466	4664.055374
820.373919	5023.083830
820.692327	5424.432773
821.010691	5838.712276
821.329011	7152.084087
821.647286	9792.020410
821.965517	14227.093973
822.283704	18251.084125
822.601847	20501.225830
822.919945	18743.357840
823.237999	16226.337451
823.556010	13773.725364
823.873976	11719.140099
824.191897	9653.033278
824.509775	8299.995147
824.827609	7187.508275
825.145398	6630.768286
825.463144	6516.200503
825.780845	6629.046732
826.098502	6798.648791
826.416116	7632.127962
826.733685	8919.444570
827.051210	10033.930259
827.368692	10124.895360
827.686129	8929.582330
828.003522	7423.877897
828.320872	6412.987919
828.638177	5723.784050
828.955439	5176.365154
829.272656	4683.395761
829.589830	4394.278026
829.906960	4225.525401
830.224046	4041.651835
830.541088	3917.435283
830.858086	3871.081874
831.175041	3795.250317
831.491952	3774.150568
831.808819	3784.583236
832.125642	3854.816591
832.442421	3996.392356
832.759157	4258.844907
833.075849	4787.830824
833.392497	5633.375997
833.709101	6398.605507
834.025662	6746.878662
834.342179	6416.680564
834.658653	5763.329382
834.975083	5130.770438
835.291469	4562.057708
835.607811	4150.031601
835.924110	4013.902803
836.240366	3820.970284
836.556578	3616.264150
836.872746	3505.439424
837.188871	3468.414669
837.504952	3406.635329
837.820990	3323.047957
838.136984	3275.388888
838.452935	3301.139102
838.768842	3296.831436
839.084706	3316.907832
839.400526	3465.735296
839.716303	3790.640182
840.032037	4296.154487
840.347727	4574.030448
840.663373	4312.755006
840.978977	3939.722225
841.294537	3637.419352
841.610054	3409.453334
841.925527	3304.708239
842.240957	3236.650142
842.556344	3180.809281
842.871687	3127.063019
843.186987	3071.350707
843.502244	3039.931716
843.817458	3008.926099
844.132629	2971.374544
844.447756	2982.434836
844.762840	2967.845736
845.077881	2938.382713
845.392879	2919.846390
845.707833	2918.336564
846.022745	2914.472520
846.337613	2912.655184
846.652438	2903.318967
846.967221	2902.744276
847.281960	2890.136350
847.596656	2883.406409
847.911309	2881.052191
848.225919	2876.815101
848.540485	2873.097250
848.855009	2871.330325
849.169490	2864.234901
849.483928	2854.439939
849.798323	2852.612521
850.112675	2849.003055
850.426984	2862.304139
850.741251	2858.921525
851.055474	2849.134125
851.369654	2840.894359
851.683792	2847.470544
851.997887	2854.898684
852.311938	2857.570496
852.625947	2847.137828
852.939914	2851.442973
853.253837	2854.939014
853.567718	2840.317147
853.881555	2836.785819
854.195350	2852.380628
854.509103	2849.764269
854.822812	2842.222703
855.136479	2839.770182
855.450103	2840.886797
855.763685	2834.618123
856.077224	2829.506392
856.390720	2842.928465
856.704173	2853.812316
857.017584	2842.855368
857.330953	2844.965091
857.644278	2850.346522
857.957561	2858.298943
858.270802	2863.551825
858.584000	2864.960828
858.897155	2849.676049
859.210268	2847.304186
859.523339	2845.590194
859.836367	2846.918538
860.149352	2842.152127
860.462295	2839.681962
860.775195	2847.241172
861.088054	2847.221007
861.400869	2829.892041
861.713642	2824.954231
862.026373	2840.002075
862.339062	2841.718588
862.651708	2847.271419
862.964312	2852.632686
863.276873	2845.680935
863.589392	2853.986236
863.901869	2866.944522
864.214303	2885.763149
864.526696	2904.478433
864.839045	2899.033986
865.151353	2900.039697
865.463619	2896.969634
865.775842	2895.243039
866.088023	2913.736512
866.400162	2922.913932
866.712258	2894.529715
867.024313	2883.948333
867.336325	2890.355640
867.648296	2912.345153
867.960224	2904.649832
868.272110	2892.241032
868.583954	2894.791855
868.895755	2910.011099
869.207515	2898.330745
869.519233	2901.864594
869.830909	2912.725760
870.142542	2921.368818
870.454134	2920.794127
870.765684	2922.669436
871.077191	2922.795465
871.388657	2931.410797
871.700081	2944.510235
872.011463	2956.314097
872.322803	2956.130095
872.634101	2953.773355
872.945357	2970.131900
873.256571	2994.523523
873.567744	2989.351299
873.878874	2983.843838
874.189963	3002.785974
874.501010	3006.932323
874.812015	2995.486383
875.122979	2998.871518
875.433900	2992.378512
875.744780	2995.587206
876.055618	3006.720594
876.366415	3003.206910
876.677169	3015.429188
876.987882	3010.980369
877.298554	3004.321005
877.609183	3023.641227
877.919771	3044.912376
878.230317	3072.406829
878.540822	3122.377266
878.851285	3165.058195
879.161707	3202.455995
879.472087	3298.116931
879.782425	3510.962008
880.092722	3933.597223
880.402977	4444.278710
880.713191	5049.189445
881.023363	6165.769734
881.333494	7431.318640
881.643583	8008.329109
881.953631	7722.893937
882.263637	7114.232583
882.573602	6548.312653
882.883526	5975.350230
883.193408	5409.198406
883.503248	4948.119352
883.813048	4647.107015
884.122806	4361.490361
884.432522	4050.491498
884.742197	3823.271571
885.051831	3630.412148
885.361424	3492.627331
885.670975	3423.518153
885.980485	3344.757686
886.289954	3268.174997
886.599382	3225.158832
886.908768	3189.575847
887.218113	3140.316212
887.527417	3088.760332
887.836680	3038.489946
888.145901	3034.215047
888.455082	3023.812626
888.764221	2974.762199
889.073319	2943.910338
889.382376	2941.798094
889.691392	2944.893363
890.000366	2947.552572
890.309300	2934.879111
890.618193	2945.722633
890.927044	2961.647638
891.235855	2964.823565
891.544625	2948.046605
891.853353	2957.554221
892.162041	2977.401243
892.470687	3012.855678
892.779293	3067.292578
893.087858	3108.924947
893.396381	3178.356759
893.704864	3293.400931
894.013306	3520.888040
894.321707	3813.027946
894.630068	4019.027136
894.938387	4021.847662
895.246665	3978.350066
895.554903	3860.669371
895.863100	3667.683919
896.171256	3505.104187
896.479371	3370.248280
896.787446	3253.427102
897.095480	3150.738798
897.403473	3086.186823
897.711425	3049.933365
898.019336	3042.139741
898.327207	3013.657222
898.635038	2979.211018
898.942827	2966.295582
899.250576	2956.651854
899.558284	2923.549118
899.865952	2902.766961
900.173579	2883.761811
900.481165	2876.555481
900.788711	2865.679192
901.096216	2841.990810
901.403681	2828.755261
901.711105	2836.001919
902.018489	2833.206599
902.325832	2832.573935
902.633135	2840.697754
902.940397	2874.004658
903.247619	2950.872171
903.554800	3131.806745
903.861941	3458.793627
904.169041	3875.651680
904.476101	4178.110828
904.783121	4141.658245
905.090100	3908.867842
905.397039	3640.257522
905.703938	3397.026890
906.010796	3215.762121
906.317614	3108.705657
906.624391	3017.962367
906.931129	2946.614917
907.237826	2885.218704
907.544483	2839.026612
907.851099	2804.928247
908.157675	2791.791000
908.464211	2771.359203
908.770707	2758.053078
909.077163	2745.006572
909.383578	2732.645662
909.689954	2718.860627
909.996289	2719.100082
910.302584	2719.120247
910.608839	2718.769887
910.915054	2714.711758
911.221229	2708.241437
911.527363	2707.094574
911.833458	2716.017417
912.139513	2717.280226
912.445527	2723.062429
912.751502	2730.150291
913.057436	2742.485995
913.363331	2752.681728
913.669186	2770.608072
913.975000	2804.966056
914.280775	2860.406145
914.586510	2929.732093
914.892205	3006.821417
915.197859	3127.920015
915.503475	3309.101605
915.809050	3516.202287
916.114585	3663.973630
916.420081	3687.500695
916.725536	3630.694453
917.030952	3515.499046
917.336328	3395.791807
917.641665	3267.234822
917.946961	3166.071467
918.252218	3101.877414
918.557435	3024.460415
918.862612	2969.234574
919.167750	2920.564754
919.472848	2881.793240
919.777906	2854.810464
920.082925	2831.114521
920.387904	2802.405149
920.692843	2787.889147
920.997743	2772.301899
921.302603	2761.342431
921.607423	2754.544435
921.912204	2741.838207
922.216946	2726.833212
922.521647	2722.996894
922.826310	2712.904504
923.130932	2707.966694
923.435516	2698.285158
923.740059	2692.497913
924.044564	2684.694207
924.349028	2678.866633
924.653454	2673.691889
924.957840	2664.118738
925.262186	2661.570434
925.566493	2656.390649
925.870761	2651.185657
926.174989	2650.444608
926.479178	2645.930255
926.783328	2641.236940
927.087438	2637.728297
927.391509	2636.634367
927.695541	2633.350055
927.999533	2631.711680
928.303486	2626.272275
928.607400	2627.192286
928.911275	2627.492234
929.215110	2626.909981
929.518906	2624.104579
929.822663	2623.625669
930.126381	2624.822943
930.430060	2625.740433
930.733699	2627.124230
931.037299	2627.716566
931.340861	2628.742441
931.644383	2630.073305
931.947866	2626.587347
932.251309	2628.134982
932.554714	2627.028448
932.858080	2622.428395
933.161407	2621.581482
933.464694	2621.800772
933.767943	2619.058384
934.071153	2619.902777
934.374323	2619.532252
934.677455	2619.859927
934.980548	2618.019906
935.283602	2617.616614
935.586617	2615.612755
935.889593	2617.883795
936.192530	2614.728033
936.495428	2615.673249
936.798287	2619.580143
937.101108	2621.644496
937.403890	2624.389404
937.706632	2630.141361
938.009336	2638.275262
938.312002	2645.975625
938.614628	2654.701862
938.917216	2657.396359
939.219765	2660.978099
939.522275	2662.717297
939.824747	2656.325114
940.127179	2654.964002
940.429573	2651.967036
940.731929	2649.806902
941.034246	2646.126860
941.336524	2644.246509
941.638763	2641.592342
941.940964	2637.360293
942.243126	2639.777526
942.545250	2636.911630
942.847335	2633.544140
943.149381	2631.719242
943.451389	2627.109107
943.753359	2622.907305
944.055290	2623.073663
944.357182	2621.793210
944.659036	2622.317490
944.960851	2619.776748
945.262628	2618.798765
945.564367	2618.284567
945.866067	2618.082921
946.167729	2622.483848
946.469352	2622.047788
946.770937	2619.242386
947.072484	2621.200874
947.373992	2617.765328
947.675462	2615.658126
947.976893	2612.328444
948.278286	2611.335336
948.579641	2611.282404
948.880958	2607.614965
949.182236	2611.930192
949.483476	2609.644029
949.784678	2609.122270
950.085841	2608.885336
950.386967	2610.248968
950.688054	2613.117384
950.989103	2613.518156
951.290114	2612.638475
951.591087	2616.464710
951.892021	2618.496295
952.192917	2619.514608
952.493776	2622.272120
952.794596	2623.169445
953.095378	2623.897892
953.396122	2620.245576
953.696828	2620.253137
953.997496	2619.622993
954.298126	2616.988990
954.598718	2612.875409
954.899272	2613.044287
955.199788	2610.138062
955.500266	2607.975407
955.800706	2604.597834
956.101108	2601.729418
956.401472	2602.147833
956.701798	2598.346803
957.002087	2597.726742
957.302337	2598.077102
957.602550	2596.602564
957.902724	2595.614498
958.202861	2595.281782
958.502960	2591.684919
958.803022	2591.712645
959.103045	2588.627459
959.403031	2586.550503
959.702979	2587.520926
960.002889	2588.813982
960.302762	2587.672160
960.602596	2591.379929
960.902393	2587.387335
961.202153	2586.517736
961.501875	2585.738878
961.801559	2586.293405
962.101205	2585.280133
962.400814	2585.423806
962.700385	2584.594536
962.999918	2583.263671
963.299414	2578.247723
963.598873	2583.122519
963.898293	2575.810325
964.197677	2584.891964
964.497022	2581.121181
964.796331	2584.647468
965.095601	2584.581933
965.394835	2582.154617
965.694030	2583.319124
965.993189	2584.869279
966.292309	2583.074628
966.591393	2585.703590
966.890439	2583.976994
967.189447	2584.118147
967.488419	2581.499267
967.787353	2582.114288
968.086249	2581.665625
968.385108	2584.060173
968.683930	2580.453228
968.982714	2584.395410
969.281462	2581.131263
969.580172	2583.808116
969.878844	2580.705286
970.177480	2583.056984
970.476078	2579.651684
970.774639	2581.922724
971.073162	2583.445153
971.371649	2582.699062
971.670098	2584.506316
971.968510	2584.317272
972.266885	2585.075966
972.565223	2584.463466
972.863524	2586.351378
973.161788	2583.596387
973.460014	2581.015317
973.758204	2584.629824
974.056356	2583.198136
974.354471	2584.929772
974.652550	2582.656212
974.950591	2584.342478
975.248595	2585.978333
975.546563	2581.642940
975.844493	2581.660584
976.142386	2581.315265
976.440243	2583.505647
976.738062	2583.339288
977.035845	2581.511870
977.333590	2583.084710
977.631299	2580.445666
977.928971	2579.697055
978.226606	2578.088927
978.524204	2579.185378
978.821765	2578.099009
979.119290	2579.419791
979.416777	2583.372056
979.714228	2582.469689
980.011642	2580.465831
980.309020	2580.997672
980.606360	2581.635378
980.903664	2584.385328
981.200931	2581.738722
981.498162	2583.268712
981.795356	2580.435584
982.092513	2585.910277
982.389633	2582.704103
982.686717	2589.565113
982.983764	2594.150043
983.280775	2598.911413
983.577749	2597.817482
983.874686	2599.811259
984.171587	2594.142481
984.468451	2592.569641
984.765279	2591.828592
985.062070	2587.669640
985.358824	2588.587130
985.655543	2589.469332
985.952224	2583.815678
986.248869	2583.525811
986.545478	2583.598908
986.842050	2582.633527
987.138586	2580.337281
987.435086	2578.305696
987.731549	2577.345357
988.027975	2578.615727
988.324366	2579.681931
988.620719	2577.040367
988.917037	2578.358628
989.213318	2576.659760
989.509563	2579.419791
989.805772	2578.782085
990.101944	2577.667990
990.398080	2575.187743
990.694180	2575.575912
990.990244	2577.289904
991.286271	2577.136149
991.582262	2576.760583
991.878217	2578.041036
992.174136	2579.618917
992.470019	2576.445511
992.765865	2576.362332
993.061676	2572.649522
993.357450	2573.985427
993.653188	2571.938719
993.948890	2576.604307
994.244556	2577.617579
994.540186	2575.926272
994.835780	2579.810481
995.131337	2577.846951
995.426859	2579.250913
995.722345	2578.885429
996.017795	2581.650502
996.313208	2585.305338
996.608586	2581.010275
996.903928	2581.799216
997.199234	2585.174268
997.494504	2584.589495
997.789738	2580.543969
998.084936	2579.976839
998.380099	2582.618403
998.675225	2582.167220
998.970316	2580.231417
999.265371	2577.904925
999.560390	2580.821232
999.855373	2577.708320
1000.150320	2577.776375
1000.445232	2577.594894
1000.740108	2577.105902
1001.034948	2578.666139
1001.329752	2577.557085
1001.624521	2578.819894
1001.919254	2575.901066
1002.213951	2576.581622
1002.508613	2574.872671
1002.803239	2577.395768
1003.097829	2572.856209
1003.392384	2577.549523
1003.686903	2575.424677
1003.981386	2575.192784
1004.275834	2576.770665
1004.570246	2574.335788
1004.864623	2577.264698
1005.158964	2576.074986
1005.453270	2573.330077
1005.747540	2577.068093
1006.041775	2573.105746
1006.335974	2576.369893
1006.630138	2576.379976
1006.924266	2575.596076
1007.218359	2573.924934
1007.512416	2572.543657
1007.806438	2573.451065
1008.100425	2573.569532
1008.394376	2570.058369
1008.688292	2575.139852
1008.982172	2574.436611
1009.276017	2576.516087
1009.569827	2576.352249
1009.863602	2576.911817
1010.157341	2575.505335
1010.451045	2574.907959
1010.744714	2574.091292
1011.038347	2574.083730
1011.331945	2575.303689
1011.625508	2575.258319
1011.919036	2575.961560
1012.212528	2576.695048
1012.505986	2574.214800
1012.799408	2573.125911
1013.092795	2575.578432
1013.386147	2576.987435
1013.679464	2577.390727
1013.972745	2575.041549
1014.265992	2575.250757
1014.559204	2576.032136
1014.852380	2574.280335
1015.145521	2578.000707
1015.438628	2572.959553
1015.731699	2575.177660
1016.024736	2575.946436
1016.317737	2574.139183
1016.610703	2572.624316
1016.903635	2575.946436
1017.196531	2573.279666
1017.489393	2574.844944
1017.782219	2574.161868
1018.075011	2574.812177
1018.367768	2574.822259
1018.660490	2574.744121
1018.953177	2574.744121
1019.245829	2574.744121
