Dividing Wavelength (nm)	Counts (n)	Blue Motor Position (mm): 29.300000	Red Motor Position (mm): 0.000000	
326.493990	2211.569316
326.888308	2211.569316
327.282561	2211.569316
327.676750	2170.221772
328.070874	2170.536844
328.464933	2169.972235
328.858929	2171.078768
329.252859	2178.708554
329.646726	2186.053516
330.040528	2199.369723
330.434265	2210.467824
330.827938	2228.719321
331.221547	2246.595253
331.615091	2263.412542
332.008571	2283.776283
332.401986	2300.805301
332.795338	2317.322641
333.188625	2337.419201
333.581847	2357.127592
333.975006	2377.690458
334.368100	2393.761657
334.761129	2413.631365
335.154095	2432.366813
335.546996	2456.544187
335.939833	2493.077429
336.332606	2508.694923
336.725315	2521.781759
337.117960	2537.232895
337.510540	2548.646068
337.903056	2553.808209
338.295508	2567.515107
338.687896	2573.866960
339.080220	2582.376428
339.472480	2591.251379
339.864676	2593.124168
340.256807	2600.098604
340.648875	2605.568256
341.040879	2604.686054
341.432818	2607.819132
341.824694	2613.475306
342.216506	2611.531941
342.608253	2613.465224
342.999937	2616.739453
343.391557	2611.163937
343.783113	2615.844648
344.174605	2613.979422
344.566033	2609.923813
344.957397	2612.769545
345.348697	2608.686210
345.739934	2607.269646
346.131106	2605.601024
346.522215	2604.123966
346.913260	2600.559870
347.304241	2601.371496
347.695159	2597.394025
348.086012	2598.097266
348.476802	2594.071905
348.867528	2591.110227
349.258191	2586.842890
349.648789	2587.747777
350.039324	2585.035637
350.429796	2585.464135
350.820203	2587.105030
351.210548	2584.589495
351.600828	2584.244176
351.991045	2585.885071
352.381198	2579.341653
352.771288	2581.164031
353.161314	2580.254102
353.551276	2578.887950
353.941175	2580.480954
354.331010	2579.419791
354.720782	2578.706468
355.110490	2579.543300
355.500135	2579.084555
355.889717	2578.918197
356.279235	2579.351736
356.668689	2578.724112
357.058080	2579.679411
357.447408	2581.612693
357.836672	2580.937179
358.225873	2578.850141
358.615010	2580.954823
359.004084	2581.920204
359.393095	2580.211252
359.782043	2581.612693
360.170927	2584.897005
360.559748	2583.661922
360.948505	2582.648650
361.337199	2582.855338
361.725830	2585.310380
362.114398	2584.579412
362.502903	2588.650144
362.891344	2586.275761
363.279722	2586.676532
363.668037	2587.034454
364.056289	2589.108889
364.444478	2588.793817
364.832603	2587.039495
365.220665	2590.984198
365.608665	2586.999166
365.996601	2590.964034
366.384474	2590.865731
366.772284	2591.644589
367.160031	2590.535536
367.547715	2592.025197
367.935336	2592.005032
368.322893	2590.515371
368.710388	2586.588312
369.097820	2592.400762
369.485189	2590.989239
369.872495	2593.456884
370.259738	2595.579210
370.646918	2594.470156
371.034035	2594.301277
371.421090	2594.205496
371.808081	2594.117275
372.195010	2596.287492
372.581875	2596.350507
372.968678	2599.067688
373.355418	2596.093408
373.742096	2596.355548
374.128710	2596.143819
374.515262	2597.940991
374.901751	2597.225147
375.288177	2597.991402
375.674540	2597.020980
376.060841	2601.512648
376.447079	2597.562904
376.833254	2599.435693
377.219367	2597.078953
377.605417	2600.143975
377.991404	2599.899479
378.377329	2599.513831
378.763191	2598.470312
379.148991	2601.983996
379.534727	2600.320415
379.920402	2600.159098
380.306013	2603.761003
380.691563	2603.478698
381.077049	2602.316712
381.462474	2602.858636
381.847835	2601.570621
382.233134	2606.135386
382.618371	2602.737648
383.003545	2602.664552
383.388657	2604.086157
383.773706	2603.682865
384.158693	2603.632453
384.543618	2605.472474
384.928480	2604.718822
385.313280	2607.204111
385.698017	2606.137907
386.082692	2607.173864
386.467305	2605.651435
386.851856	2609.598659
387.236344	2608.161930
387.620770	2602.805704
388.005133	2602.843513
388.389435	2602.888883
388.773674	2604.771754
389.157851	2606.803339
389.541965	2608.726539
389.926018	2608.650922
390.310008	2611.017744
390.693936	2609.187805
391.077802	2609.089502
391.461606	2610.329626
391.845348	2609.354163
392.229027	2613.175357
392.612645	2610.954729
392.996200	2610.652260
393.379694	2610.392641
393.763125	2612.666201
394.146494	2614.685183
394.529801	2613.495471
394.913047	2613.334154
395.296230	2614.617127
395.679351	2613.061932
396.062410	2615.857251
396.445408	2612.285594
396.828343	2615.224587
397.211217	2614.498660
397.594028	2614.743156
397.976778	2613.843310
398.359466	2615.932869
398.742092	2616.666357
399.124656	2615.035543
399.507158	2617.316665
399.889598	2617.253651
400.271977	2617.891357
400.654294	2618.695421
401.036549	2619.015534
401.418742	2618.892026
401.800874	2620.956378
402.182944	2618.297170
402.564952	2619.111316
402.946898	2623.655916
403.328783	2620.091821
403.710606	2620.101903
404.092367	2623.492079
404.474067	2623.862604
404.855705	2622.793879
405.237282	2621.364712
405.618797	2622.476286
406.000250	2624.719600
406.381642	2624.182717
406.762972	2622.057871
407.144240	2621.629373
407.525447	2622.476286
407.906593	2620.777417
408.287677	2627.391411
408.668700	2624.089456
409.049661	2626.030300
409.430560	2630.254787
409.811399	2629.594396
410.192176	2628.545836
410.572891	2627.961062
410.953545	2630.663120
411.334138	2630.824437
411.714669	2629.435599
412.095139	2630.607667
412.475547	2630.985754
412.855894	2631.462143
413.236180	2633.806280
413.616405	2632.697226
413.996568	2632.344345
414.376670	2633.856691
414.756711	2634.133955
415.136691	2637.778709
415.516609	2636.079840
415.896466	2637.564460
416.276262	2636.301651
416.655997	2639.185191
417.035670	2638.479429
417.415283	2639.895993
417.794834	2641.342805
418.174324	2637.662762
418.553753	2638.005561
418.933121	2641.297434
419.312428	2642.013278
419.691674	2643.838176
420.070859	2644.828762
420.449983	2643.056797
420.829045	2644.644760
421.208047	2642.134266
421.586988	2647.384627
421.965867	2647.752632
422.344686	2651.369660
422.723444	2652.473672
423.102141	2648.254227
423.480777	2651.455359
423.859352	2650.487458
424.237866	2655.354692
424.616319	2654.152377
424.994712	2656.919970
425.373044	2659.493479
425.751314	2659.354847
426.129524	2659.758140
426.507673	2665.162257
426.885762	2666.684685
427.263789	2675.305058
427.641756	2679.111129
428.019662	2685.558765
428.397508	2692.760053
428.775292	2701.398070
429.153016	2712.786037
429.530679	2722.926318
429.908282	2736.446692
430.285824	2749.226017
430.663305	2774.399019
431.040726	2786.233128
431.418086	2810.753300
431.795385	2839.621468
432.172624	2867.171373
432.549802	2898.983575
432.926920	2933.286106
433.303977	2962.368523
433.680974	3021.919673
434.057910	3066.649831
434.434786	3119.118160
434.811601	3165.055675
435.188355	3260.240221
435.565050	3301.028197
435.941683	3356.410313
436.318257	3481.768686
436.694770	3562.938824
437.071222	3649.830673
437.447614	3714.922051
437.823946	3781.177936
438.200218	3888.330182
438.576429	3943.586269
438.952580	4072.191145
439.328670	4179.000592
439.704700	4233.177872
440.080670	4327.729754
440.456580	4547.138413
440.832429	4598.520374
441.208218	4598.308645
441.583947	4781.599958
441.959616	4931.586888
442.335224	4988.176360
442.710773	5141.724865
443.086261	5323.778575
443.461689	5200.368608
443.837057	5516.963152
444.212365	5746.252473
444.587612	5747.510241
444.962800	5953.756448
445.337927	5992.676676
445.712995	5928.482623
446.088002	6518.673189
446.462949	6491.425752
446.837837	6606.757270
447.212664	6751.236739
447.587431	7111.991791
447.962139	7602.838858
448.336786	8861.156229
448.711374	9380.405157
449.085901	8407.102022
449.460369	8330.330290
449.834776	8165.330804
450.209124	8800.138102
450.583412	9174.829424
450.957640	9907.404860
451.331808	9574.361031
451.705917	9064.347496
452.079965	8747.248837
452.453954	9490.274585
452.827883	9358.226601
453.201752	9680.731897
453.575562	9459.591602
453.949311	9876.885714
454.323001	9955.139545
454.696632	10234.729499
455.070202	10565.343492
455.443713	10864.387259
455.817164	11330.880512
456.190556	11448.052051
456.563888	11847.427382
456.937160	12103.543203
457.310373	11664.592294
457.683526	11834.640496
458.056619	11571.182234
458.429653	11757.833476
458.802628	11411.246587
459.175542	11777.751074
459.548398	12686.333356
459.921194	13075.956575
460.293930	13178.644878
460.666607	14055.115010
461.039224	15015.515311
461.411782	15723.784824
461.784280	15757.318579
462.156719	15887.070317
462.529099	15696.421441
462.901419	14769.471715
463.273680	14647.674918
463.645882	14563.162494
464.018024	14376.793557
464.390106	14624.828409
464.762130	15365.114289
465.134094	16093.752584
465.505999	17959.682748
465.877845	21109.330136
466.249631	23931.128604
466.621358	23767.049129
466.993026	22435.577054
467.364634	21951.621244
467.736184	20587.860579
468.107674	19817.824329
468.479105	19954.905905
468.850477	19464.966245
469.221790	19072.756914
469.593043	18429.987114
469.964238	17907.819357
470.335373	17597.024661
470.706449	18004.264192
471.077467	17558.442190
471.448425	19370.631133
471.819324	23304.364467
472.190164	25443.346209
472.560945	22006.189214
472.931667	19612.477968
473.302330	18974.214959
473.672934	18438.781407
474.043479	18836.465431
474.413965	18653.927770
474.784393	18303.156724
475.154761	18957.148133
475.525070	18993.421756
475.895321	18634.100912
476.265513	19210.927379
476.635645	19784.436767
477.005719	19593.828220
477.375734	19780.716396
477.745691	20255.154508
478.115588	20758.831312
478.485427	21278.271804
478.855207	22316.353766
479.224928	24057.273397
479.594591	26266.622084
479.964194	26372.955143
480.333739	26581.026247
480.703226	26139.398485
481.072653	25795.707739
481.442022	26349.934713
481.811333	27254.156397
482.180584	27212.705509
482.549777	26255.960044
482.918912	25888.439764
483.287988	25999.743400
483.657005	25710.492074
484.025964	25424.144454
484.394864	25371.429108
484.763706	25068.082716
485.132489	24482.930784
485.501213	24649.913964
485.869879	24573.119547
486.238487	24368.340316
486.607036	24526.645149
486.975527	24202.067938
487.343959	24541.919845
487.712333	24502.485419
488.080648	24167.286497
488.448905	24625.255160
488.817104	24389.021649
489.185244	25042.849221
489.553326	25020.048082
489.921350	25975.404709
490.289315	28235.159894
490.657222	30058.265456
491.025070	30553.518492
491.392861	30341.595946
491.760593	29504.441774
492.128267	28615.938408
492.495883	27580.646725
492.863440	26717.369294
493.230939	25829.163357
493.598380	25674.490674
493.965763	25263.533292
494.333088	24835.617468
494.700354	24757.840026
495.067563	24649.127544
495.434713	24397.321909
495.801805	24529.364852
496.168839	24358.439489
496.535815	24172.030223
496.902733	24383.085691
497.269593	24057.918665
497.636395	24245.479835
498.003139	24241.772066
498.369825	23983.380164
498.736453	24173.509802
499.103023	24064.199942
499.469535	24082.408590
499.835989	24278.063333
500.202385	24314.112624
500.568723	23808.376508
500.935003	24085.992850
501.301226	23670.551362
501.667390	24495.500901
502.033497	24753.469346
502.399546	24463.182063
502.765537	24062.135590
503.131470	24441.328662
503.497345	24569.729371
503.863163	23790.036790
504.228923	24404.755090
504.594625	24587.998512
504.960269	24105.219811
505.325856	24617.433809
505.691385	24029.854561
506.056856	24627.589214
506.422270	24590.158647
506.787625	24180.083466
507.152924	24581.873510
507.518164	24609.501554
507.883347	24417.393263
508.248472	24102.611014
508.613540	24891.629729
508.978550	24664.412322
509.343503	24655.035776
509.708398	24918.176445
510.073236	25082.807927
510.438016	25289.759895
510.802738	24971.448838
511.167403	25221.737086
511.532010	24914.912298
511.896561	25694.415835
512.261053	25660.950135
512.625488	25501.195970
512.989866	25389.972992
513.354186	25251.510140
513.718449	25341.222514
514.082655	25722.905916
514.446803	25454.270389
514.810894	25932.191938
515.174927	25399.508335
515.538904	25442.048112
515.902822	25926.676916
516.266684	25687.819485
516.630488	25582.887868
516.994235	25570.453862
517.357925	25859.168304
517.721558	26044.728136
518.085133	26134.238864
518.448651	26059.476032
518.812112	25787.490658
519.175516	25976.874205
519.538863	26131.725849
519.902152	25919.077377
520.265385	26211.421450
520.628560	25989.504816
520.991678	26013.853589
521.354739	26082.433446
521.717743	26141.772868
522.080690	25937.724605
522.443580	26271.353207
522.806413	26272.169874
523.169189	26359.747319
523.531908	26421.128409
523.894569	26010.105492
524.257174	26082.665339
524.619722	26285.367615
524.982213	25971.268442
525.344647	26041.295110
525.707025	26157.760888
526.069345	26151.587995
526.431608	26102.199811
526.793815	26294.560159
527.155964	25747.068166
527.518057	25918.064105
527.880093	25847.576171
528.242072	26066.997433
528.603995	25791.364785
528.965860	25586.807365
529.327669	25621.361954
529.689421	25616.593022
530.051117	25443.290756
530.412755	25633.594314
530.774337	25429.009167
531.135862	25299.436390
531.497331	25498.395609
531.858743	25050.390787
532.220098	25537.996393
532.581396	25204.718150
532.942638	25158.931870
533.303824	25241.508491
533.664953	25271.329437
534.026025	24933.004999
534.387040	25155.975234
534.747999	25227.927623
535.108902	25386.507199
535.469748	24875.228335
535.830537	25065.957870
536.191270	25188.036972
536.551947	25067.117335
536.912567	24722.252001
537.273131	25061.690533
537.633638	24752.166208
537.994089	24968.945905
538.354483	24524.600961
538.714821	25016.788976
539.075103	25065.267232
539.435328	24844.247924
539.795497	24401.299379
540.155609	24807.742408
540.515665	25089.903351
540.875665	24339.426778
541.235609	24613.053047
541.595496	24601.493681
541.955328	24934.098929
542.315102	24854.652865
542.674821	24407.817591
543.034483	24293.159068
543.394090	24452.293171
543.753640	24239.448094
544.113134	24892.562342
544.472571	24486.141999
544.831953	24777.881133
545.191278	24377.346337
545.550548	24308.534587
545.909761	24515.110989
546.268918	24739.134825
546.628019	24712.898140
546.987064	24412.815895
547.346053	24171.896633
547.704986	24292.705364
548.063863	24453.797956
548.422684	24459.139058
548.781449	24002.050077
549.140158	24399.845007
549.498811	23975.125274
549.857408	23715.097518
550.215949	24138.267095
550.574434	23823.394105
550.932864	24040.902250
551.291237	24197.901425
551.649555	24049.217633
552.007817	24106.969092
552.366022	23988.932995
552.724173	24034.399161
553.082267	23969.254851
553.440305	24438.457724
553.798288	23697.108160
554.156215	24231.783020
554.514086	24317.510361
554.871902	23685.473177
555.229661	23979.420337
555.587365	23840.718031
555.945014	23693.763355
556.302606	23951.325987
556.660143	23878.894689
557.017625	24140.964113
557.375050	23664.857379
557.732421	24059.320105
558.089735	23862.314334
558.446994	23935.209418
558.804197	23962.701351
559.161345	23904.443256
559.518437	23662.419981
559.875474	23867.174006
560.232455	24039.702455
560.589381	23863.292317
560.946251	23849.315718
561.303065	24164.871785
561.659825	24248.517130
562.016528	23850.006357
562.373177	23603.559468
562.729770	23954.060813
563.086307	23810.965141
563.442789	23988.043231
563.799216	23809.709893
564.155587	23831.696886
564.511904	23792.113746
564.868164	23729.593356
565.224370	23717.681109
565.580520	23620.384319
565.936615	23765.632565
566.292654	23443.825468
566.648638	23747.005501
567.004567	23575.313883
567.360441	23517.721221
567.716260	23240.205702
568.072023	23578.005860
568.427732	23327.150483
568.783385	23112.987144
569.138982	23345.681764
569.494525	23383.825655
569.850013	23132.650164
570.205445	23228.900915
570.560823	23030.765924
570.916145	22787.273153
571.271412	22961.094658
571.626625	22725.292166
571.981782	22835.950534
572.336884	22642.468529
572.691931	22771.126337
573.046923	22504.356037
573.401860	22385.538561
573.756743	22386.604765
574.111570	22303.082928
574.466342	22246.317016
574.821059	22322.561947
575.175722	22023.508098
575.530330	22025.953058
575.884882	22055.521945
576.239380	21955.243313
576.593823	21844.166529
576.948211	21818.675935
577.302544	21657.651399
577.656823	21534.813603
578.011047	21637.345631
578.365216	21499.061740
578.719330	21393.147098
579.073389	21275.499170
579.427394	21430.035741
579.781344	21198.616532
580.135239	21084.963719
580.489080	21055.820808
580.842866	20816.217287
581.196597	21015.650374
581.550273	20995.042137
581.903895	20879.813963
582.257463	21201.389167
582.610975	20731.271324
582.964434	21029.190913
583.317837	20729.280068
583.671186	20834.015080
584.024481	20787.870879
584.377721	20574.705688
584.730906	20626.846343
585.084037	20649.748304
585.437113	20557.706918
585.790135	20764.865573
586.143103	20228.421269
586.496016	20241.548433
586.848874	20482.921400
587.201679	20416.045453
587.554428	20078.222611
587.907124	20425.248080
588.259765	20194.378357
588.612352	20279.314238
588.964884	19847.972950
589.317362	20005.831641
589.669786	20068.972093
590.022155	20106.659759
590.374470	20295.329983
590.726731	20098.558625
591.078937	19852.371357
591.431090	19953.597726
591.783188	19696.272028
592.135232	19668.825466
592.487222	19772.602659
592.839157	19781.643968
593.191038	19676.813174
593.542866	19570.154961
593.894639	19276.603532
594.246358	19501.761627
594.598022	19401.225896
594.949633	19168.198559
595.301190	19119.990005
595.652692	19286.716086
596.004141	19531.287665
596.355535	18858.235653
596.706876	18869.782416
597.058162	18762.143699
597.409395	18984.309870
597.760573	19066.803312
598.111698	18842.451801
598.462768	18781.453839
598.813785	18743.037726
599.164748	18566.239420
599.515657	18602.308876
599.866511	18390.172081
600.217312	18745.865814
600.568060	18275.765615
600.918753	18585.098376
601.269392	18487.161360
601.619978	18267.581301
601.970510	18480.323035
602.320988	18430.811342
602.671412	18630.803998
603.021783	18533.308082
603.372100	18262.648532
603.722363	18413.217715
604.072572	18356.098922
604.422728	18482.805803
604.772830	18246.158918
605.122878	18191.341411
605.472872	18190.900310
605.822813	18169.757711
606.172701	18134.951064
606.522534	18337.658381
606.872314	18364.321044
607.222041	18190.975927
607.571714	18411.947345
607.921333	18233.929079
608.270899	18322.161874
608.620411	18501.664760
608.969870	18263.724819
609.319276	18268.937372
609.668627	18302.776117
610.017926	18430.448379
610.367171	18551.216781
610.716362	18586.202389
611.065500	18405.005676
611.414585	18544.580102
611.763616	18513.156070
612.112594	18467.233679
612.461518	18433.820911
612.810389	18630.201580
613.159207	18489.810486
613.507971	18400.526611
613.856682	18678.548766
614.205340	18598.459955
614.553945	18751.438809
614.902496	18495.602772
615.250994	18732.728567
615.599439	18671.246654
615.947830	18657.985899
616.296169	18698.733546
616.644454	18666.699534
616.992686	18631.660994
617.340864	18848.773408
617.688990	18611.851780
618.037063	18791.833575
618.385082	18631.406416
618.733048	18913.985774
619.080961	18780.322100
619.428821	18824.958997
619.776628	18718.671309
620.124382	18640.301532
620.472083	18677.409465
620.819731	18698.660449
621.167326	18374.065594
621.514868	18431.988452
621.862357	18196.793419
622.209793	18207.536118
622.557176	18044.132157
622.904506	17865.539200
623.251783	17772.907998
623.599007	17535.318417
623.946179	17479.316239
624.293297	17426.648784
624.640363	17185.832865
624.987376	17194.483485
625.334336	16987.443297
625.681243	16837.756315
626.028097	16851.778285
626.374899	16766.799554
626.721647	16634.691077
627.068343	16471.398021
627.414987	16406.873773
627.761577	16379.432252
628.108115	16425.783141
628.454600	16146.122611
628.801032	16242.791777
629.147412	16173.279306
629.493739	16192.816298
629.840014	16007.251425
630.186236	16102.645179
630.532405	15861.264651
630.878521	16056.569033
631.224585	15951.808815
631.570597	15777.097546
631.916556	15809.867567
632.262462	15786.330419
632.608316	15698.815989
632.954117	15642.710467
633.299866	15637.346679
633.645562	15558.989504
633.991206	15316.928420
634.336797	15176.476833
634.682336	15157.070911
635.027823	15041.273087
635.373257	14916.819601
635.718639	14823.782586
636.063968	14779.692655
636.409245	14528.328121
636.754470	14554.307707
637.099642	14398.702412
637.444762	14175.041539
637.789829	14221.258838
638.134845	14059.450402
638.479808	14089.646913
638.824719	14033.024673
639.169577	13888.696439
639.514383	13933.156895
639.859137	13747.476076
640.203839	13831.895238
640.548489	13668.314837
640.893086	13662.451975
641.237632	13527.885935
641.582125	13684.335624
641.926566	13520.089790
642.270955	13522.635573
642.615292	13486.896313
642.959576	13494.415194
643.303809	13527.268393
643.647990	13448.381897
643.992118	13511.885312
644.336195	13291.324749
644.680219	13497.160102
645.024192	13415.400148
645.368112	13660.836285
645.711981	13723.323908
646.055797	13897.480649
646.399562	13868.559550
646.743274	14135.617195
647.086935	14402.553853
647.430544	14374.136869
647.774101	14403.637701
648.117606	14554.199323
648.461059	14520.292522
648.804460	14506.275594
649.147810	14239.086878
649.491108	14136.635508
649.834354	14165.705322
650.177548	13849.317466
650.520690	13666.472295
650.863781	13585.163525
651.206820	13627.337818
651.549807	13460.357158
651.892742	13264.689813
652.235626	13197.372765
652.578458	13198.766644
652.921238	12886.474725
653.263967	13085.638111
653.606644	12919.065785
653.949269	12901.605748
654.291843	12696.062783
654.634365	12855.118748
654.976836	12704.110985
655.319255	12718.722769
655.661622	12666.758555
656.003938	12586.079929
656.346203	12513.303312
656.688416	12586.032038
657.030577	12552.518447
657.372687	12467.040643
657.714746	12434.467227
658.056753	12632.340077
658.398708	12442.094493
658.740612	12448.345524
659.082465	12553.398129
659.424266	12504.398113
659.766016	12544.487889
660.107715	12442.893516
660.449362	12529.598841
660.790958	12480.205616
661.132503	12424.405084
661.473996	12488.624343
661.815438	12509.487158
662.156829	12523.466278
662.498168	12505.915501
662.839456	12500.478616
663.180693	12522.223633
663.521879	12618.555042
663.863013	12589.467584
664.204097	12562.285683
664.545129	12683.217923
664.886110	12655.141216
665.227040	12745.980288
665.567918	12751.966658
665.908746	12786.395218
666.249522	12771.632199
666.590248	12811.162407
666.930922	12926.647680
667.271545	12902.881160
667.612118	12995.678720
667.952639	12896.259605
668.293109	12910.039599
668.633528	12867.043597
668.973896	12838.044360
669.314213	12930.778906
669.654480	12660.487360
669.994695	12730.627454
670.334859	12761.040735
670.674973	12700.337681
671.015035	12736.424781
671.355047	12675.610821
671.695008	12644.988332
672.034918	12662.113132
672.374777	12698.205273
672.714585	12608.344185
673.054342	12643.206284
673.394049	12597.341867
673.733705	12684.579034
674.073310	12608.255965
674.412864	12621.095784
674.752368	12484.183086
675.091820	12498.053821
675.431223	12485.813900
675.770574	12357.703057
676.109875	12278.783793
676.449125	12241.554872
676.788324	12184.922550
677.127473	12015.650686
677.466571	12005.023934
677.805619	11902.499468
678.144616	11828.492808
678.483562	11796.234465
678.822458	11665.383755
679.161303	11649.453709
679.500098	11627.406223
679.838842	11581.738410
680.177535	11614.984820
680.516179	11678.132833
680.854771	11619.310130
681.193314	11836.082266
681.531805	11986.648928
681.870247	12402.977660
682.208638	12820.400322
682.546978	13135.550575
682.885268	13177.583716
683.223508	12871.570554
683.561697	12716.638252
683.899836	12624.027215
684.237925	12416.997108
684.575963	12339.484327
684.913951	12252.332859
685.251889	12200.189684
685.589776	12303.026702
685.927614	12230.524828
686.265401	12193.210207
686.603137	12246.815316
686.940824	12389.729507
687.278460	12521.159950
687.616046	12566.681569
687.953582	12739.129360
688.291068	12658.231443
688.628504	12892.057803
688.965889	12904.998445
689.303224	12876.382335
689.640510	12759.626691
689.977745	12448.597581
690.314930	12222.164074
690.652065	12144.011066
690.989150	11847.833195
691.326185	11619.831889
691.663170	11414.515775
692.000105	11174.730772
692.336990	11061.254399
692.673825	10805.367950
693.010610	10689.852430
693.347345	10478.461726
693.684030	10279.837744
694.020665	10224.097706
694.357251	10026.734012
694.693786	9971.490528
695.030272	9808.013470
695.366707	9685.273977
695.703093	9622.783834
696.039429	9616.757135
696.375716	9544.799705
696.711952	9405.563035
697.048139	9451.276218
697.384276	9401.454495
697.720363	9419.963091
698.056400	9353.114871
698.392388	9308.661976
698.728326	9267.485832
699.064214	9202.928815
699.400053	9256.196168
699.735842	9066.311026
700.071581	9025.702011
700.407270	8951.874313
700.742910	8872.203917
701.078501	8783.227552
701.414042	8657.231473
701.749533	8594.940456
702.084974	8448.681459
702.420366	8571.753669
702.755709	8450.392931
703.091002	8312.797157
703.426246	8342.776899
703.761440	8296.410887
704.096584	8248.605625
704.431679	8181.727157
704.766725	8170.606372
705.101721	8119.547045
705.436668	8165.439189
705.771565	8061.031852
706.106413	8141.062690
706.441212	8180.401334
706.775961	8136.061865
707.110661	8170.155189
707.445311	8320.605905
707.779913	8210.761683
708.114465	8345.199174
708.448967	8384.406748
708.783421	8528.092235
709.117825	8712.268270
709.452180	8741.063341
709.786485	8834.763268
710.120742	9111.757028
710.454949	9112.616544
710.789107	9213.180002
711.123216	9433.203682
711.457275	9594.437426
711.791286	9754.178988
712.125247	9751.797043
712.459159	9740.890507
712.793023	9990.236058
713.126837	9565.503723
713.460602	9714.167350
713.794318	9545.061845
714.127985	9571.031349
714.461602	9245.788705
714.795171	9201.940749
715.128691	8952.852297
715.462162	8698.793266
715.795584	8640.487281
716.128957	8498.730035
716.462281	8328.316349
716.795556	8381.039257
717.128782	8179.370418
717.461960	7909.779593
717.795088	7979.304666
718.128167	7884.321766
718.461198	7720.101138
718.794180	7662.082498
719.127113	7657.530336
719.459997	7501.723394
719.792833	7271.337622
720.125619	7328.617733
720.458357	7189.302926
720.791046	7175.966553
721.123686	7176.894126
721.456278	7013.341451
721.788821	7035.550254
722.121315	6931.536127
722.453761	6994.820252
722.786158	6936.582322
723.118506	6948.338293
723.450805	6919.155053
723.783056	6987.011504
724.115259	6894.665128
724.447412	6893.125055
724.779518	6933.330778
725.111574	6938.961747
725.443582	7020.341093
725.775542	6994.298492
726.107453	7195.236364
726.439315	7101.826304
726.771129	7164.613875
727.102895	7331.844072
727.434612	7438.219979
727.766281	7476.444528
728.097901	7551.111579
728.429473	7545.452883
728.760996	7518.875920
729.092471	7496.215934
729.423897	7453.028369
729.755276	7460.237219
730.086606	7385.406331
730.417887	7489.485993
730.749120	7682.630241
731.080305	7870.539251
731.411442	7997.820824
731.742530	7992.459557
732.073570	8101.897966
732.404562	8182.599277
732.735506	8036.070579
733.066401	8182.316972
733.397249	8103.758151
733.728048	7865.813169
734.058798	7533.142386
734.389501	7307.734753
734.720156	7131.465768
735.050762	6892.971300
735.381320	6802.238093
735.711831	6750.500731
736.042293	6640.883361
736.372707	6659.598644
736.703073	6515.837540
737.033391	6560.234982
737.363661	6570.266878
737.693883	6604.052691
738.024056	6688.217275
738.354182	6728.133131
738.684260	6757.989365
739.014290	6875.932200
739.344272	6988.632235
739.674207	7016.550145
740.004093	7086.269303
740.333931	7100.835717
740.663722	7108.946934
740.993464	7186.348810
741.323159	7176.505957
741.652806	6924.085302
741.982405	6935.697599
742.311956	7000.509194
742.641460	6832.674059
742.970915	6637.334388
743.300323	6632.308358
743.629683	6582.385812
743.958996	6445.566376
744.288260	6351.692529
744.617477	6302.664787
744.946647	6308.615870
745.275768	6140.621938
745.604842	6097.020999
745.933869	6076.939562
746.262847	6038.367174
746.591778	6028.330236
746.920662	5985.251056
747.249498	5977.457432
747.578286	6021.459144
747.907027	6099.239106
748.235720	6156.874618
748.564365	6129.637264
748.892963	6158.432335
749.221514	6311.615356
749.550017	6146.038658
749.878473	6021.033166
750.206881	6073.579633
750.535242	6012.574110
750.863555	5943.086845
751.191821	5967.564168
751.520039	5965.686338
751.848210	5875.346341
752.176334	5893.267643
752.504411	5943.976609
752.832440	5869.707810
753.160421	5799.368590
753.488356	5851.473957
753.816243	5878.726434
754.144082	5735.043467
754.471875	5704.199168
754.799620	5750.953349
755.127318	5755.986941
755.454969	5710.954314
755.782572	5674.277399
756.110129	5721.724739
756.437638	5705.459456
756.765100	5643.533922
757.092515	5640.035361
757.419882	5693.159041
757.747203	5672.225649
758.074477	5735.971040
758.401703	5724.008382
758.728882	5678.552297
759.056014	5732.172530
759.383099	5859.070975
759.710138	5872.906422
760.037129	5854.919585
760.364073	5865.379979
760.690970	5946.109017
761.017820	5922.034987
761.344623	5883.475201
761.671379	5985.848433
761.998088	6102.105002
762.324751	6343.125088
762.651366	6944.547345
762.977935	8263.776977
763.304456	9889.980111
763.630931	10794.668101
763.957359	10407.731817
764.283740	9463.659813
764.610074	8624.395918
764.936362	7626.270141
765.262602	7026.403081
765.588796	6490.407439
765.914943	6147.409852
766.241044	5981.795345
766.567097	5786.422907
766.893104	5523.856930
767.219064	5346.970403
767.544978	5281.871463
767.870845	5209.462850
768.196665	5103.827991
768.522438	5030.544738
768.848165	4997.396631
769.173846	4926.296197
769.499479	4887.048294
769.825066	4834.010314
770.150607	4770.479173
770.476101	4747.854474
770.801548	4741.951283
771.126949	4664.325076
771.452303	4615.246922
771.777611	4572.150098
772.102872	4593.448973
772.428087	4555.176533
772.753256	4515.716901
773.078378	4466.369046
773.403453	4400.110641
773.728482	4386.108836
774.053465	4336.176207
774.378401	4325.292356
774.703291	4325.625072
775.028135	4257.987911
775.352932	4208.892114
775.677683	4193.085576
776.002388	4213.729101
776.327046	4226.072366
776.651658	4149.061179
776.976224	4089.487344
777.300743	4093.386676
777.625216	4113.034573
777.949643	4111.093729
778.274024	4064.069846
778.598359	4020.163917
778.922647	4043.060837
779.246889	4038.460784
779.571086	4030.447870
779.895236	4013.496991
780.219339	3999.044002
780.543397	3992.714834
780.867409	4045.268863
781.191374	4061.894588
781.515294	3997.158611
781.839167	3988.465141
782.162995	4008.639839
782.486776	3993.657530
782.810511	4008.072709
783.134201	4004.957276
783.457844	3963.017397
783.781441	3900.270155
784.104993	3907.632760
784.428498	3929.879372
784.751958	3923.184719
785.075372	3901.364085
785.398739	3865.236656
785.722061	3877.335425
786.045337	3919.822270
786.368568	3950.732105
786.691752	3866.887634
787.014891	3916.873195
787.337983	4040.590672
787.661030	4200.828788
787.984031	4364.900702
788.306987	4533.053429
788.629897	4619.836893
788.952760	4574.474070
789.275579	4503.106455
789.598351	4441.954738
789.921078	4298.473418
790.243759	4103.844550
790.566395	4080.204059
790.888984	4076.536619
791.211529	3967.413283
791.534027	3909.316505
791.856480	3898.568765
792.178888	3836.073581
792.501249	3785.916621
792.823566	3796.724855
793.145836	3828.804237
793.468062	3772.267697
793.790241	3727.557703
794.112375	3757.429060
794.434464	3820.035150
794.756507	3845.170343
795.078505	3825.232580
795.400457	3858.113506
795.722364	3998.318076
796.044226	4103.269858
796.366042	4176.447248
796.687812	4156.885050
797.009538	4160.955782
797.331218	4121.145790
797.652852	4095.672839
797.974442	4075.067123
798.295986	4072.307091
798.617484	3991.346161
798.938938	3902.125299
799.260346	3949.963329
799.581709	3942.562915
799.903026	3867.555587
800.224299	3829.532684
800.545526	3825.739216
800.866708	3786.261940
801.187845	3725.112744
801.508936	3761.913167
801.829983	3763.733023
802.150984	3681.065662
802.471940	3671.273221
802.792851	3679.928882
803.113717	3681.975590
803.434538	3686.313503
803.755314	3625.575161
804.076045	3603.018518
804.396731	3620.768421
804.717372	3646.899242
805.037967	3632.572282
805.358518	3618.020992
805.679024	3648.267915
805.999485	3662.473887
806.319901	3670.116276
806.640272	3677.894776
806.960598	3691.664688
807.280879	3666.317766
807.601115	3680.364942
807.921306	3699.244063
808.241453	3736.999784
808.561554	3712.900548
808.881611	3646.216165
809.201623	3684.279397
809.521590	3697.530070
809.841513	3667.867921
810.161390	3696.141233
810.481223	3674.570135
810.801011	3620.546610
811.120755	3610.935650
811.440453	3646.085095
811.760107	3653.445180
812.079716	3607.628653
812.399281	3576.648242
812.718801	3599.855194
813.038276	3570.203127
813.357707	3571.113055
813.677093	3590.239193
813.996434	3534.108466
814.315731	3547.225548
814.634983	3548.327040
814.954191	3563.710121
815.273354	3592.174996
815.592473	3586.786003
815.911547	3594.635079
816.230577	3636.118734
816.549562	3685.940458
816.868502	3727.172055
817.187399	3751.606528
817.506250	3747.808018
817.825058	3720.109398
818.143821	3812.629695
818.462539	3919.333278
818.781213	3964.565031
819.099843	4015.894059
819.418429	4265.224487
819.736970	4506.476466
820.055466	4752.562912
820.373919	5120.531855
820.692327	5528.514956
821.010691	5977.381815
821.329011	7360.203083
821.647286	10106.984140
821.965517	14668.910778
822.283704	18698.569708
822.601847	20868.002540
822.919945	19061.840296
823.237999	16474.082436
823.556010	13980.611797
823.873976	11886.123279
824.191897	9787.158217
824.509775	8437.865664
824.827609	7301.546737
825.145398	6756.572800
825.463144	6638.105685
825.780845	6754.470639
826.098502	6947.541790
826.416116	7820.566293
826.733685	9147.050146
827.051210	10261.132543
827.368692	10304.451178
827.686129	9047.913335
828.003522	7533.480143
828.320872	6516.702098
828.638177	5807.532739
828.955439	5248.577162
829.272656	4748.777005
829.589830	4461.874858
829.906960	4287.433291
830.224046	4102.478397
830.541088	3978.791167
830.858086	3931.512706
831.175041	3856.089482
831.491952	3835.236749
831.808819	3848.583204
832.125642	3921.145573
832.442421	4069.892379
832.759157	4343.437989
833.075849	4894.380652
833.392497	5761.068424
833.709101	6537.063318
834.025662	6880.459156
834.342179	6517.443147
834.658653	5850.478329
834.975083	5204.094021
835.291469	4618.465699
835.607811	4212.068041
835.924110	4072.642328
836.240366	3875.450034
836.556578	3664.432375
836.872746	3557.620407
837.188871	3518.682535
837.504952	3450.936989
837.820990	3368.665358
838.136984	3324.784634
838.452935	3348.110053
838.768842	3342.307685
839.084706	3363.225953
839.400526	3524.391642
839.716303	3864.099876
840.032037	4391.782655
840.347727	4657.159075
840.663373	4373.460581
840.978977	3993.259278
841.294537	3685.073379
841.610054	3456.885550
841.925527	3345.798684
842.240957	3279.699075
842.556344	3225.541959
842.871687	3164.170952
843.186987	3114.006430
843.502244	3078.839341
843.817458	3043.805842
844.132629	3011.872653
844.447756	3020.419930
844.762840	3006.723115
845.077881	2975.445276
845.392879	2956.256124
845.707833	2955.474745
846.022745	2951.845114
846.337613	2953.801082
846.652438	2940.220213
846.967221	2937.747527
847.281960	2924.595157
847.596656	2921.572985
847.911309	2919.932090
848.225919	2912.713157
848.540485	2908.612179
848.855009	2909.960687
849.169490	2898.391239
849.483928	2890.819426
849.798323	2885.042264
850.112675	2883.116543
850.426984	2897.710683
850.741251	2892.813203
851.055474	2882.758621
851.369654	2876.656304
851.683792	2880.716954
851.997887	2891.343706
852.311938	2893.965106
852.625947	2880.273332
852.939914	2884.389434
853.253837	2890.653068
853.567718	2874.748228
853.881555	2874.130686
854.195350	2887.862789
854.509103	2883.187119
854.822812	2876.588249
855.136479	2876.613455
855.450103	2876.648743
855.763685	2869.384440
856.077224	2865.608616
856.390720	2878.748383
856.704173	2889.690208
857.017584	2879.088661
857.330953	2878.881974
857.644278	2887.852707
857.957561	2900.498442
858.270802	2899.840571
858.584000	2901.131106
858.897155	2885.768190
859.210268	2887.797254
859.523339	2882.259547
859.836367	2883.935731
860.149352	2878.135883
860.462295	2871.103473
860.775195	2882.183930
861.088054	2882.554454
861.400869	2865.240612
861.713642	2863.740868
862.026373	2877.150337
862.339062	2879.285266
862.651708	2883.444218
862.964312	2888.928993
863.276873	2880.306100
863.589392	2890.753891
863.901869	2904.299472
864.214303	2922.172883
864.526696	2941.057045
864.839045	2934.022115
865.151353	2933.454985
865.463619	2933.517999
865.775842	2934.193514
866.088023	2954.857203
866.400162	2959.679067
866.712258	2933.298709
867.024313	2922.288829
867.336325	2930.664706
867.648296	2951.114147
867.960224	2944.293466
868.272110	2929.868204
868.583954	2936.706529
868.895755	2948.626337
869.207515	2933.891045
869.519233	2938.274328
869.830909	2949.979887
870.142542	2960.576393
870.454134	2959.989098
870.765684	2962.055971
871.077191	2963.235601
871.388657	2970.573001
871.700081	2983.354846
872.011463	2996.850015
872.322803	2996.197186
872.634101	2995.549397
872.945357	3009.727642
873.256571	3040.176212
873.567744	3030.295550
873.878874	3024.770446
874.189963	3046.351625
874.501010	3051.738098
874.812015	3039.498177
875.122979	3036.236550
875.433900	3031.492824
875.744780	3040.488763
876.055618	3046.742315
876.366415	3042.427087
876.677169	3052.738767
876.987882	3055.546690
877.298554	3047.188457
877.609183	3068.018504
877.919771	3095.099583
878.230317	3118.137656
878.540822	3168.294616
878.851285	3209.385061
879.161707	3253.298552
879.472087	3354.298070
879.782425	3583.053028
880.092722	4020.123587
880.402977	4553.374321
880.713191	5180.743396
881.023363	6341.801785
881.333494	7621.823844
881.643583	8174.631733
881.953631	7874.562092
882.263637	7244.460711
882.573602	6665.683317
882.883526	6078.628349
883.193408	5501.950596
883.503248	5048.629877
883.813048	4736.595057
884.122806	4434.080456
884.432522	4116.555819
884.742197	3880.357597
885.051831	3688.093030
885.361424	3551.112277
885.670975	3478.791884
885.980485	3395.552352
886.289954	3315.531597
886.599382	3268.732045
886.908768	3233.668299
887.218113	3189.716999
887.527417	3131.385808
887.836680	3081.122984
888.145901	3077.236254
888.455082	3063.935170
888.764221	3012.510359
889.073319	2986.946668
889.382376	2983.037253
889.691392	2990.949344
890.000366	2987.327275
890.309300	2974.192549
890.618193	2986.356853
890.927044	3003.763958
891.235855	3005.576252
891.544625	2989.048829
891.853353	3001.601303
892.162041	3018.882378
892.470687	3059.952658
892.779293	3111.947119
893.087858	3159.802792
893.396381	3231.394739
893.704864	3351.291021
894.013306	3591.643154
894.321707	3895.672622
894.630068	4102.596864
894.938387	4094.725102
895.246665	4049.987383
895.554903	3929.808796
895.863100	3732.397211
896.171256	3564.632652
896.479371	3421.511774
896.787446	3298.237918
897.095480	3197.722352
897.403473	3132.048720
897.711425	3094.010694
898.019336	3085.833942
898.327207	3054.455280
898.635038	3020.740043
898.942827	3003.995851
899.250576	2992.252483
899.558284	2961.516568
899.865952	2942.934875
900.173579	2923.186154
900.481165	2916.735998
900.788711	2903.805438
901.096216	2878.261912
901.403681	2865.938811
901.711105	2873.069523
902.018489	2872.273021
902.325832	2870.490973
902.633135	2883.287942
902.940397	2917.650968
903.247619	2995.430930
903.554800	3191.690611
903.861941	3535.179711
904.169041	3963.834063
904.476101	4266.817492
904.783121	4219.995255
905.090100	3979.340653
905.397039	3699.836398
905.703938	3448.416412
906.010796	3264.933535
906.317614	3153.806340
906.624391	3058.309242
906.931129	2984.501709
907.237826	2922.608942
907.544483	2875.025491
907.851099	2845.133969
908.157675	2826.093531
908.464211	2803.340283
908.770707	2790.102213
909.077163	2776.259205
909.383578	2762.325456
909.689954	2755.119126
909.996289	2750.297263
910.302584	2751.234917
910.608839	2751.625607
910.915054	2746.312231
911.221229	2738.959708
911.527363	2741.334091
911.833458	2747.801892
912.139513	2753.616862
912.445527	2755.131729
912.751502	2768.838627
913.057436	2776.024791
913.363331	2785.033333
913.669186	2810.344967
913.975000	2843.099864
914.280775	2904.054976
914.586510	2974.608444
914.892205	3052.491751
915.197859	3183.977646
915.503475	3375.564177
915.809050	3589.672063
916.114585	3739.149837
916.420081	3757.149276
916.725536	3697.328424
917.030952	3579.022626
917.336328	3451.587298
917.641665	3317.878254
917.946961	3217.521483
918.252218	3148.510608
918.557435	3068.986406
918.862612	3009.147910
919.167750	2959.182513
919.472848	2924.080959
919.777906	2894.338152
920.082925	2864.960827
920.387904	2837.320181
920.692843	2820.518015
920.997743	2810.927220
921.302603	2795.655044
921.607423	2784.317489
921.912204	2774.411622
922.216946	2761.753285
922.521647	2752.500247
922.826310	2744.978845
923.130932	2737.805283
923.435516	2728.068295
923.740059	2722.943962
924.044564	2714.563044
924.349028	2711.286294
924.653454	2702.744058
924.957840	2696.515713
925.262186	2693.337265
925.566493	2686.262006
925.870761	2681.745132
926.174989	2678.932168
926.479178	2672.741631
926.783328	2668.214675
927.087438	2668.476815
927.391509	2664.680826
927.695541	2663.102945
927.999533	2663.201248
928.303486	2658.850732
928.607400	2657.391318
928.911275	2656.289826
929.215110	2654.911070
929.518906	2654.482572
929.822663	2655.475679
930.126381	2652.526604
930.430060	2655.357212
930.733699	2655.016934
931.037299	2656.637665
931.340861	2658.457522
931.644383	2657.040958
931.947866	2654.381749
932.251309	2655.405103
932.554714	2655.599188
932.858080	2651.679691
933.161407	2650.472334
933.464694	2651.183137
933.767943	2647.785399
934.071153	2649.040647
934.374323	2648.027375
934.677455	2646.507467
934.980548	2646.255409
935.283602	2646.066366
935.586617	2646.328506
935.889593	2648.952426
936.192530	2648.097951
936.495428	2650.308497
936.798287	2650.699186
937.101108	2652.335041
937.403890	2655.700011
937.706632	2657.718993
938.009336	2666.629232
938.312002	2673.144924
938.614628	2686.640092
938.917216	2690.168900
939.219765	2688.558252
939.522275	2690.670495
939.824747	2687.839887
940.127179	2685.982222
940.429573	2685.500792
940.731929	2680.079031
941.034246	2676.525017
941.336524	2673.442352
941.638763	2669.873215
941.940964	2669.674089
942.243126	2666.914057
942.545250	2666.220899
942.847335	2662.762667
943.149381	2658.354178
943.451389	2656.241935
943.753359	2652.340082
944.055290	2652.496357
944.357182	2650.142139
944.659036	2649.718682
944.960851	2650.716830
945.262628	2649.549803
945.564367	2649.179278
945.866067	2648.297076
946.167729	2650.530307
946.469352	2651.127684
946.770937	2647.256078
947.072484	2646.003351
947.373992	2647.732467
947.675462	2641.181488
947.976893	2641.544451
948.278286	2638.683596
948.579641	2642.008237
948.880958	2637.511528
949.182236	2643.760038
949.483476	2636.100005
949.784678	2636.684778
950.085841	2640.216107
950.386967	2640.805922
950.688054	2639.885911
950.989103	2640.752990
951.290114	2644.397744
951.591087	2644.160810
951.892021	2648.024854
952.192917	2647.372025
952.493776	2651.566265
952.794596	2652.677839
953.095378	2650.701707
953.396122	2651.730102
953.696828	2651.117602
953.997496	2648.513846
954.298126	2646.227683
954.598718	2645.065697
954.899272	2642.814822
955.199788	2639.865747
955.500266	2638.232413
955.800706	2633.816362
956.101108	2629.783439
956.401472	2629.475928
956.701798	2626.834364
957.002087	2624.316307
957.302337	2625.175824
957.602550	2624.417131
957.902724	2622.778756
958.202861	2619.958230
958.502960	2618.594598
958.803022	2617.760287
959.103045	2618.914711
959.403031	2616.353805
959.702979	2618.327417
960.002889	2616.331120
960.302762	2616.542848
960.602596	2612.764503
960.902393	2618.277005
961.202153	2617.299021
961.501875	2615.423712
961.801559	2613.308948
962.101205	2611.844493
962.400814	2612.643516
962.700385	2611.635285
962.999918	2609.568412
963.299414	2610.773248
963.598873	2608.411467
963.898293	2607.486415
964.197677	2611.980604
964.497022	2610.395161
964.796331	2610.939606
965.095601	2613.440018
965.394835	2613.205604
965.694030	2610.743001
965.993189	2610.070007
966.292309	2611.163937
966.591393	2611.915069
966.890439	2611.345419
967.189447	2609.702002
967.488419	2611.746190
967.787353	2610.511108
968.086249	2609.777620
968.385108	2611.557147
968.683930	2610.949688
968.982714	2612.424226
969.281462	2611.489092
969.580172	2609.475151
969.878844	2609.155037
970.177480	2610.473299
970.476078	2612.749380
970.774639	2612.429267
971.073162	2610.387599
971.371649	2610.178392
971.670098	2613.119905
971.968510	2610.367435
972.266885	2610.788371
972.565223	2611.783999
972.863524	2611.171499
973.161788	2611.078237
973.460014	2611.574791
973.758204	2612.073865
974.056356	2611.410954
974.354471	2608.401385
974.652550	2609.946498
974.950591	2613.447580
975.248595	2611.720985
975.546563	2608.711416
975.844493	2610.780809
976.142386	2612.106633
976.440243	2607.740994
976.738062	2608.986159
977.035845	2608.356014
977.333590	2609.066817
977.631299	2609.659153
977.928971	2609.296190
978.226606	2607.088164
978.524204	2606.896600
978.821765	2603.539192
979.119290	2608.272835
979.416777	2606.833586
979.714228	2609.036570
980.011642	2609.747373
980.309020	2608.348453
980.606360	2607.798967
980.903664	2608.834924
981.200931	2610.561519
981.498162	2612.381376
981.795356	2612.837600
982.092513	2609.225613
982.389633	2614.604525
982.686717	2617.425050
982.983764	2622.677932
983.280775	2627.666154
983.577749	2626.909981
983.874686	2626.173973
984.171587	2620.913529
984.468451	2619.779269
984.765279	2619.370936
985.062070	2613.979422
985.358824	2616.686521
985.655543	2615.159052
985.952224	2611.189143
986.248869	2611.758793
986.545478	2609.772579
986.842050	2609.349122
987.138586	2607.660335
987.435086	2605.001127
987.731549	2607.436004
988.027975	2606.926847
988.324366	2606.452979
988.620719	2605.575818
988.917037	2604.819645
989.213318	2604.209665
989.509563	2606.521034
989.805772	2604.718822
990.101944	2608.769389
990.398080	2609.601179
990.694180	2605.371651
990.990244	2604.333174
991.286271	2608.028339
991.582262	2606.147989
991.878217	2605.689244
992.174136	2605.830396
992.470019	2603.062803
992.765865	2605.331322
993.061676	2598.939139
993.357450	2604.421394
993.653188	2602.314192
993.948890	2608.134204
994.244556	2606.062289
994.540186	2603.995416
994.835780	2606.266456
995.131337	2608.333329
995.426859	2607.103288
995.722345	2607.602362
996.017795	2606.838627
996.313208	2610.319544
996.608586	2612.368773
996.903928	2608.308123
997.199234	2610.856427
997.494504	2607.990531
997.789738	2609.775099
998.084936	2608.287959
998.380099	2608.308123
998.675225	2609.654112
998.970316	2605.621188
999.265371	2604.723863
999.560390	2604.315530
999.855373	2605.986672
1000.150320	2605.104470
1000.445232	2604.280242
1000.740108	2602.730087
1001.034948	2604.711260
1001.329752	2604.393667
1001.624521	2603.904676
1001.919254	2603.163626
1002.213951	2602.520879
1002.508613	2603.375354
1002.803239	2603.004830
1003.097829	2600.330497
1003.392384	2602.704881
1003.686903	2604.091198
1003.981386	2602.896445
1004.275834	2606.084975
1004.570246	2604.030704
1004.864623	2603.211517
1005.158964	2603.090529
1005.453270	2604.199583
1005.747540	2601.986517
1006.041775	2603.342587
1006.335974	2603.924840
1006.630138	2603.955087
1006.924266	2604.779316
1007.218359	2600.348142
1007.512416	2600.645570
1007.806438	2598.530806
1008.100425	2599.208841
1008.394376	2597.762030
1008.688292	2601.600868
1008.982172	2602.566249
1009.276017	2604.237392
1009.569827	2603.975252
1009.863602	2603.055241
1010.157341	2600.779160
1010.451045	2601.426948
1010.744714	2601.842844
1011.038347	2602.162957
1011.331945	2600.501897
1011.625508	2601.547936
1011.919036	2600.910230
1012.212528	2604.275200
1012.505986	2603.024994
1012.799408	2602.054572
1013.092795	2601.968872
1013.386147	2602.339397
1013.679464	2602.140272
1013.972745	2602.498194
1014.265992	2601.525251
1014.559204	2602.389809
1014.852380	2600.116248
1015.145521	2602.167998
1015.438628	2600.660693
1015.731699	2601.545416
1016.024736	2601.956270
1016.317737	2600.529623
1016.610703	2602.712443
1016.903635	2604.192021
1017.196531	2602.236054
1017.489393	2599.176073
1017.782219	2600.456526
1018.075011	2605.321240
1018.367768	2601.595827
1018.660490	2600.970724
1018.953177	2600.970724
1019.245829	2600.970724
