Dividing Wavelength (nm)	Counts (n)	Blue Motor Position (mm): 47.000000	Red Motor Position (mm): 0.000000	
326.493990	2275.065169
326.888308	2275.065169
327.282561	2275.065169
327.676750	2233.188304
328.070874	2232.684189
328.464933	2233.452965
328.858929	2232.971534
329.252859	2239.789695
329.646726	2250.040881
330.040528	2261.912799
330.434265	2273.285642
330.827938	2295.267593
331.221547	2309.932310
331.615091	2326.981492
332.008571	2345.664008
332.401986	2369.140662
332.795338	2383.976777
333.188625	2402.767678
333.581847	2426.874476
333.975006	2444.800819
334.368100	2462.341514
334.761129	2482.581747
335.154095	2496.417193
335.546996	2523.490710
335.939833	2566.065775
336.332606	2580.480954
336.725315	2595.319591
337.117960	2607.677979
337.510540	2617.079731
337.903056	2627.008284
338.295508	2638.814666
338.687896	2642.910603
339.080220	2649.844711
339.472480	2659.750578
339.864676	2664.569921
340.256807	2667.624860
340.648875	2671.509069
341.040879	2674.599297
341.432818	2675.315140
341.824694	2678.826304
342.216506	2679.703465
342.608253	2681.210770
342.999937	2681.482992
343.391557	2680.343691
343.783113	2680.643640
344.174605	2679.519463
344.566033	2679.239679
344.957397	2678.312106
345.348697	2674.516117
345.739934	2675.055521
346.131106	2675.421005
346.522215	2672.355983
346.913260	2673.346570
347.304241	2671.110818
347.695159	2667.541681
348.086012	2666.351969
348.476802	2665.739469
348.867528	2660.232008
349.258191	2656.277223
349.648789	2657.008190
350.039324	2653.186996
350.429796	2659.216216
350.820203	2657.315701
351.210548	2654.956441
351.600828	2654.364105
351.991045	2655.659682
352.381198	2651.367139
352.771288	2650.873106
353.161314	2651.662047
353.551276	2651.871254
353.941175	2650.278250
354.331010	2650.739515
354.720782	2650.883188
355.110490	2650.031233
355.500135	2651.500730
355.889717	2649.766573
356.279235	2648.007210
356.668689	2652.203971
357.058080	2652.849238
357.447408	2650.820174
357.836672	2651.936789
358.225873	2652.781183
358.615010	2651.099958
359.004084	2654.323776
359.393095	2655.100113
359.782043	2656.652789
360.170927	2655.415186
360.559748	2654.427119
360.948505	2659.148160
361.337199	2658.570948
361.725830	2656.597336
362.114398	2659.763181
362.502903	2659.390135
362.891344	2660.211843
363.279722	2659.168325
363.668037	2660.831905
364.056289	2662.833243
364.444478	2661.903151
364.832603	2662.503048
365.220665	2661.807369
365.608665	2664.035559
365.996601	2663.009684
366.384474	2664.330466
366.772284	2664.852226
367.160031	2665.769716
367.547715	2665.920950
367.935336	2667.637463
368.322893	2665.850374
368.710388	2667.634942
369.097820	2667.221568
369.485189	2665.232833
369.872495	2672.552588
370.259738	2670.694923
370.646918	2673.359173
371.034035	2673.951508
371.421090	2675.063083
371.808081	2678.339833
372.195010	2680.764628
372.581875	2687.182017
372.968678	2689.367357
373.355418	2698.043183
373.742096	2709.093392
374.128710	2713.557333
374.515262	2727.866649
374.901751	2743.176633
375.288177	2755.887902
375.674540	2772.198556
376.060841	2794.485497
376.447079	2816.565751
376.833254	2840.690192
377.219367	2858.223325
377.605417	2891.038716
377.991404	2914.727098
378.377329	2955.555403
378.763191	2974.154740
379.148991	3016.792820
379.534727	3058.067267
379.920402	3097.020263
380.306013	3121.583285
380.691563	3181.656194
381.077049	3209.052345
381.462474	3250.835949
381.847835	3309.923313
382.233134	3352.077441
382.618371	3381.694220
383.003545	3450.342133
383.388657	3478.386072
383.773706	3536.898744
384.158693	3572.302768
384.543618	3606.199486
384.928480	3666.211902
385.313280	3725.274061
385.698017	3748.901949
386.082692	3838.561390
386.467305	3843.670600
386.851856	3880.486146
387.236344	3958.654278
387.620770	3991.457066
388.005133	4037.505486
388.389435	4082.439811
388.773674	4094.934310
389.157851	4173.546063
389.541965	4241.730190
389.926018	4205.958162
390.310008	4304.732010
390.693936	4357.727140
391.077802	4390.804671
391.461606	4390.424064
391.845348	4461.358139
392.229027	4516.750338
392.612645	4522.419115
392.996200	4620.141883
393.379694	4681.807797
393.763125	4785.766472
394.146494	4807.720697
394.529801	4866.515674
394.913047	4954.138490
395.296230	4901.755860
395.679351	5010.385164
396.062410	5062.467845
396.445408	5033.781159
396.828343	5093.506229
397.211217	5145.205782
397.594028	5033.022465
397.976778	5149.417666
398.359466	5196.933062
398.742092	5216.873346
399.124656	5136.779493
399.507158	5260.688534
399.889598	5320.012833
400.271977	5441.542449
400.654294	5439.473056
401.036549	5482.307740
401.418742	5402.042488
401.800874	5608.974292
402.182944	5667.166851
402.564952	5771.387666
402.946898	5833.613148
403.328783	5666.209032
403.710606	5689.216858
404.092367	6014.207444
404.474067	6031.841400
404.855705	5933.067552
405.237282	5873.067739
405.618797	6129.208766
406.000250	6100.872440
406.381642	6310.788607
406.762972	6329.027502
407.144240	6381.586572
407.525447	6368.439242
407.906593	6378.622373
408.287677	6545.845008
408.668700	6467.749973
409.049661	6572.737043
409.430560	6601.970694
409.811399	6464.667307
410.192176	6730.946095
410.572891	6752.363437
410.953545	6942.546007
411.334138	6666.411764
411.714669	6841.591860
412.095139	6633.800540
412.475547	6874.102261
412.855894	6949.323838
413.236180	7136.181767
413.616405	6795.104860
413.996568	7014.838674
414.376670	7066.054276
414.756711	6964.532999
415.136691	7057.587658
415.516609	7260.105932
415.896466	7244.858962
416.276262	7450.981660
416.655997	7439.838190
417.035670	7609.566278
417.415283	7955.414638
417.794834	8023.548352
418.174324	7880.888740
418.553753	7804.636247
418.933121	8100.423428
419.312428	8201.007050
419.691674	7973.212431
420.070859	8454.438457
420.449983	8139.557905
420.829045	8503.463678
421.208047	8274.330633
421.586988	8582.463600
421.965867	8608.392775
422.344686	8696.882669
422.723444	8774.551726
423.102141	8109.472299
423.480777	8871.583855
423.859352	8400.213286
424.237866	9021.454839
424.616319	8878.296152
424.994712	9313.970311
425.373044	8849.317079
425.751314	9332.264658
426.129524	9214.362152
426.507673	9292.820150
426.885762	9449.670611
427.263789	9378.161844
427.641756	9316.188419
428.019662	9396.499041
428.397508	9670.873921
428.775292	9322.406682
429.153016	9710.630981
429.530679	9547.574860
429.908282	9556.066683
430.285824	9286.478379
430.663305	9970.215116
431.040726	9424.714379
431.418086	9403.029856
431.795385	9739.413449
432.172624	9837.451288
432.549802	9739.945291
432.926920	9817.468154
433.303977	9682.960087
433.680974	9886.799143
434.057910	9984.461417
434.434786	10064.678777
434.811601	9879.484429
435.188355	10441.936046
435.565050	10199.154077
435.941683	10114.956725
436.318257	10587.348129
436.694770	10765.981415
437.071222	10808.443054
437.447614	10627.309355
437.823946	10567.748123
438.200218	10658.110805
438.576429	10500.385704
438.952580	10745.889897
439.328670	10770.415110
439.704700	10570.931611
440.080670	10565.363657
440.456580	11075.674619
440.832429	10875.109793
441.208218	10468.361774
441.583947	10758.129818
441.959616	10946.190062
442.335224	10764.022927
442.710773	10861.581857
443.086261	11093.028792
443.461689	10360.322286
443.837057	11046.940043
444.212365	11278.265990
444.587612	10913.951883
444.962800	11130.857610
445.337927	10871.994360
445.712995	10549.678107
446.088002	11590.005902
446.462949	11284.547267
446.837837	11249.917061
447.212664	11169.571151
447.587431	11767.784713
447.962139	12522.221113
448.336786	14826.832484
448.711374	15291.097548
449.085901	13114.027368
449.460369	12760.587031
449.834776	12208.215201
450.209124	13149.885096
450.583412	13573.183223
450.957640	14496.309232
451.331808	13525.743444
451.705917	12608.374432
452.079965	11845.047958
452.453954	12762.074172
452.827883	12427.155033
453.201752	12704.567209
453.575562	12262.077410
453.949311	12677.549145
454.323001	12659.385868
454.696632	12902.772775
455.070202	13176.535156
455.443713	13356.705994
455.817164	13863.089898
456.190556	13830.317357
456.563888	14189.456718
456.937160	14323.899250
457.310373	13693.205534
457.683526	13809.895643
458.056619	13324.924040
458.429653	13543.044684
458.802628	12888.987740
459.175542	13314.231752
459.548398	14263.012194
459.921194	14628.417710
460.293930	14699.871025
460.666607	15531.200144
461.039224	16604.975995
461.411782	17328.585739
461.784280	17084.067092
462.156719	17209.823716
462.529099	16871.055657
462.901419	15845.939543
463.273680	15598.013076
463.645882	15498.964486
464.018024	15223.273864
464.390106	15453.037053
464.762130	16158.654919
465.134094	16966.308259
465.505999	19043.324137
465.877845	22312.643477
466.249631	25100.051193
466.621358	24702.657036
466.993026	23282.831178
467.364634	22688.408564
467.736184	21219.103782
468.107674	20431.917526
468.479105	20552.887574
468.850477	20008.591673
469.221790	19627.256111
469.593043	18920.161187
469.964238	18346.755143
470.335373	17987.698960
470.706449	18510.214557
471.077467	18092.333150
471.448425	19962.573500
471.819324	24118.851091
472.190164	25929.605826
472.560945	22234.429975
472.931667	19951.031778
473.302330	19347.746815
473.672934	18995.735645
474.043479	19210.566937
474.413965	19017.644500
474.784393	18608.943034
475.154761	19391.118383
475.525070	19296.206058
475.895321	19020.535602
476.265513	19629.416245
476.635645	20212.559278
477.005719	19967.002154
477.375734	20162.470374
477.745691	20649.960033
478.115588	21199.337417
478.485427	21757.819126
478.855207	22849.004602
479.224928	24658.325129
479.594591	26874.917954
479.964194	26764.322601
480.333739	26997.725503
480.703226	26588.703924
481.072653	26306.716902
481.442022	26945.877236
481.811333	27875.937353
482.180584	27737.517351
482.549777	26790.322352
482.918912	26482.194426
483.287988	26613.821473
483.657005	26217.788427
484.025964	26025.659972
484.394864	25885.374742
484.763706	25534.752410
485.132489	25013.363512
485.501213	25185.471025
485.869879	25098.614465
486.238487	24951.296826
486.607036	25069.486678
486.975527	24827.851571
487.343959	25111.247596
487.712333	25021.943556
488.080648	24689.635735
488.448905	25196.284300
488.817104	24967.340298
489.185244	25683.121130
489.553326	25604.161537
489.921350	26678.386051
490.289315	29037.131853
490.657222	30738.939692
491.025070	31245.303432
491.392861	30980.912556
491.760593	30127.125097
492.128267	29205.549242
492.495883	28129.966137
492.863440	27279.891487
493.230939	26407.940750
493.598380	26241.444042
493.965763	25867.609716
494.333088	25353.646438
494.700354	25347.221487
495.067563	25180.041702
495.434713	24932.155565
495.801805	25118.627845
496.168839	24870.993766
496.535815	24764.010399
496.902733	24986.597506
497.269593	24685.002915
497.636395	24844.658778
498.003139	24756.060499
498.369825	24489.779191
498.736453	24723.285437
499.103023	24589.709984
499.469535	24583.955507
499.835989	24820.005015
500.202385	24833.452293
500.568723	24379.854311
500.935003	24557.471805
501.301226	24255.380661
501.667390	25097.636481
502.033497	25289.767457
502.399546	25041.828387
502.765537	24554.817638
503.131470	24935.568426
503.497345	25098.977428
503.863163	24335.804709
504.228923	24861.392888
504.594625	25129.040349
504.960269	24689.577762
505.325856	25168.371431
505.691385	24551.634149
506.056856	25152.731251
506.422270	25152.811910
506.787625	24663.474667
507.152924	25116.689522
507.518164	25144.269674
507.883347	24966.107736
508.248472	24638.707479
508.613540	25404.940178
508.978550	25204.503901
509.343503	25224.580296
509.708398	25421.361737
510.073236	25587.850884
510.438016	25810.921941
510.802738	25459.593847
511.167403	25724.168725
511.532010	25474.460210
511.896561	26213.702572
512.261053	26189.978902
512.625488	26008.867888
512.989866	25895.434365
513.354186	25733.288172
513.718449	25869.832865
514.082655	26244.451090
514.446803	25956.823016
514.810894	26444.373169
515.174927	25940.857682
515.538904	25983.470555
515.902822	26474.181512
516.266684	26221.899488
516.630488	26128.287782
516.994235	26065.643883
517.357925	26410.075679
517.721558	26563.334317
518.085133	26688.279316
518.448651	26572.032828
518.812112	26352.102410
519.175516	26569.663486
519.538863	26708.264970
519.902152	26515.105599
520.265385	26756.718020
520.628560	26570.717087
520.991678	26541.453189
521.354739	26596.807579
521.717743	26713.038943
522.080690	26464.527702
522.443580	26791.948124
522.806413	26771.385257
523.169189	26888.652578
523.531908	26936.941791
523.894569	26564.128299
524.257174	26663.441551
524.619722	26790.299667
524.982213	26508.683169
525.344647	26528.512547
525.707025	26690.933483
526.069345	26639.097819
526.431608	26617.186443
526.793815	26782.080065
527.155964	26290.053368
527.518057	26469.399977
527.880093	26385.260599
528.242072	26601.909227
528.603995	26322.268861
528.965860	26107.941685
529.327669	26146.735884
529.689421	26141.074668
530.051117	25978.994011
530.412755	26158.685939
530.774337	25930.117503
531.135862	25831.454561
531.497331	26001.918658
531.858743	25616.658557
532.220098	26061.174901
532.581396	25768.079695
532.942638	25647.170141
533.303824	25779.939010
533.664953	25774.855006
534.026025	25433.715084
534.387040	25682.803537
534.747999	25719.465328
535.108902	25879.786623
535.469748	25386.061057
535.830537	25537.572936
536.191270	25691.565062
536.551947	25503.676217
536.912567	25121.672702
537.273131	25574.748925
537.633638	25235.486833
537.994089	25454.313239
538.354483	24946.298522
538.714821	25459.102335
539.075103	25506.721074
539.435328	25266.255515
539.795497	24885.413986
540.155609	25208.587236
540.515665	25523.452664
540.875665	24738.799588
541.235609	25089.747075
541.595496	25011.730178
541.955328	25390.454423
542.315102	25297.258611
542.674821	24796.425018
543.034483	24699.042528
543.394090	24859.678896
543.753640	24673.229300
544.113134	25303.698685
544.472571	24870.698858
544.831953	25191.074267
545.191278	24843.484189
545.550548	24731.724329
545.909761	24936.218735
546.268918	25172.835373
546.628019	25152.958103
546.987064	24823.856457
547.346053	24566.813063
547.704986	24660.099615
548.063863	24820.262114
548.422684	24854.957855
548.781449	24352.117882
549.140158	24758.079481
549.498811	24326.692823
549.857408	24103.893988
550.215949	24479.633869
550.574434	24187.821638
550.932864	24378.155442
551.291237	24582.780918
551.649555	24410.401183
552.007817	24473.884433
552.366022	24326.536547
552.724173	24331.050901
553.082267	24304.731036
553.440305	24798.121366
553.798288	24019.958776
554.156215	24502.969370
554.514086	24657.785725
554.871902	24055.251894
555.229661	24318.974817
555.587365	24159.084540
555.945014	24070.309821
556.302606	24275.376398
556.660143	24275.084011
557.017625	24493.771785
557.375050	24025.622513
557.732421	24409.702983
558.089735	24230.651281
558.446994	24275.366315
558.804197	24332.422094
559.161345	24197.452762
559.518437	24009.072404
559.875474	24174.134905
560.232455	24349.138561
560.589381	24154.978520
560.946251	24168.761035
561.303065	24467.477127
561.659825	24559.843668
562.016528	24169.973432
562.373177	23891.999168
562.729770	24265.074800
563.086307	24108.267189
563.442789	24286.585403
563.799216	24136.706858
564.155587	24117.517706
564.511904	24108.806592
564.868164	24064.643564
565.224370	24020.866184
565.580520	23971.871210
565.936615	24087.240536
566.292654	23792.930413
566.648638	24016.011553
567.004567	23852.277396
567.360441	23786.754999
567.716260	23505.912318
568.072023	23828.558767
568.427732	23610.425520
568.783385	23359.098795
569.138982	23622.577221
569.494525	23641.489110
569.850013	23412.532505
570.205445	23518.500080
570.560823	23341.280837
570.916145	23109.276854
571.271412	23300.127377
571.626625	23044.308984
571.981782	23151.297392
572.336884	22959.433597
572.691931	23094.649947
573.046923	22822.334378
573.401860	22715.769426
573.756743	22749.328387
574.111570	22642.307212
574.466342	22563.433319
574.821059	22626.553606
575.175722	22349.350638
575.530330	22302.447743
575.884882	22298.616466
576.239380	22226.956464
576.593823	22129.435343
576.948211	22098.371753
577.302544	21943.784770
577.656823	21819.714412
578.011047	21925.981936
578.365216	21783.897014
578.719330	21658.768014
579.073389	21545.331970
579.427394	21709.459337
579.781344	21442.263059
580.135239	21332.345741
580.489080	21278.690220
580.842866	21073.043911
581.196597	21290.083228
581.550273	21228.104762
581.903895	21120.627362
582.257463	21430.617994
582.610975	20966.211778
582.964434	21294.620266
583.317837	20951.781475
583.671186	21052.271836
584.024481	21039.633663
584.377721	20803.828651
584.730906	20904.692057
585.084037	20869.842561
585.437113	20804.370575
585.790135	21011.163747
586.143103	20452.492996
586.496016	20492.716362
586.848874	20714.149045
587.201679	20628.850201
587.554428	20336.485963
587.907124	20666.515182
588.259765	20416.428581
588.612352	20483.150773
588.964884	20065.534026
589.317362	20227.259283
589.669786	20301.371806
590.022155	20278.981521
590.374470	20536.561798
590.726731	20286.366812
591.078937	20083.480534
591.431090	20166.321815
591.783188	19932.268604
592.135232	19896.103366
592.487222	19996.281175
592.839157	19992.359158
593.191038	19874.181909
593.542866	19764.521689
593.894639	19461.820565
594.246358	19684.879020
594.598022	19574.714685
594.949633	19322.629266
595.301190	19322.455347
595.652692	19490.083794
596.004141	19697.877635
596.355535	19034.935658
596.706876	19055.773267
597.058162	18955.756775
597.409395	19194.258804
597.760573	19231.840606
598.111698	19006.710237
598.462768	18963.527713
598.813785	18927.425490
599.164748	18725.373523
599.515657	18790.167474
599.866511	18581.458663
600.217312	18933.487477
600.568060	18439.895502
600.918753	18766.771479
601.269392	18659.309202
601.619978	18454.744220
601.970510	18640.495616
602.320988	18596.652701
602.671412	18787.997257
603.021783	18729.988700
603.372100	18428.084078
603.722363	18577.730730
604.072572	18528.254326
604.422728	18682.647224
604.772830	18413.920956
605.122878	18387.459940
605.472872	18361.450107
605.822813	18349.106841
606.172701	18339.140480
606.522534	18499.124018
606.872314	18547.937511
607.222041	18381.125730
607.571714	18594.268235
607.921333	18418.712573
608.270899	18499.610489
608.620411	18642.927973
608.969870	18455.926371
609.319276	18435.431560
609.668627	18463.956929
610.017926	18601.746787
610.367171	18710.315597
610.716362	18772.856151
611.065500	18579.764836
611.414585	18729.408967
611.763616	18715.321463
612.112594	18637.685173
612.461518	18625.694788
612.810389	18804.875040
613.159207	18678.503395
613.507971	18590.308409
613.856682	18817.861052
614.205340	18747.975537
614.553945	18916.655065
614.902496	18647.054157
615.250994	18850.474797
615.599439	18810.410227
615.947830	18796.685686
616.296169	18873.291059
616.644454	18838.166820
616.992686	18815.955496
617.340864	19027.058855
617.688990	18767.000851
618.037063	18947.151525
618.385082	18820.847936
618.733048	19072.028467
619.080961	18978.545311
619.428821	18996.373351
619.776628	18868.431387
620.124382	18807.181368
620.472083	18867.241675
620.819731	18870.969608
621.167326	18557.351866
621.514868	18601.333412
621.862357	18382.814517
622.209793	18370.793885
622.557176	18215.027272
622.904506	18042.836581
623.251783	17985.357344
623.599007	17730.484168
623.946179	17665.014703
624.293297	17595.542562
624.640363	17314.707443
624.987376	17344.828337
625.334336	17150.494377
625.681243	17004.008528
626.028097	17026.434101
626.374899	16929.472548
626.721647	16798.740305
627.068343	16636.127806
627.414987	16566.048205
627.761577	16526.757452
628.108115	16558.483954
628.454600	16288.767100
628.801032	16390.616052
629.147412	16334.424830
629.493739	16336.247207
629.840014	16146.906510
630.186236	16245.206489
630.532405	16012.411046
630.878521	16213.227930
631.224585	16119.953981
631.570597	15939.798266
631.916556	15975.484594
632.262462	15940.756085
632.608316	15851.179823
632.954117	15802.232739
633.299866	15791.028775
633.645562	15708.961311
633.991206	15472.402646
634.336797	15352.695407
634.682336	15313.765096
635.027823	15181.311299
635.373257	15039.594383
635.718639	14968.960255
636.063968	14906.402057
636.409245	14659.014993
636.754470	14691.182596
637.099642	14544.094330
637.444762	14320.597295
637.789829	14366.118914
638.134845	14188.682901
638.479808	14217.677098
638.824719	14134.145178
639.169577	14000.665507
639.514383	14036.999623
639.859137	13861.489332
640.203839	13960.447182
640.548489	13819.216736
640.893086	13805.189725
641.237632	13678.553420
641.582125	13836.432276
641.926566	13646.675684
642.270955	13669.053366
642.615292	13617.885654
642.959576	13626.566521
643.303809	13657.005008
643.647990	13588.248711
643.992118	13654.123989
644.336195	13426.609154
644.680219	13659.606243
645.024192	13561.243250
645.368112	13805.532524
645.711981	13833.178212
646.055797	14021.465308
646.399562	14003.614582
646.743274	14266.861115
647.086935	14541.699782
647.430544	14503.354245
647.774101	14554.486668
648.117606	14687.230332
648.461059	14669.737528
648.804460	14635.490449
649.147810	14367.081774
649.491108	14286.534218
649.834354	14298.766578
650.177548	13971.172236
650.520690	13780.659471
650.863781	13705.042163
651.206820	13756.517385
651.549807	13583.104213
651.892742	13362.752858
652.235626	13312.159838
652.578458	13310.786124
652.921238	13023.654603
653.263967	13219.483266
653.606644	13049.051937
653.949269	13025.736600
654.291843	12818.184734
654.634365	12983.892502
654.976836	12830.407012
655.319255	12831.750479
655.661622	12798.695634
656.003938	12723.085888
656.346203	12635.538689
656.688416	12725.853481
657.030577	12673.672498
657.372687	12571.846231
657.714746	12570.079307
658.056753	12757.315322
658.398708	12561.877349
658.740612	12565.925396
659.082465	12681.483766
659.424266	12654.974858
659.766016	12682.373529
660.107715	12593.291300
660.449362	12664.679079
660.790958	12613.944907
661.132503	12561.267370
661.473996	12637.971046
661.815438	12644.748877
662.156829	12671.174606
662.498168	12652.373623
662.839456	12655.796566
663.180693	12659.456444
663.521879	12764.766148
663.863013	12722.521278
664.204097	12700.448586
664.545129	12836.758866
664.886110	12814.202223
665.227040	12911.677974
665.567918	12894.767423
665.908746	12926.302361
666.249522	12912.345927
666.590248	12965.058752
666.930922	13080.022265
667.271545	13048.620918
667.612118	13138.267757
667.952639	13033.716747
668.293109	13071.656470
668.633528	13005.912263
668.973896	12989.021877
669.314213	13043.100854
669.654480	12790.435703
669.994695	12888.365158
670.334859	12914.798448
670.674973	12847.524250
671.015035	12875.595915
671.355047	12826.525323
671.695008	12795.807053
672.034918	12811.376656
672.374777	12844.514681
672.714585	12758.363882
673.054342	12804.782827
673.394049	12759.614088
673.733705	12855.201927
674.073310	12741.962488
674.412864	12754.255342
674.752368	12606.128598
675.091820	12668.984225
675.431223	12634.333854
675.770574	12493.242040
676.109875	12413.034762
676.449125	12365.829397
676.788324	12329.102071
677.127473	12155.550267
677.466571	12148.626242
677.805619	12033.077955
678.144616	11975.717186
678.483562	11952.293465
678.822458	11817.671972
679.161303	11797.595577
679.500098	11777.809048
679.838842	11729.829866
680.177535	11781.657969
680.516179	11846.822444
680.854771	11779.364244
681.193314	11998.145279
681.531805	12174.464676
681.870247	12608.107251
682.208638	13012.705217
682.546978	13318.458760
682.885268	13332.997447
683.223508	13038.092468
683.561697	12892.035118
683.899836	12799.532465
684.237925	12589.248294
684.575963	12500.345026
684.913951	12418.358220
685.251889	12385.179866
685.589776	12481.997746
685.927614	12394.841237
686.265401	12371.987166
686.603137	12431.109819
686.940824	12578.193044
687.278460	12712.323024
687.616046	12741.705389
687.953582	12892.488822
688.291068	12837.000841
688.628504	13069.468610
688.965889	13070.000451
689.303224	13030.341694
689.640510	12905.754618
689.977745	12587.524220
690.314930	12374.860624
690.652065	12282.030297
690.989150	11978.852784
691.326185	11760.245668
691.663170	11549.923688
692.000105	11312.508027
692.336990	11192.095026
692.673825	10932.374780
693.010610	10821.338326
693.347345	10616.155802
693.684030	10425.196895
694.020665	10364.831598
694.357251	10168.027472
694.693786	10083.323485
695.030272	9945.127814
695.366707	9821.478392
695.703093	9765.330021
696.039429	9754.539431
696.375716	9658.404627
696.711952	9532.844608
697.048139	9587.218494
697.384276	9539.866936
697.720363	9566.890041
698.056400	9489.727619
698.392388	9434.910112
698.728326	9401.512468
699.064214	9348.940795
699.400053	9375.800063
699.735842	9202.870842
700.071581	9166.675357
700.407270	9084.678470
700.742910	9005.711315
701.078501	8912.762521
701.414042	8770.140717
701.749533	8721.271771
702.084974	8581.099968
702.420366	8703.161426
702.755709	8582.821522
703.091002	8443.410933
703.426246	8479.722364
703.761440	8431.675127
704.096584	8387.025627
704.431679	8326.841812
704.766725	8301.015981
705.101721	8259.796986
705.436668	8313.931417
705.771565	8202.269859
706.106413	8291.329404
706.441212	8319.156573
706.775961	8282.189792
707.110661	8340.921755
707.445311	8459.320814
707.779913	8361.479580
708.114465	8482.583219
708.448967	8521.016976
708.783421	8686.124847
709.117825	8857.335034
709.452180	8891.183862
709.786485	8971.058424
710.120742	9268.186552
710.454949	9277.255588
710.789107	9386.930931
711.123216	9605.291030
711.457275	9776.773440
711.791286	9920.625286
712.125247	9932.310680
712.459159	9918.344163
712.793023	10130.647317
713.126837	9711.798008
713.460602	9876.477381
713.794318	9700.513385
714.127985	9725.905677
714.461602	9385.274912
714.795171	9335.138116
715.128691	9083.047656
715.462162	8844.749793
715.795584	8781.369887
716.128957	8612.266902
716.462281	8448.179864
716.795556	8492.665527
717.128782	8288.133312
717.461960	8039.695168
717.795088	8100.342770
718.128167	8003.313161
718.461198	7843.392638
718.794180	7796.315822
719.127113	7784.753936
719.459997	7608.870599
719.792833	7399.985348
720.125619	7461.187476
720.458357	7320.458626
720.791046	7311.376987
721.123686	7300.203269
721.456278	7133.971221
721.788821	7149.417317
722.121315	7059.926754
722.453761	7132.617672
722.786158	7067.110398
723.118506	7076.098775
723.450805	7035.391458
723.783056	7093.883966
724.115259	7019.723552
724.447412	7017.591144
724.779518	7074.115081
725.111574	7071.977632
725.443582	7146.067470
725.775542	7115.941535
726.107453	7319.694891
726.439315	7223.897844
726.771129	7310.885474
727.102895	7481.299160
727.434612	7588.998370
727.766281	7633.922613
728.097901	7705.696041
728.429473	7718.419913
728.760996	7701.622788
729.092471	7674.282091
729.423897	7612.147349
729.755276	7609.457893
730.086606	7520.312649
730.417887	7627.023794
730.749120	7855.012497
731.080305	8039.712812
731.411442	8142.345663
731.742530	8122.806151
732.073570	8229.429076
732.404562	8315.169020
732.735506	8183.010131
733.066401	8303.798698
733.397249	8220.992705
733.728048	7980.333061
734.058798	7644.665312
734.389501	7416.167452
734.720156	7245.216884
735.050762	7026.566918
735.381320	6940.877385
735.711831	6875.060080
736.042293	6771.532424
736.372707	6780.641789
736.703073	6657.665362
737.033391	6696.368821
737.363661	6702.090530
737.693883	6745.729278
738.024056	6823.877245
738.354182	6858.933429
738.684260	6888.066257
739.014290	7023.267483
739.344272	7126.747248
739.674207	7162.176477
740.004093	7234.990903
740.333931	7246.646051
740.663722	7257.751713
740.993464	7328.161509
741.323159	7302.048332
741.652806	7058.003553
741.982405	7098.211797
742.311956	7137.686552
742.641460	6948.348375
742.970915	6761.306444
743.300323	6752.098776
743.629683	6715.283230
743.958996	6569.450211
744.288260	6479.652137
744.617477	6430.601710
744.946647	6418.341624
745.275768	6266.005517
745.604842	6214.656324
745.933869	6194.428694
746.262847	6159.667417
746.591778	6144.942207
746.920662	6100.650629
747.249498	6106.712617
747.578286	6151.251211
747.907027	6224.584876
748.235720	6289.489732
748.564365	6256.923878
748.892963	6305.699562
749.221514	6438.211332
749.550017	6247.275110
749.878473	6143.235777
750.206881	6204.803388
750.535242	6150.731972
750.863555	6082.588175
751.191821	6091.851295
751.520039	6085.098670
751.848210	5996.313868
752.176334	6030.011461
752.504411	6066.547224
752.832440	5993.127859
753.160421	5924.001037
753.488356	5974.311752
753.816243	5996.674311
754.144082	5853.235840
754.471875	5826.502601
754.799620	5872.704776
755.127318	5876.919181
755.454969	5840.630435
755.782572	5807.036185
756.110129	5849.480180
756.437638	5821.441282
756.765100	5769.671153
757.092515	5775.788593
757.419882	5840.854766
757.747203	5803.769518
758.074477	5864.694383
758.401703	5844.441547
758.728882	5805.123068
759.056014	5882.895468
759.383099	5991.920503
759.710138	6004.120095
760.037129	5993.558878
760.364073	5993.483260
760.690970	6074.053502
761.017820	6047.612650
761.344623	6023.011819
761.671379	6125.064938
761.998088	6254.864567
762.324751	6519.315936
762.651366	7170.418764
762.977935	8552.803971
763.304456	10222.844979
763.630931	11067.049205
763.957359	10592.361556
764.283740	9620.381724
764.610074	8734.580417
764.936362	7741.049653
765.262602	7144.565206
765.588796	6619.128261
765.914943	6291.634743
766.241044	6115.043124
766.567097	5896.234362
766.893104	5643.871679
767.219064	5470.524043
767.544978	5404.968878
767.870845	5320.164067
768.196665	5217.621957
768.522438	5148.008664
768.848165	5110.152119
769.173846	5040.997570
769.499479	4996.401003
769.825066	4952.767296
770.150607	4883.078385
770.476101	4863.901836
770.801548	4854.464796
771.126949	4767.673771
771.452303	4713.166295
771.777611	4681.525492
772.102872	4699.857648
772.428087	4661.731402
772.753256	4617.205411
773.078378	4571.174635
773.403453	4501.551259
773.728482	4486.064834
774.053465	4442.204275
774.378401	4431.287657
774.703291	4421.107047
775.028135	4342.107125
775.352932	4300.817554
775.677683	4290.568888
776.002388	4304.951300
776.327046	4310.425993
776.651658	4236.399170
776.976224	4177.977238
777.300743	4183.814894
777.625216	4205.625446
777.949643	4193.619938
778.274024	4158.793127
778.598359	4119.696458
778.922647	4148.166374
779.246889	4133.990650
779.571086	4123.895739
779.895236	4106.473512
780.219339	4098.490844
780.543397	4092.834670
780.867409	4146.046569
781.191374	4161.086852
781.515294	4090.195626
781.839167	4089.174792
782.162995	4115.018267
782.486776	4096.441615
782.810511	4109.833441
783.134201	4096.907922
783.457844	4047.930592
783.781441	3995.883199
784.104993	4005.163963
784.428498	4023.765821
784.751958	4012.624871
785.075372	3991.726768
785.398739	3960.277529
785.722061	3971.846977
786.045337	4017.827342
786.368568	4043.796846
786.691752	3954.533135
787.014891	4015.846168
787.337983	4148.289883
787.661030	4317.876819
787.984031	4473.741734
788.306987	4635.648472
788.629897	4727.087441
788.952760	4681.414587
789.275579	4615.320019
789.598351	4541.540212
789.921078	4383.752097
790.243759	4190.895194
790.566395	4182.695758
790.888984	4170.062626
791.211529	4064.425247
791.534027	4007.235877
791.856480	3986.972960
792.178888	3929.471038
792.501249	3885.262640
792.823566	3899.004825
793.145836	3916.051487
793.468062	3864.445195
793.790241	3823.495902
794.112375	3853.160572
794.434464	3925.798558
794.756507	3943.606434
795.078505	3917.911672
795.400457	3961.540338
795.722364	4110.531640
796.044226	4215.475861
796.366042	4287.645019
796.687812	4257.372890
797.009538	4260.105196
797.331218	4226.271492
797.652852	4195.691852
797.974442	4174.569418
798.295986	4170.977596
798.617484	4081.930654
798.938938	4003.119775
799.260346	4049.989903
799.581709	4038.198644
799.903026	3956.216880
800.224299	3923.651026
800.545526	3920.351591
800.866708	3880.914644
801.187845	3826.490348
801.508936	3856.686859
801.829983	3846.733101
802.150984	3768.844753
802.471940	3764.259824
802.792851	3770.982203
803.113717	3776.535033
803.434538	3772.000516
803.755314	3712.519941
804.076045	3693.870193
804.396731	3713.346691
804.717372	3735.517685
805.037967	3719.471693
805.358518	3713.064386
805.679024	3741.778798
805.999485	3757.671036
806.319901	3758.417127
806.640272	3770.843571
806.960598	3780.179788
807.280879	3757.209770
807.601115	3776.983696
807.921306	3795.220070
808.241453	3828.794155
808.561554	3801.614774
808.881611	3736.183118
809.201623	3780.941002
809.521590	3787.184471
809.841513	3756.065428
810.161390	3791.237559
810.481223	3759.437960
810.801011	3709.149930
811.120755	3709.286041
811.440453	3739.704363
811.760107	3735.903333
812.079716	3692.042774
812.399281	3670.605268
812.718801	3692.912373
813.038276	3665.344824
813.357707	3660.943896
813.677093	3677.942667
813.996434	3620.667598
814.315731	3637.628560
814.634983	3641.855567
814.954191	3657.016837
815.273354	3683.586239
815.592473	3674.330680
815.911547	3689.025644
816.230577	3735.552973
816.549562	3786.004841
816.868502	3823.705110
817.187399	3844.043645
817.506250	3844.792257
817.825058	3821.665963
818.143821	3924.465172
818.462539	4022.389586
818.781213	4064.692428
819.099843	4132.856390
819.418429	4407.178338
819.736970	4645.438393
820.055466	4902.476745
820.373919	5281.725269
820.692327	5693.547209
821.010691	6204.901691
821.329011	7718.863535
821.647286	10651.350618
821.965517	15442.982472
822.283704	19438.248130
822.601847	21397.338817
822.919945	19449.147104
823.237999	16767.535563
823.556010	14233.912134
823.873976	12054.281048
824.191897	9930.916801
824.509775	8597.922298
824.827609	7471.718447
825.145398	6942.304032
825.463144	6822.770712
825.780845	6930.802639
826.098502	7172.770462
826.416116	8141.440776
826.733685	9523.888998
827.051210	10609.413259
827.368692	10536.719821
827.686129	9187.001290
828.003522	7675.567585
828.320872	6647.585575
828.638177	5920.996509
828.955439	5345.427810
829.272656	4839.585830
829.589830	4571.472063
829.906960	4392.090165
830.224046	4200.571689
830.541088	4074.162236
830.858086	4029.270761
831.175041	3946.162299
831.491952	3938.905558
831.808819	3951.964667
832.125642	4034.022048
832.442421	4192.198333
832.759157	4489.374352
833.075849	5084.855609
833.392497	5994.234392
833.709101	6784.689836
834.025662	7086.085301
834.342179	6647.809906
834.658653	5968.718592
834.975083	5300.748063
835.291469	4711.724525
835.607811	4316.157785
835.924110	4166.596833
836.240366	3960.320379
836.556578	3756.045264
836.872746	3649.674397
837.188871	3603.560442
837.504952	3533.601830
837.820990	3453.046712
838.136984	3413.967687
838.452935	3438.593724
838.768842	3430.636262
839.084706	3455.960499
839.400526	3632.166470
839.716303	4003.903675
840.032037	4563.005445
840.347727	4788.279487
840.663373	4462.815033
840.978977	4068.324580
841.294537	3760.806633
841.610054	3534.630225
841.925527	3431.505861
842.240957	3359.067001
842.556344	3303.498362
842.871687	3243.178436
843.186987	3191.050385
843.502244	3153.312307
843.817458	3118.243520
844.132629	3089.680342
844.447756	3098.159563
844.762840	3078.806574
845.077881	3046.081923
845.392879	3032.478370
845.707833	3026.494520
846.022745	3027.540560
846.337613	3027.689274
846.652438	3013.901718
846.967221	3011.194618
847.281960	2995.337669
847.596656	2995.216681
847.911309	2992.239880
848.225919	2987.826350
848.540485	2980.957778
848.855009	2980.476347
849.169490	2972.360090
849.483928	2959.011114
849.798323	2963.084367
850.112675	2958.789303
850.426984	2972.919658
850.741251	2965.206692
851.055474	2953.513736
851.369654	2950.524332
851.683792	2957.544138
851.997887	2966.343473
852.311938	2970.525110
852.625947	2957.226546
852.939914	2959.953810
853.253837	2960.765436
853.567718	2947.441666
853.881555	2947.459310
854.195350	2962.734006
854.509103	2954.254786
854.822812	2949.367387
855.136479	2944.406892
855.450103	2948.785134
855.763685	2943.194494
856.077224	2938.912034
856.390720	2955.333593
856.704173	2960.543625
857.017584	2952.891153
857.330953	2951.484672
857.644278	2962.121506
857.957561	2972.654997
858.270802	2975.155409
858.584000	2972.551653
858.897155	2956.586319
859.210268	2958.000363
859.523339	2955.426854
859.836367	2957.072791
860.149352	2945.662139
860.462295	2944.900925
860.775195	2952.868468
861.088054	2951.290587
861.400869	2933.999429
861.713642	2939.136365
862.026373	2949.183385
862.339062	2953.551545
862.651708	2957.203861
862.964312	2960.024386
863.276873	2955.169755
863.589392	2965.753657
863.901869	2978.016264
864.214303	2999.060561
864.526696	3015.603107
864.839045	3011.532376
865.151353	3010.146058
865.463619	3008.943743
865.775842	3009.873836
866.088023	3030.877803
866.400162	3035.535830
866.712258	3002.060048
867.024313	2994.765498
867.336325	3004.784791
867.648296	3027.071732
867.960224	3020.147708
868.272110	3002.554081
868.583954	3009.921727
868.895755	3025.821526
869.207515	3010.846779
869.519233	3018.184178
869.830909	3027.578368
870.142542	3034.638504
870.454134	3035.707229
870.765684	3039.084802
871.077191	3038.154709
871.388657	3049.436811
871.700081	3064.938359
872.011463	3072.179977
872.322803	3071.832137
872.634101	3072.739545
872.945357	3089.166145
873.256571	3118.276288
873.567744	3109.126593
873.878874	3106.573249
874.189963	3127.194089
874.501010	3128.890437
874.812015	3118.125053
875.122979	3116.660598
875.433900	3116.537090
875.744780	3124.015641
876.055618	3130.642238
876.366415	3127.446147
876.677169	3135.958135
876.987882	3129.969244
877.298554	3132.028555
877.609183	3156.228614
877.919771	3177.240144
878.230317	3203.040769
878.540822	3260.893051
878.851285	3298.409318
879.161707	3347.328674
879.472087	3467.242601
879.782425	3723.348340
880.092722	4187.797405
880.402977	4736.844594
880.713191	5405.276388
881.023363	6648.999618
881.333494	7970.016340
881.643583	8478.567940
881.953631	8144.324316
882.263637	7446.895805
882.573602	6819.367933
882.883526	6227.556636
883.193408	5656.446838
883.503248	5199.839287
883.813048	4882.087798
884.122806	4547.246798
884.432522	4216.037949
884.742197	3975.776557
885.051831	3782.365128
885.361424	3657.810819
885.670975	3579.834252
885.980485	3487.732371
886.289954	3406.216913
886.599382	3361.728730
886.908768	3321.543173
887.218113	3278.244702
887.527417	3216.964436
887.836680	3165.506858
888.145901	3161.007628
888.455082	3149.125629
888.764221	3095.875921
889.073319	3066.801066
889.382376	3065.697053
889.691392	3070.682754
890.000366	3066.087742
890.309300	3058.278995
890.618193	3069.679565
890.927044	3084.520722
891.235855	3083.406627
891.544625	3072.626119
891.853353	3085.168510
892.162041	3102.346242
892.470687	3145.216214
892.779293	3194.995087
893.087858	3246.104826
893.396381	3325.679439
893.704864	3456.580561
894.013306	3718.649984
894.321707	4035.249569
894.630068	4228.628231
894.938387	4212.272207
895.246665	4173.757792
895.554903	4043.562432
895.863100	3830.054443
896.171256	3658.413237
896.479371	3513.777492
896.787446	3383.715723
897.095480	3280.195629
897.403473	3217.511401
897.711425	3181.636030
898.019336	3170.792508
898.327207	3135.247332
898.635038	3099.979420
898.942827	3088.044488
899.250576	3073.588979
899.558284	3042.548075
899.865952	3021.894467
900.173579	2998.427896
900.481165	2993.164932
900.788711	2976.511480
901.096216	2954.027934
901.403681	2944.996707
901.711105	2949.314455
902.018489	2949.264043
902.325832	2946.872016
902.633135	2960.435240
902.940397	2995.249449
903.247619	3093.136053
903.554800	3299.152888
903.861941	3683.056918
904.169041	4136.672544
904.476101	4431.133902
904.783121	4348.292620
905.090100	4082.384358
905.397039	3793.327117
905.703938	3535.242725
906.010796	3348.122656
906.317614	3231.523288
906.624391	3133.934112
906.931129	3058.626835
907.237826	2996.809686
907.544483	2947.035853
907.851099	2918.467634
908.157675	2895.759757
908.464211	2875.312837
908.770707	2860.522092
909.077163	2848.846779
909.383578	2833.098215
909.689954	2823.202430
909.996289	2822.058088
910.302584	2820.800320
910.608839	2824.349292
910.915054	2813.712457
911.221229	2808.814977
911.527363	2810.654998
911.833458	2819.063642
912.139513	2824.876093
912.445527	2827.026145
912.751502	2833.967814
913.057436	2846.232941
913.363331	2861.810106
913.669186	2887.338509
913.975000	2925.500044
914.280775	2988.035558
914.586510	3058.140363
914.892205	3145.770741
915.197859	3284.778038
915.503475	3496.708145
915.809050	3729.601891
916.114585	3872.639590
916.420081	3879.021691
916.725536	3809.655414
917.030952	3683.513142
917.336328	3550.961043
917.641665	3416.891556
917.946961	3310.225782
918.252218	3234.457240
918.557435	3154.267606
918.862612	3091.381732
919.167750	3037.378371
919.472848	2998.611898
919.777906	2972.418063
920.082925	2940.575615
920.387904	2912.168713
920.692843	2893.284550
920.997743	2884.165103
921.302603	2868.348483
921.607423	2859.879344
921.912204	2843.498115
922.216946	2829.743327
922.521647	2822.340392
922.826310	2816.510298
923.130932	2806.377579
923.435516	2796.227215
923.740059	2788.909981
924.044564	2780.723147
924.349028	2776.397837
924.653454	2769.685540
924.957840	2762.315373
925.262186	2757.949734
925.566493	2755.139291
925.870761	2748.769793
926.174989	2743.668145
926.479178	2738.901734
926.783328	2734.697412
927.087438	2733.573235
927.391509	2732.806979
927.695541	2731.443347
927.999533	2722.356667
928.303486	2721.746688
928.607400	2723.216184
928.911275	2721.361040
929.215110	2719.019424
929.518906	2719.090000
929.822663	2719.556307
930.126381	2719.697459
930.430060	2718.976574
930.733699	2722.727192
931.037299	2721.882799
931.340861	2724.428582
931.644383	2724.065619
931.947866	2722.679301
932.251309	2721.262737
932.554714	2719.183261
932.858080	2716.612273
933.161407	2715.881305
933.464694	2713.872406
933.767943	2711.276211
934.071153	2713.269988
934.374323	2713.600183
934.677455	2712.181098
934.980548	2709.393340
935.283602	2712.927189
935.586617	2707.787733
935.889593	2711.803012
936.192530	2712.143290
936.495428	2714.005996
936.798287	2714.280739
937.101108	2718.459856
937.403890	2721.154352
937.706632	2726.046792
938.009336	2734.137844
938.312002	2743.494226
938.614628	2750.463621
938.917216	2757.496030
939.219765	2757.740526
939.522275	2757.488469
939.824747	2751.691142
940.127179	2753.687439
940.429573	2747.895153
940.731929	2745.160327
941.034246	2742.468351
941.336524	2738.538771
941.638763	2737.265880
941.940964	2734.389902
942.243126	2732.161712
942.545250	2731.609705
942.847335	2729.061402
943.149381	2724.368088
943.451389	2720.980432
943.753359	2719.178220
944.055290	2720.120916
944.357182	2718.805175
944.659036	2714.348795
944.960851	2715.384752
945.262628	2711.664380
945.564367	2714.558002
945.866067	2713.456510
946.167729	2714.119422
946.469352	2714.215204
946.770937	2715.442725
947.072484	2710.875440
947.373992	2713.403578
947.675462	2709.395861
947.976893	2703.777495
948.278286	2705.062989
948.579641	2705.867053
948.880958	2703.369162
949.182236	2705.113401
949.483476	2704.947043
949.784678	2703.343956
950.085841	2704.737835
950.386967	2704.203472
950.688054	2705.856971
950.989103	2706.688761
951.290114	2708.727908
951.591087	2708.105326
951.892021	2713.640512
952.192917	2714.593291
952.493776	2717.159238
952.794596	2716.642520
953.095378	2715.644371
953.396122	2715.593960
953.696828	2716.060266
953.997496	2712.594473
954.298126	2710.434339
954.598718	2707.714636
954.899272	2704.435366
955.199788	2700.566280
955.500266	2703.056610
955.800706	2698.010415
956.101108	2696.687112
956.401472	2694.537060
956.701798	2690.683098
957.002087	2690.032789
957.302337	2687.028261
957.602550	2687.398786
957.902724	2686.529187
958.202861	2683.254958
958.502960	2684.414423
958.803022	2684.855524
959.103045	2681.702282
959.403031	2681.120029
959.702979	2681.432581
960.002889	2682.098013
960.302762	2681.024247
960.602596	2680.351253
960.902393	2679.421160
961.202153	2677.192970
961.501875	2679.083403
961.801559	2675.322702
962.101205	2676.348577
962.400814	2677.581139
962.700385	2677.762621
962.999918	2675.002589
963.299414	2673.039059
963.598873	2674.130469
963.898293	2670.331960
964.197677	2676.361180
964.497022	2673.036539
964.796331	2676.512414
965.095601	2674.039728
965.394835	2674.468227
965.694030	2677.583660
965.993189	2675.846982
966.292309	2673.097033
966.591393	2674.132990
966.890439	2674.770696
967.189447	2674.067455
967.488419	2675.466375
967.787353	2675.748680
968.086249	2673.185253
968.385108	2674.155675
968.683930	2674.057372
968.982714	2673.354132
969.281462	2673.898576
969.580172	2676.096519
969.878844	2674.110305
970.177480	2674.707681
970.476078	2676.668690
970.774639	2677.150120
971.073162	2672.885304
971.371649	2675.783968
971.670098	2675.211797
971.968510	2677.351767
972.266885	2677.021571
972.565223	2676.073834
972.863524	2675.042918
973.161788	2675.912517
973.460014	2674.838751
973.758204	2675.448731
974.056356	2675.957887
974.354471	2672.512259
974.652550	2674.690037
974.950591	2675.002589
975.248595	2672.751714
975.546563	2675.967970
975.844493	2676.812363
976.142386	2674.022084
976.440243	2673.429749
976.738062	2672.292969
977.035845	2674.556447
977.333590	2675.799091
977.631299	2674.627023
977.928971	2670.926816
978.226606	2669.293482
978.524204	2671.468740
978.821765	2668.113852
979.119290	2670.778102
979.416777	2673.979235
979.714228	2672.971004
980.011642	2672.245078
980.309020	2674.385048
980.606360	2672.189625
980.903664	2673.124759
981.200931	2673.351611
981.498162	2672.852537
981.795356	2674.748011
982.092513	2675.720953
982.389633	2676.580470
982.686717	2681.959381
982.983764	2685.314269
983.280775	2689.241328
983.577749	2692.349199
983.874686	2691.048582
984.171587	2688.749815
984.468451	2684.243024
984.765279	2682.284536
985.062070	2681.881243
985.358824	2676.192301
985.655543	2679.073321
985.952224	2676.303207
986.248869	2675.252126
986.545478	2673.747342
986.842050	2673.170129
987.138586	2672.633247
987.435086	2670.946981
987.731549	2670.934378
988.027975	2670.190807
988.324366	2670.253822
988.620719	2669.744665
988.917037	2669.802639
989.213318	2669.686692
989.509563	2671.564522
989.805772	2671.410767
990.101944	2668.242402
990.398080	2666.954387
990.694180	2670.523524
990.990244	2667.904644
991.286271	2670.377330
991.582262	2671.879594
991.878217	2669.603513
992.174136	2669.744665
992.470019	2670.745334
992.765865	2665.739469
993.061676	2665.250477
993.357450	2666.349448
993.653188	2664.600168
993.948890	2667.367761
994.244556	2670.337001
994.540186	2672.529903
994.835780	2670.977227
995.131337	2672.320695
995.426859	2672.255160
995.722345	2671.441014
996.017795	2672.764317
996.313208	2674.705161
996.608586	2672.161899
996.903928	2672.156858
997.199234	2673.772547
997.494504	2673.898576
997.789738	2674.458144
998.084936	2670.989830
998.380099	2671.509069
998.675225	2671.950170
998.970316	2671.559481
999.265371	2672.348421
999.560390	2670.962104
999.855373	2669.356497
1000.150320	2667.355158
1000.445232	2668.484377
1000.740108	2667.168636
1001.034948	2671.690551
1001.329752	2666.911537
1001.624521	2668.688544
1001.919254	2669.162412
1002.213951	2669.603513
1002.508613	2668.645694
1002.803239	2668.645694
1003.097829	2668.257525
1003.392384	2668.018070
1003.686903	2665.520178
1003.981386	2666.132679
1004.275834	2665.648728
1004.570246	2667.854233
1004.864623	2667.244253
1005.158964	2667.650066
1005.453270	2666.992195
1005.747540	2667.796259
1006.041775	2667.057730
1006.335974	2667.697957
1006.630138	2667.861794
1006.924266	2666.505724
1007.218359	2666.493121
1007.512416	2665.736948
1007.806438	2663.216371
1008.100425	2663.773419
1008.394376	2662.276196
1008.688292	2666.815755
1008.982172	2666.052020
1009.276017	2668.365910
1009.569827	2666.382216
1009.863602	2665.885662
1010.157341	2669.658966
1010.451045	2666.626712
1010.744714	2665.510096
1011.038347	2668.605365
1011.331945	2664.590086
1011.625508	2667.168636
1011.919036	2667.642504
1012.212528	2667.226609
1012.505986	2665.255518
1012.799408	2668.035714
1013.092795	2665.646207
1013.386147	2665.487411
1013.679464	2666.220899
1013.972745	2665.452123
1014.265992	2666.752741
1014.559204	2666.959428
1014.852380	2666.223419
1015.145521	2665.242915
1015.438628	2666.619150
1015.731699	2668.202072
1016.024736	2665.852895
1016.317737	2666.896413
1016.610703	2667.035045
1016.903635	2666.601506
1017.196531	2665.356341
1017.489393	2666.150323
1017.782219	2664.143943
1018.075011	2667.481187
1018.367768	2667.103101
1018.660490	2665.752072
1018.953177	2665.752072
1019.245829	2665.752072
