Dividing Wavelength (nm)	Counts (n)	Blue Motor Position (mm): 31.600000	Red Motor Position (mm): 0.000000	
326.493990	2214.344471
326.888308	2214.344471
327.282561	2214.344471
327.676750	2175.043636
328.070874	2172.500373
328.464933	2175.378872
328.858929	2178.506908
329.252859	2183.122085
329.646726	2191.200534
330.040528	2202.633871
330.434265	2219.383104
330.827938	2232.943808
331.221547	2252.236304
331.615091	2268.637698
332.008571	2287.131171
332.401986	2306.310241
332.795338	2324.206337
333.188625	2343.564368
333.581847	2363.751668
333.975006	2382.290511
334.368100	2399.286762
334.761129	2419.095976
335.154095	2435.643563
335.546996	2463.863942
335.939833	2500.770230
336.332606	2516.720440
336.725315	2528.181504
337.117960	2542.639533
337.510540	2554.312325
337.903056	2562.065619
338.295508	2573.647670
338.687896	2581.680749
339.080220	2586.676532
339.472480	2597.250352
339.864676	2602.720004
340.256807	2607.095726
340.648875	2608.403905
341.040879	2614.380193
341.432818	2613.918928
341.824694	2618.413116
342.216506	2618.488734
342.608253	2620.331275
342.999937	2619.028137
343.391557	2619.209619
343.783113	2618.524022
344.174605	2619.933024
344.566033	2618.750874
344.957397	2616.747015
345.348697	2615.499329
345.739934	2614.536469
346.131106	2613.797940
346.522215	2612.187291
346.913260	2609.180243
347.304241	2607.677979
347.695159	2606.820983
348.086012	2605.152361
348.476802	2602.311671
348.867528	2596.635332
349.258191	2594.911257
349.648789	2593.270362
350.039324	2590.167531
350.429796	2593.504775
350.820203	2592.675505
351.210548	2592.146184
351.600828	2590.517892
351.991045	2589.605443
352.381198	2589.285329
352.771288	2588.498909
353.161314	2586.081676
353.551276	2589.582757
353.941175	2582.701582
354.331010	2586.963878
354.720782	2585.078487
355.110490	2584.529001
355.500135	2585.368353
355.889717	2585.204515
356.279235	2584.561768
356.668689	2588.304825
357.058080	2587.525967
357.447408	2589.527305
357.836672	2587.772983
358.225873	2584.375246
358.615010	2588.990422
359.004084	2588.541759
359.393095	2587.594022
359.782043	2590.318766
360.170927	2589.391194
360.559748	2589.676019
360.948505	2589.295412
361.337199	2591.311873
361.725830	2591.001842
362.114398	2590.971595
362.502903	2589.912953
362.891344	2591.173242
363.279722	2595.985023
363.668037	2591.513519
364.056289	2594.180290
364.444478	2594.152563
364.832603	2595.556525
365.220665	2596.242122
365.608665	2596.927719
365.996601	2595.952255
366.384474	2598.893769
366.772284	2595.150712
367.160031	2597.139447
367.547715	2598.399736
367.935336	2601.701691
368.322893	2595.112903
368.710388	2594.492841
369.097820	2596.552153
369.485189	2598.089705
369.872495	2600.927874
370.259738	2600.721187
370.646918	2602.281424
371.034035	2603.148502
371.421090	2601.416866
371.808081	2603.647577
372.195010	2604.207145
372.581875	2603.118256
372.968678	2604.403750
373.355418	2603.534151
373.742096	2604.996085
374.128710	2603.365272
374.515262	2605.996754
374.901751	2604.219748
375.288177	2605.235540
375.674540	2603.319902
376.060841	2606.831065
376.447079	2606.495829
376.833254	2607.723350
377.219367	2605.162443
377.605417	2609.903649
377.991404	2606.092536
378.377329	2604.181939
378.763191	2605.762341
379.148991	2606.904162
379.534727	2608.492126
379.920402	2605.842999
380.306013	2606.205962
380.691563	2610.526231
381.077049	2611.184102
381.462474	2611.378186
381.847835	2610.377517
382.233134	2609.354163
382.618371	2608.640840
383.003545	2609.838114
383.388657	2612.441870
383.773706	2608.978597
384.158693	2611.927672
384.543618	2610.405243
384.928480	2611.277363
385.313280	2610.730398
385.698017	2614.176027
386.082692	2613.324072
386.467305	2611.557147
386.851856	2615.539659
387.236344	2614.460852
387.620770	2612.159565
388.005133	2613.898763
388.389435	2612.698968
388.773674	2611.839452
389.157851	2616.608383
389.541965	2616.835235
389.926018	2617.019237
390.310008	2616.295832
390.693936	2617.301542
391.077802	2621.077366
391.461606	2617.936727
391.845348	2619.149125
392.229027	2620.699280
392.612645	2620.590895
392.996200	2621.984774
393.379694	2618.012345
393.763125	2621.856224
394.146494	2622.710700
394.529801	2621.868827
394.913047	2622.090638
395.296230	2624.427213
395.679351	2625.143057
396.062410	2623.368571
396.445408	2625.773201
396.828343	2625.138016
397.211217	2625.989971
397.594028	2625.904271
397.976778	2625.647172
398.359466	2627.058695
398.742092	2627.444343
399.124656	2625.274127
399.507158	2628.225722
399.889598	2628.787811
400.271977	2629.034827
400.654294	2629.470887
401.036549	2628.611371
401.418742	2631.378964
401.800874	2631.406690
402.182944	2632.888790
402.564952	2633.453399
402.946898	2630.474077
403.328783	2629.090280
403.710606	2633.546660
404.092367	2636.223513
404.474067	2637.161167
404.855705	2636.669655
405.237282	2635.358955
405.618797	2638.444141
406.000250	2639.734677
406.381642	2638.691158
406.762972	2637.763585
407.144240	2638.522279
407.525447	2637.687968
407.906593	2638.391209
408.287677	2641.375572
408.668700	2641.544451
409.049661	2645.400933
409.430560	2645.295069
409.811399	2646.288177
410.192176	2647.079638
410.572891	2646.552837
410.953545	2648.246665
411.334138	2646.888074
411.714669	2648.523928
412.095139	2651.699855
412.475547	2650.600884
412.855894	2652.861841
413.236180	2651.901501
413.616405	2650.908394
413.996568	2654.462408
414.376670	2655.584064
414.756711	2655.664723
415.136691	2660.806700
415.516609	2661.545229
415.896466	2666.392298
416.276262	2672.711384
416.655997	2677.679442
417.035670	2682.342509
417.415283	2693.491021
417.794834	2705.317567
418.174324	2713.627910
418.553753	2723.407748
418.933121	2746.685276
419.312428	2764.687236
419.691674	2778.285749
420.070859	2816.900987
420.449983	2832.422700
420.829045	2873.132538
421.208047	2900.354769
421.586988	2950.436112
421.965867	2994.737772
422.344686	3051.372614
422.723444	3097.746189
423.102141	3101.078391
423.480777	3222.182030
423.859352	3238.883373
424.237866	3372.431100
424.616319	3429.418824
424.994712	3550.068759
425.373044	3571.516348
425.751314	3720.779872
426.129524	3783.448976
426.507673	3895.975092
426.885762	4014.112011
427.263789	4090.064556
427.641756	4169.641690
428.019662	4294.896719
428.397508	4451.457313
428.775292	4468.335096
429.153016	4686.546482
429.530679	4749.132407
429.908282	4861.517370
430.285824	4876.179566
430.663305	5214.992995
431.040726	5135.315038
431.418086	5233.950254
431.795385	5466.854083
432.172624	5611.207523
432.549802	5691.011509
432.926920	5852.598134
433.303977	5904.854735
433.680974	6105.754798
434.057910	6271.691938
434.434786	6411.425161
434.811601	6467.618903
435.188355	6871.715275
435.565050	6845.702921
435.941683	6922.293171
436.318257	7335.123342
436.694770	7527.685337
437.071222	7707.767955
437.447614	7731.468940
437.823946	7778.460055
438.200218	8005.858944
438.576429	7979.198802
438.952580	8255.673323
439.328670	8415.634175
439.704700	8360.345320
440.080670	8452.452242
440.456580	8983.878078
440.832429	8896.431703
441.208218	8680.715688
441.583947	9036.288434
441.959616	9244.611596
442.335224	9175.235237
442.710773	9390.041323
443.086261	9636.039548
443.461689	9117.929920
443.837057	9725.250327
444.212365	10063.743643
444.587612	9824.215739
444.962800	10111.954718
445.337927	9982.848247
445.712995	9635.333787
446.088002	10699.009686
446.462949	10418.282952
446.837837	10455.093457
447.212664	10521.067038
447.587431	11014.089363
447.962139	11713.544418
448.336786	13860.690309
448.711374	14484.717099
449.085901	12497.262360
449.460369	12165.443532
449.834776	11688.371417
450.209124	12512.756346
450.583412	12932.331581
450.957640	13904.434921
451.331808	13155.775684
451.705917	12157.077737
452.079965	11532.020030
452.453954	12408.722054
452.827883	12065.240517
453.201752	12360.604241
453.575562	11892.868343
453.949311	12321.129486
454.323001	12282.970472
454.696632	12511.634690
455.070202	12805.153352
455.443713	13077.584867
455.817164	13529.315102
456.190556	13545.920663
456.563888	13905.700251
456.937160	14094.783849
457.310373	13427.768619
457.683526	13511.499664
458.056619	13080.279364
458.429653	13202.411398
458.802628	12678.504444
459.175542	13028.935212
459.548398	13977.692969
459.921194	14304.233709
460.293930	14362.718656
460.666607	15260.782569
461.039224	16283.191584
461.411782	16975.268910
461.784280	16898.867703
462.156719	16933.094617
462.529099	16631.447094
462.901419	15556.526901
463.273680	15347.069479
463.645882	15205.897007
464.018024	14953.244458
464.390106	15164.194062
464.762130	15891.798920
465.134094	16628.132536
465.505999	18588.561649
465.877845	21844.496725
466.249631	24681.965620
466.621358	24415.167594
466.993026	22963.111119
467.364634	22413.131317
467.736184	20968.676902
468.107674	20147.966974
468.479105	20291.687750
468.850477	19754.462067
469.221790	19326.364761
469.593043	18657.207041
469.964238	18111.885265
470.335373	17770.014376
470.706449	18186.774126
471.077467	17729.589363
471.448425	19549.995387
471.819324	23526.613817
472.190164	25639.099254
472.560945	22137.140747
472.931667	19727.564990
473.302330	19086.922557
473.672934	18568.916273
474.043479	18941.044167
474.413965	18752.855373
474.784393	18380.959372
475.154761	19059.556653
475.525070	19067.688034
475.895321	18711.870793
476.265513	19291.394277
476.635645	19870.832062
477.005719	19663.512089
477.375734	19858.582058
477.745691	20333.345324
478.115588	20848.329437
478.485427	21357.377590
478.855207	22415.714908
479.224928	24160.153265
479.594591	26383.690280
479.964194	26458.019573
480.333739	26666.342735
480.703226	26228.387453
481.072653	25893.740537
481.442022	26441.227489
481.811333	27355.851593
482.180584	27289.772148
482.549777	26346.738622
482.918912	25988.118499
483.287988	26094.716218
483.657005	25792.723376
484.025964	25511.041343
484.394864	25445.894512
484.763706	25145.686239
485.132489	24559.142948
485.501213	24730.935388
485.869879	24658.746065
486.238487	24448.129178
486.607036	24610.076245
486.975527	24297.025633
487.343959	24622.979079
487.712333	24573.709362
488.080648	24238.366767
488.448905	24716.827719
488.817104	24473.309742
489.185244	25130.431707
489.553326	25110.085610
489.921350	26083.096358
490.289315	28344.391615
490.657222	30166.509111
491.025070	30639.787758
491.392861	30441.642685
491.760593	29596.520969
492.128267	28708.693119
492.495883	27646.559812
492.863440	26786.584336
493.230939	25911.916417
493.598380	25756.346410
493.965763	25356.192220
494.333088	24903.226903
494.700354	24832.257539
495.067563	24721.231167
495.434713	24463.083761
495.801805	24623.052175
496.168839	24434.109729
496.535815	24265.611682
496.902733	24480.206040
497.269593	24137.072342
497.636395	24338.239586
498.003139	24313.747140
498.369825	24067.302772
498.736453	24254.528706
499.103023	24138.635099
499.469535	24147.898220
499.835989	24361.496949
500.202385	24391.890066
500.568723	23892.594024
500.935003	24147.154649
501.301226	23745.341920
501.667390	24578.107768
502.033497	24824.763864
502.399546	24550.353696
502.765537	24133.576302
503.131470	24507.476162
503.497345	24643.655371
503.863163	23862.642009
504.228923	24466.632733
504.594625	24665.574308
504.960269	24184.406256
505.325856	24686.764798
505.691385	24072.936262
506.056856	24688.672875
506.422270	24657.044676
506.787625	24249.570731
507.152924	24651.441433
507.518164	24681.718603
507.883347	24486.053778
508.248472	24174.649103
508.613540	24950.742299
508.978550	24736.888991
509.343503	24728.215686
509.708398	24988.674461
510.073236	25150.510623
510.438016	25360.078950
510.802738	25037.074579
511.167403	25290.785770
511.532010	24985.344779
511.896561	25779.752487
512.261053	25732.932771
512.625488	25570.743728
512.989866	25469.126669
513.354186	25308.870909
513.718449	25402.026391
514.082655	25789.091225
514.446803	25530.674117
514.810894	25987.558931
515.174927	25472.443749
515.538904	25506.829459
515.902822	25994.188048
516.266684	25745.177733
516.630488	25646.393803
516.994235	25642.048329
517.357925	25936.597907
517.721558	26121.613294
518.085133	26203.973145
518.448651	26119.367460
518.812112	25853.461718
519.175516	26052.012603
519.538863	26211.423970
519.902152	25986.512892
520.265385	26281.170854
520.628560	26062.160446
520.991678	26070.927013
521.354739	26157.826423
521.717743	26222.741361
522.080690	26007.325295
522.443580	26344.155031
522.806413	26339.834762
523.169189	26429.975634
523.531908	26474.869629
523.894569	26091.812513
524.257174	26154.471535
524.619722	26345.518663
524.982213	26035.487701
525.344647	26108.299607
525.707025	26221.546607
526.069345	26223.923511
526.431608	26167.250860
526.793815	26367.697219
527.155964	25813.581150
527.518057	25987.606822
527.880093	25908.329637
528.242072	26142.962581
528.603995	25855.977254
528.965860	25646.870192
529.327669	25691.481883
529.689421	25694.614960
530.051117	25530.880804
530.412755	25697.274169
530.774337	25496.091801
531.135862	25361.596337
531.497331	25570.453862
531.858743	25114.657937
532.220098	25600.531906
532.581396	25280.337978
532.942638	25228.232612
533.303824	25318.484390
533.664953	25327.886142
534.026025	24998.897921
534.387040	25235.819549
534.747999	25294.385154
535.108902	25455.939011
535.469748	24945.759118
535.830537	25125.849298
536.191270	25254.570121
536.551947	25137.159127
536.912567	24773.878457
537.273131	25119.414265
537.633638	24832.345760
537.994089	25039.222111
538.354483	24567.816253
538.714821	25084.083339
539.075103	25121.070284
539.435328	24905.896194
539.795497	24457.354490
540.155609	24855.242680
540.515665	25160.224926
540.875665	24390.662545
541.235609	24683.843450
541.595496	24641.991790
541.955328	25005.844631
542.315102	24928.657004
542.674821	24477.935000
543.034483	24341.286963
543.394090	24507.435832
543.753640	24312.708662
544.113134	24934.116573
544.472571	24545.113416
544.831953	24836.633261
545.191278	24446.548776
545.550548	24379.125864
545.909761	24576.262706
546.268918	24804.634537
546.628019	24765.008547
546.987064	24467.804802
547.346053	24233.769234
547.704986	24351.487738
548.063863	24510.314331
548.422684	24515.718448
548.781449	24058.374889
549.140158	24454.470950
549.498811	24031.470251
549.857408	23765.597277
550.215949	24209.410379
550.574434	23884.540781
550.932864	24104.622434
551.291237	24255.216823
551.649555	24118.581389
552.007817	24176.083311
552.366022	24040.279667
552.724173	24083.333642
553.082267	24016.160267
553.440305	24510.001780
553.798288	23764.326906
554.156215	24272.916314
554.514086	24371.102868
554.871902	23745.924174
555.229661	24033.161558
555.587365	23888.525813
555.945014	23749.563887
556.302606	24012.928887
556.660143	23946.615029
557.017625	24208.560944
557.375050	23724.567325
557.732421	24119.987871
558.089735	23938.614718
558.446994	23994.778213
558.804197	24019.588251
559.161345	23965.753769
559.518437	23727.723088
559.875474	23916.209309
560.232455	24097.257309
560.589381	23920.007819
560.946251	23897.204159
561.303065	24221.143664
561.659825	24314.152953
562.016528	23920.648045
562.373177	23648.566890
562.729770	24010.967878
563.086307	23879.509709
563.442789	24035.664491
563.799216	23876.069122
564.155587	23875.769173
564.511904	23869.384552
564.868164	23801.959119
565.224370	23775.198154
565.580520	23680.495038
565.936615	23817.654752
566.292654	23501.324868
566.648638	23796.398727
567.004567	23624.245843
567.360441	23570.585281
567.716260	23304.538387
568.072023	23627.484785
568.427732	23392.128435
568.783385	23170.171472
569.138982	23410.014449
569.494525	23439.129633
569.850013	23187.399616
570.205445	23287.380820
570.560823	23082.828441
570.916145	22847.222554
571.271412	23029.122508
571.626625	22783.446917
571.981782	22889.404409
572.336884	22705.414896
572.691931	22848.873532
573.046923	22569.623856
573.401860	22462.421199
573.756743	22467.810192
574.111570	22364.123740
574.466342	22304.219709
574.821059	22384.674003
575.175722	22090.492430
575.530330	22084.669897
575.884882	22105.134461
576.239380	22005.004543
576.593823	21897.844735
576.948211	21871.852546
577.302544	21728.146894
577.656823	21589.288311
578.011047	21696.231349
578.365216	21558.446532
578.719330	21438.772060
579.073389	21333.966472
579.427394	21489.236531
579.781344	21247.992114
580.135239	21135.894496
580.489080	21111.659149
580.842866	20878.175588
581.196597	21064.738610
581.550273	21040.684744
581.903895	20928.801376
582.257463	21248.342474
582.610975	20776.805546
582.964434	21085.908935
583.317837	20794.953700
583.671186	20878.460413
584.024481	20846.043273
584.377721	20626.158225
584.730906	20682.641833
585.084037	20707.318281
585.437113	20610.588621
585.790135	20810.898869
586.143103	20276.498753
586.496016	20297.689243
586.848874	20535.364524
587.201679	20459.069181
587.554428	20145.910183
587.907124	20479.722788
588.259765	20249.926831
588.612352	20328.450364
588.964884	19889.065915
589.317362	20074.847558
589.669786	20113.934144
590.022155	20146.411778
590.374470	20356.920280
590.726731	20141.310130
591.078937	19909.137269
591.431090	20006.560088
591.783188	19744.956971
592.135232	19718.858918
592.487222	19821.610236
592.839157	19842.417598
593.191038	19722.982581
593.542866	19611.600808
593.894639	19329.379371
594.246358	19552.755419
594.598022	19447.642320
594.949633	19201.825576
595.301190	19172.405402
595.652692	19337.939251
596.004141	19574.911290
596.355535	18903.137211
596.706876	18911.253468
597.058162	18803.554258
597.409395	19031.449700
597.760573	19113.570096
598.111698	18890.221775
598.462768	18827.955963
598.813785	18789.602864
599.164748	18601.303165
599.515657	18642.769176
599.866511	18439.033464
600.217312	18792.650242
600.568060	18329.887442
600.918753	18635.341036
601.269392	18531.049645
601.619978	18313.765832
601.970510	18520.390126
602.320988	18469.325758
602.671412	18678.994908
603.021783	18582.298015
603.372100	18309.362384
603.722363	18459.344273
604.072572	18384.180669
604.422728	18538.518115
604.772830	18289.149878
605.122878	18249.158405
605.472872	18231.201815
605.822813	18213.371253
606.172701	18188.268828
606.522534	18384.783087
606.872314	18412.683353
607.222041	18243.577847
607.571714	18460.183625
607.921333	18285.968910
608.270899	18365.420015
608.620411	18533.469399
608.969870	18311.023445
609.319276	18320.399991
609.668627	18338.853134
610.017926	18484.786977
610.367171	18597.222351
610.716362	18644.130288
611.065500	18452.203479
611.414585	18591.389736
611.763616	18574.433815
612.112594	18514.171862
612.461518	18483.521647
612.810389	18685.787863
613.159207	18536.995686
613.507971	18449.040155
613.856682	18725.585252
614.205340	18644.710021
614.553945	18801.280697
614.902496	18539.687662
615.250994	18775.550648
615.599439	18713.907419
615.947830	18703.308393
616.296169	18755.242360
616.644454	18713.120999
616.992686	18683.279889
617.340864	18903.129649
617.688990	18653.660589
618.037063	18840.579012
618.385082	18677.570782
618.733048	18967.323702
619.080961	18836.452828
619.428821	18875.766266
619.776628	18746.092666
620.124382	18678.072377
620.472083	18726.883349
620.819731	18740.829701
621.167326	18439.729143
621.514868	18468.930027
621.862357	18237.669615
622.209793	18252.117562
622.557176	18081.479545
622.904506	17917.730266
623.251783	17829.638623
623.599007	17578.604285
623.946179	17533.745577
624.293297	17473.536556
624.640363	17226.666211
624.987376	17238.785145
625.334336	17036.523970
625.681243	16881.972276
626.028097	16884.354221
626.374899	16822.746280
626.721647	16677.198086
627.068343	16512.533837
627.414987	16448.352387
627.761577	16417.639157
628.108115	16457.106350
628.454600	16192.654981
628.801032	16285.369362
629.147412	16216.108949
629.493739	16230.370374
629.840014	16038.088163
630.186236	16140.768905
630.532405	15907.116466
630.878521	16103.824809
631.224585	15998.131978
631.570597	15820.738815
631.916556	15852.916500
632.262462	15834.697770
632.608316	15741.685961
632.954117	15683.800912
633.299866	15683.770665
633.645562	15601.894765
633.991206	15356.677918
634.336797	15228.345265
634.682336	15198.045410
635.027823	15088.186064
635.373257	14961.096055
635.718639	14869.175656
636.063968	14818.633048
636.409245	14568.233895
636.754470	14596.827320
637.099642	14435.896045
637.444762	14210.385069
637.789829	14251.276388
638.134845	14096.346607
638.479808	14120.307211
638.824719	14063.339652
639.169577	13922.000822
639.514383	13961.213437
639.859137	13783.966468
640.203839	13870.278583
640.548489	13709.947206
640.893086	13700.177450
641.237632	13568.038725
641.582125	13716.815778
641.926566	13557.757292
642.270955	13561.840626
642.615292	13521.453422
642.959576	13529.597406
643.303809	13563.456316
643.647990	13502.092871
643.992118	13557.532960
644.336195	13327.459740
644.680219	13535.566133
645.024192	13456.510758
645.368112	13698.302140
645.711981	13750.601591
646.055797	13930.641359
646.399562	13904.629006
646.743274	14172.576415
647.086935	14446.510194
647.430544	14411.330502
647.774101	14441.343012
648.117606	14598.561477
648.461059	14560.878852
648.804460	14549.629517
649.147810	14271.680458
649.491108	14177.869626
649.834354	14193.275392
650.177548	13886.470769
650.520690	13699.088560
650.863781	13621.290954
651.206820	13661.912571
651.549807	13484.327845
651.892742	13302.783292
652.235626	13238.387593
652.578458	13234.342067
652.921238	12920.966300
653.263967	13119.517185
653.606644	12955.372175
653.949269	12924.250611
654.291843	12727.038152
654.634365	12888.231567
654.976836	12740.825708
655.319255	12742.799320
655.661622	12702.452445
656.003938	12624.942184
656.346203	12544.984443
656.688416	12621.977986
657.030577	12587.254518
657.372687	12493.794046
657.714746	12473.730254
658.056753	12669.919359
658.398708	12474.289822
658.740612	12486.247439
659.082465	12583.065319
659.424266	12546.466542
659.766016	12577.580544
660.107715	12483.197541
660.449362	12563.346846
660.790958	12526.566587
661.132503	12461.886063
661.473996	12531.459027
661.815438	12545.541490
662.156829	12565.456569
662.498168	12545.846480
662.839456	12539.171993
663.180693	12561.559757
663.521879	12645.368939
663.863013	12622.091412
664.204097	12595.920261
664.545129	12716.295453
664.886110	12691.147658
665.227040	12786.738017
665.567918	12787.869756
665.908746	12822.855363
666.249522	12800.921303
666.590248	12857.881300
666.930922	12965.976242
667.271545	12946.436729
667.612118	13037.984083
667.952639	12938.769134
668.293109	12948.180969
668.633528	12909.011203
668.973896	12880.382491
669.314213	12963.730408
669.654480	12693.166640
669.994695	12767.669852
670.334859	12798.478864
670.674973	12738.920152
671.015035	12771.072631
671.355047	12711.816388
671.695008	12690.464581
672.034918	12697.146631
672.374777	12744.871234
672.714585	12642.351809
673.054342	12686.683716
673.394049	12632.292186
673.733705	12736.255902
674.073310	12642.664360
674.412864	12653.933860
674.752368	12517.268179
675.091820	12542.519319
675.431223	12525.855785
675.770574	12400.089078
676.109875	12319.344917
676.449125	12274.463525
676.788324	12218.307591
677.127473	12056.985627
677.466571	12042.663709
677.805619	11936.008017
678.144616	11860.090761
678.483562	11830.126142
678.822458	11696.676718
679.161303	11685.772702
679.500098	11666.432315
679.838842	11619.542023
680.177535	11650.877835
680.516179	11706.660723
680.854771	11659.311685
681.193314	11874.712627
681.531805	12026.660566
681.870247	12447.712859
682.208638	12859.101260
682.546978	13173.157583
682.885268	13221.512330
683.223508	12915.726020
683.561697	12757.877411
683.899836	12653.528047
684.237925	12456.658386
684.575963	12380.345399
684.913951	12297.519242
685.251889	12245.159297
685.589776	12348.515554
685.927614	12261.056576
686.265401	12229.589694
686.603137	12278.148608
686.940824	12438.152311
687.278460	12557.967935
687.616046	12601.286570
687.953582	12771.213783
688.291068	12693.448944
688.628504	12932.593721
688.965889	12941.612345
689.303224	12911.514136
689.640510	12789.535857
689.977745	12490.933191
690.314930	12260.547419
690.652065	12171.530725
690.989150	11886.123279
691.326185	11657.272539
691.663170	11455.281066
692.000105	11208.975330
692.336990	11091.655077
692.673825	10835.735861
693.010610	10722.836700
693.347345	10510.876345
693.684030	10313.174894
694.020665	10253.719526
694.357251	10059.118385
694.693786	9997.346606
695.030272	9838.497328
695.366707	9721.560202
695.703093	9650.779882
696.039429	9645.892483
696.375716	9566.388446
696.711952	9438.854815
697.048139	9478.563984
697.384276	9432.608826
697.720363	9454.958781
698.056400	9383.961691
698.392388	9337.928395
698.728326	9298.171335
699.064214	9238.778981
699.400053	9278.384806
699.735842	9093.303884
700.071581	9053.541783
700.407270	8979.353642
700.742910	8895.849449
701.078501	8805.595152
701.414042	8682.210391
701.749533	8617.091286
702.084974	8477.642888
702.420366	8596.798121
702.755709	8474.449317
703.091002	8339.376641
703.426246	8368.368317
703.761440	8321.004156
704.096584	8282.247765
704.431679	8208.452834
704.766725	8195.416411
705.101721	8146.229872
705.436668	8190.624794
705.771565	8084.223680
706.106413	8166.107142
706.441212	8203.235240
706.775961	8165.456833
707.110661	8204.740025
707.445311	8343.381838
707.779913	8244.363494
708.114465	8373.278401
708.448967	8407.275942
708.783421	8552.269609
709.117825	8739.301458
709.452180	8774.627343
709.786485	8862.973565
710.120742	9140.390781
710.454949	9139.564032
710.789107	9246.464220
711.123216	9460.443557
711.457275	9625.879102
711.791286	9782.348956
712.125247	9787.876581
712.459159	9769.163818
712.793023	10012.117187
713.126837	9591.475748
713.460602	9743.895035
713.794318	9569.912212
714.127985	9599.092932
714.461602	9276.133931
714.795171	9223.136281
715.128691	8977.899269
715.462162	8729.098163
715.795584	8671.140017
716.128957	8521.115278
716.462281	8354.578240
716.795556	8400.949294
717.128782	8193.813324
717.461960	7930.546626
717.795088	8004.129828
718.128167	7911.475941
718.461198	7743.091320
718.794180	7686.353133
719.127113	7671.627923
719.459997	7527.098042
719.792833	7292.034080
720.125619	7354.607402
720.458357	7207.783796
720.791046	7201.431942
721.123686	7194.457506
721.456278	7036.331633
721.788821	7053.857204
722.121315	6950.400125
722.453761	7019.562235
722.786158	6961.077288
723.118506	6971.507436
723.450805	6938.755059
723.783056	7007.816346
724.115259	6915.348982
724.447412	6909.178610
724.779518	6957.508152
725.111574	6955.597554
725.443582	7043.154835
725.775542	7020.436875
726.107453	7216.021041
726.439315	7121.199458
726.771129	7186.653800
727.102895	7353.495827
727.434612	7463.395502
727.766281	7500.437900
728.097901	7576.120743
728.429473	7569.123621
728.760996	7548.399438
729.092471	7522.545880
729.423897	7467.345246
729.755276	7477.304045
730.086606	7403.985504
730.417887	7508.965012
730.749120	7706.066566
731.080305	7894.756954
731.411442	8022.522478
731.742530	8014.315479
732.073570	8124.946121
732.404562	8202.985703
732.735506	8053.422230
733.066401	8204.125004
733.397249	8120.978733
733.728048	7890.381233
734.058798	7556.533340
734.389501	7324.350396
734.720156	7150.138202
735.050762	6915.381749
735.381320	6819.937584
735.711831	6768.822804
736.042293	6661.158882
736.372707	6672.917373
736.703073	6535.072062
737.033391	6580.550832
737.363661	6588.175577
737.693883	6623.259487
738.024056	6707.905501
738.354182	6748.920329
738.684260	6784.591533
739.014290	6895.751496
739.344272	7011.241810
739.674207	7034.542023
740.004093	7106.265040
740.333931	7118.202492
740.663722	7129.237578
740.993464	7211.345371
741.323159	7195.939605
741.652806	6939.954854
741.982405	6961.263811
742.311956	7015.413365
742.641460	6847.046388
742.970915	6656.518499
743.300323	6648.457694
743.629683	6596.556495
743.958996	6463.462472
744.288260	6371.857145
744.617477	6318.052910
744.946647	6325.309651
745.275768	6156.453682
745.604842	6110.616991
745.933869	6093.555205
746.262847	6056.590945
746.591778	6042.458070
746.920662	5999.799826
747.249498	5994.471327
747.578286	6040.489499
747.907027	6115.179235
748.235720	6173.207957
748.564365	6144.397763
748.892963	6178.758267
749.221514	6330.827193
749.550017	6158.961656
749.878473	6035.087903
750.206881	6092.398261
750.535242	6033.550351
750.863555	5966.639116
751.191821	5981.213092
751.520039	5983.887424
751.848210	5887.931581
752.176334	5912.683647
752.504411	5962.510411
752.832440	5887.354369
753.160421	5817.388195
753.488356	5863.237489
753.816243	5894.895935
754.144082	5746.013018
754.471875	5714.624274
754.799620	5764.158651
755.127318	5772.012769
755.454969	5727.625409
755.782572	5694.764648
756.110129	5736.747377
756.437638	5719.231888
756.765100	5663.559906
757.092515	5660.830121
757.419882	5709.729313
757.747203	5688.627043
758.074477	5749.929995
758.401703	5740.631586
758.728882	5690.073854
759.056014	5750.383698
759.383099	5877.234253
759.710138	5887.999637
760.037129	5869.211256
760.364073	5878.078646
760.690970	5962.654084
761.017820	5940.420075
761.344623	5896.388117
761.671379	6001.589436
761.998088	6124.311285
762.324751	6367.262133
762.651366	6978.010524
762.977935	8297.151936
763.304456	9933.938973
763.630931	10833.580768
763.957359	10430.510271
764.283740	9487.358277
764.610074	8641.450141
764.936362	7643.687328
765.262602	7042.338168
765.588796	6503.577453
765.914943	6166.541031
766.241044	6003.520198
766.567097	5805.450743
766.893104	5538.745978
767.219064	5360.594121
767.544978	5299.949041
767.870845	5218.451227
768.196665	5111.727479
768.522438	5042.318353
768.848165	5009.109752
769.173846	4941.212971
769.499479	4896.266043
769.825066	4849.005226
770.150607	4785.101039
770.476101	4760.074231
770.801548	4759.897791
771.126949	4681.772509
771.452303	4626.554230
771.777611	4583.517900
772.102872	4600.609932
772.428087	4565.037030
772.753256	4524.536400
773.078378	4478.487980
773.403453	4407.180859
773.728482	4394.038571
774.053465	4349.668855
774.378401	4335.868697
774.703291	4336.556814
775.028135	4265.915125
775.352932	4219.375193
775.677683	4204.062688
776.002388	4220.093558
776.327046	4231.753746
776.651658	4159.410668
776.976224	4096.025720
777.300743	4102.634673
777.625216	4118.753762
777.949643	4120.054380
778.274024	4075.258687
778.598359	4029.878220
778.922647	4055.325965
779.246889	4045.278945
779.571086	4037.903737
779.895236	4022.986963
780.219339	4007.334180
780.543397	4003.601206
780.867409	4057.158424
781.191374	4070.784663
781.515294	4007.722349
781.839167	3996.654496
782.162995	4021.560316
782.486776	4006.777132
782.810511	4019.269112
783.134201	4011.561187
783.457844	3968.237511
783.781441	3910.435641
784.104993	3916.774892
784.428498	3936.858849
784.751958	3934.161832
785.075372	3913.077206
785.398739	3876.322153
785.722061	3889.048546
786.045337	3930.118827
786.368568	3961.883137
786.691752	3873.007595
787.014891	3924.381993
787.337983	4054.529462
787.661030	4216.640367
787.984031	4374.403277
788.306987	4543.312178
788.629897	4625.719919
788.952760	4585.045370
789.275579	4513.639946
789.598351	4451.447231
789.921078	4308.381805
790.243759	4107.645580
790.566395	4091.924742
790.888984	4089.288218
791.211529	3978.617247
791.534027	3916.101898
791.856480	3905.923809
792.178888	3843.811752
792.501249	3795.542704
792.823566	3805.617450
793.145836	3838.095084
793.468062	3784.134573
793.790241	3734.431317
794.112375	3764.668157
794.434464	3833.812623
794.756507	3858.330275
795.078505	3834.838498
795.400457	3871.598592
795.722364	4011.195704
796.044226	4115.217393
796.366042	4186.930327
796.687812	4167.910053
797.009538	4170.309643
797.331218	4130.177017
797.652852	4107.086012
797.974442	4083.601797
798.295986	4080.919903
798.617484	3999.845546
798.938938	3915.930499
799.260346	3958.329123
799.581709	3952.965336
799.903026	3877.194273
800.224299	3841.389478
800.545526	3835.945032
800.866708	3794.350471
801.187845	3735.926019
801.508936	3769.535391
801.829983	3764.413579
802.150984	3691.548741
802.471940	3677.912420
802.792851	3689.633103
803.113717	3688.743339
803.434538	3693.051005
803.755314	3634.127478
804.076045	3608.092439
804.396731	3629.066160
804.717372	3653.881240
805.037967	3642.707522
805.358518	3630.523053
805.679024	3657.170593
805.999485	3669.634846
806.319901	3674.754137
806.640272	3686.648740
806.960598	3700.111141
807.280879	3675.076771
807.601115	3688.017413
807.921306	3704.408725
808.241453	3743.679313
808.561554	3718.902042
808.881611	3655.393586
809.201623	3692.529246
809.521590	3705.167418
809.841513	3673.715660
810.161390	3706.783108
810.481223	3683.641692
810.801011	3629.345944
811.120755	3619.576188
811.440453	3654.864265
811.760107	3656.779903
812.079716	3616.203656
812.399281	3582.869026
812.718801	3606.902727
813.038276	3579.912389
813.357707	3577.661514
813.677093	3593.498299
813.996434	3538.489228
814.315731	3553.111095
814.634983	3555.089748
814.954191	3570.440061
815.273354	3599.184721
815.592473	3591.204574
815.911547	3604.167901
816.230577	3641.424549
816.549562	3694.013866
816.868502	3736.878797
817.187399	3758.772528
817.506250	3756.582147
817.825058	3728.606263
818.143821	3825.272909
818.462539	3928.624124
818.781213	3972.550218
819.099843	4027.196326
819.418429	4277.592958
819.736970	4518.345863
820.055466	4766.784007
820.373919	5132.786900
820.692327	5547.613367
821.010691	5994.219269
821.329011	7392.131230
821.647286	10159.830556
821.965517	14738.393002
822.283704	18761.427856
822.601847	20894.105634
822.919945	19067.914886
823.237999	16483.554764
823.556010	13989.101100
823.873976	11900.583829
824.191897	9798.243714
824.509775	8449.525853
824.827609	7316.655075
825.145398	6769.279029
825.463144	6660.188459
825.780845	6771.451766
826.098502	6961.213400
826.416116	7848.854728
826.733685	9182.345784
827.051210	10298.633686
827.368692	10329.992184
827.686129	9050.252430
828.003522	7538.995165
828.320872	6525.183839
828.638177	5818.580428
828.955439	5256.345580
829.272656	4753.608951
829.589830	4472.047906
829.906960	4298.775887
830.224046	4111.678503
830.541088	3986.287363
830.858086	3939.455043
831.175041	3862.315307
831.491952	3843.216896
831.808819	3853.475644
832.125642	3929.324845
832.442421	4080.002413
832.759157	4358.100185
833.075849	4914.018467
833.392497	5785.734790
833.709101	6562.753038
834.025662	6894.922227
834.342179	6525.907244
834.658653	5858.329926
834.975083	5203.383218
835.291469	4626.677739
835.607811	4219.949885
835.924110	4076.503852
836.240366	3878.953636
836.556578	3670.968231
836.872746	3565.837488
837.188871	3525.253679
837.504952	3456.179789
837.820990	3375.775906
838.136984	3328.197496
838.452935	3352.652133
838.768842	3350.504601
839.084706	3372.967983
839.400526	3531.245090
839.716303	3878.159654
840.032037	4407.314450
840.347727	4665.222401
840.663373	4380.334194
840.978977	3998.187006
841.294537	3690.089327
841.610054	3462.398052
841.925527	3358.073894
842.240957	3287.401958
842.556344	3230.895665
842.871687	3172.650173
843.186987	3119.728140
843.502244	3081.344795
843.817458	3049.446894
844.132629	3017.516225
844.447756	3027.933770
844.762840	3012.936337
845.077881	2981.265288
845.392879	2964.377423
845.707833	2960.629325
846.022745	2957.609673
846.337613	2957.312245
846.652438	2948.149948
846.967221	2944.832869
847.281960	2930.931887
847.596656	2927.196392
847.911309	2925.247986
848.225919	2919.969898
848.540485	2913.330699
848.855009	2916.345309
849.169490	2904.743093
849.483928	2896.866290
849.798323	2897.231774
850.112675	2890.743809
850.426984	2900.069943
850.741251	2899.008781
851.055474	2887.913201
851.369654	2886.347923
851.683792	2886.985629
851.997887	2897.065416
852.311938	2897.819068
852.625947	2887.900598
852.939914	2891.159704
853.253837	2896.624315
853.567718	2881.853734
853.881555	2879.287787
854.195350	2897.100704
854.509103	2888.926473
854.822812	2882.355329
855.136479	2879.983466
855.450103	2882.680483
855.763685	2875.292672
856.077224	2872.663711
856.390720	2884.306255
856.704173	2893.861763
857.017584	2888.465207
857.330953	2881.894063
857.644278	2893.221536
857.957561	2901.685633
858.270802	2908.276942
858.584000	2906.295768
858.897155	2893.987791
859.210268	2891.678943
859.523339	2891.724313
859.836367	2888.941596
860.149352	2883.267778
860.462295	2874.594472
860.775195	2886.368087
861.088054	2884.913714
861.400869	2870.700181
861.713642	2868.338401
862.026373	2880.684186
862.339062	2888.334137
862.651708	2890.728685
862.964312	2896.354613
863.276873	2885.387583
863.589392	2895.117010
863.901869	2907.951788
864.214303	2932.139244
864.526696	2947.996193
864.839045	2943.053342
865.151353	2942.014864
865.463619	2939.499328
865.775842	2940.590738
866.088023	2961.544294
866.400162	2964.548822
866.712258	2935.887342
867.024313	2927.773604
867.336325	2933.114707
867.648296	2954.763942
867.960224	2948.961574
868.272110	2935.799121
868.583954	2940.668876
868.895755	2956.616566
869.207515	2940.701643
869.519233	2948.840586
869.830909	2955.792338
870.142542	2964.488328
870.454134	2964.044706
870.765684	2966.650983
871.077191	2968.528813
871.388657	2975.992241
871.700081	2989.671412
872.011463	3001.497959
872.322803	3002.055006
872.634101	2998.904285
872.945357	3017.932120
873.256571	3043.687375
873.567744	3038.036242
873.878874	3029.249511
874.189963	3051.443191
874.501010	3054.790517
874.812015	3042.694268
875.122979	3045.993703
875.433900	3042.099412
875.744780	3050.495454
876.055618	3055.944941
876.366415	3052.252296
876.677169	3063.320149
876.987882	3060.285374
877.298554	3051.722975
877.609183	3073.657035
877.919771	3097.781477
878.230317	3125.681743
878.540822	3180.950433
878.851285	3214.486709
879.161707	3260.094028
879.472087	3363.354503
879.782425	3594.781273
880.092722	4033.364178
880.402977	4567.565169
880.713191	5201.825502
881.023363	6362.649477
881.333494	7641.005434
881.643583	8184.414092
881.953631	7888.785707
882.263637	7251.213336
882.573602	6664.730539
882.883526	6091.392550
883.193408	5511.160784
883.503248	5055.198501
883.813048	4751.100977
884.122806	4438.564562
884.432522	4123.570585
884.742197	3886.709451
885.051831	3696.108465
885.361424	3559.899009
885.670975	3486.525014
885.980485	3401.629463
886.289954	3322.458142
886.599382	3277.833848
886.908768	3238.444792
887.218113	3193.021476
887.527417	3138.758496
887.836680	3090.181937
888.145901	3083.275557
888.455082	3072.376582
888.764221	3023.056453
889.073319	2992.534787
889.382376	2988.292656
889.691392	2994.152998
890.000366	2990.556134
890.309300	2978.699341
890.618193	2992.499499
890.927044	3010.471213
891.235855	3010.388034
891.544625	2994.924294
891.853353	3006.750841
892.162041	3024.283974
892.470687	3064.298133
892.779293	3119.314765
893.087858	3164.370078
893.396381	3236.977817
893.704864	3358.777135
894.013306	3600.724793
894.321707	3908.507400
894.630068	4110.438379
894.938387	4103.645424
895.246665	4060.730082
895.554903	3938.051082
895.863100	3739.729569
896.171256	3565.509813
896.479371	3429.010490
896.787446	3304.609937
897.095480	3198.591951
897.403473	3139.186994
897.711425	3102.706684
898.019336	3092.989860
898.327207	3061.896023
898.635038	3024.858666
898.942827	3012.217973
899.250576	3002.443175
899.558284	2969.597537
899.865952	2948.643981
900.173579	2927.584561
900.481165	2925.953748
900.788711	2907.588824
901.096216	2884.772562
901.403681	2872.278062
901.711105	2879.905328
902.018489	2878.408105
902.325832	2876.316027
902.633135	2887.320865
902.940397	2920.433684
903.247619	3007.189422
903.554800	3199.723690
903.861941	3544.417625
904.169041	3978.153461
904.476101	4277.918113
904.783121	4224.698652
905.090100	3979.633040
905.397039	3704.101214
905.703938	3452.633337
906.010796	3270.269597
906.317614	3157.168790
906.624391	3062.324521
906.931129	2989.598315
907.237826	2928.741506
907.544483	2881.286604
907.851099	2850.109588
908.157675	2830.812051
908.464211	2811.297745
908.770707	2797.883234
909.077163	2783.367232
909.383578	2769.468771
909.689954	2757.594333
909.996289	2756.835639
910.302584	2755.411513
910.608839	2758.665578
910.915054	2752.780031
911.221229	2746.292066
911.527363	2747.814494
911.833458	2751.766759
912.139513	2756.661719
912.445527	2762.252359
912.751502	2770.897938
913.057436	2780.713064
913.363331	2791.309570
913.669186	2814.551810
913.975000	2846.817715
914.280775	2908.549164
914.586510	2981.953405
914.892205	3059.753533
915.197859	3192.388811
915.503475	3385.795199
915.809050	3599.935852
916.114585	3746.804829
916.420081	3766.871142
916.725536	3707.899724
917.030952	3586.980087
917.336328	3456.555355
917.641665	3322.657268
917.946961	3223.328893
918.252218	3155.316166
918.557435	3075.164340
918.862612	3018.935310
919.167750	2965.241980
919.472848	2927.750919
919.777906	2901.123545
920.082925	2875.549771
920.387904	2842.694051
920.692843	2826.766525
920.997743	2815.244968
921.302603	2802.629481
921.607423	2791.092800
921.912204	2776.937240
922.216946	2765.647576
922.521647	2760.482914
922.826310	2750.191398
923.130932	2740.119173
923.435516	2734.566342
923.740059	2728.151474
924.044564	2719.745350
924.349028	2715.036912
924.653454	2705.352856
924.957840	2698.196938
925.262186	2698.799356
925.566493	2692.560928
925.870761	2688.580937
926.174989	2682.871830
926.479178	2677.815553
926.783328	2672.386230
927.087438	2672.666014
927.391509	2674.236333
927.695541	2666.934222
927.999533	2665.815086
928.303486	2661.504899
928.607400	2662.450116
928.911275	2661.784683
929.215110	2660.973058
929.518906	2661.459529
929.822663	2660.216885
930.126381	2658.719662
930.430060	2658.759991
930.733699	2659.271668
931.037299	2662.863490
931.340861	2662.155208
931.644383	2662.059426
931.947866	2660.453819
932.251309	2662.462719
932.554714	2661.399035
932.858080	2655.999959
933.161407	2657.842501
933.464694	2655.042140
933.767943	2649.264978
934.071153	2654.636327
934.374323	2653.590288
934.677455	2654.777480
934.980548	2652.844197
935.283602	2652.370329
935.586617	2649.925369
935.889593	2653.721358
936.192530	2650.263126
936.495428	2654.439722
936.798287	2651.435195
937.101108	2655.127840
937.403890	2662.911381
937.706632	2665.464726
938.009336	2672.197187
938.312002	2679.453928
938.614628	2689.596729
938.917216	2694.199303
939.219765	2695.933460
939.522275	2699.414376
939.824747	2694.080836
940.127179	2690.761236
940.429573	2688.003725
940.731929	2683.945596
941.034246	2680.850327
941.336524	2678.569205
941.638763	2676.164575
941.940964	2673.530572
942.243126	2673.830521
942.545250	2670.894048
942.847335	2667.702998
943.149381	2665.068995
943.451389	2662.820641
943.753359	2659.748057
944.055290	2654.825371
944.357182	2657.277892
944.659036	2654.147335
944.960851	2654.583395
945.262628	2653.002993
945.564367	2652.924856
945.866067	2654.444763
946.167729	2651.432674
946.469352	2653.842346
946.770937	2653.537356
947.072484	2651.533497
947.373992	2653.181954
947.675462	2649.630462
947.976893	2645.267343
948.278286	2645.262302
948.579641	2644.801036
948.880958	2640.198463
949.182236	2646.991418
949.483476	2643.303813
949.784678	2644.624596
950.085841	2643.775161
950.386967	2644.715337
950.688054	2647.487971
950.989103	2647.107364
951.290114	2647.654329
951.591087	2647.266160
951.892021	2651.662047
952.192917	2656.700680
952.493776	2657.487100
952.794596	2656.650268
953.095378	2653.935607
953.396122	2655.311842
953.696828	2652.559372
953.997496	2653.522232
954.298126	2651.349495
954.598718	2648.355050
954.899272	2645.789102
955.199788	2645.758855
955.500266	2640.437917
955.800706	2640.440438
956.101108	2634.995992
956.401472	2635.948770
956.701798	2636.004223
957.002087	2631.043727
957.302337	2628.210599
957.602550	2629.077677
957.902724	2624.202882
958.202861	2627.388891
958.502960	2624.507871
958.803022	2624.588530
959.103045	2625.198509
959.403031	2622.677932
959.702979	2621.110134
960.002889	2619.895216
960.302762	2620.706841
960.602596	2619.267592
960.902393	2618.471090
961.202153	2620.663992
961.501875	2620.200205
961.801559	2615.950513
962.101205	2617.757766
962.400814	2619.721296
962.700385	2618.949999
962.999918	2617.046964
963.299414	2615.587550
963.598873	2611.816767
963.898293	2613.480347
964.197677	2616.893208
964.497022	2612.905656
964.796331	2613.687035
965.095601	2617.530914
965.394835	2618.211470
965.694030	2617.021758
965.993189	2614.710389
966.292309	2617.301542
966.591393	2613.777775
966.890439	2614.039915
967.189447	2615.988321
967.488419	2617.661984
967.787353	2614.455811
968.086249	2615.925307
968.385108	2618.047633
968.683930	2615.459000
968.982714	2614.302055
969.281462	2616.646192
969.580172	2616.373970
969.878844	2614.634772
970.177480	2614.332302
970.476078	2618.236676
970.774639	2617.614093
971.073162	2616.046295
971.371649	2619.499485
971.670098	2617.430091
971.968510	2613.976901
972.266885	2616.704165
972.565223	2616.341202
972.863524	2617.914042
973.161788	2616.174844
973.460014	2616.126953
973.758204	2619.804475
974.056356	2617.157869
974.354471	2614.102930
974.652550	2615.700976
974.950591	2614.778444
975.248595	2618.052674
975.546563	2616.736933
975.844493	2613.157713
976.142386	2615.060749
976.440243	2614.720471
976.738062	2614.730553
977.035845	2614.879267
977.333590	2619.368415
977.631299	2616.333640
977.928971	2612.167127
978.226606	2610.241406
978.524204	2614.123094
978.821765	2611.874740
979.119290	2613.974380
979.416777	2613.772734
979.714228	2612.986314
980.011642	2613.896242
980.309020	2613.384565
980.606360	2613.722323
980.903664	2614.849021
981.200931	2613.334154
981.498162	2615.738784
981.795356	2617.203239
982.092513	2615.453959
982.389633	2621.271451
982.686717	2622.234311
982.983764	2625.715228
983.280775	2629.324694
983.577749	2630.716052
983.874686	2631.174797
984.171587	2628.044241
984.468451	2626.058026
984.765279	2622.889661
985.062070	2621.342027
985.358824	2619.610390
985.655543	2618.418158
985.952224	2617.354474
986.248869	2617.485544
986.545478	2616.079062
986.842050	2613.722323
987.138586	2613.097220
987.435086	2613.586212
987.731549	2609.906169
988.027975	2612.930862
988.324366	2611.569750
988.620719	2612.898094
988.917037	2609.969184
989.213318	2611.352980
989.509563	2611.264760
989.805772	2609.339039
990.101944	2611.002620
990.398080	2611.695779
990.694180	2610.380038
990.990244	2608.953391
991.286271	2611.174019
991.582262	2608.623196
991.878217	2610.470778
992.174136	2610.642178
992.470019	2611.741149
992.765865	2609.152517
993.061676	2605.016250
993.357450	2609.218052
993.653188	2608.482043
993.948890	2610.755604
994.244556	2610.208638
994.540186	2610.087651
994.835780	2611.811725
995.131337	2613.775255
995.426859	2612.625872
995.722345	2612.628392
996.017795	2612.971191
996.313208	2613.913887
996.608586	2614.213835
996.903928	2616.663836
997.199234	2616.537807
997.494504	2617.687190
997.789738	2614.828856
998.084936	2612.882971
998.380099	2615.083434
998.675225	2611.002620
998.970316	2611.516818
999.265371	2612.146962
999.560390	2613.092178
999.855373	2611.330295
1000.150320	2611.342898
1000.445232	2612.913217
1000.740108	2609.117229
1001.034948	2609.787702
1001.329752	2609.263422
1001.624521	2611.899946
1001.919254	2609.787702
1002.213951	2609.225613
1002.508613	2607.413319
1002.803239	2608.804677
1003.097829	2608.839965
1003.392384	2607.186467
1003.686903	2608.048504
1003.981386	2607.254522
1004.275834	2610.576643
1004.570246	2607.703185
1004.864623	2608.119080
1005.158964	2610.062445
1005.453270	2608.676128
1005.747540	2612.464555
1006.041775	2609.510439
1006.335974	2608.867692
1006.630138	2607.846858
1006.924266	2606.984821
1007.218359	2607.819132
1007.512416	2603.178749
1007.806438	2604.945674
1008.100425	2606.483226
1008.394376	2603.171188
1008.688292	2608.608072
1008.982172	2607.955243
1009.276017	2609.664194
1009.569827	2607.690582
1009.863602	2610.082610
1010.157341	2608.101436
1010.451045	2605.986672
1010.744714	2607.897269
1011.038347	2607.428442
1011.331945	2606.314347
1011.625508	2607.249481
1011.919036	2606.846189
1012.212528	2606.402567
1012.505986	2606.697475
1012.799408	2608.202259
1013.092795	2605.510283
1013.386147	2607.874584
1013.679464	2607.365428
1013.972745	2607.698144
1014.265992	2605.971549
1014.559204	2606.926847
1014.852380	2609.490274
1015.145521	2608.018257
1015.438628	2607.688062
1015.731699	2607.728391
1016.024736	2607.158740
1016.317737	2607.783843
1016.610703	2606.876436
1016.903635	2608.192177
1017.196531	2604.091198
1017.489393	2606.112701
1017.782219	2607.546909
1018.075011	2608.860130
1018.367768	2609.117229
1018.660490	2606.127824
1018.953177	2606.127824
1019.245829	2606.127824
