Dividing Wavelength (nm)	Counts (n)	Blue Motor Position (mm): 10.200000	Red Motor Position (mm): 0.000000	
326.493990	2161.843374
326.888308	2161.843374
327.282561	2161.843374
327.676750	2120.752929
328.070874	2117.761004
328.464933	2117.564399
328.858929	2120.518516
329.252859	2126.048661
329.646726	2136.027625
330.040528	2148.693524
330.434265	2159.589978
330.827938	2178.181754
331.221547	2196.103056
331.615091	2212.159131
332.008571	2231.285268
332.401986	2249.534245
332.795338	2267.939498
333.188625	2288.220060
333.581847	2305.959880
333.975006	2322.106696
334.368100	2340.436332
334.761129	2358.566841
335.154095	2376.765407
335.546996	2395.319373
335.939833	2418.596901
336.332606	2434.282452
336.725315	2447.361725
337.117960	2460.425875
337.510540	2471.952474
337.903056	2485.651809
338.295508	2487.665750
338.687896	2500.387102
339.080220	2506.126456
339.472480	2513.347908
339.864676	2520.851666
340.256807	2521.670853
340.648875	2525.945752
341.040879	2530.583613
341.432818	2534.011598
341.824694	2537.303472
342.216506	2534.576207
342.608253	2539.531662
342.999937	2538.790612
343.391557	2537.472350
343.783113	2536.433872
344.174605	2539.294727
344.566033	2535.851619
344.957397	2534.084695
345.348697	2533.499921
345.739934	2532.678213
346.131106	2529.809796
346.522215	2530.434899
346.913260	2526.709487
347.304241	2524.264527
347.695159	2523.276461
348.086012	2518.729340
348.476802	2518.678929
348.867528	2512.337157
349.258191	2511.729698
349.648789	2512.246416
350.039324	2507.590911
350.429796	2511.704492
350.820203	2510.802126
351.210548	2509.088133
351.600828	2508.452948
351.991045	2506.479336
352.381198	2509.146107
352.771288	2505.125787
353.161314	2504.321722
353.551276	2506.270128
353.941175	2502.012874
354.331010	2504.719974
354.720782	2503.709222
355.110490	2504.646877
355.500135	2502.232164
355.889717	2505.317350
356.279235	2503.810045
356.668689	2503.144613
357.058080	2503.225272
357.447408	2500.578666
357.836672	2505.193842
358.225873	2506.406240
358.615010	2504.104953
359.004084	2506.754079
359.393095	2506.358349
359.782043	2507.913545
360.170927	2505.135869
360.559748	2507.361538
360.948505	2506.146620
361.337199	2508.402537
361.725830	2509.380520
362.114398	2507.719460
362.502903	2509.327588
362.891344	2508.321878
363.279722	2507.187618
363.668037	2512.306910
364.056289	2511.399503
364.444478	2514.124246
364.832603	2512.405213
365.220665	2512.314472
365.608665	2515.258506
365.996601	2513.438649
366.384474	2513.985614
366.772284	2514.451921
367.160031	2512.402692
367.547715	2516.289422
367.935336	2514.257837
368.322893	2511.202898
368.710388	2513.090810
369.097820	2516.186078
369.485189	2511.893536
369.872495	2515.218177
370.259738	2516.183558
370.646918	2517.174144
371.034035	2519.304032
371.421090	2515.777745
371.808081	2517.378311
372.195010	2515.500481
372.581875	2516.319669
372.968678	2517.436284
373.355418	2517.711027
373.742096	2518.880575
374.128710	2520.587005
374.515262	2518.565503
374.901751	2519.359484
375.288177	2521.141532
375.674540	2517.675739
376.060841	2520.148425
376.447079	2520.508867
376.833254	2520.501306
377.219367	2520.861748
377.605417	2522.288395
377.991404	2521.509537
378.377329	2521.544825
378.763191	2521.592716
379.148991	2523.089938
379.534727	2524.395597
379.920402	2522.041378
380.306013	2523.594054
380.691563	2523.977181
381.077049	2523.634383
381.462474	2520.332427
381.847835	2524.027593
382.233134	2523.894002
382.618371	2523.324352
383.003545	2525.484486
383.388657	2525.396266
383.773706	2525.552542
384.158693	2524.622449
384.543618	2527.647141
384.928480	2525.055988
385.313280	2525.943231
385.698017	2522.318642
386.082692	2525.683612
386.467305	2527.952131
386.851856	2529.245187
387.236344	2525.784435
387.620770	2527.143026
388.005133	2522.646317
388.389435	2522.669002
388.773674	2524.398118
389.157851	2528.143695
389.541965	2526.762419
389.926018	2529.590506
390.310008	2525.416431
390.693936	2528.514220
391.077802	2526.679240
391.461606	2529.177132
391.845348	2530.402132
392.229027	2528.935156
392.612645	2530.044210
392.996200	2532.355579
393.379694	2529.426669
393.763125	2528.748633
394.146494	2529.968593
394.529801	2529.971113
394.913047	2529.532533
395.296230	2530.387008
395.679351	2533.063861
396.062410	2529.265352
396.445408	2531.980013
396.828343	2532.181659
397.211217	2530.329035
397.594028	2530.268541
397.976778	2531.092770
398.359466	2534.964376
398.742092	2531.591844
399.124656	2533.404139
399.507158	2533.963707
399.889598	2534.450178
400.271977	2533.580579
400.654294	2535.793646
401.036549	2534.218285
401.418742	2532.496731
401.800874	2533.928419
402.182944	2535.997813
402.564952	2533.227699
402.946898	2535.211393
403.328783	2534.412370
403.710606	2535.110570
404.092367	2535.087884
404.474067	2535.977648
404.855705	2533.804911
405.237282	2535.226516
405.618797	2535.423121
406.000250	2534.845909
406.381642	2536.476722
406.762972	2532.476567
407.144240	2531.417924
407.525447	2532.678213
407.906593	2532.768954
408.287677	2536.028060
408.668700	2536.320447
409.049661	2537.570653
409.430560	2537.535365
409.811399	2536.895138
410.192176	2535.629808
410.572891	2539.637526
410.953545	2539.163657
411.334138	2536.746424
411.714669	2539.322454
412.095139	2540.915458
412.475547	2535.183666
412.855894	2539.473688
413.236180	2536.874973
413.616405	2536.701054
413.996568	2539.879501
414.376670	2540.134079
414.756711	2540.565098
415.136691	2540.542413
415.516609	2539.118287
415.896466	2538.823379
416.276262	2540.086188
416.655997	2540.451672
417.035670	2536.201979
417.415283	2542.155582
417.794834	2537.742052
418.174324	2540.161806
418.553753	2538.841023
418.933121	2538.437731
419.312428	2537.928575
419.691674	2538.238606
420.070859	2540.547454
420.449983	2541.525438
420.829045	2540.071065
421.208047	2542.319420
421.586988	2538.404964
421.965867	2541.381765
422.344686	2541.434697
422.723444	2543.304965
423.102141	2542.402599
423.480777	2544.610624
423.859352	2543.325130
424.237866	2541.787578
424.616319	2543.617517
424.994712	2543.183978
425.373044	2541.401930
425.751314	2540.930582
426.129524	2537.774819
426.507673	2538.253729
426.885762	2537.472350
427.263789	2543.917465
427.641756	2543.771272
428.019662	2544.081303
428.397508	2541.792619
428.775292	2545.502908
429.153016	2543.375541
429.530679	2543.052907
429.908282	2542.712630
430.285824	2544.033412
430.663305	2542.200953
431.040726	2544.945861
431.418086	2544.650953
431.795385	2545.268495
432.172624	2543.625078
432.549802	2544.053577
432.926920	2542.571477
433.303977	2544.719009
433.680974	2545.386962
434.057910	2544.300593
434.434786	2543.302445
434.811601	2544.116591
435.188355	2543.816642
435.565050	2543.753628
435.941683	2545.407126
436.318257	2545.475182
436.694770	2544.857641
437.071222	2545.875954
437.447614	2546.962322
437.823946	2546.725388
438.200218	2545.190357
438.576429	2545.598690
438.952580	2545.797816
439.328670	2544.149358
439.704700	2546.737991
440.080670	2547.842004
440.456580	2544.638350
440.832429	2547.423588
441.208218	2546.952240
441.583947	2549.014072
441.959616	2547.635316
442.335224	2544.436704
442.710773	2546.191026
443.086261	2545.041643
443.461689	2547.647919
443.837057	2547.473999
444.212365	2544.839997
444.587612	2544.527445
444.962800	2542.364790
445.337927	2543.514173
445.712995	2544.693803
446.088002	2548.351160
446.462949	2547.461397
446.837837	2547.398382
447.212664	2549.397200
447.587431	2548.981304
447.962139	2547.965512
448.336786	2545.205480
448.711374	2549.296377
449.085901	2547.960471
449.460369	2547.882333
449.834776	2549.462735
450.209124	2549.346788
450.583412	2550.370142
450.957640	2549.840821
451.331808	2553.296532
451.705917	2549.104813
452.079965	2549.223280
452.453954	2550.234031
452.827883	2548.852755
453.201752	2547.882333
453.575562	2551.640513
453.949311	2549.624052
454.323001	2549.792930
454.696632	2549.941644
455.070202	2548.693959
455.443713	2549.525749
455.817164	2551.053219
456.190556	2551.370811
456.563888	2550.715461
456.937160	2550.201264
457.310373	2550.274360
457.683526	2550.012220
458.056619	2549.321582
458.429653	2547.421067
458.802628	2548.850234
459.175542	2549.866027
459.548398	2551.340564
459.921194	2553.788045
460.293930	2551.703527
460.666607	2553.719989
461.039224	2553.470452
461.411782	2552.437015
461.784280	2550.612118
462.156719	2555.229815
462.529099	2551.000287
462.901419	2551.494320
463.273680	2549.893753
463.645882	2545.954092
464.018024	2550.639844
464.390106	2547.552137
464.762130	2552.628579
465.134094	2551.726213
465.505999	2551.133877
465.877845	2549.394679
466.249631	2553.593960
466.621358	2553.162942
466.993026	2554.410627
467.364634	2556.711914
467.736184	2553.604043
468.107674	2550.196222
468.479105	2552.424413
468.850477	2551.907694
469.221790	2550.672612
469.593043	2552.711758
469.964238	2554.844166
470.335373	2553.299053
470.706449	2552.941131
471.077467	2553.389793
471.448425	2552.918446
471.819324	2555.754095
472.190164	2554.829043
472.560945	2553.225956
472.931667	2554.423230
473.302330	2553.024310
473.672934	2553.518343
474.043479	2553.911553
474.413965	2554.995401
474.784393	2555.393652
475.154761	2555.330638
475.525070	2554.829043
475.895321	2555.383570
476.265513	2553.651933
476.635645	2554.889537
477.005719	2555.141594
477.375734	2557.521019
477.745691	2555.149156
478.115588	2555.428940
478.485427	2553.989691
478.855207	2555.565051
479.224928	2560.868345
479.594591	2556.911039
479.964194	2556.444733
480.333739	2556.684187
480.703226	2556.424568
481.072653	2560.079405
481.442022	2557.382387
481.811333	2556.187634
482.180584	2552.641182
482.549777	2555.875082
482.918912	2553.364588
483.287988	2558.176369
483.657005	2557.498334
484.025964	2556.359033
484.394864	2558.476318
484.763706	2556.394321
485.132489	2560.160063
485.501213	2560.349106
485.869879	2559.098900
486.238487	2559.509754
486.607036	2559.441699
486.975527	2557.712583
487.343959	2558.672923
487.712333	2558.509085
488.080648	2558.786349
488.448905	2559.902964
488.817104	2560.349106
489.185244	2561.012018
489.553326	2561.281720
489.921350	2560.407080
490.289315	2560.923798
490.657222	2561.904302
491.025070	2563.598130
491.392861	2561.445557
491.760593	2559.368602
492.128267	2561.737944
492.495883	2561.639642
492.863440	2559.817265
493.230939	2561.495969
493.598380	2559.754250
493.965763	2561.246432
494.333088	2559.928170
494.700354	2559.388767
495.067563	2562.690722
495.434713	2558.163766
495.801805	2560.144940
496.168839	2558.582182
496.535815	2564.414797
496.902733	2561.259035
497.269593	2560.717111
497.636395	2562.224416
498.003139	2560.681823
498.369825	2559.184600
498.736453	2560.238201
499.103023	2560.427244
499.469535	2563.192317
499.835989	2563.063768
500.202385	2557.599157
500.568723	2558.574620
500.935003	2556.575803
501.301226	2555.159238
501.667390	2562.352965
502.033497	2563.399004
502.399546	2559.928170
502.765537	2563.404046
503.131470	2561.352296
503.497345	2560.457491
503.863163	2561.798438
504.228923	2559.792059
504.594625	2562.489076
504.960269	2562.514282
505.325856	2563.388922
505.691385	2561.155691
506.056856	2562.481514
506.422270	2561.410269
506.787625	2560.593602
507.152924	2561.387584
507.518164	2564.203068
507.883347	2560.908674
508.248472	2561.677450
508.613540	2563.078891
508.978550	2561.737944
509.343503	2562.408418
509.708398	2562.421021
510.073236	2563.691391
510.438016	2561.148129
510.802738	2561.301884
511.167403	2561.828685
511.532010	2561.541339
511.896561	2563.479663
512.261053	2561.528736
512.625488	2564.031669
512.989866	2565.115517
513.354186	2563.328428
513.718449	2565.475960
514.082655	2565.455795
514.446803	2563.293140
514.810894	2564.654252
515.174927	2564.283727
515.538904	2564.923953
515.902822	2564.094684
516.266684	2565.662482
516.630488	2567.384037
516.994235	2565.349931
517.357925	2564.687019
517.721558	2568.425035
518.085133	2568.470405
518.448651	2564.692060
518.812112	2563.739282
519.175516	2563.640980
519.538863	2562.816751
519.902152	2566.854715
520.265385	2565.738100
520.628560	2565.730538
520.991678	2570.038204
521.354739	2567.051320
521.717743	2570.199521
522.080690	2568.425035
522.443580	2571.003585
522.806413	2573.015005
523.169189	2572.362176
523.531908	2570.738924
523.894569	2573.075499
524.257174	2574.333267
524.619722	2571.936198
524.982213	2575.787640
525.344647	2574.418967
525.707025	2576.067424
526.069345	2571.800087
526.431608	2575.016343
526.793815	2575.165057
527.155964	2575.948957
527.518057	2576.105233
527.880093	2576.649677
528.242072	2578.363670
528.603995	2580.647312
528.965860	2580.221335
529.327669	2577.383165
529.689421	2581.597570
530.051117	2584.670153
530.412755	2579.160172
530.774337	2579.878536
531.135862	2582.356263
531.497331	2583.407344
531.858743	2585.058322
532.220098	2586.706779
532.581396	2585.625452
532.942638	2584.221490
533.303824	2586.863055
533.664953	2588.040164
534.026025	2588.718200
534.387040	2591.558890
534.747999	2589.630648
535.108902	2592.403283
535.469748	2591.248859
535.830537	2593.267841
536.191270	2593.955958
536.551947	2590.628797
536.912567	2589.749116
537.273131	2593.908068
537.633638	2593.872779
537.994089	2598.707246
538.354483	2595.410331
538.714821	2596.884869
539.075103	2599.269335
539.435328	2601.021136
539.795497	2598.702205
540.155609	2600.166660
540.515665	2597.015939
540.875665	2603.065323
541.235609	2601.961311
541.595496	2604.285283
541.955328	2601.391660
542.315102	2603.476177
542.674821	2603.521548
543.034483	2601.926023
543.394090	2603.324943
543.753640	2605.265787
544.113134	2610.087651
544.472571	2607.461210
544.831953	2609.528083
545.191278	2608.477002
545.550548	2607.620006
545.909761	2609.391972
546.268918	2610.122939
546.628019	2608.592949
546.987064	2612.414143
547.346053	2608.600510
547.704986	2611.163937
548.063863	2611.610079
548.422684	2610.932044
548.781449	2611.199225
549.140158	2613.288783
549.498811	2612.678804
549.857408	2612.774586
550.215949	2613.482868
550.574434	2610.997579
550.932864	2615.068311
551.291237	2614.044957
551.649555	2620.159876
552.007817	2616.908332
552.366022	2614.652416
552.724173	2614.067642
553.082267	2616.265585
553.440305	2618.377828
553.798288	2616.464710
554.156215	2617.656943
554.514086	2616.086624
554.871902	2614.637292
555.229661	2617.160390
555.587365	2613.041767
555.945014	2619.451594
556.302606	2615.060749
556.660143	2617.810698
557.017625	2619.151645
557.375050	2617.788013
557.732421	2620.127109
558.089735	2621.367232
558.446994	2619.809516
558.804197	2622.751029
559.161345	2619.018055
559.518437	2616.875564
559.875474	2620.432098
560.232455	2619.617952
560.589381	2622.637603
560.946251	2620.026286
561.303065	2619.106275
561.659825	2621.457973
562.016528	2618.163579
562.373177	2620.096862
562.729770	2619.743981
563.086307	2618.725668
563.442789	2622.766153
563.799216	2623.305556
564.155587	2619.799434
564.511904	2620.341358
564.868164	2618.710544
565.224370	2620.230452
565.580520	2621.815895
565.936615	2623.792027
566.292654	2619.519650
566.648638	2622.390587
567.004567	2622.569548
567.360441	2616.928497
567.716260	2618.188785
568.072023	2618.788682
568.427732	2619.423868
568.783385	2620.268261
569.138982	2621.281533
569.494525	2619.953189
569.850013	2620.147273
570.205445	2618.317334
570.560823	2618.395472
570.916145	2618.917232
571.271412	2616.996552
571.626625	2619.567541
571.981782	2620.573251
572.336884	2614.917076
572.691931	2615.514453
573.046923	2615.554782
573.401860	2612.933382
573.756743	2617.180554
574.111570	2616.772221
574.466342	2617.972015
574.821059	2618.488734
575.175722	2618.697942
575.530330	2619.300359
575.884882	2620.008642
576.239380	2617.538476
576.593823	2620.464866
576.948211	2617.515791
577.302544	2619.338168
577.656823	2617.145266
578.011047	2617.336830
578.365216	2617.301542
578.719330	2616.157200
579.073389	2617.538476
579.427394	2619.537294
579.781344	2620.278343
580.135239	2619.083590
580.489080	2617.876233
580.842866	2619.451594
581.196597	2623.978550
581.550273	2617.450256
581.903895	2619.718775
582.257463	2621.417644
582.610975	2619.890174
582.964434	2620.936214
583.317837	2621.886471
583.671186	2622.612397
584.024481	2621.944445
584.377721	2620.956378
584.730906	2622.435957
585.084037	2622.856893
585.437113	2622.536780
585.790135	2621.432767
586.143103	2623.113992
586.496016	2624.616256
586.848874	2625.826133
587.201679	2624.144908
587.554428	2626.413427
587.907124	2626.579786
588.259765	2622.708179
588.612352	2627.812348
588.964884	2628.140023
589.317362	2628.611371
589.669786	2623.446708
590.022155	2626.158849
590.374470	2626.496607
590.726731	2627.915691
591.078937	2627.398973
591.431090	2631.260497
591.783188	2630.862246
592.135232	2632.548512
592.487222	2631.028604
592.839157	2636.573873
593.191038	2634.585138
593.542866	2633.408028
593.894639	2636.347021
594.246358	2635.200159
594.598022	2635.240488
594.949633	2637.367855
595.301190	2636.541106
595.652692	2638.572691
596.004141	2635.157309
596.355535	2638.703761
596.706876	2639.585962
597.058162	2642.245171
597.409395	2640.692496
597.760573	2642.008237
598.111698	2642.141827
598.462768	2645.267343
598.813785	2647.165337
599.164748	2644.785913
599.515657	2646.215080
599.866511	2647.041829
600.217312	2650.663898
600.568060	2648.591984
600.918753	2654.459887
601.269392	2654.243117
601.619978	2651.959475
601.970510	2657.489620
602.320988	2653.635658
602.671412	2660.673109
603.021783	2660.317708
603.372100	2659.490958
603.722363	2662.951711
604.072572	2666.014212
604.422728	2666.407422
604.772830	2667.198883
605.122878	2665.684016
605.472872	2672.166940
605.822813	2670.190807
606.172701	2675.393278
606.522534	2676.530058
606.872314	2679.098526
607.222041	2679.655574
607.571714	2682.072807
607.921333	2683.023065
608.270899	2685.465504
608.620411	2687.345854
608.969870	2690.176462
609.319276	2697.753316
609.668627	2705.657845
610.017926	2710.983824
610.367171	2715.505739
610.716362	2718.124619
611.065500	2718.379197
611.414585	2720.791389
611.763616	2722.026472
612.112594	2723.029662
612.461518	2724.584857
612.810389	2728.345558
613.159207	2729.676423
613.507971	2734.092474
613.856682	2741.066910
614.205340	2744.820049
614.553945	2752.233066
614.902496	2750.017479
615.250994	2759.343613
615.599439	2759.111720
615.947830	2766.068512
616.296169	2769.559512
616.644454	2773.718463
616.992686	2777.002775
617.340864	2786.626338
617.688990	2792.887451
618.037063	2802.425314
618.385082	2806.485963
618.733048	2816.008703
619.080961	2823.986329
619.428821	2835.250787
619.776628	2841.947960
620.124382	2843.556088
620.472083	2851.904239
620.819731	2862.162987
621.167326	2855.022193
621.514868	2861.240456
621.862357	2861.056454
622.209793	2865.374202
622.557176	2870.067516
622.904506	2863.622401
623.251783	2866.977289
623.599007	2872.091540
623.946179	2878.087992
624.293297	2884.162583
624.640363	2885.294322
624.987376	2885.080073
625.334336	2884.424723
625.681243	2889.584343
626.028097	2896.125241
626.374899	2909.111253
626.721647	2908.287024
627.068343	2912.516552
627.414987	2919.712799
627.761577	2932.862649
628.108115	2938.788526
628.454600	2942.213990
628.801032	2949.344702
629.147412	2956.092286
629.493739	2968.042341
629.840014	2976.798826
630.186236	2986.414827
630.532405	2991.148470
630.878521	3009.533558
631.224585	3015.429188
631.570597	3026.434026
631.916556	3034.966179
632.262462	3044.821635
632.608316	3060.792010
632.954117	3068.338618
633.299866	3082.887388
633.645562	3089.138418
633.991206	3089.566917
634.336797	3086.673294
634.682336	3098.860284
635.027823	3096.185952
635.373257	3108.128445
635.718639	3109.335801
636.063968	3114.734877
636.409245	3114.936523
636.754470	3122.311731
637.099642	3129.152577
637.444762	3121.134622
637.789829	3139.000471
638.134845	3142.980462
638.479808	3157.040240
638.824719	3162.267917
639.169577	3165.902589
639.514383	3177.424146
639.859137	3182.422450
640.203839	3199.955583
640.548489	3195.259748
640.893086	3216.982080
641.237632	3209.067468
641.582125	3238.921182
641.926566	3236.965214
642.270955	3250.074734
642.615292	3258.334665
642.959576	3272.827982
643.303809	3290.300622
643.647990	3300.622384
643.992118	3325.253462
644.336195	3314.523366
644.680219	3341.770802
645.024192	3363.561190
645.368112	3388.817371
645.711981	3417.125970
646.055797	3441.230247
646.399562	3465.881489
646.743274	3501.519927
647.086935	3560.821540
647.430544	3574.848550
647.774101	3596.212960
648.117606	3641.643839
648.461059	3639.408087
648.804460	3673.123324
649.147810	3659.429030
649.491108	3647.713388
649.834354	3674.297913
650.177548	3656.490037
650.520690	3658.083042
650.863781	3664.765091
651.206820	3675.603572
651.549807	3679.046680
651.892742	3676.261442
652.235626	3682.232689
652.578458	3699.123075
652.921238	3683.301414
653.263967	3719.902711
653.606644	3720.336250
653.949269	3725.664750
654.291843	3735.016090
654.634365	3755.846138
654.976836	3764.166563
655.319255	3780.250364
655.661622	3800.699804
656.003938	3805.604847
656.346203	3811.881084
656.688416	3837.548118
657.030577	3844.320909
657.372687	3857.223742
657.714746	3868.011811
658.056753	3901.122110
658.398708	3903.889703
658.740612	3923.456942
659.082465	3955.916931
659.424266	3955.397692
659.766016	3983.897856
660.107715	3993.765914
660.449362	4011.949356
660.790958	4044.374058
661.132503	4051.202301
661.473996	4073.784149
661.815438	4096.607973
662.156829	4118.138742
662.498168	4134.257831
662.839456	4152.968073
663.180693	4170.412986
663.521879	4210.497721
663.863013	4228.603025
664.204097	4247.472064
664.545129	4285.167292
664.886110	4290.311789
665.227040	4335.750230
665.567918	4361.140001
665.908746	4390.673601
666.249522	4395.077049
666.590248	4433.142801
666.930922	4476.441272
667.271545	4492.809898
667.612118	4529.149056
667.952639	4537.134243
668.293109	4554.080082
668.633528	4567.792021
668.973896	4572.926436
669.314213	4637.586796
669.654480	4584.243826
669.994695	4606.092187
670.334859	4643.699195
670.674973	4653.819311
671.015035	4687.095968
671.355047	4688.013457
671.695008	4698.678018
672.034918	4724.100557
672.374777	4754.710443
672.714585	4757.712451
673.054342	4792.607317
673.394049	4802.775325
673.733705	4840.281509
674.073310	4848.909444
674.412864	4884.154671
674.752368	4868.675808
675.091820	4875.110841
675.431223	4915.550977
675.770574	4886.208942
676.109875	4890.103233
676.449125	4898.080859
676.788324	4898.620262
677.127473	4882.904465
677.466571	4894.884767
677.805619	4899.903236
678.144616	4896.293770
678.483562	4918.782357
678.822458	4888.313623
679.161303	4904.843567
679.500098	4932.030509
679.838842	4933.371456
680.177535	4955.063541
680.516179	4981.358200
680.854771	4992.418491
681.193314	5081.820834
681.531805	5122.752483
681.870247	5284.984375
682.208638	5405.999794
682.546978	5534.710534
682.885268	5590.569039
683.223508	5507.384960
683.561697	5490.970963
683.899836	5481.924612
684.237925	5437.630514
684.575963	5444.345331
684.913951	5467.519515
685.251889	5430.368732
685.589776	5523.108318
685.927614	5523.257032
686.265401	5508.615001
686.603137	5566.532818
686.940824	5642.674405
687.278460	5689.804153
687.616046	5741.889354
687.953582	5817.244522
688.291068	5797.226100
688.628504	5896.146141
688.965889	5919.963073
689.303224	5955.283917
689.640510	5944.082473
689.977745	5855.325398
690.314930	5803.658612
690.652065	5806.005269
690.989150	5713.666454
691.326185	5651.463657
691.663170	5601.709989
692.000105	5532.121902
692.336990	5538.456111
692.673825	5441.691163
693.010610	5424.614255
693.347345	5363.996900
693.684030	5298.194719
694.020665	5302.053722
694.357251	5245.635649
694.693786	5270.148260
695.030272	5185.804715
695.366707	5177.451523
695.703093	5160.457793
696.039429	5180.892110
696.375716	5184.191545
696.711952	5122.853306
697.048139	5170.812323
697.384276	5172.445657
697.720363	5174.681409
698.056400	5167.298639
698.392388	5173.557231
698.728326	5163.323689
699.064214	5149.949508
699.400053	5205.739957
699.735842	5127.534017
700.071581	5136.590450
700.407270	5117.224858
700.742910	5096.147793
701.078501	5086.131021
701.414042	5040.644690
701.749533	5030.073390
702.084974	4977.264783
702.420366	5033.133370
702.755709	5015.769116
703.091002	4973.365450
703.426246	4990.069314
703.761440	4986.059076
704.096584	4977.451306
704.431679	4959.429181
704.766725	4967.658864
705.101721	4955.282832
705.436668	4989.260208
705.771565	4956.268377
706.106413	5001.111961
706.441212	5047.210793
706.775961	5027.018451
707.110661	5050.341349
707.445311	5148.238036
707.779913	5094.658132
708.114465	5173.791645
708.448967	5211.189445
708.783421	5260.897742
709.117825	5371.974526
709.452180	5399.839504
709.786485	5437.943065
710.120742	5584.123924
710.454949	5590.042239
710.789107	5634.984125
711.123216	5734.849383
711.457275	5834.124826
711.791286	5925.851140
712.125247	5911.297329
712.459159	5946.587927
712.793023	6070.186937
713.126837	5870.547162
713.460602	5963.281708
713.794318	5870.380804
714.127985	5933.773314
714.461602	5817.015149
714.795171	5791.688393
715.128691	5705.852666
715.462162	5586.180715
715.795584	5597.724957
716.128957	5535.769176
716.462281	5436.702942
716.795556	5521.863153
717.128782	5422.290283
717.461960	5265.533083
717.795088	5325.318647
718.128167	5299.283608
718.461198	5223.220158
718.794180	5204.487231
719.127113	5228.228545
719.459997	5149.440351
719.792833	5017.289024
720.125619	5073.646603
720.458357	4999.178679
720.791046	5000.922918
721.123686	5039.913722
721.456278	4949.011636
721.788821	4961.269202
722.121315	4904.372219
722.453761	4954.980362
722.786158	4941.908650
723.118506	4953.800732
723.450805	4952.157316
723.783056	4999.541642
724.115259	4933.522691
724.447412	4939.430923
724.779518	4973.988033
725.111574	4985.605372
725.443582	5042.159556
725.775542	5027.822515
726.107453	5142.551615
726.439315	5102.918063
726.771129	5123.861537
727.102895	5225.090427
727.434612	5305.229649
727.766281	5312.993026
728.097901	5369.930338
728.429473	5355.673955
728.760996	5356.304099
729.092471	5361.751066
729.423897	5359.669070
729.755276	5390.702413
730.086606	5359.152351
730.417887	5411.608078
730.749120	5514.331670
731.080305	5659.393392
731.411442	5736.235700
731.742530	5730.589608
732.073570	5841.074056
732.404562	5903.223921
732.735506	5778.760353
733.066401	5894.827880
733.397249	5866.511718
733.728048	5743.197534
734.058798	5558.608124
734.389501	5460.139266
734.720156	5359.462382
735.050762	5206.642324
735.381320	5151.698788
735.711831	5139.312673
736.042293	5078.793621
736.372707	5110.290751
736.703073	5017.941853
737.033391	5044.342376
737.363661	5056.562133
737.693883	5067.302311
738.024056	5132.761694
738.354182	5164.087424
738.684260	5183.155588
739.014290	5248.856946
739.344272	5320.406043
739.674207	5330.168237
740.004093	5369.819433
740.333931	5389.371548
740.663722	5401.871089
740.993464	5474.241894
741.323159	5502.721892
741.652806	5311.243746
741.982405	5309.663344
742.311956	5408.096914
742.641460	5323.813863
742.970915	5177.751471
743.300323	5202.879103
743.629683	5174.210061
743.958996	5091.933389
744.288260	5046.109300
744.617477	5019.844889
744.946647	5049.474271
745.275768	4933.593267
745.604842	4912.959824
745.933869	4908.296757
746.262847	4871.869379
746.591778	4880.283065
746.920662	4856.866906
747.249498	4849.337942
747.578286	4889.644488
747.907027	4951.932985
748.235720	4992.627699
748.564365	4959.219973
748.892963	4973.685564
749.221514	5110.419300
749.550017	5006.866438
749.878473	4903.779883
750.206881	4957.490857
750.535242	4922.311165
750.863555	4882.153333
751.191821	4911.165174
751.520039	4913.204320
751.848210	4848.344835
752.176334	4861.353532
752.504411	4924.186474
752.832440	4860.375549
753.160421	4792.821567
753.488356	4839.658927
753.816243	4891.280342
754.144082	4774.381026
754.471875	4737.855346
754.799620	4790.598418
755.127318	4805.489986
755.454969	4766.042957
755.782572	4736.610181
756.110129	4783.303868
756.437638	4794.858193
756.765100	4741.863063
757.092515	4733.199840
757.419882	4770.464049
757.747203	4767.182258
758.074477	4821.006658
758.401703	4818.130679
758.728882	4766.166466
759.056014	4799.160817
759.383099	4921.900311
759.710138	4923.722688
760.037129	4898.990787
760.364073	4908.231222
760.690970	4984.564374
761.017820	4984.892049
761.344623	4928.443728
761.671379	5006.942056
761.998088	5106.567858
762.324751	5280.875835
762.651366	5701.018199
762.977935	6599.765189
763.304456	7752.730006
763.630931	8428.920136
763.957359	8235.712874
764.283740	7636.274311
764.610074	7094.274655
764.936362	6366.793306
765.262602	5901.174692
765.588796	5487.232947
765.914943	5221.317123
766.241044	5116.158654
766.567097	4983.591431
766.893104	4774.194503
767.219064	4632.850632
767.544978	4598.895940
767.870845	4555.242068
768.196665	4459.671873
768.522438	4401.983429
768.848165	4389.781317
769.173846	4344.161395
769.499479	4313.982527
769.825066	4272.549284
770.150607	4229.535639
770.476101	4210.729614
770.801548	4215.143144
771.126949	4166.369981
771.452303	4128.614259
771.777611	4095.362808
772.102872	4105.709777
772.428087	4082.795212
772.753256	4058.922828
773.078378	4032.418962
773.403453	3972.235146
773.728482	3969.989312
774.053465	3931.830298
774.378401	3921.596756
774.703291	3930.280143
775.028135	3877.106053
775.352932	3832.154084
775.677683	3825.252744
776.002388	3852.112012
776.327046	3862.010317
776.651658	3793.163279
776.976224	3737.461050
777.300743	3749.998400
777.625216	3769.401801
777.949643	3772.383643
778.274024	3737.450968
778.598359	3687.987166
778.922647	3705.457285
779.246889	3707.481308
779.571086	3711.947770
779.895236	3697.043599
780.219339	3681.778985
780.543397	3670.093591
780.867409	3713.457596
781.191374	3732.487952
781.515294	3685.522042
781.839167	3676.221113
782.162995	3699.780946
782.486776	3690.525387
782.810511	3695.206098
783.134201	3704.764126
783.457844	3672.296575
783.781441	3618.608286
784.104993	3627.513485
784.428498	3647.342863
784.751958	3649.187926
785.075372	3631.952221
785.398739	3596.026438
785.722061	3608.357100
786.045337	3647.032832
786.368568	3682.920807
786.691752	3607.893314
787.014891	3640.857419
787.337983	3742.439189
787.661030	3860.563506
787.984031	3990.723578
788.306987	4137.935353
788.629897	4203.805589
788.952760	4177.415149
789.275579	4131.870845
789.598351	4098.521091
789.921078	3993.163497
790.243759	3822.588494
790.566395	3799.855411
790.888984	3804.752892
791.211529	3710.203531
791.534027	3662.342817
791.856480	3662.821726
792.178888	3604.089763
792.501249	3556.586971
792.823566	3565.908064
793.145836	3598.751181
793.468062	3556.831467
793.790241	3512.257584
794.112375	3537.559135
794.434464	3589.339347
794.756507	3614.393882
795.078505	3604.056996
795.400457	3616.798512
795.722364	3725.231211
796.044226	3811.457627
796.366042	3874.771998
796.687812	3870.386195
797.009538	3882.522772
797.331218	3841.487780
797.652852	3822.603618
797.974442	3809.748676
798.295986	3820.430881
798.617484	3755.790685
798.938938	3669.997809
799.260346	3710.871484
799.581709	3713.739901
799.903026	3650.745642
800.224299	3617.375724
800.545526	3613.637709
800.866708	3582.629571
801.187845	3518.309489
801.508936	3556.274419
801.829983	3564.940162
802.150984	3489.426198
802.471940	3472.750062
802.792851	3489.121209
803.113717	3487.039212
803.434538	3494.918536
803.755314	3446.364662
804.076045	3417.080600
804.396731	3428.581992
804.717372	3456.973771
805.037967	3444.963222
805.358518	3434.049123
805.679024	3454.488482
805.999485	3462.093062
806.319901	3464.028865
806.640272	3481.781289
806.960598	3499.679905
807.280879	3473.972541
807.601115	3480.427739
807.921306	3496.887106
808.241453	3536.871018
808.561554	3521.603883
808.881611	3459.990901
809.201623	3489.973164
809.521590	3504.970596
809.841513	3479.505208
810.161390	3509.860516
810.481223	3496.541787
810.801011	3444.123869
811.120755	3429.973351
811.440453	3465.233701
811.760107	3480.193325
812.079716	3442.916513
812.399281	3409.208838
812.718801	3431.952003
813.038276	3405.233888
813.357707	3405.128024
813.677093	3424.667536
813.996434	3377.689023
814.315731	3383.045249
814.634983	3389.185375
814.954191	3396.850449
815.273354	3430.031324
815.592473	3429.683484
815.911547	3427.233483
816.230577	3459.542238
816.549562	3504.148888
816.868502	3549.063048
817.187399	3578.074889
817.506250	3570.402253
817.825058	3546.121535
818.143821	3629.262765
818.462539	3726.690625
818.781213	3768.484311
819.099843	3816.700427
819.418429	4019.621992
819.736970	4235.111155
820.055466	4448.707364
820.373919	4784.390237
820.692327	5169.753681
821.010691	5534.728178
821.329011	6677.267889
821.647286	8919.805013
821.965517	12512.708455
822.283704	15747.760551
822.601847	17808.750602
822.919945	16625.740508
823.237999	14740.837962
823.556010	12668.875840
823.873976	10923.751887
824.191897	9069.686078
824.509775	7829.085843
824.827609	6798.361445
825.145398	6289.414115
825.463144	6182.508886
825.780845	6292.446369
826.098502	6417.935811
826.416116	7108.773014
826.733685	8244.860048
827.051210	9288.807392
827.368692	9473.800094
827.686129	8417.736336
828.003522	7042.199536
828.320872	6118.730728
828.638177	5484.949304
828.955439	4977.962983
829.272656	4518.381151
829.589830	4242.972834
829.906960	4081.847475
830.224046	3914.236671
830.541088	3792.742343
830.858086	3757.792023
831.175041	3688.627393
831.491952	3665.659896
831.808819	3676.682379
832.125642	3735.036255
832.442421	3866.096173
832.759157	4109.654480
833.075849	4592.418057
833.392497	5346.877142
833.709101	6037.709303
834.025662	6392.258694
834.342179	6135.840404
834.658653	5539.668509
834.975083	4949.019198
835.291469	4415.355090
835.607811	4023.405378
835.924110	3902.402563
836.240366	3713.313923
836.556578	3517.064324
836.872746	3414.202101
837.188871	3386.609345
837.504952	3327.458967
837.820990	3249.023654
838.136984	3200.116900
838.452935	3220.173130
838.768842	3220.215980
839.084706	3241.068713
839.400526	3375.279352
839.716303	3659.789472
840.032037	4117.561529
840.347727	4398.620980
840.663373	4190.418805
840.978977	3835.549301
841.294537	3554.867937
841.610054	3336.170080
841.925527	3227.182855
842.240957	3162.991322
842.556344	3117.303345
842.871687	3065.593709
843.186987	3015.890453
843.502244	2980.211687
843.817458	2950.143725
844.132629	2913.683579
844.447756	2925.852925
844.762840	2915.631985
845.077881	2885.984960
845.392879	2868.940818
845.707833	2863.181300
846.022745	2860.650641
846.337613	2862.770446
846.652438	2852.688138
846.967221	2850.573374
847.281960	2836.710201
847.596656	2833.020077
847.911309	2829.876917
848.225919	2824.291319
848.540485	2820.434836
848.855009	2821.180927
849.169490	2813.939309
849.483928	2804.565284
849.798323	2804.595531
850.112675	2799.841723
850.426984	2808.429328
850.741251	2807.743731
851.055474	2799.693009
851.369654	2792.416103
851.683792	2796.302833
851.997887	2804.285500
852.311938	2803.458751
852.625947	2798.558749
852.939914	2799.965231
853.253837	2807.267342
853.567718	2789.257820
853.881555	2789.421658
854.195350	2800.504634
854.509103	2800.000519
854.822812	2794.253604
855.136479	2790.563479
855.450103	2790.750002
855.763685	2785.832356
856.077224	2778.948661
856.390720	2793.000877
856.704173	2804.696354
857.017584	2799.466157
857.330953	2792.353089
857.644278	2802.692495
857.957561	2809.740028
858.270802	2813.460400
858.584000	2814.287149
858.897155	2804.177115
859.210268	2799.778708
859.523339	2796.219654
859.836367	2798.042031
860.149352	2796.063378
860.462295	2790.177831
860.775195	2798.155457
861.088054	2797.439613
861.400869	2781.663322
861.713642	2778.439504
862.026373	2790.671864
862.339062	2793.268058
862.651708	2798.679737
862.964312	2804.877835
863.276873	2793.114303
863.589392	2803.289872
863.901869	2811.824545
864.214303	2832.440344
864.526696	2850.255782
864.839045	2847.692355
865.151353	2847.132787
865.463619	2843.477950
865.775842	2844.332426
866.088023	2858.979498
866.400162	2868.794625
866.712258	2845.806963
867.024313	2833.829182
867.336325	2840.188597
867.648296	2859.239118
867.960224	2851.977336
868.272110	2840.775892
868.583954	2847.344515
868.895755	2858.997142
869.207515	2847.843590
869.519233	2848.453569
869.830909	2860.002853
870.142542	2870.259080
870.454134	2869.558360
870.765684	2873.820655
871.077191	2871.753782
871.388657	2875.345604
871.700081	2889.831360
872.011463	2899.578431
872.322803	2902.164543
872.634101	2899.638925
872.945357	2916.534352
873.256571	2938.498659
873.567744	2935.567228
873.878874	2924.297729
874.189963	2945.473096
874.501010	2951.386369
874.812015	2938.478495
875.122979	2944.384206
875.433900	2935.849533
875.744780	2939.146448
876.055618	2947.648353
876.366415	2945.052159
876.677169	2954.557255
876.987882	2954.728654
877.298554	2945.962088
877.609183	2965.307515
877.919771	2985.288129
878.230317	3009.760410
878.540822	3058.422668
878.851285	3096.465736
879.161707	3132.361272
879.472087	3219.328737
879.782425	3415.429622
880.092722	3808.175836
880.402977	4289.517808
880.713191	4849.302654
881.023363	5841.923491
881.333494	6977.803837
881.643583	7502.880339
881.953631	7273.361646
882.263637	6777.780935
882.573602	6281.239884
882.883526	5750.406384
883.193408	5214.304878
883.503248	4769.924646
883.813048	4493.525742
884.122806	4231.239549
884.432522	3943.137606
884.742197	3723.028227
885.051831	3538.973179
885.361424	3402.118455
885.670975	3337.672344
885.980485	3265.755243
886.289954	3195.549614
886.599382	3156.825991
886.908768	3115.249075
887.218113	3073.936819
887.527417	3024.079808
887.836680	2977.426449
888.145901	2971.664410
888.455082	2964.495890
888.764221	2916.773807
889.073319	2889.181051
889.382376	2889.455794
889.691392	2890.650547
890.000366	2890.635424
890.309300	2879.343239
890.618193	2889.846483
890.927044	2909.874988
891.235855	2911.783064
891.544625	2893.710528
891.853353	2902.550191
892.162041	2920.116092
892.470687	2954.448870
892.779293	3004.066427
893.087858	3048.337840
893.396381	3108.693054
893.704864	3214.539641
894.013306	3425.514450
894.321707	3704.645659
894.630068	3909.508069
894.938387	3914.392947
895.246665	3868.583982
895.554903	3765.164711
895.863100	3577.071699
896.171256	3420.858944
896.479371	3294.066363
896.787446	3184.443952
897.095480	3084.944178
897.403473	3024.583923
897.711425	2985.404075
898.019336	2974.936119
898.327207	2956.498099
898.635038	2922.205650
898.942827	2910.691655
899.250576	2897.012484
899.558284	2864.991074
899.865952	2852.451204
900.173579	2832.584017
900.481165	2826.368274
900.788711	2815.602890
901.096216	2792.206895
901.403681	2777.569905
901.711105	2784.383024
902.018489	2783.599125
902.325832	2781.391100
902.633135	2790.472738
902.940397	2816.704382
903.247619	2888.180382
903.554800	3055.526525
903.861941	3361.524564
904.169041	3751.735077
904.476101	4051.262795
904.783121	4037.263510
905.090100	3817.136487
905.397039	3562.379256
905.703938	3324.378822
906.010796	3148.296359
906.317614	3042.661501
906.624391	2960.382308
906.931129	2893.609705
907.237826	2837.456292
907.544483	2789.262861
907.851099	2761.450816
908.157675	2742.236458
908.464211	2723.795917
908.770707	2709.557178
909.077163	2699.623584
909.383578	2685.014320
909.689954	2676.711540
909.996289	2673.815397
910.302584	2674.251457
910.608839	2676.341015
910.915054	2671.761127
911.221229	2664.756444
911.527363	2664.766526
911.833458	2668.728873
912.139513	2673.931344
912.445527	2677.482837
912.751502	2685.765452
913.057436	2694.027903
913.363331	2706.872763
913.669186	2725.401524
913.975000	2754.904877
914.280775	2808.923361
914.586510	2872.101622
914.892205	2943.693568
915.197859	3056.343192
915.503475	3225.486507
915.809050	3416.939447
916.114585	3552.314593
916.420081	3584.701486
916.725536	3537.954866
917.030952	3431.755398
917.336328	3316.839776
917.641665	3193.144984
917.946961	3099.434975
918.252218	3035.167825
918.557435	2967.523103
918.862612	2912.934968
919.167750	2863.090559
919.472848	2830.247442
919.777906	2804.925726
920.082925	2782.106943
920.387904	2752.084352
920.692843	2736.958370
920.997743	2727.372616
921.302603	2716.806357
921.607423	2706.724049
921.912204	2693.982533
922.216946	2685.710000
922.521647	2676.401509
922.826310	2667.997906
923.130932	2661.530105
923.435516	2655.329486
923.740059	2648.773465
924.044564	2641.221817
924.349028	2636.684778
924.653454	2631.121865
924.957840	2623.141719
925.262186	2621.031996
925.566493	2614.652416
925.870761	2608.618154
926.174989	2606.705037
926.479178	2600.874942
926.783328	2600.259921
927.087438	2597.696495
927.391509	2597.411669
927.695541	2592.551997
927.999533	2591.339600
928.303486	2588.997984
928.607400	2586.885740
928.911275	2588.468662
929.215110	2583.772828
929.518906	2587.092427
929.822663	2586.744588
930.126381	2580.395255
930.430060	2583.951789
930.733699	2585.459094
931.037299	2588.771132
931.340861	2588.080494
931.644383	2589.658375
931.947866	2588.148549
932.251309	2585.285174
932.554714	2586.379104
932.858080	2584.523960
933.161407	2581.101016
933.464694	2582.250399
933.767943	2576.468196
934.071153	2580.586818
934.374323	2577.481468
934.677455	2579.306365
934.980548	2577.466344
935.283602	2576.599266
935.586617	2578.572877
935.889593	2577.272260
936.192530	2579.064390
936.495428	2576.518607
936.798287	2579.074472
937.101108	2584.589495
937.403890	2586.358940
937.706632	2590.772470
938.009336	2597.852770
938.312002	2605.278390
938.614628	2613.775255
938.917216	2618.907149
939.219765	2622.693056
939.522275	2619.554938
939.824747	2616.464710
940.127179	2615.395986
940.429573	2611.978083
940.731929	2607.204111
941.034246	2609.734770
941.336524	2602.697319
941.638763	2600.428800
941.940964	2599.763368
942.243126	2599.533995
942.545250	2595.858994
942.847335	2594.197934
943.149381	2591.019486
943.451389	2588.014959
943.753359	2584.135791
944.055290	2582.008424
944.357182	2584.455904
944.659036	2583.364494
944.960851	2579.225707
945.262628	2579.593711
945.564367	2583.699731
945.866067	2582.999011
946.167729	2581.456417
946.469352	2582.918352
946.770937	2583.538414
947.072484	2577.088258
947.373992	2581.000193
947.675462	2576.795871
947.976893	2572.954512
948.278286	2573.872002
948.579641	2571.114490
948.880958	2570.577607
949.182236	2576.344688
949.483476	2573.630026
949.784678	2573.851837
950.085841	2572.823442
950.386967	2572.682289
950.688054	2572.745304
950.989103	2574.880232
951.290114	2577.718402
951.591087	2574.860068
951.892021	2577.620099
952.192917	2581.285018
952.493776	2582.106726
952.794596	2583.488002
953.095378	2585.048240
953.396122	2584.367684
953.696828	2580.191088
953.997496	2578.991293
954.298126	2578.033474
954.598718	2576.160685
954.899272	2574.517269
955.199788	2572.278997
955.500266	2569.498801
955.800706	2567.855384
956.101108	2566.153995
956.401472	2563.469581
956.701798	2561.291802
957.002087	2561.022100
957.302337	2559.547563
957.602550	2556.883313
957.902724	2557.246276
958.202861	2559.819785
958.502960	2554.506409
958.803022	2555.176882
959.103045	2554.576985
959.403031	2553.566234
959.702979	2552.474824
960.002889	2553.745195
960.302762	2551.645554
960.602596	2549.903836
960.902393	2552.126984
961.202153	2550.070194
961.501875	2548.562889
961.801559	2551.602704
962.101205	2550.932231
962.400814	2550.634803
962.700385	2550.037426
962.999918	2544.966025
963.299414	2544.643392
963.598873	2549.356870
963.898293	2544.638350
964.197677	2548.885522
964.497022	2549.926521
964.796331	2549.200595
965.095601	2548.109185
965.394835	2548.668753
965.694030	2550.793599
965.993189	2550.866696
966.292309	2548.872920
966.591393	2548.525080
966.890439	2549.160265
967.189447	2548.525080
967.488419	2546.962322
967.787353	2548.194884
968.086249	2549.225800
968.385108	2545.555840
968.683930	2547.703372
968.982714	2547.249668
969.281462	2550.276881
969.580172	2549.097251
969.878844	2548.492312
970.177480	2547.602549
970.476078	2548.867878
970.774639	2547.393341
971.073162	2546.251520
971.371649	2545.883515
971.670098	2548.797302
971.968510	2548.406613
972.266885	2547.794113
972.565223	2549.906356
972.863524	2552.318548
973.161788	2549.785368
973.460014	2550.977601
973.758204	2548.066335
974.056356	2549.377035
974.354471	2549.571119
974.652550	2547.552137
974.950591	2551.852242
975.248595	2545.029040
975.546563	2550.728064
975.844493	2549.495502
976.142386	2548.547765
976.440243	2548.648588
976.738062	2547.801674
977.035845	2549.167827
977.333590	2548.116747
977.631299	2549.472817
977.928971	2543.877136
978.226606	2544.948381
978.524204	2543.975439
978.821765	2542.395037
979.119290	2550.002138
979.416777	2544.381252
979.714228	2546.412837
980.011642	2545.855789
980.309020	2548.033567
980.606360	2545.631458
980.903664	2547.698331
981.200931	2547.405944
981.498162	2545.515511
981.795356	2549.462735
982.092513	2551.932900
982.389633	2551.643034
982.686717	2557.639486
982.983764	2556.961451
983.280775	2564.510579
983.577749	2564.329097
983.874686	2563.782132
984.171587	2561.417831
984.468451	2558.438509
984.765279	2556.946327
985.062070	2554.803837
985.358824	2553.369629
985.655543	2554.692932
985.952224	2549.994576
986.248869	2549.039278
986.545478	2547.287477
986.842050	2549.555996
987.138586	2546.145655
987.435086	2548.502395
987.731549	2546.143135
988.027975	2547.990718
988.324366	2544.834955
988.620719	2544.335881
988.917037	2546.289328
989.213318	2545.666746
989.509563	2543.652805
989.805772	2543.980480
990.101944	2544.950902
990.398080	2545.208001
990.694180	2545.003834
990.990244	2544.489636
991.286271	2546.322096
991.582262	2546.080120
991.878217	2542.942002
992.174136	2546.196067
992.470019	2545.177754
992.765865	2541.800181
993.061676	2540.807073
993.357450	2542.334543
993.653188	2542.304296
993.948890	2544.129194
994.244556	2543.730943
994.540186	2546.755635
994.835780	2546.067518
995.131337	2547.216901
995.426859	2545.427291
995.722345	2547.037940
996.017795	2549.888712
996.313208	2551.912735
996.608586	2549.765204
996.903928	2548.159596
997.199234	2551.388455
997.494504	2547.267312
997.789738	2549.230842
998.084936	2549.687066
998.380099	2547.526932
998.675225	2548.126829
998.970316	2547.234545
999.265371	2545.336550
999.560390	2545.323947
999.855373	2548.610780
1000.150320	2546.256561
1000.445232	2544.235058
1000.740108	2545.752445
1001.034948	2544.598021
1001.329752	2545.976777
1001.624521	2545.528114
1001.919254	2544.514842
1002.213951	2545.689431
1002.508613	2544.391334
1002.803239	2544.771941
1003.097829	2544.759338
1003.392384	2545.076931
1003.686903	2542.425284
1003.981386	2549.339226
1004.275834	2542.775644
1004.570246	2547.176571
1004.864623	2542.881508
1005.158964	2544.159441
1005.453270	2541.742207
1005.747540	2544.096426
1006.041775	2543.660367
1006.335974	2545.394523
1006.630138	2542.947043
1006.924266	2543.025181
1007.218359	2543.302445
1007.512416	2542.677342
1007.806438	2542.004348
1008.100425	2542.886549
1008.394376	2537.563091
1008.688292	2546.841335
1008.982172	2545.432332
1009.276017	2545.767569
1009.569827	2544.469472
1009.863602	2545.021478
1010.157341	2546.148176
1010.451045	2543.567105
1010.744714	2543.612476
1011.038347	2546.783361
1011.331945	2545.490305
1011.625508	2546.611962
1011.919036	2541.543082
1012.212528	2546.125491
1012.505986	2544.713968
1012.799408	2542.367311
1013.092795	2540.650798
1013.386147	2541.830428
1013.679464	2543.771272
1013.972745	2545.518032
1014.265992	2542.453010
1014.559204	2543.688093
1014.852380	2543.481406
1015.145521	2542.447969
1015.438628	2545.001313
1015.731699	2544.187167
1016.024736	2544.242620
1016.317737	2543.894780
1016.610703	2543.930068
1016.903635	2545.132383
1017.196531	2543.637681
1017.489393	2543.105840
1017.782219	2545.699513
1018.075011	2542.692465
1018.367768	2542.705068
1018.660490	2543.715819
1018.953177	2543.715819
1019.245829	2543.715819
