Dividing Wavelength (nm)	Counts (n)	Blue Motor Position (mm): 10.100000	Red Motor Position (mm): 0.000000	
326.493990	2162.627274
326.888308	2162.627274
327.282561	2162.627274
327.676750	2122.116561
328.070874	2120.039606
328.464933	2117.435850
328.858929	2122.845008
329.252859	2126.809876
329.646726	2134.351442
330.040528	2146.702269
330.434265	2158.987561
330.827938	2179.600839
331.221547	2194.822603
331.615091	2212.181816
332.008571	2231.247460
332.401986	2251.323855
332.795338	2266.152409
333.188625	2287.589916
333.581847	2304.215641
333.975006	2322.734320
334.368100	2340.511949
334.761129	2360.863087
335.154095	2375.908411
335.546996	2399.271638
335.939833	2418.211253
336.332606	2431.499735
336.725315	2446.540017
337.117960	2460.594754
337.510540	2471.332412
337.903056	2481.709627
338.295508	2491.648262
338.687896	2498.131186
339.080220	2506.870026
339.472480	2515.813033
339.864676	2519.747653
340.256807	2526.686802
340.648875	2525.950793
341.040879	2530.795342
341.432818	2530.215609
341.824694	2536.398584
342.216506	2535.589479
342.608253	2537.626105
342.999937	2536.401105
343.391557	2539.511497
343.783113	2538.649460
344.174605	2538.664583
344.566033	2535.816331
344.957397	2539.564429
345.348697	2533.777184
345.739934	2531.720394
346.131106	2531.690147
346.522215	2528.494055
346.913260	2528.879703
347.304241	2522.674043
347.695159	2523.712521
348.086012	2522.096831
348.476802	2520.566841
348.867528	2513.710872
349.258191	2511.533093
349.648789	2513.839421
350.039324	2510.151817
350.429796	2511.500326
350.820203	2509.204080
351.210548	2509.274656
351.600828	2504.775426
351.991045	2507.046466
352.381198	2508.185767
352.771288	2505.135869
353.161314	2504.656959
353.551276	2505.491270
353.941175	2505.022443
354.331010	2505.037566
354.720782	2499.605723
355.110490	2507.132166
355.500135	2501.791063
355.889717	2499.905672
356.279235	2503.252998
356.668689	2503.363903
357.058080	2504.167967
357.447408	2503.341218
357.836672	2503.016064
358.225873	2505.561846
358.615010	2503.931033
359.004084	2506.086126
359.393095	2504.150323
359.782043	2505.655108
360.170927	2504.535972
360.559748	2507.248112
360.948505	2506.940602
361.337199	2508.647033
361.725830	2507.777433
362.114398	2507.734584
362.502903	2512.004441
362.891344	2508.571415
363.279722	2510.003103
363.668037	2513.350429
364.056289	2509.814060
364.444478	2513.068124
364.832603	2511.737260
365.220665	2513.065604
365.608665	2513.844462
365.996601	2511.490243
366.384474	2513.302538
366.772284	2510.713906
367.160031	2515.681963
367.547715	2514.164575
367.935336	2515.767662
368.322893	2514.018382
368.710388	2511.051663
369.097820	2512.301869
369.485189	2511.109636
369.872495	2517.257323
370.259738	2519.104906
370.646918	2516.289422
371.034035	2518.580626
371.421090	2519.248579
371.808081	2516.629700
372.195010	2519.170441
372.581875	2517.645492
372.968678	2522.316121
373.355418	2518.631038
373.742096	2518.283198
374.128710	2520.506347
374.515262	2520.849145
374.901751	2520.289577
375.288177	2522.517767
375.674540	2521.219670
376.060841	2522.784948
376.447079	2522.419465
376.833254	2524.040196
377.219367	2521.980884
377.605417	2522.858045
377.991404	2519.861079
378.377329	2522.285874
378.763191	2523.568848
379.148991	2522.545494
379.534727	2519.949299
379.920402	2525.091276
380.306013	2521.360822
380.691563	2522.613549
381.077049	2524.972809
381.462474	2524.630011
381.847835	2521.161697
382.233134	2523.997346
382.618371	2523.838550
383.003545	2523.667150
383.388657	2523.626821
383.773706	2523.561286
384.158693	2524.425844
384.543618	2527.891637
384.928480	2523.170597
385.313280	2523.664630
385.698017	2523.861235
386.082692	2524.796369
386.467305	2526.253262
386.851856	2527.198479
387.236344	2526.585978
387.620770	2525.721421
388.005133	2523.916687
388.389435	2526.717048
388.773674	2521.151615
389.157851	2526.931298
389.541965	2529.235105
389.926018	2527.838705
390.310008	2527.382481
390.693936	2531.871628
391.077802	2530.316432
391.461606	2527.629497
391.845348	2526.291071
392.229027	2530.291227
392.612645	2528.317615
392.996200	2528.456247
393.379694	2530.576052
393.763125	2529.706453
394.146494	2529.945908
394.529801	2530.762574
394.913047	2531.201155
395.296230	2530.200486
395.679351	2531.304498
396.062410	2531.538912
396.445408	2532.035466
396.828343	2530.301309
397.211217	2533.141999
397.594028	2533.694005
397.976778	2532.834489
398.359466	2531.780888
398.742092	2532.824406
399.124656	2535.211393
399.507158	2531.720394
399.889598	2532.655528
400.271977	2531.289375
400.654294	2533.240302
401.036549	2531.780888
401.418742	2533.913296
401.800874	2534.533358
402.182944	2535.707946
402.564952	2534.573687
402.946898	2532.620240
403.328783	2535.531506
403.710606	2537.764737
404.092367	2534.573687
404.474067	2535.337422
404.855705	2534.354397
405.237282	2537.767258
405.618797	2534.072092
406.000250	2534.364479
406.381642	2532.990764
406.762972	2534.157792
407.144240	2531.559077
407.525447	2534.377082
407.906593	2533.215096
408.287677	2536.852288
408.668700	2535.584438
409.049661	2537.517721
409.430560	2538.349511
409.811399	2538.581404
410.192176	2536.428831
410.572891	2537.076620
410.953545	2537.343801
411.334138	2538.440252
411.714669	2537.041332
412.095139	2540.807073
412.475547	2537.321116
412.855894	2538.571322
413.236180	2536.640560
413.616405	2536.343132
413.996568	2541.134748
414.376670	2538.266332
414.756711	2540.779347
415.136691	2539.768596
415.516609	2537.275745
415.896466	2542.616848
416.276262	2537.560570
416.655997	2539.899666
417.035670	2541.384286
417.415283	2542.508463
417.794834	2538.422608
418.174324	2539.947557
418.553753	2541.270860
418.933121	2538.420087
419.312428	2539.705581
419.691674	2539.657690
420.070859	2544.204811
420.449983	2538.432690
420.829045	2540.585263
421.208047	2543.017619
421.586988	2540.860006
421.965867	2541.890922
422.344686	2541.137269
422.723444	2543.930068
423.102141	2540.529810
423.480777	2542.788247
423.859352	2541.752290
424.237866	2541.863195
424.616319	2543.080634
424.994712	2543.304965
425.373044	2540.189532
425.751314	2540.870088
426.129524	2540.141641
426.507673	2540.166847
426.885762	2538.087371
427.263789	2541.969059
427.641756	2542.132897
428.019662	2547.637837
428.397508	2542.911755
428.775292	2542.226158
429.153016	2544.683721
429.530679	2546.793444
429.908282	2543.577188
430.285824	2543.988042
430.663305	2544.678680
431.040726	2544.865202
431.418086	2543.035263
431.795385	2543.562064
432.172624	2544.270346
432.549802	2543.446118
432.926920	2545.142466
433.303977	2544.240099
433.680974	2543.761190
434.057910	2546.879143
434.434786	2544.131714
434.811601	2544.197249
435.188355	2543.443597
435.565050	2544.817311
435.941683	2545.051725
436.318257	2546.087682
436.694770	2546.785882
437.071222	2544.121632
437.447614	2543.826725
437.823946	2546.806047
438.200218	2543.579708
438.576429	2551.549772
438.952580	2548.381407
439.328670	2543.224307
439.704700	2545.424770
440.080670	2546.964843
440.456580	2546.170861
440.832429	2547.080789
441.208218	2547.594987
441.583947	2550.183620
441.959616	2547.509288
442.335224	2548.613300
442.710773	2547.801674
443.086261	2543.153731
443.461689	2547.564740
443.837057	2546.735470
444.212365	2546.395193
444.587612	2546.203629
444.962800	2544.424101
445.337927	2543.143648
445.712995	2544.645912
446.088002	2548.827549
446.462949	2548.804864
446.837837	2549.961809
447.212664	2548.104144
447.587431	2546.909390
447.962139	2547.421067
448.336786	2549.059442
448.711374	2548.330996
449.085901	2548.255378
449.460369	2549.266130
449.834776	2550.465924
450.209124	2550.647406
450.583412	2549.785368
450.957640	2550.065153
451.331808	2550.178578
451.705917	2546.312013
452.079965	2552.802499
452.453954	2552.739485
452.827883	2548.187323
453.201752	2549.742519
453.575562	2548.782179
453.949311	2550.778476
454.323001	2549.329144
454.696632	2552.547921
455.070202	2551.532128
455.443713	2551.527087
455.817164	2551.544731
456.190556	2549.876109
456.563888	2553.004145
456.937160	2552.280740
457.310373	2550.171017
457.683526	2550.642365
458.056619	2547.015254
458.429653	2549.772766
458.802628	2548.540203
459.175542	2549.863506
459.548398	2551.106151
459.921194	2551.327962
460.293930	2553.127653
460.666607	2552.568085
461.039224	2552.467262
461.411782	2552.941131
461.784280	2550.102961
462.156719	2552.789896
462.529099	2549.402241
462.901419	2553.737633
463.273680	2549.666901
463.645882	2546.775800
464.018024	2551.514484
464.390106	2546.682538
464.762130	2552.880637
465.134094	2550.964998
465.505999	2553.730071
465.877845	2553.765359
466.249631	2551.874927
466.621358	2552.346275
466.993026	2552.366439
467.364634	2559.056050
467.736184	2552.827705
468.107674	2552.815102
468.479105	2555.514640
468.850477	2552.008517
469.221790	2555.249979
469.593043	2550.773435
469.964238	2553.052036
470.335373	2551.872406
470.706449	2552.104299
471.077467	2551.201933
471.448425	2552.414330
471.819324	2554.312325
472.190164	2553.314176
472.560945	2553.707386
472.931667	2556.858107
473.302330	2555.128992
473.672934	2556.691749
474.043479	2555.696121
474.413965	2552.565565
474.784393	2556.190154
475.154761	2557.994888
475.525070	2554.425751
475.895321	2556.195196
476.265513	2554.035061
476.635645	2554.985319
477.005719	2555.418858
477.375734	2557.442881
477.745691	2556.704352
478.115588	2556.535473
478.485427	2554.947510
478.855207	2556.253169
479.224928	2555.854918
479.594591	2556.074208
479.964194	2558.153684
480.333739	2553.858621
480.703226	2557.742830
481.072653	2555.779300
481.442022	2559.872717
481.811333	2556.222922
482.180584	2555.948179
482.549777	2557.062274
482.918912	2556.336348
483.287988	2556.686708
483.657005	2559.701318
484.025964	2560.023952
484.394864	2563.545198
484.763706	2559.802141
485.132489	2559.529919
485.501213	2560.724672
485.869879	2562.332800
486.238487	2558.897254
486.607036	2559.096380
486.975527	2558.443550
487.343959	2555.663354
487.712333	2560.505382
488.080648	2560.185269
488.448905	2561.198541
488.817104	2560.744837
489.185244	2561.712738
489.553326	2560.724672
489.921350	2562.783984
490.289315	2560.560835
490.657222	2561.690053
491.025070	2564.019066
491.392861	2561.685012
491.760593	2561.690053
492.128267	2561.674930
492.495883	2558.362892
492.863440	2561.591751
493.230939	2560.028993
493.598380	2561.574107
493.965763	2560.775084
494.333088	2563.333469
494.700354	2560.134857
495.067563	2559.174517
495.434713	2557.929353
495.801805	2559.366081
496.168839	2560.117213
496.535815	2561.737944
496.902733	2561.866494
497.269593	2564.374468
497.636395	2560.336503
498.003139	2561.387584
498.369825	2562.703325
498.736453	2562.930177
499.103023	2561.939590
499.469535	2561.203582
499.835989	2562.574776
500.202385	2559.686195
500.568723	2558.965310
500.935003	2559.542522
501.301226	2556.311142
501.667390	2561.344734
502.033497	2562.811710
502.399546	2560.465053
502.765537	2562.179045
503.131470	2562.239539
503.497345	2561.490928
503.863163	2561.165773
504.228923	2560.255845
504.594625	2564.639128
504.960269	2562.020249
505.325856	2561.826164
505.691385	2559.292985
506.056856	2562.231977
506.422270	2563.923284
506.787625	2561.553942
507.152924	2564.906309
507.518164	2564.119889
507.883347	2560.419682
508.248472	2560.840619
508.613540	2563.532595
508.978550	2563.141906
509.343503	2561.301884
509.708398	2564.258521
510.073236	2560.787687
510.438016	2565.503686
510.802738	2565.042421
511.167403	2565.914540
511.532010	2562.370609
511.896561	2564.097204
512.261053	2563.555280
512.625488	2563.706515
512.989866	2562.587379
513.354186	2563.348593
513.718449	2563.313305
514.082655	2564.923953
514.446803	2563.583007
514.810894	2565.228943
515.174927	2565.183573
515.538904	2566.461505
515.902822	2564.626525
516.266684	2566.428738
516.630488	2562.662996
516.994235	2567.651218
517.357925	2564.371947
517.721558	2566.688357
518.085133	2568.180539
518.448651	2564.593758
518.812112	2563.550239
519.175516	2564.187945
519.538863	2562.380691
519.902152	2566.524520
520.265385	2568.699778
520.628560	2568.351938
520.991678	2568.011660
521.354739	2567.121897
521.717743	2568.876218
522.080690	2569.276990
522.443580	2570.955694
522.806413	2569.743297
523.169189	2569.362689
523.531908	2572.042063
523.894569	2573.743452
524.257174	2573.761096
524.619722	2574.318144
524.982213	2572.541137
525.344647	2570.106260
525.707025	2574.590366
526.069345	2574.345870
526.431608	2577.400809
526.793815	2573.330077
527.155964	2576.458113
527.518057	2576.931982
527.880093	2577.426015
528.242072	2576.800912
528.603995	2578.472054
528.965860	2579.276118
529.327669	2580.788465
529.689421	2580.884247
530.051117	2579.679411
530.412755	2579.298804
530.774337	2581.463979
531.135862	2580.874164
531.497331	2585.635534
531.858743	2581.012796
532.220098	2583.830801
532.581396	2586.512695
532.942638	2586.467324
533.303824	2587.815833
533.664953	2586.999166
534.026025	2585.189392
534.387040	2588.410689
534.747999	2589.106368
535.108902	2586.989084
535.469748	2590.159970
535.830537	2592.950248
536.191270	2594.117275
536.551947	2588.463621
536.912567	2589.670978
537.273131	2593.865218
537.633638	2586.633682
537.994089	2593.613160
538.354483	2592.768767
538.714821	2597.943511
539.075103	2594.702049
539.435328	2597.540219
539.795497	2596.705908
540.155609	2598.142637
540.515665	2599.319746
540.875665	2598.740013
541.235609	2601.928543
541.595496	2601.429469
541.955328	2599.468460
542.315102	2604.532299
542.674821	2601.109356
543.034483	2603.246805
543.394090	2604.370982
543.753640	2605.563215
544.113134	2608.071189
544.472571	2605.941302
544.831953	2607.715788
545.191278	2607.481374
545.550548	2606.483226
545.909761	2610.097733
546.268918	2610.291817
546.628019	2608.466920
546.987064	2609.059255
547.346053	2608.240068
547.704986	2610.876591
548.063863	2610.548916
548.422684	2610.677466
548.781449	2611.859616
549.140158	2612.144442
549.498811	2614.007148
549.857408	2612.393979
550.215949	2611.693258
550.574434	2612.646036
550.932864	2614.823815
551.291237	2611.473968
551.649555	2615.418671
552.007817	2616.338682
552.366022	2613.553444
552.724173	2616.011007
553.082267	2615.305245
553.440305	2615.388424
553.798288	2615.312807
554.156215	2616.295832
554.514086	2615.151490
554.871902	2610.163268
555.229661	2611.867178
555.587365	2612.845162
555.945014	2616.583177
556.302606	2617.873713
556.660143	2616.419340
557.017625	2619.864969
557.375050	2619.365894
557.732421	2617.488065
558.089735	2617.420009
558.446994	2618.541666
558.804197	2619.806995
559.161345	2621.110134
559.518437	2617.634258
559.875474	2620.111985
560.232455	2619.431429
560.589381	2618.897067
560.946251	2619.217180
561.303065	2617.659464
561.659825	2624.528036
562.016528	2619.794392
562.373177	2616.550410
562.729770	2617.349433
563.086307	2621.190792
563.442789	2619.234824
563.799216	2618.690380
564.155587	2616.179885
564.511904	2620.346399
564.868164	2617.679628
565.224370	2621.853704
565.580520	2619.938065
565.936615	2621.450412
566.292654	2621.286574
566.648638	2619.368415
567.004567	2616.953702
567.360441	2620.724485
567.716260	2615.675770
568.072023	2619.333127
568.427732	2617.167951
568.783385	2616.381531
569.138982	2615.600152
569.494525	2619.217180
569.850013	2620.500154
570.205445	2620.215329
570.560823	2618.682818
570.916145	2615.098558
571.271412	2614.874226
571.626625	2618.193826
571.981782	2617.200719
572.336884	2615.176696
572.691931	2615.388424
573.046923	2610.992538
573.401860	2611.499174
573.756743	2618.118209
574.111570	2617.621655
574.466342	2616.782303
574.821059	2618.975205
575.175722	2614.062601
575.530330	2615.867334
575.884882	2615.905142
576.239380	2617.878754
576.593823	2618.960082
576.948211	2614.249123
577.302544	2614.118053
577.656823	2616.177365
578.011047	2616.169803
578.365216	2615.819443
578.719330	2617.167951
579.073389	2617.228445
579.427394	2617.261213
579.781344	2616.147118
580.135239	2617.094855
580.489080	2614.964967
580.842866	2611.960439
581.196597	2618.120729
581.550273	2616.810029
581.903895	2618.158538
582.257463	2616.177365
582.610975	2616.217694
582.964434	2618.909670
583.317837	2618.024947
583.671186	2622.060391
584.024481	2619.368415
584.377721	2618.841614
584.730906	2619.098713
585.084037	2618.042592
585.437113	2617.886316
585.790135	2622.403190
586.143103	2619.370936
586.496016	2619.002931
586.848874	2621.667181
587.201679	2620.064094
587.554428	2619.083590
587.907124	2621.215998
588.259765	2623.227418
588.612352	2624.391925
588.964884	2621.619290
589.317362	2624.696915
589.669786	2624.220526
590.022155	2621.266409
590.374470	2622.617439
590.726731	2624.338993
591.078937	2622.607356
591.431090	2625.947121
591.783188	2624.908643
592.135232	2625.725310
592.487222	2627.502317
592.839157	2631.820065
593.191038	2629.422996
593.542866	2629.342338
593.894639	2632.034314
594.246358	2632.069602
594.598022	2630.605147
594.949633	2633.526496
595.301190	2631.971300
595.652692	2636.838534
596.004141	2634.554891
596.355535	2634.068420
596.706876	2632.540950
597.058162	2634.096146
597.409395	2634.058337
597.760573	2637.950108
598.111698	2638.214769
598.462768	2638.955818
598.813785	2638.383647
599.164748	2638.154275
599.515657	2641.080665
599.866511	2640.755510
600.217312	2640.337094
600.568060	2641.488998
600.918753	2644.909421
601.269392	2645.436222
601.619978	2645.705923
601.970510	2646.943527
602.320988	2647.586274
602.671412	2651.097437
603.021783	2648.463434
603.372100	2648.917138
603.722363	2654.666574
604.072572	2655.463077
604.422728	2654.961482
604.772830	2658.099600
605.122878	2656.622542
605.472872	2659.984992
605.822813	2662.354334
606.172701	2664.489262
606.522534	2664.511948
606.872314	2671.050324
607.222041	2668.280210
607.571714	2670.871363
607.921333	2673.006292
608.270899	2673.923782
608.620411	2676.020902
608.969870	2679.043074
609.319276	2682.783610
609.668627	2691.892975
610.017926	2696.112421
610.367171	2700.846064
610.716362	2708.654811
611.065500	2703.858153
611.414585	2707.996941
611.763616	2705.564584
612.112594	2708.168340
612.461518	2713.804350
612.810389	2713.582539
613.159207	2712.586911
613.507971	2713.990873
613.856682	2722.744836
614.205340	2724.058057
614.553945	2733.747155
614.902496	2730.374623
615.250994	2735.866960
615.599439	2739.352918
615.947830	2742.924575
616.296169	2746.534041
616.644454	2751.015627
616.992686	2751.933117
617.340864	2761.082811
617.688990	2768.480705
618.037063	2777.464041
618.385082	2780.776079
618.733048	2791.606998
619.080961	2793.653706
619.428821	2802.402629
619.776628	2809.808084
620.124382	2812.530307
620.472083	2817.009372
620.819731	2823.704024
621.167326	2821.251503
621.514868	2824.883654
621.862357	2826.748881
622.209793	2834.686178
622.557176	2830.600323
622.904506	2830.822134
623.251783	2833.758606
623.599007	2839.497959
623.946179	2837.267249
624.293297	2842.840244
624.640363	2846.729495
624.987376	2848.720750
625.334336	2845.507015
625.681243	2853.497244
626.028097	2856.138808
626.374899	2870.541385
626.721647	2868.287989
627.068343	2871.224461
627.414987	2878.415667
627.761577	2889.032337
628.108115	2897.264541
628.454600	2896.604150
628.801032	2904.117990
629.147412	2910.409350
629.493739	2922.372008
629.840014	2929.767381
630.186236	2935.181580
630.532405	2941.306582
630.878521	2959.505147
631.224585	2964.218626
631.570597	2973.935450
631.916556	2981.774444
632.262462	2992.159221
632.608316	3006.397960
632.954117	3011.867612
633.299866	3027.175076
633.645562	3030.845036
633.991206	3030.040972
634.336797	3028.377391
634.682336	3043.205945
635.027823	3040.546737
635.373257	3049.580484
635.718639	3050.097203
636.063968	3055.085424
636.409245	3051.145762
636.754470	3060.416444
637.099642	3066.702763
637.444762	3062.480797
637.789829	3078.355390
638.134845	3081.939651
638.479808	3087.434508
638.824719	3100.390274
639.169577	3100.579317
639.514383	3112.531893
639.859137	3115.934672
640.203839	3131.607619
640.548489	3128.482104
640.893086	3151.048829
641.237632	3141.190852
641.582125	3172.473733
641.926566	3172.824093
642.270955	3179.697706
642.615292	3189.064170
642.959576	3202.060265
643.303809	3220.848645
643.647990	3225.400807
643.992118	3245.749424
644.336195	3238.361613
644.680219	3267.769184
645.024192	3283.880712
645.368112	3308.768889
645.711981	3332.926098
646.055797	3355.724716
646.399562	3375.445710
646.743274	3408.261101
647.086935	3462.277064
647.430544	3481.665342
647.774101	3498.853156
648.117606	3543.416956
648.461059	3544.503325
648.804460	3572.554825
649.147810	3561.809606
649.491108	3548.763100
649.834354	3571.508786
650.177548	3558.555541
650.520690	3557.766601
650.863781	3563.334555
651.206820	3574.031883
651.549807	3575.844178
651.892742	3577.081782
652.235626	3582.942123
652.578458	3598.506685
652.921238	3584.938420
653.263967	3618.998976
653.606644	3619.429994
653.949269	3625.938124
654.291843	3640.978407
654.634365	3659.809637
654.976836	3664.891120
655.319255	3677.902338
655.661622	3694.865821
656.003938	3700.947973
656.346203	3711.846947
656.688416	3732.019124
657.030577	3739.936257
657.372687	3751.674583
657.714746	3762.936521
658.056753	3792.041623
658.398708	3798.244763
658.740612	3811.450065
659.082465	3843.925178
659.424266	3847.126311
659.766016	3873.166391
660.107715	3881.534706
660.449362	3899.889547
660.790958	3927.172272
661.132503	3937.365485
661.473996	3956.211839
661.815438	3979.567505
662.156829	4003.407121
662.498168	4016.463710
662.839456	4030.808313
663.180693	4049.815983
663.521879	4083.821087
663.863013	4104.020990
664.204097	4121.435656
664.545129	4155.629803
664.886110	4162.906708
665.227040	4205.819530
665.567918	4232.895568
665.908746	4258.998662
666.249522	4264.798510
666.590248	4293.510402
666.930922	4340.093184
667.271545	4351.576932
667.612118	4390.701327
667.952639	4399.755239
668.293109	4414.694699
668.633528	4432.313532
668.973896	4432.487451
669.314213	4496.167307
669.654480	4441.737969
669.994695	4469.406342
670.334859	4498.430785
670.674973	4511.419318
671.015035	4542.339235
671.355047	4551.219227
671.695008	4557.949168
672.034918	4577.768464
672.374777	4614.823465
672.714585	4619.113487
673.054342	4649.521727
673.394049	4661.708717
673.733705	4690.493705
674.073310	4707.918453
674.412864	4738.374584
674.752368	4722.285742
675.091820	4724.118201
675.431223	4770.191827
675.770574	4741.293412
676.109875	4747.403291
676.449125	4754.947378
676.788324	4755.212038
677.127473	4737.376436
677.466571	4751.189197
677.805619	4757.563737
678.144616	4754.355042
678.483562	4778.436634
678.822458	4751.118621
679.161303	4758.118263
679.500098	4788.067758
679.838842	4789.136483
680.177535	4812.325791
680.516179	4836.929142
680.854771	4848.327191
681.193314	4931.385242
681.531805	4967.074090
681.870247	5126.445128
682.208638	5238.295729
682.546978	5358.471796
682.885268	5413.984982
683.223508	5334.702755
683.561697	5318.497966
683.899836	5313.421524
684.237925	5267.980563
684.575963	5281.526144
684.913951	5304.758301
685.251889	5267.423516
685.589776	5356.760324
685.927614	5361.599832
686.265401	5342.032593
686.603137	5401.745060
686.940824	5472.865659
687.278460	5520.348287
687.616046	5575.737965
687.953582	5647.062730
688.291068	5623.661694
688.628504	5719.231888
688.965889	5745.511423
689.303224	5780.471825
689.640510	5770.225680
689.977745	5682.769222
690.314930	5631.520852
690.652065	5637.456811
690.989150	5545.564138
691.326185	5494.850131
691.663170	5445.250218
692.000105	5380.000043
692.336990	5384.816866
692.673825	5293.813956
693.010610	5277.629332
693.347345	5219.729159
693.684030	5159.061393
694.020665	5164.664636
694.357251	5114.076657
694.693786	5135.398217
695.030272	5053.088778
695.366707	5040.639648
695.703093	5032.866189
696.039429	5050.351431
696.375716	5063.697886
696.711952	4997.452083
697.048139	5044.599475
697.384276	5044.138209
697.720363	5048.786153
698.056400	5042.162077
698.392388	5052.320002
698.728326	5043.220719
699.064214	5025.236403
699.400053	5082.675310
699.735842	5008.835009
700.071581	5012.993961
700.407270	4996.806816
700.742910	4979.167818
701.078501	4973.559535
701.414042	4927.332154
701.749533	4915.235905
702.084974	4864.869737
702.420366	4917.801853
702.755709	4896.223194
703.091002	4859.420250
703.426246	4875.945152
703.761440	4871.766036
704.096584	4864.652968
704.431679	4846.963559
704.766725	4856.748438
705.101721	4849.418601
705.436668	4884.265577
705.771565	4845.597406
706.106413	4894.299993
706.441212	4940.716418
706.775961	4914.557870
707.110661	4934.886323
707.445311	5030.307804
707.779913	4985.577646
708.114465	5063.047577
708.448967	5093.372638
708.783421	5144.484897
709.117825	5248.501545
709.452180	5276.311070
709.786485	5312.637625
710.120742	5460.726560
710.454949	5462.584225
710.789107	5503.165514
711.123216	5595.824442
711.457275	5697.381007
711.791286	5783.519203
712.125247	5773.210043
712.459159	5815.878369
712.793023	5927.713847
713.126837	5736.918777
713.460602	5826.943702
713.794318	5737.064970
714.127985	5801.432943
714.461602	5688.140572
714.795171	5663.413712
715.128691	5579.962452
715.462162	5462.367456
715.795584	5475.812213
716.128957	5413.175877
716.462281	5317.076361
716.795556	5399.237086
717.128782	5301.584895
717.461960	5160.697248
717.795088	5214.430907
718.128167	5186.649108
718.461198	5118.243171
718.794180	5100.251293
719.127113	5120.733501
719.459997	5052.272111
719.792833	4920.287142
720.125619	4976.997602
720.458357	4901.619749
720.791046	4911.843209
721.123686	4947.305206
721.456278	4858.212894
721.788821	4871.614801
722.121315	4814.594310
722.453761	4865.260427
722.786158	4857.499570
723.118506	4864.264799
723.450805	4863.397720
723.783056	4903.258124
724.115259	4842.144216
724.447412	4854.550495
724.779518	4883.811873
725.111574	4891.232451
725.443582	4946.206234
725.775542	4933.502526
726.107453	5046.626019
726.439315	5008.918188
726.771129	5023.063666
727.102895	5125.880519
727.434612	5204.076377
727.766281	5211.990988
728.097901	5262.268936
728.429473	5253.986320
728.760996	5256.620323
729.092471	5259.163585
729.423897	5258.772896
729.755276	5291.845386
730.086606	5256.219552
730.417887	5308.803827
730.749120	5412.301236
731.080305	5558.840017
731.411442	5631.755266
731.742530	5622.716477
732.073570	5723.592486
732.404562	5790.629750
732.735506	5666.496378
733.066401	5778.709942
733.397249	5758.988948
733.728048	5639.463190
734.058798	5459.231858
734.389501	5364.097723
734.720156	5269.870996
735.050762	5126.913955
735.381320	5067.433381
735.711831	5058.906269
736.042293	4993.656095
736.372707	5029.100447
736.703073	4937.666519
737.033391	4960.639058
737.363661	4972.644565
737.693883	4988.073017
738.024056	5046.757089
738.354182	5082.703036
738.684260	5097.645016
739.014290	5160.193133
739.344272	5229.297269
739.674207	5232.861365
740.004093	5279.285351
740.333931	5297.952744
740.663722	5309.270134
740.993464	5376.932501
741.323159	5404.681532
741.652806	5218.247060
741.982405	5223.588163
742.311956	5325.580787
742.641460	5233.017641
742.970915	5095.646199
743.300323	5126.581239
743.629683	5090.330302
743.958996	5013.125031
744.288260	4968.820850
744.617477	4946.304537
744.946647	4973.289833
745.275768	4857.988562
745.604842	4844.473229
745.933869	4837.523998
746.262847	4802.787928
746.591778	4812.131706
746.920662	4787.384682
747.249498	4781.252118
747.578286	4824.081762
747.907027	4884.247933
748.235720	4921.900311
748.564365	4889.457965
748.892963	4894.042895
749.221514	5039.407086
749.550017	4939.357827
749.878473	4837.546683
750.206881	4891.328233
750.535242	4860.781362
750.863555	4814.369979
751.191821	4841.814020
751.520039	4847.989434
751.848210	4785.224548
752.176334	4797.731650
752.504411	4855.178119
752.832440	4799.556548
753.160421	4723.851020
753.488356	4776.780615
753.816243	4830.995704
754.144082	4711.437179
754.471875	4676.285213
754.799620	4725.353284
755.127318	4741.691664
755.454969	4703.673802
755.782572	4677.427034
756.110129	4726.101895
756.437638	4729.829829
756.765100	4680.396274
757.092515	4670.553421
757.419882	4707.837795
757.747203	4707.600861
758.074477	4761.402575
758.401703	4757.956947
758.728882	4700.959141
759.056014	4739.332404
759.383099	4861.313203
759.710138	4861.492164
760.037129	4839.028783
760.364073	4847.802911
760.690970	4925.567750
761.017820	4924.010034
761.344623	4872.086149
761.671379	4946.601965
761.998088	5043.492942
762.324751	5207.595102
762.651366	5616.031907
762.977935	6491.377861
763.304456	7606.418078
763.630931	8271.361393
763.957359	8075.116836
764.283740	7493.594534
764.610074	6974.736295
764.936362	6264.019302
765.262602	5819.873484
765.588796	5415.298202
765.914943	5154.340353
766.241044	5054.487698
766.567097	4927.826187
766.893104	4719.878591
767.219064	4579.149740
767.544978	4547.781160
767.870845	4505.901775
768.196665	4416.522117
768.522438	4354.558775
768.848165	4344.247094
769.173846	4307.925581
769.499479	4275.140437
769.825066	4235.325404
770.150607	4192.581460
770.476101	4171.438861
770.801548	4180.858257
771.126949	4126.950678
771.452303	4090.964402
771.777611	4057.483578
772.102872	4071.157708
772.428087	4046.637536
772.753256	4027.476110
773.078378	3996.863703
773.403453	3941.978141
773.728482	3938.519909
774.053465	3895.395359
774.378401	3890.583577
774.703291	3904.769384
775.028135	3849.288966
775.352932	3802.849857
775.677683	3797.496151
776.002388	3823.649657
776.327046	3835.521575
776.651658	3768.333076
776.976224	3712.509859
777.300743	3724.830439
777.625216	3746.303234
777.949643	3748.791043
778.274024	3712.164540
778.598359	3668.056964
778.922647	3687.662012
779.246889	3682.903163
779.571086	3687.926672
779.895236	3674.882687
780.219339	3658.060356
780.543397	3644.774395
780.867409	3689.449101
781.191374	3710.601782
781.515294	3658.551869
781.839167	3655.451559
782.162995	3674.386133
782.486776	3663.736696
782.810511	3675.210362
783.134201	3686.086651
783.457844	3650.249088
783.781441	3598.693208
784.104993	3605.405504
784.428498	3624.849235
784.751958	3630.336531
785.075372	3614.436732
785.398739	3578.430290
785.722061	3586.329778
786.045337	3629.025831
786.368568	3665.097807
786.691752	3589.324224
787.014891	3622.144656
787.337983	3718.849110
787.661030	3836.802028
787.984031	3961.351295
788.306987	4108.391671
788.629897	4173.515817
788.952760	4147.513545
789.275579	4101.160135
789.598351	4071.339190
789.921078	3968.459322
790.243759	3797.123106
790.566395	3780.096609
790.888984	3781.014099
791.211529	3689.683514
791.534027	3640.330618
791.856480	3646.155672
792.178888	3587.529573
792.501249	3533.984957
792.823566	3551.283677
793.145836	3582.264088
793.468062	3541.874363
793.790241	3495.369719
794.112375	3521.830735
794.434464	3577.906010
794.756507	3597.924432
795.078505	3584.635951
795.400457	3601.377622
795.722364	3707.269580
796.044226	3787.234883
796.366042	3850.153524
796.687812	3848.878112
797.009538	3860.593753
797.331218	3823.775686
797.652852	3796.739978
797.974442	3790.635141
798.295986	3800.155360
798.617484	3734.688415
798.938938	3655.786796
799.260346	3688.249306
799.581709	3692.935059
799.903026	3630.908702
800.224299	3600.601285
800.545526	3597.831171
800.866708	3565.434196
801.187845	3504.922705
801.508936	3540.369579
801.829983	3550.230076
802.150984	3477.798777
802.471940	3460.434523
802.792851	3473.806183
803.113717	3475.532778
803.434538	3482.711382
803.755314	3432.791356
804.076045	3400.359092
804.396731	3417.844334
804.717372	3440.791667
805.037967	3431.510903
805.358518	3424.478493
805.679024	3441.177315
805.999485	3449.124694
806.319901	3451.751135
806.640272	3466.557004
806.960598	3486.179695
807.280879	3456.726754
807.601115	3466.279741
807.921306	3480.271463
808.241453	3524.898278
808.561554	3507.380268
808.881611	3445.568160
809.201623	3474.522027
809.521590	3494.404338
809.841513	3467.245122
810.161390	3495.699914
810.481223	3486.794716
810.801011	3429.955707
811.120755	3416.026998
811.440453	3453.485292
811.760107	3463.469297
812.079716	3428.516457
812.399281	3397.551170
812.718801	3417.052873
813.038276	3392.026065
813.357707	3392.948596
813.677093	3415.298552
813.996434	3370.200389
814.315731	3371.569063
814.634983	3373.988817
814.954191	3384.353429
815.273354	3417.962802
815.592473	3421.421033
815.911547	3414.040784
816.230577	3450.987400
816.549562	3497.325687
816.868502	3537.322201
817.187399	3564.947724
817.506250	3561.613001
817.825058	3530.209133
818.143821	3614.161989
818.462539	3715.312741
818.781213	3758.764966
819.099843	3800.634269
819.418429	4004.155732
819.736970	4210.691806
820.055466	4423.252057
820.373919	4755.985855
820.692327	5145.208303
821.010691	5498.731819
821.329011	6622.911647
821.647286	8816.128642
821.965517	12304.496199
822.283704	15472.198479
822.601847	17474.443964
822.919945	16368.843308
823.237999	14551.386359
823.556010	12513.580575
823.873976	10823.871505
824.191897	8993.882248
824.509775	7757.430882
824.827609	6752.948211
825.145398	6242.992649
825.463144	6140.392566
825.780845	6246.539101
826.098502	6368.368666
826.416116	7047.689353
826.733685	8170.336670
827.051210	9198.674082
827.368692	9368.865956
827.686129	8345.264709
828.003522	6985.199210
828.320872	6079.828143
828.638177	5451.849088
828.955439	4951.985917
829.272656	4496.744519
829.589830	4222.760328
829.906960	4062.774269
830.224046	3898.430133
830.541088	3782.055097
830.858086	3743.782657
831.175041	3678.706402
831.491952	3655.595232
831.808819	3665.044875
832.125642	3726.473855
832.442421	3857.453114
832.759157	4093.507664
833.075849	4569.097679
833.392497	5318.160209
833.709101	5999.449466
834.025662	6350.850657
834.342179	6093.245174
834.658653	5506.069218
834.975083	4927.526238
835.291469	4397.678284
835.607811	4017.240047
835.924110	3886.285994
836.240366	3707.234292
836.556578	3508.083509
836.872746	3407.373858
837.188871	3379.166082
837.504952	3322.687514
837.820990	3245.532655
838.136984	3193.616332
838.452935	3216.172975
838.768842	3211.683827
839.084706	3235.294071
839.400526	3367.979761
839.716303	3650.244047
840.032037	4096.245010
840.347727	4377.997619
840.663373	4171.753933
840.978977	3831.173579
841.294537	3547.059190
841.610054	3327.184224
841.925527	3221.967781
842.240957	3158.005621
842.556344	3112.887294
842.871687	3059.990467
843.186987	3011.290400
843.502244	2977.834783
843.817458	2946.325051
844.132629	2915.400092
844.447756	2920.272368
844.762840	2912.677869
845.077881	2884.165103
845.392879	2866.011908
845.707833	2861.472349
846.022745	2857.792307
846.337613	2861.663913
846.652438	2851.276615
846.967221	2849.050946
847.281960	2837.163905
847.596656	2828.115034
847.911309	2828.714931
848.225919	2824.523212
848.540485	2818.322593
848.855009	2821.133036
849.169490	2810.002168
849.483928	2802.042186
849.798323	2799.766105
850.112675	2795.534057
850.426984	2807.312713
850.741251	2809.235913
851.055474	2797.984057
851.369654	2794.409879
851.683792	2794.409879
851.997887	2803.027732
852.311938	2805.243319
852.625947	2797.812658
852.939914	2800.771816
853.253837	2804.542599
853.567718	2788.173972
853.881555	2784.199022
854.195350	2799.861887
854.509103	2800.005560
854.822812	2794.578758
855.136479	2789.454425
855.450103	2790.553397
855.763685	2782.580812
856.077224	2778.963784
856.390720	2792.176648
856.704173	2801.855664
857.017584	2795.647483
857.330953	2791.717903
857.644278	2800.978503
857.957561	2806.974955
858.270802	2808.948567
858.584000	2811.174237
858.897155	2802.707619
859.210268	2799.352731
859.523339	2796.680919
859.836367	2797.404325
860.149352	2790.722275
860.462295	2787.223715
860.775195	2797.701753
861.088054	2795.831485
861.400869	2780.403033
861.713642	2776.808691
862.026373	2788.738581
862.339062	2792.426185
862.651708	2797.250570
862.964312	2801.248205
863.276873	2794.210754
863.589392	2804.245171
863.901869	2810.854123
864.214303	2831.999243
864.526696	2847.863754
864.839045	2845.499453
865.151353	2846.290914
865.463619	2841.746314
865.775842	2842.925944
866.088023	2858.251052
866.400162	2868.466950
866.712258	2841.889987
867.024313	2829.811382
867.336325	2838.003257
867.648296	2858.641741
867.960224	2850.548169
868.272110	2839.974348
868.583954	2840.722960
868.895755	2857.971268
869.207515	2844.768486
869.519233	2847.974660
869.830909	2854.833149
870.142542	2865.744727
870.454134	2865.696836
870.765684	2866.604244
871.077191	2868.013246
871.388657	2874.387785
871.700081	2887.893036
872.011463	2900.150602
872.322803	2900.032135
872.634101	2897.708163
872.945357	2912.836666
873.256571	2934.296858
873.567744	2931.559511
873.878874	2919.324631
874.189963	2943.877570
874.501010	2949.190947
874.812015	2937.321550
875.122979	2938.297013
875.433900	2933.802824
875.744780	2939.847168
876.055618	2947.255143
876.366415	2944.197684
876.677169	2956.866103
876.987882	2953.919549
877.298554	2946.405709
877.609183	2959.726958
877.919771	2981.222438
878.230317	3005.798063
878.540822	3057.641289
878.851285	3095.485231
879.161707	3130.233905
879.472087	3214.854713
879.782425	3409.113056
880.092722	3799.633600
880.402977	4277.771919
880.713191	4822.685362
881.023363	5808.757739
881.333494	6926.326094
881.643583	7454.071888
881.953631	7226.897331
882.263637	6742.535708
882.573602	6255.189721
882.883526	5729.987190
883.193408	5193.996590
883.503248	4753.707254
883.813048	4479.337415
884.122806	4222.656984
884.432522	3932.989764
884.742197	3711.952812
885.051831	3531.986140
885.361424	3397.440264
885.670975	3333.382322
885.980485	3260.053698
886.289954	3189.648944
886.599382	3150.128818
886.908768	3115.039867
887.218113	3071.529668
887.527417	3021.307173
887.836680	2972.816314
888.145901	2970.986375
888.455082	2962.595375
888.764221	2914.611152
889.073319	2887.744322
889.382376	2887.638458
889.691392	2888.581154
890.000366	2889.077708
890.309300	2878.846686
890.618193	2891.837739
890.927044	2906.875501
891.235855	2908.823907
891.544625	2891.620970
891.853353	2899.790159
892.162041	2917.267840
892.470687	2950.612552
892.779293	2999.806652
893.087858	3045.088816
893.396381	3104.592076
893.704864	3211.164588
894.013306	3419.066814
894.321707	3695.674926
894.630068	3895.982653
894.938387	3905.424734
895.246665	3858.557127
895.554903	3756.703134
895.863100	3569.699012
896.171256	3412.659508
896.479371	3290.509829
896.787446	3180.058149
897.095480	3082.398396
897.403473	3022.852287
897.711425	2981.708909
898.019336	2976.319916
898.327207	2952.618931
898.635038	2921.976278
898.942827	2907.495563
899.250576	2895.336300
899.558284	2867.554501
899.865952	2846.237982
900.173579	2831.169973
900.481165	2823.946000
900.788711	2814.844197
901.096216	2790.306380
901.403681	2774.330964
901.711105	2782.225411
902.018489	2783.989814
902.325832	2782.235493
902.633135	2789.950979
902.940397	2817.422747
903.247619	2889.309601
903.554800	3055.135836
903.861941	3354.111547
904.169041	3747.399685
904.476101	4040.696536
904.783121	4027.430740
905.090100	3808.697595
905.397039	3554.129408
905.703938	3319.930003
906.010796	3145.599342
906.317614	3041.013043
906.624391	2955.867955
906.931129	2889.057543
907.237826	2831.180056
907.544483	2789.076339
907.851099	2759.275558
908.157675	2742.105388
908.464211	2722.175186
908.770707	2711.949205
909.077163	2700.667103
909.383578	2688.354085
909.689954	2675.708350
909.996289	2673.167609
910.302584	2673.853206
910.608839	2675.161385
910.915054	2670.742814
911.221229	2661.769560
911.527363	2662.422389
911.833458	2671.057886
912.139513	2673.812877
912.445527	2677.820594
912.751502	2686.350226
913.057436	2695.532688
913.363331	2707.003833
913.669186	2720.854404
913.975000	2753.458066
914.280775	2806.561581
914.586510	2868.378730
914.892205	2939.947991
915.197859	3051.697769
915.503475	3223.767473
915.809050	3411.857964
916.114585	3548.715209
916.420081	3578.952050
916.725536	3531.424051
917.030952	3425.083431
917.336328	3309.565391
917.641665	3188.484437
917.946961	3095.228132
918.252218	3034.436858
918.557435	2964.987402
918.862612	2909.895152
919.167750	2863.539222
919.472848	2824.011535
919.777906	2803.055458
920.082925	2780.463527
920.387904	2753.148035
920.692843	2737.964080
920.997743	2729.547873
921.302603	2714.837787
921.607423	2703.850592
921.912204	2691.537573
922.216946	2685.168076
922.521647	2676.588032
922.826310	2668.121414
923.130932	2661.678819
923.435516	2652.942500
923.740059	2649.335554
924.044564	2641.269708
924.349028	2634.728811
924.653454	2629.029786
924.957840	2623.943262
925.262186	2621.357150
925.566493	2614.327261
925.870761	2612.761983
926.174989	2607.899790
926.479178	2606.979779
926.783328	2598.339242
927.087438	2596.955445
927.391509	2596.421083
927.695541	2592.877152
927.999533	2590.535536
928.303486	2589.333220
928.607400	2587.735175
928.911275	2588.211564
929.215110	2589.111410
929.518906	2583.939186
929.822663	2584.229052
930.126381	2585.060842
930.430060	2587.520926
930.733699	2583.679566
931.037299	2589.368508
931.340861	2587.372212
931.644383	2590.492686
931.947866	2589.940679
932.251309	2584.294587
932.554714	2584.478589
932.858080	2583.926583
933.161407	2582.540266
933.464694	2581.842066
933.767943	2577.385686
934.071153	2579.762590
934.374323	2577.761252
934.677455	2580.296952
934.980548	2576.659760
935.283602	2577.874678
935.586617	2576.533731
935.889593	2578.277970
936.192530	2575.328895
936.495428	2581.085893
936.798287	2578.824935
937.101108	2581.900039
937.403890	2586.651327
937.706632	2589.451687
938.009336	2595.037286
938.312002	2604.096239
938.614628	2614.128136
938.917216	2621.417644
939.219765	2618.844135
939.522275	2618.607201
939.824747	2617.780452
940.127179	2615.829525
940.429573	2611.335336
940.731929	2610.339708
941.034246	2605.543051
941.336524	2602.699840
941.638763	2600.093563
941.940964	2599.433172
942.243126	2598.858481
942.545250	2598.059458
942.847335	2597.101638
943.149381	2592.267172
943.451389	2586.437077
943.753359	2583.054463
944.055290	2582.825091
944.357182	2583.591346
944.659036	2583.651840
944.960851	2583.699731
945.262628	2579.150090
945.564367	2580.279308
945.866067	2580.664956
946.167729	2582.358784
946.469352	2583.634196
946.770937	2581.090934
947.072484	2578.688824
947.373992	2577.975501
947.675462	2578.708989
947.976893	2575.303689
948.278286	2571.459809
948.579641	2571.603482
948.880958	2570.136507
949.182236	2572.084912
949.483476	2571.510221
949.784678	2574.393761
950.085841	2571.111970
950.386967	2573.143555
950.688054	2573.529203
950.989103	2573.047773
951.290114	2574.297979
951.591087	2579.122363
951.892021	2578.761921
952.192917	2581.035481
952.493776	2582.699062
952.794596	2585.338106
953.095378	2583.538414
953.396122	2582.817529
953.696828	2579.865933
953.997496	2578.416602
954.298126	2576.788309
954.598718	2577.110943
954.899272	2574.469378
955.199788	2572.054666
955.500266	2569.531568
955.800706	2567.313460
956.101108	2568.450241
956.401472	2562.980589
956.701798	2564.233315
957.002087	2562.252142
957.302337	2557.309291
957.602550	2558.466235
957.902724	2555.128992
958.202861	2556.774928
958.502960	2555.161759
958.803022	2556.154866
959.103045	2554.692932
959.403031	2552.358878
959.702979	2552.363919
960.002889	2552.298384
960.302762	2553.649413
960.602596	2553.072201
960.902393	2551.922818
961.202153	2553.367108
961.501875	2551.146480
961.801559	2551.459032
962.101205	2550.604556
962.400814	2550.518856
962.700385	2550.092879
962.999918	2546.138094
963.299414	2546.826211
963.598873	2547.262271
963.898293	2544.194729
964.197677	2549.926521
964.497022	2547.990718
964.796331	2550.924669
965.095601	2550.614638
965.394835	2546.223793
965.694030	2544.698844
965.993189	2548.026006
966.292309	2549.114895
966.591393	2547.244627
966.890439	2546.906870
967.189447	2550.670091
967.488419	2545.966694
967.787353	2547.279915
968.086249	2546.947199
968.385108	2548.797302
968.683930	2548.449463
968.982714	2549.979453
969.281462	2549.548434
969.580172	2546.775800
969.878844	2550.155893
970.177480	2548.588094
970.476078	2551.275029
970.774639	2548.610780
971.073162	2550.332334
971.371649	2547.491643
971.670098	2550.176058
971.968510	2548.729247
972.266885	2547.990718
972.565223	2551.053219
972.863524	2551.073383
973.161788	2549.382076
973.460014	2548.252858
973.758204	2548.260419
974.056356	2548.320913
974.354471	2547.889895
974.652550	2551.295194
974.950591	2549.409803
975.248595	2549.029195
975.546563	2548.794782
975.844493	2549.997097
976.142386	2548.847714
976.440243	2548.273022
976.738062	2546.677497
977.035845	2549.288815
977.333590	2547.554658
977.631299	2546.246478
977.928971	2544.267826
978.226606	2544.519883
978.524204	2547.385779
978.821765	2542.223638
979.119290	2548.116747
979.416777	2543.983000
979.714228	2548.988866
980.011642	2547.998279
980.309020	2549.563558
980.606360	2549.268650
980.903664	2547.244627
981.200931	2548.000800
981.498162	2548.641027
981.795356	2548.575492
982.092513	2550.823846
982.389633	2554.355174
982.686717	2556.399362
982.983764	2561.594271
983.280775	2563.797256
983.577749	2567.537792
983.874686	2565.581824
984.171587	2561.861452
984.468451	2559.025803
984.765279	2559.247614
985.062070	2556.671585
985.358824	2552.454659
985.655543	2551.940462
985.952224	2552.164793
986.248869	2547.713454
986.545478	2548.078938
986.842050	2548.162117
987.138586	2548.290666
987.435086	2545.563402
987.731549	2547.123639
988.027975	2545.150028
988.324366	2548.530121
988.620719	2548.106664
988.917037	2543.783875
989.213318	2545.646581
989.509563	2545.245809
989.805772	2545.157589
990.101944	2544.257743
990.398080	2546.100285
990.694180	2546.911911
990.990244	2544.222455
991.286271	2545.860830
991.582262	2546.944678
991.878217	2543.194060
992.174136	2545.422250
992.470019	2544.436704
992.765865	2541.560726
993.061676	2539.244316
993.357450	2542.269008
993.653188	2539.564429
993.948890	2544.779503
994.244556	2546.357384
994.540186	2547.335368
994.835780	2548.719164
995.131337	2543.856972
995.426859	2549.734957
995.722345	2548.540203
996.017795	2548.235214
996.313208	2548.683876
996.608586	2549.389638
996.903928	2551.340564
997.199234	2550.531459
997.494504	2551.106151
997.789738	2549.233362
998.084936	2551.789227
998.380099	2547.542055
998.675225	2549.729916
998.970316	2547.786551
999.265371	2549.412323
999.560390	2548.956099
999.855373	2546.211190
1000.150320	2546.780841
1000.445232	2545.833104
1000.740108	2545.046684
1001.034948	2546.808567
1001.329752	2543.521735
1001.624521	2542.581560
1001.919254	2544.582898
1002.213951	2544.988711
1002.508613	2545.628937
1002.803239	2544.817311
1003.097829	2544.308155
1003.392384	2545.001313
1003.686903	2547.635316
1003.981386	2542.115253
1004.275834	2545.696993
1004.570246	2546.949719
1004.864623	2543.156251
1005.158964	2542.896632
1005.453270	2545.520552
1005.747540	2544.305634
1006.041775	2545.669266
1006.335974	2545.573484
1006.630138	2545.651622
1006.924266	2544.661036
1007.218359	2543.473844
1007.512416	2542.790768
1007.806438	2539.977804
1008.100425	2539.138452
1008.394376	2540.421425
1008.688292	2543.594832
1008.982172	2544.792106
1009.276017	2545.044163
1009.569827	2541.512835
1009.863602	2544.585418
1010.157341	2542.813453
1010.451045	2544.824873
1010.744714	2546.962322
1011.038347	2544.552651
1011.331945	2544.630789
1011.625508	2544.953423
1011.919036	2544.978628
1012.212528	2544.441745
1012.505986	2542.546272
1012.799408	2542.886549
1013.092795	2543.332692
1013.386147	2542.768082
1013.679464	2544.686241
1013.972745	2544.877805
1014.265992	2542.319420
1014.559204	2543.862013
1014.852380	2542.510983
1015.145521	2543.466282
1015.438628	2543.657846
1015.731699	2543.302445
1016.024736	2544.547610
1016.317737	2544.557692
1016.610703	2540.492001
1016.903635	2545.747404
1017.196531	2544.605583
1017.489393	2544.109029
1017.782219	2545.064328
1018.075011	2544.756817
1018.367768	2546.536345
1018.660490	2545.563402
1018.953177	2545.563402
1019.245829	2545.563402
