Dividing Wavelength (nm)	Counts (n)	Blue Motor Position (mm): 8.100000	Red Motor Position (mm): 0.000000	
326.493990	2159.267345
326.888308	2159.267345
327.282561	2159.267345
327.676750	2116.510798
328.070874	2113.266816
328.464933	2113.942330
328.858929	2115.492485
329.252859	2122.711418
329.646726	2131.407408
330.040528	2145.131949
330.434265	2156.000677
330.827938	2176.003975
331.221547	2191.838240
331.615091	2212.025540
332.008571	2227.506924
332.401986	2245.458473
332.795338	2264.796339
333.188625	2284.744184
333.581847	2302.211783
333.975006	2316.342137
334.368100	2333.797132
334.761129	2354.914525
335.154095	2372.674510
335.546996	2389.244783
335.939833	2407.743297
336.332606	2425.709969
336.725315	2437.609613
337.117960	2452.508743
337.510540	2462.250773
337.903056	2472.123873
338.295508	2480.436736
338.687896	2491.991060
339.080220	2498.574807
339.472480	2504.331805
339.864676	2510.368587
340.256807	2514.257837
340.648875	2518.890657
341.040879	2521.018024
341.432818	2525.718900
341.824694	2529.787111
342.216506	2528.723428
342.608253	2529.812317
342.999937	2528.373068
343.391557	2530.666793
343.783113	2528.463808
344.174605	2528.914992
344.566033	2525.570186
344.957397	2526.492717
345.348697	2522.648837
345.739934	2522.225380
346.131106	2523.841070
346.522215	2523.704959
346.913260	2518.071470
347.304241	2518.179854
347.695159	2513.267250
348.086012	2513.524349
348.476802	2511.107116
348.867528	2506.925478
349.258191	2503.300889
349.648789	2503.691578
350.039324	2497.949704
350.429796	2503.565549
350.820203	2501.458347
351.210548	2502.423728
351.600828	2499.164622
351.991045	2498.398367
352.381198	2495.005670
352.771288	2498.237050
353.161314	2496.858294
353.551276	2496.596154
353.941175	2496.364261
354.331010	2496.291164
354.720782	2493.470639
355.110490	2494.113386
355.500135	2494.922491
355.889717	2495.093890
356.279235	2492.217912
356.668689	2494.499034
357.058080	2492.643890
357.447408	2495.532471
357.836672	2494.907368
358.225873	2496.384426
358.615010	2495.857625
359.004084	2496.986844
359.393095	2496.097080
359.782043	2494.567090
360.170927	2496.858294
360.559748	2496.964158
360.948505	2501.014726
361.337199	2502.166629
361.725830	2500.273676
362.114398	2502.017915
362.502903	2501.518841
362.891344	2502.229644
363.279722	2501.586897
363.668037	2504.205776
364.056289	2500.611433
364.444478	2504.087309
364.832603	2503.941115
365.220665	2507.827845
365.608665	2507.369100
365.996601	2504.377175
366.384474	2505.680313
366.772284	2504.475478
367.160031	2505.224089
367.547715	2507.795078
367.935336	2507.948833
368.322893	2507.651405
368.710388	2505.672752
369.097820	2505.443379
369.485189	2503.920951
369.872495	2509.118380
370.259738	2509.292300
370.646918	2508.730212
371.034035	2509.221724
371.421090	2510.272805
371.808081	2511.187774
372.195010	2510.388751
372.581875	2509.763648
372.968678	2511.240706
373.355418	2511.399502
373.742096	2509.282218
374.128710	2511.149965
374.515262	2510.834893
374.901751	2513.252127
375.288177	2514.164575
375.674540	2511.880933
376.060841	2513.300017
376.447079	2515.555934
376.833254	2513.930162
377.219367	2515.571057
377.605417	2515.737415
377.991404	2512.309431
378.377329	2513.743639
378.763191	2516.944772
379.148991	2513.675583
379.534727	2516.057529
379.920402	2513.153824
380.306013	2514.157014
380.691563	2517.181706
381.077049	2514.406551
381.462474	2512.906807
381.847835	2516.788496
382.233134	2514.187261
382.618371	2517.668177
383.003545	2516.564165
383.388657	2513.995697
383.773706	2517.375790
384.158693	2515.261026
384.543618	2515.674401
384.928480	2514.083917
385.313280	2518.825122
385.698017	2515.094668
386.082692	2515.843280
386.467305	2516.743126
386.851856	2520.171110
387.236344	2518.547859
387.620770	2516.569206
388.005133	2516.574247
388.389435	2515.616428
388.773674	2511.323885
389.157851	2522.875689
389.541965	2519.495596
389.926018	2519.750174
390.310008	2519.840915
390.693936	2519.334279
391.077802	2521.093641
391.461606	2520.836542
391.845348	2518.994001
392.229027	2521.776718
392.612645	2519.591378
392.996200	2520.592047
393.379694	2519.866120
393.763125	2522.129598
394.146494	2521.917870
394.529801	2522.578261
394.913047	2520.284536
395.296230	2523.062212
395.679351	2519.102386
396.062410	2523.180679
396.445408	2524.456091
396.828343	2524.753519
397.211217	2524.511544
397.594028	2522.351409
397.976778	2523.573889
398.359466	2525.383663
398.742092	2524.267048
399.124656	2526.742254
399.507158	2523.916687
399.889598	2526.880886
400.271977	2524.370391
400.654294	2525.045906
401.036549	2527.321987
401.418742	2526.394415
401.800874	2525.920546
402.182944	2527.425331
402.564952	2526.439785
402.946898	2526.631349
403.328783	2525.613036
403.710606	2524.004908
404.092367	2527.556401
404.474067	2527.445495
404.855705	2526.336441
405.237282	2526.838036
405.618797	2526.439785
406.000250	2526.512882
406.381642	2527.503468
406.762972	2524.025072
407.144240	2523.349558
407.525447	2526.054137
407.906593	2523.183200
408.287677	2528.262162
408.668700	2528.746113
409.049661	2526.999353
409.430560	2529.255269
409.811399	2528.252080
410.192176	2529.759385
410.572891	2528.544467
410.953545	2526.500279
411.334138	2529.434230
411.714669	2528.292409
412.095139	2529.671165
412.475547	2527.994981
412.855894	2530.066895
413.236180	2530.082019
413.616405	2530.505476
413.996568	2528.781401
414.376670	2531.707791
414.756711	2528.027748
415.136691	2530.412214
415.516609	2532.068233
415.896466	2529.900537
416.276262	2530.003881
416.655997	2533.409180
417.035670	2530.059333
417.415283	2535.186187
417.794834	2533.245343
418.174324	2532.504293
418.553753	2532.521937
418.933121	2534.137627
419.312428	2531.987575
419.691674	2531.453212
420.070859	2529.973634
420.449983	2532.776515
420.829045	2533.550332
421.208047	2534.954294
421.586988	2533.383974
421.965867	2536.375899
422.344686	2530.659231
422.723444	2533.757020
423.102141	2532.380785
423.480777	2532.380785
423.859352	2530.248377
424.237866	2534.361958
424.616319	2534.228368
424.994712	2534.798018
425.373044	2535.758358
425.751314	2532.756351
426.129524	2527.047244
426.507673	2533.245343
426.885762	2529.814838
427.263789	2532.973120
427.641756	2534.679551
428.019662	2536.179294
428.397508	2533.537730
428.775292	2534.699716
429.153016	2535.619726
429.530679	2533.452030
429.908282	2536.988399
430.285824	2540.023174
430.663305	2537.812628
431.040726	2534.868594
431.418086	2538.102494
431.795385	2537.174922
432.172624	2538.120138
432.549802	2535.715508
432.926920	2533.131917
433.303977	2536.232226
433.680974	2537.001002
434.057910	2535.912113
434.434786	2537.074099
434.811601	2536.489325
435.188355	2535.768440
435.565050	2535.218954
435.941683	2535.813811
436.318257	2537.250539
436.694770	2536.920344
437.071222	2537.726928
437.447614	2540.383617
437.823946	2537.767258
438.200218	2535.423121
438.576429	2537.346321
438.952580	2536.517052
439.328670	2537.658873
439.704700	2538.649460
440.080670	2537.260622
440.456580	2536.683410
440.832429	2538.465458
441.208218	2538.518390
441.583947	2538.384799
441.959616	2535.725590
442.335224	2539.791281
442.710773	2540.539892
443.086261	2538.672145
443.461689	2539.125849
443.837057	2541.265818
444.212365	2539.380427
444.587612	2535.150899
444.962800	2535.707946
445.337927	2537.860519
445.712995	2533.757020
446.088002	2539.698020
446.462949	2538.352032
446.837837	2543.894780
447.212664	2540.035777
447.587431	2541.268339
447.962139	2537.986548
448.336786	2538.500746
448.711374	2539.544264
449.085901	2537.326157
449.460369	2539.927392
449.834776	2539.861857
450.209124	2538.576363
450.583412	2540.552495
450.957640	2541.288504
451.331808	2540.381096
451.705917	2541.714481
452.079965	2541.225489
452.453954	2542.195911
452.827883	2541.908566
453.201752	2540.154244
453.575562	2543.284801
453.949311	2542.095088
454.323001	2541.374203
454.696632	2540.184491
455.070202	2541.795140
455.443713	2541.457382
455.817164	2541.666590
456.190556	2542.450490
456.563888	2544.051056
456.937160	2543.015099
457.310373	2542.657177
457.683526	2540.459234
458.056619	2542.001827
458.429653	2541.659028
458.802628	2545.092054
459.175542	2543.241951
459.548398	2543.630120
459.921194	2542.609286
460.293930	2542.891591
460.666607	2542.168185
461.039224	2546.067518
461.411782	2541.989224
461.784280	2542.667259
462.156719	2543.539379
462.529099	2543.378062
462.901419	2543.877136
463.273680	2542.785726
463.645882	2537.890766
464.018024	2542.919317
464.390106	2539.556867
464.762130	2543.854451
465.134094	2540.280273
465.505999	2544.557692
465.877845	2540.345808
466.249631	2543.080634
466.621358	2544.174564
466.993026	2545.873433
467.364634	2548.862837
467.736184	2545.218083
468.107674	2543.884698
468.479105	2542.947043
468.850477	2545.021478
469.221790	2543.393185
469.593043	2542.526107
469.964238	2545.717157
470.335373	2545.744884
470.706449	2546.979966
471.077467	2545.807898
471.448425	2545.911242
471.819324	2542.700027
472.190164	2546.503577
472.560945	2543.546941
472.931667	2544.930737
473.302330	2545.659184
473.672934	2544.920655
474.043479	2543.584749
474.413965	2549.339226
474.784393	2542.642053
475.154761	2547.297559
475.525070	2545.591128
475.895321	2546.170861
476.265513	2547.897456
476.635645	2546.254040
477.005719	2545.071890
477.375734	2547.327806
477.745691	2544.968546
478.115588	2544.441745
478.485427	2547.146324
478.855207	2545.820501
479.224928	2545.202960
479.594591	2547.058104
479.964194	2545.817980
480.333739	2545.530635
480.703226	2546.044832
481.072653	2548.618341
481.442022	2549.001469
481.811333	2546.163299
482.180584	2545.364277
482.549777	2544.552651
482.918912	2542.107691
483.287988	2547.398382
483.657005	2544.408978
484.025964	2548.157076
484.394864	2545.621375
484.763706	2547.257230
485.132489	2546.266643
485.501213	2548.570450
485.869879	2547.083310
486.238487	2551.055739
486.607036	2546.992569
486.975527	2547.915100
487.343959	2547.037940
487.712333	2547.141283
488.080648	2550.392828
488.448905	2548.162117
488.817104	2549.225800
489.185244	2549.298897
489.553326	2550.780996
489.921350	2550.271840
490.289315	2548.971222
490.657222	2550.407951
491.025070	2547.050543
491.392861	2548.986346
491.760593	2549.520708
492.128267	2551.252344
492.495883	2548.880481
492.863440	2546.992569
493.230939	2549.820657
493.598380	2550.324772
493.965763	2547.625234
494.333088	2546.826211
494.700354	2551.096068
495.067563	2547.279915
495.434713	2547.763866
495.801805	2550.397869
496.168839	2550.660009
496.535815	2547.521890
496.902733	2551.340564
497.269593	2548.192364
497.636395	2551.804351
498.003139	2550.725544
498.369825	2548.499874
498.736453	2547.899977
499.103023	2550.355019
499.469535	2547.289997
499.835989	2549.815615
500.202385	2548.325954
500.568723	2545.757487
500.935003	2549.646737
501.301226	2543.433515
501.667390	2551.527087
502.033497	2553.472973
502.399546	2550.143290
502.765537	2549.089689
503.131470	2552.222766
503.497345	2547.441232
503.863163	2551.012889
504.228923	2548.492312
504.594625	2552.643703
504.960269	2551.766542
505.325856	2551.733774
505.691385	2550.740667
506.056856	2550.652447
506.422270	2550.607077
506.787625	2550.987684
507.152924	2550.997766
507.518164	2549.175389
507.883347	2552.991542
508.248472	2550.725544
508.613540	2550.808723
508.978550	2551.713610
509.343503	2553.825853
509.708398	2553.104968
510.073236	2549.427447
510.438016	2550.566747
510.802738	2551.189330
511.167403	2550.874258
511.532010	2552.613456
511.896561	2553.719989
512.261053	2551.610266
512.625488	2552.452139
512.989866	2551.007848
513.354186	2550.677653
513.718449	2552.525236
514.082655	2550.067673
514.446803	2551.572457
514.810894	2551.015410
515.174927	2554.934907
515.538904	2553.052036
515.902822	2551.542211
516.266684	2552.900802
516.630488	2551.368291
516.994235	2552.142108
517.357925	2551.595143
517.721558	2554.854249
518.085133	2549.293856
518.448651	2551.380894
518.812112	2548.212528
519.175516	2548.560368
519.538863	2548.278063
519.902152	2552.195040
520.265385	2553.193188
520.628560	2552.280740
520.991678	2553.082283
521.354739	2552.689073
521.717743	2552.409289
522.080690	2554.556821
522.443580	2552.928528
522.806413	2552.923487
523.169189	2551.436346
523.531908	2552.772252
523.894569	2553.896429
524.257174	2552.787376
524.619722	2554.529094
524.982213	2552.008517
525.344647	2552.920966
525.707025	2553.513302
526.069345	2556.369115
526.431608	2553.367108
526.793815	2555.958261
527.155964	2556.719476
527.518057	2551.592622
527.880093	2551.075904
528.242072	2551.297715
528.603995	2553.102448
528.965860	2553.087324
529.327669	2553.430123
529.689421	2553.533466
530.051117	2555.539846
530.412755	2554.264434
530.774337	2554.065308
531.135862	2553.737633
531.497331	2554.675288
531.858743	2552.845349
532.220098	2555.764177
532.581396	2555.519681
532.942638	2557.485731
533.303824	2554.818961
533.664953	2555.801986
534.026025	2557.054712
534.387040	2557.122768
534.747999	2558.067984
535.108902	2559.194682
535.469748	2556.404403
535.830537	2558.030176
536.191270	2559.754250
536.551947	2556.149825
536.912567	2555.461708
537.273131	2557.654610
537.633638	2553.165462
537.994089	2562.083263
538.354483	2561.256514
538.714821	2560.278530
539.075103	2561.085115
539.435328	2563.918243
539.795497	2562.262224
540.155609	2564.092163
540.515665	2562.572255
540.875665	2563.202399
541.235609	2564.003943
541.595496	2565.080229
541.955328	2566.826989
542.315102	2568.911506
542.674821	2566.388409
543.034483	2568.435117
543.394090	2566.766495
543.753640	2566.151474
544.113134	2567.994016
544.472571	2568.903944
544.831953	2567.058882
545.191278	2571.837896
545.550548	2568.230950
545.909761	2571.253122
546.268918	2571.202711
546.628019	2574.058524
546.987064	2572.677248
547.346053	2571.583318
547.704986	2573.723287
548.063863	2573.622464
548.422684	2576.019533
548.781449	2574.056004
549.140158	2574.918041
549.498811	2577.322671
549.857408	2575.162537
550.215949	2573.446024
550.574434	2575.154975
550.932864	2574.507187
551.291237	2575.457444
551.649555	2577.108422
552.007817	2577.216807
552.366022	2577.355439
552.724173	2576.790830
553.082267	2579.439956
553.440305	2578.320820
553.798288	2579.024061
554.156215	2578.736715
554.514086	2575.026426
554.871902	2575.220510
555.229661	2574.837382
555.587365	2576.521128
555.945014	2580.619586
556.302606	2579.472723
556.660143	2581.040522
557.017625	2581.524473
557.375050	2581.068249
557.732421	2580.276787
558.089735	2581.685790
558.446994	2580.238979
558.804197	2581.897518
559.161345	2582.497416
559.518437	2582.126891
559.875474	2580.226376
560.232455	2580.241499
560.589381	2585.164186
560.946251	2581.549679
561.303065	2582.106726
561.659825	2581.917683
562.016528	2582.903229
562.373177	2581.189236
562.729770	2579.560944
563.086307	2581.426171
563.442789	2582.051274
563.799216	2583.697210
564.155587	2583.518249
564.511904	2582.575554
564.868164	2586.290884
565.224370	2582.464648
565.580520	2583.538414
565.936615	2583.520770
566.292654	2581.194277
566.648638	2581.451376
567.004567	2580.758218
567.360441	2579.661767
567.716260	2582.343661
568.072023	2581.819381
568.427732	2584.682756
568.783385	2580.886767
569.138982	2581.645461
569.494525	2581.378280
569.850013	2583.598908
570.205445	2583.601428
570.560823	2582.883064
570.916145	2580.299473
571.271412	2580.964905
571.626625	2581.118660
571.981782	2580.057497
572.336884	2577.748649
572.691931	2577.342836
573.046923	2575.409553
573.401860	2575.555747
573.756743	2578.779565
574.111570	2579.069431
574.466342	2578.741756
574.821059	2579.467682
575.175722	2578.429205
575.530330	2578.182188
575.884882	2578.477096
576.239380	2575.238154
576.593823	2580.395255
576.948211	2580.962384
577.302544	2575.754872
577.656823	2576.453072
578.011047	2579.150090
578.365216	2576.400140
578.719330	2577.110943
579.073389	2577.647826
579.427394	2577.133628
579.781344	2577.274780
580.135239	2576.397620
580.489080	2577.224369
580.842866	2574.502146
581.196597	2578.555233
581.550273	2575.878381
581.903895	2575.948957
582.257463	2574.401323
582.610975	2576.173288
582.964434	2574.537434
583.317837	2574.209759
583.671186	2575.533062
584.024481	2575.298648
584.377721	2572.425190
584.730906	2575.223031
585.084037	2575.245716
585.437113	2574.113977
585.790135	2573.698082
586.143103	2576.039698
586.496016	2577.604976
586.848874	2575.686817
587.201679	2575.074317
587.554428	2572.094995
587.907124	2572.359655
588.259765	2571.517783
588.612352	2574.547516
588.964884	2574.426528
589.317362	2573.156158
589.669786	2572.616754
590.022155	2569.702967
590.374470	2568.888821
590.726731	2569.113152
591.078937	2564.041752
591.431090	2572.722618
591.783188	2571.008626
592.135232	2573.428380
592.487222	2573.037691
592.839157	2570.355797
593.191038	2575.792681
593.542866	2570.486867
593.894639	2571.011147
594.246358	2570.829665
594.598022	2569.589541
594.949633	2572.498287
595.301190	2569.768502
595.652692	2570.030642
596.004141	2570.749007
596.355535	2570.028122
596.706876	2569.183728
597.058162	2572.999882
597.409395	2568.059551
597.760573	2569.501321
598.111698	2570.572566
598.462768	2570.060889
598.813785	2571.028791
599.164748	2568.737586
599.515657	2569.007288
599.866511	2567.767164
600.217312	2567.830179
600.568060	2569.559294
600.918753	2572.531055
601.269392	2569.904613
601.619978	2567.847823
601.970510	2569.337484
602.320988	2568.906465
602.671412	2570.358317
603.021783	2568.959397
603.372100	2572.357135
603.722363	2569.148440
604.072572	2568.147771
604.422728	2571.941240
604.772830	2569.100549
605.122878	2566.675754
605.472872	2570.973338
605.822813	2569.897052
606.172701	2571.311095
606.522534	2567.404201
606.872314	2573.388051
607.222041	2571.230437
607.571714	2569.415622
607.921333	2566.632905
608.270899	2568.828327
608.620411	2569.526527
608.969870	2573.642629
609.319276	2577.262177
609.668627	2582.464648
610.017926	2584.937334
610.367171	2586.167376
610.716362	2587.780545
611.065500	2583.709813
611.414585	2582.386510
611.763616	2580.087744
612.112594	2582.903229
612.461518	2577.141190
612.810389	2581.443815
613.159207	2577.582291
613.507971	2578.454410
613.856682	2579.802919
614.205340	2580.294432
614.553945	2583.261151
614.902496	2579.830645
615.250994	2577.481468
615.599439	2581.907601
615.947830	2579.157651
616.296169	2577.723443
616.644454	2577.846951
616.992686	2578.192270
617.340864	2577.761252
617.688990	2579.308886
618.037063	2581.058166
618.385082	2581.658064
618.733048	2581.804257
619.080961	2579.634040
619.428821	2582.900708
619.776628	2584.942375
620.124382	2583.119998
620.472083	2583.147725
620.819731	2585.222159
621.167326	2583.069587
621.514868	2586.527818
621.862357	2583.077148
622.209793	2583.452714
622.557176	2584.400451
622.904506	2584.392890
623.251783	2580.367528
623.599007	2583.437591
623.946179	2583.520770
624.293297	2584.027406
624.640363	2581.164031
624.987376	2579.273598
625.334336	2581.252251
625.681243	2580.528845
626.028097	2579.795357
626.374899	2585.088569
626.721647	2583.130081
627.068343	2585.751481
627.414987	2584.002200
627.761577	2584.682756
628.108115	2583.813157
628.454600	2583.498085
628.801032	2584.055132
629.147412	2587.495720
629.493739	2587.218456
629.840014	2589.040833
630.186236	2586.822726
630.532405	2589.645772
630.878521	2588.284660
631.224585	2587.886409
631.570597	2588.819023
631.916556	2587.528487
632.262462	2587.296594
632.608316	2592.194075
632.954117	2589.708786
633.299866	2592.322625
633.645562	2595.163315
633.991206	2593.930753
634.336797	2590.346492
634.682336	2592.768767
635.027823	2590.722058
635.373257	2591.833633
635.718639	2592.617532
636.063968	2590.679208
636.409245	2592.683067
636.754470	2592.662902
637.099642	2590.412027
637.444762	2590.149887
637.789829	2593.968561
638.134845	2592.683067
638.479808	2592.756164
638.824719	2595.186000
639.169577	2594.147522
639.514383	2594.717173
639.859137	2592.297419
640.203839	2594.891092
640.548489	2593.908067
640.893086	2597.323449
641.237632	2595.669951
641.582125	2598.399736
641.926566	2598.845878
642.270955	2597.681371
642.615292	2596.035434
642.959576	2598.876125
643.303809	2596.718511
643.647990	2602.311671
643.992118	2604.711260
644.336195	2600.035590
644.680219	2603.997937
645.024192	2603.536671
645.368112	2607.425922
645.711981	2607.746035
646.055797	2611.539503
646.399562	2614.234000
646.743274	2616.300873
647.086935	2620.220370
647.430544	2620.084259
647.774101	2623.988632
648.117606	2623.383694
648.461059	2625.004425
648.804460	2632.740076
649.147810	2628.744961
649.491108	2625.412758
649.834354	2630.262348
650.177548	2625.937038
650.520690	2626.688170
650.863781	2629.012142
651.206820	2630.136320
651.549807	2631.857874
651.892742	2635.515231
652.235626	2633.718059
652.578458	2634.648152
652.921238	2634.365848
653.263967	2638.814666
653.606644	2635.578245
653.949269	2636.021867
654.291843	2642.698875
654.634365	2639.739718
654.976836	2642.792136
655.319255	2643.253402
655.661622	2645.307672
656.003938	2644.927065
656.346203	2646.147024
656.688416	2650.999135
657.030577	2652.791265
657.372687	2655.586585
657.714746	2652.871923
658.056753	2655.195895
658.398708	2660.085815
658.740612	2659.727893
659.082465	2661.978768
659.424266	2662.243428
659.766016	2664.136382
660.107715	2667.619819
660.449362	2666.664520
660.790958	2676.101560
661.132503	2674.238854
661.473996	2676.482167
661.815438	2683.262519
662.156829	2685.853672
662.498168	2683.794361
662.839456	2689.868952
663.180693	2693.067564
663.521879	2694.826926
663.863013	2699.880683
664.204097	2700.964531
664.545129	2702.996116
664.886110	2703.023842
665.227040	2712.869216
665.567918	2717.408775
665.908746	2726.409755
666.249522	2725.429251
666.590248	2730.044427
666.930922	2738.516086
667.271545	2740.106570
667.612118	2747.968250
667.952639	2747.751480
668.293109	2752.734661
668.633528	2756.447470
668.973896	2754.388159
669.314213	2767.530447
669.654480	2758.751278
669.994695	2760.074581
670.334859	2764.480549
670.674973	2772.498504
671.015035	2776.876746
671.355047	2778.613424
671.695008	2779.115019
672.034918	2783.979732
672.374777	2793.986422
672.714585	2793.366361
673.054342	2806.329688
673.394049	2808.204997
673.733705	2812.507622
674.073310	2817.165648
674.412864	2834.386229
674.752368	2824.571103
675.091820	2817.483241
675.431223	2835.432269
675.770574	2826.963130
676.109875	2833.340190
676.449125	2833.952690
676.788324	2833.224243
677.127473	2830.204592
677.466571	2836.707681
677.805619	2841.461489
678.144616	2843.543485
678.483562	2849.673528
678.822458	2845.678414
679.161303	2844.765965
679.500098	2860.532174
679.838842	2863.801362
680.177535	2861.021166
680.516179	2866.190869
680.854771	2876.973897
681.193314	2891.721793
681.531805	2894.774211
681.870247	2930.833585
682.208638	2947.996193
682.546978	2977.391161
682.885268	2990.848521
683.223508	2980.428456
683.561697	2972.614668
683.899836	2978.986686
684.237925	2974.215234
684.575963	2977.310503
684.913951	3002.443175
685.251889	2989.933552
685.589776	3010.965246
685.927614	3014.846934
686.265401	3012.253261
686.603137	3036.355017
686.940824	3051.339847
687.278460	3069.316602
687.616046	3092.095055
687.953582	3111.387551
688.291068	3103.828341
688.628504	3125.127216
688.965889	3145.443066
689.303224	3161.534429
689.640510	3160.218688
689.977745	3132.479739
690.314930	3134.034935
690.652065	3135.514513
690.989150	3108.085595
691.326185	3104.468567
691.663170	3092.815940
692.000105	3077.637026
692.336990	3091.749736
692.673825	3069.644277
693.010610	3067.169070
693.347345	3051.312121
693.684030	3037.569935
694.020665	3042.454813
694.357251	3039.684699
694.693786	3058.571382
695.030272	3026.068543
695.366707	3032.493493
695.703093	3033.105993
696.039429	3040.861809
696.375716	3054.120043
696.711952	3032.122968
697.048139	3052.433777
697.384276	3062.851322
697.720363	3058.226063
698.056400	3059.554407
698.392388	3068.691498
698.728326	3064.930798
699.064214	3064.835016
699.400053	3093.020107
699.735842	3074.861871
700.071581	3068.860377
700.407270	3064.116651
700.742910	3064.756878
701.078501	3071.486818
701.414042	3056.111299
701.749533	3056.706155
702.084974	3043.994886
702.420366	3056.378480
702.755709	3057.638769
703.091002	3050.944116
703.426246	3055.723130
703.761440	3059.108265
704.096584	3062.299315
704.431679	3055.405537
704.766725	3060.262689
705.101721	3058.831002
705.436668	3066.269224
705.771565	3067.070767
706.106413	3080.069383
706.441212	3096.652258
706.775961	3088.291505
707.110661	3089.098089
707.445311	3128.905561
707.779913	3113.887963
708.114465	3140.288486
708.448967	3147.842655
708.783421	3154.910353
709.117825	3198.964996
709.452180	3206.216696
709.786485	3213.256667
710.120742	3260.905653
710.454949	3270.415790
710.789107	3284.795682
711.123216	3311.052531
711.457275	3356.054912
711.791286	3390.710324
712.125247	3376.922768
712.459159	3408.631626
712.793023	3441.273097
713.126837	3392.517578
713.460602	3413.834097
713.794318	3370.822972
714.127985	3414.481885
714.461602	3386.813512
714.795171	3361.637990
715.128691	3346.154086
715.462162	3312.459013
715.795584	3328.903257
716.128957	3304.090698
716.462281	3259.108482
716.795556	3307.755617
717.128782	3270.796397
717.461960	3225.239490
717.795088	3252.658326
718.128167	3245.328488
718.461198	3222.207236
718.794180	3216.866133
719.127113	3239.213568
719.459997	3220.241186
719.792833	3175.576563
720.125619	3198.355017
720.458357	3169.219668
720.791046	3178.674352
721.123686	3209.390102
721.456278	3172.761078
721.788821	3175.190915
722.121315	3163.616425
722.453761	3187.607277
722.786158	3194.299408
723.118506	3195.559697
723.450805	3195.088349
723.783056	3201.752754
724.115259	3185.721885
724.447412	3203.625543
724.779518	3204.653938
725.111574	3209.206100
725.443582	3235.447827
725.775542	3231.911457
726.107453	3269.783125
726.439315	3260.139398
726.771129	3265.956890
727.102895	3294.169707
727.434612	3329.666992
727.766281	3336.039010
728.097901	3356.891743
728.429473	3347.986545
728.760996	3355.596167
729.092471	3361.764018
729.423897	3370.238198
729.755276	3388.431722
730.086606	3375.957387
730.417887	3376.925289
730.749120	3405.284300
731.080305	3483.328923
731.411442	3504.012777
731.742530	3486.570385
732.073570	3543.595917
732.404562	3565.857652
732.735506	3505.671317
733.066401	3562.855645
733.397249	3551.757545
733.728048	3512.313037
734.058798	3451.932617
734.389501	3433.023249
734.720156	3404.150040
735.050762	3340.989423
735.381320	3325.271106
735.711831	3335.257632
736.042293	3317.414468
736.372707	3338.985565
736.703073	3308.927685
737.033391	3307.463230
737.363661	3309.464568
737.693883	3326.070129
738.024056	3364.244266
738.354182	3372.894886
738.684260	3370.444885
739.014290	3402.282293
739.344272	3430.258176
739.674207	3425.534615
740.004093	3449.732153
740.333931	3456.257927
740.663722	3459.864872
740.993464	3496.103207
741.323159	3519.514325
741.652806	3423.150149
741.982405	3422.580498
742.311956	3499.808455
742.641460	3454.992597
742.970915	3391.048081
743.300323	3411.608427
743.629683	3400.810276
743.958996	3368.584700
744.288260	3357.252186
744.617477	3367.561345
744.946647	3377.812532
745.275768	3322.879078
745.604842	3328.126919
745.933869	3328.162208
746.262847	3306.656645
746.591778	3321.359170
746.920662	3318.263902
747.249498	3313.179898
747.578286	3329.684636
747.907027	3363.593957
748.235720	3381.583315
748.564365	3350.315558
748.892963	3355.986856
749.221514	3437.363682
749.550017	3398.161149
749.878473	3341.470854
750.206881	3381.550547
750.535242	3367.939432
750.863555	3341.594362
751.191821	3368.408259
751.520039	3380.398644
751.848210	3344.586287
752.176334	3344.510669
752.504411	3393.545973
752.832440	3364.629914
753.160421	3314.669559
753.488356	3353.103316
753.816243	3396.858011
754.144082	3337.871470
754.471875	3316.847338
754.799620	3349.783716
755.127318	3355.991897
755.454969	3337.702591
755.782572	3327.174141
756.110129	3358.653627
756.437638	3374.447562
756.765100	3334.566993
757.092515	3334.614884
757.419882	3359.119933
757.747203	3354.943337
758.074477	3386.609345
758.401703	3398.019997
758.728882	3349.082996
759.056014	3359.326621
759.383099	3442.102367
759.710138	3436.090791
760.037129	3407.391502
760.364073	3409.677665
760.690970	3465.281592
761.017820	3471.923312
761.344623	3428.939914
761.671379	3465.445430
761.998088	3511.123325
762.324751	3573.363931
762.651366	3743.248295
762.977935	4076.246753
763.304456	4498.201412
763.630931	4736.068257
763.957359	4649.413343
764.283740	4477.716684
764.610074	4323.195236
764.936362	4022.568547
765.262602	3840.300588
765.588796	3673.375382
765.914943	3560.221642
766.241044	3553.448852
766.567097	3512.975949
766.893104	3416.019437
767.219064	3348.372193
767.544978	3349.796319
767.870845	3339.802232
768.196665	3294.913277
768.522438	3270.080553
768.848165	3269.084926
769.173846	3264.308432
769.499479	3249.573140
769.825066	3226.898030
770.150607	3213.070145
770.476101	3205.803321
770.801548	3219.669015
771.126949	3203.262580
771.452303	3185.618541
771.777611	3167.949297
772.102872	3175.742921
772.428087	3166.885614
772.753256	3165.965603
773.078378	3158.799603
773.403453	3129.361785
773.728482	3132.820017
774.053465	3114.807974
774.378401	3110.807818
774.703291	3131.093421
775.028135	3104.367744
775.352932	3077.153075
775.677683	3073.122673
776.002388	3093.423399
776.327046	3109.227417
776.651658	3067.164029
776.976224	3034.832589
777.300743	3047.014537
777.625216	3068.331056
777.949643	3074.272056
778.274024	3046.921276
778.598359	3025.483769
778.922647	3035.321581
779.246889	3041.933054
779.571086	3046.707027
779.895236	3040.912220
780.219339	3025.498892
780.543397	3018.504291
780.867409	3046.097047
781.191374	3060.814696
781.515294	3034.283103
781.839167	3029.035262
782.162995	3041.257539
782.486776	3038.868032
782.810511	3048.005124
783.134201	3056.945610
783.457844	3039.470450
783.781441	3009.654546
784.104993	3013.362314
784.428498	3030.983668
784.751958	3041.179401
785.075372	3024.704911
785.398739	3000.542660
785.722061	3010.080523
786.045337	3040.151006
786.368568	3060.794531
786.691752	3008.681603
787.014891	3025.176258
787.337983	3074.272056
787.661030	3128.083852
787.984031	3182.200639
788.306987	3244.670617
788.629897	3266.072836
788.952760	3253.790065
789.275579	3244.216914
789.598351	3250.987183
789.921078	3205.619319
790.243759	3107.906634
790.566395	3109.582818
790.888984	3122.432719
791.211529	3077.339598
791.534027	3060.915519
791.856480	3067.897517
792.178888	3031.770088
792.501249	3002.256653
792.823566	3012.936337
793.145836	3038.439534
793.468062	3015.593025
793.790241	2989.638644
794.112375	3003.910151
794.434464	3033.799152
794.756507	3053.031154
795.078505	3038.411808
795.400457	3031.712114
795.722364	3091.913574
796.044226	3131.131230
796.366042	3157.309942
796.687812	3161.395797
797.009538	3162.595592
797.331218	3141.271511
797.652852	3132.366313
797.974442	3141.125317
798.295986	3153.697955
798.617484	3118.296452
798.938938	3072.845409
799.260346	3100.579317
799.581709	3112.040380
799.903026	3078.428487
800.224299	3058.669685
800.545526	3062.881569
800.866708	3048.872202
801.187845	3012.928775
801.508936	3040.508928
801.829983	3050.513098
802.150984	3003.085922
802.471940	2996.905468
802.792851	3008.389216
803.113717	3012.999351
803.434538	3019.411699
803.755314	2986.308962
804.076045	2962.492031
804.396731	2979.102633
804.717372	2995.042761
805.037967	2992.736433
805.358518	2980.138590
805.679024	2988.143942
805.999485	2996.000581
806.319901	2998.574090
806.640272	3009.810822
806.960598	3016.356760
807.280879	2995.612412
807.601115	2999.196672
807.921306	3015.633354
808.241453	3040.766027
808.561554	3032.576672
808.881611	2994.105107
809.201623	3007.005419
809.521590	3024.931763
809.841513	3013.652181
810.161390	3034.273021
810.481223	3030.749254
810.801011	2999.153822
811.120755	2986.888695
811.440453	3018.295083
811.760107	3028.425282
812.079716	3007.438959
812.399281	2986.976915
812.718801	3003.814369
813.038276	2988.761484
813.357707	2993.699294
813.677093	3009.861233
813.996434	2979.291676
814.315731	2982.812922
814.634983	2986.119919
814.954191	2992.779283
815.273354	3019.762059
815.592473	3019.507481
815.911547	3007.000378
816.230577	3026.350847
816.549562	3055.032492
816.868502	3086.937955
817.187399	3100.213833
817.506250	3091.381732
817.825058	3072.225347
818.143821	3129.671816
818.462539	3194.289326
818.781213	3216.596432
819.099843	3233.070922
819.418429	3340.739886
819.736970	3452.222483
820.055466	3550.706465
820.373919	3749.436311
820.692327	3964.542346
821.010691	4130.759270
821.329011	4695.539900
821.647286	5727.600204
821.965517	7166.889956
822.283704	8327.222419
822.601847	9079.087830
822.919945	8809.683527
823.237999	8281.007641
823.556010	7567.034063
823.873976	6890.153295
824.191897	5978.087577
824.509775	5356.646898
824.827609	4840.815872
825.145398	4577.042538
825.463144	4543.791087
825.780845	4597.610446
826.098502	4601.444243
826.416116	4908.334566
826.733685	5446.913799
827.051210	5980.948431
827.368692	6124.830524
827.686129	5648.227236
828.003522	4951.333088
828.320872	4513.753372
828.638177	4201.070763
828.955439	3933.733334
829.272656	3668.538395
829.589830	3512.441586
829.906960	3428.430758
830.224046	3326.554079
830.541088	3265.911519
830.858086	3249.154724
831.175041	3212.858416
831.491952	3200.888196
831.808819	3212.291286
832.125642	3246.389651
832.442421	3322.805982
832.759157	3459.154070
833.075849	3710.962225
833.392497	4087.506170
833.709101	4398.689035
834.025662	4595.659519
834.342179	4510.406046
834.658653	4234.957400
834.975083	3938.940846
835.291469	3646.337153
835.607811	3414.935589
835.924110	3355.883512
836.240366	3248.580032
836.556578	3124.308028
836.872746	3066.561611
837.188871	3057.265723
837.504952	3019.996473
837.820990	2971.324133
838.136984	2936.454471
838.452935	2956.367029
838.768842	2961.670323
839.084706	2972.841520
839.400526	3041.391130
839.716303	3181.963705
840.032037	3418.451793
840.347727	3590.060232
840.663373	3499.659741
840.978977	3320.577792
841.294537	3163.266065
841.610054	3024.389838
841.925527	2963.248204
842.240957	2927.040117
842.556344	2903.228226
842.871687	2870.909389
843.186987	2840.609534
843.502244	2815.549958
843.817458	2797.169911
844.132629	2775.087137
844.447756	2784.814043
844.762840	2779.349432
845.077881	2759.820002
845.392879	2748.613517
845.707833	2744.242837
846.022745	2745.079668
846.337613	2745.210738
846.652438	2742.135635
846.967221	2741.956674
847.281960	2729.683985
847.596656	2727.957389
847.911309	2728.731207
848.225919	2724.239538
848.540485	2722.495299
848.855009	2725.109137
849.169490	2720.526729
849.483928	2713.106150
849.798323	2708.102805
850.112675	2707.523072
850.426984	2719.105123
850.741251	2716.181254
851.055474	2709.718495
851.369654	2704.291693
851.683792	2709.428628
851.997887	2714.568085
852.311938	2713.320399
852.625947	2707.976776
852.939914	2713.446428
853.253837	2719.001780
853.567718	2704.326981
853.881555	2700.130220
854.195350	2715.140256
854.509103	2714.189998
854.822812	2710.499874
855.136479	2708.803525
855.450103	2706.537527
855.763685	2698.300281
856.077224	2696.908923
856.390720	2708.312013
856.704173	2716.246789
857.017584	2711.195553
857.330953	2705.027701
857.644278	2714.573126
857.957561	2719.190823
858.270802	2720.879609
858.584000	2721.686194
858.897155	2715.291490
859.210268	2715.790565
859.523339	2711.586242
859.836367	2714.870554
860.149352	2711.707230
860.462295	2707.946529
860.775195	2715.283929
861.088054	2714.631099
861.400869	2705.791436
861.713642	2697.279448
862.026373	2710.169678
862.339062	2711.838300
862.651708	2714.646223
862.964312	2718.853066
863.276873	2712.322251
863.589392	2716.738302
863.901869	2722.833057
864.214303	2736.119017
864.526696	2747.388517
864.839045	2744.782240
865.151353	2746.115626
865.463619	2741.692013
865.775842	2743.645460
866.088023	2755.209867
866.400162	2769.234357
866.712258	2745.979514
867.024313	2740.971128
867.336325	2745.301479
867.648296	2757.027203
867.960224	2753.488313
868.272110	2745.248547
868.583954	2749.876326
868.895755	2763.464757
869.207515	2751.081162
869.519233	2752.333889
869.830909	2758.249683
870.142542	2768.914244
870.454134	2767.527927
870.765684	2770.630757
871.077191	2768.331991
871.388657	2772.644698
871.700081	2780.967643
872.011463	2788.403345
872.322803	2790.374436
872.634101	2785.381173
872.945357	2796.040693
873.256571	2812.462251
873.567744	2808.048721
873.878874	2799.330046
874.189963	2818.375525
874.501010	2821.727892
874.812015	2813.175575
875.122979	2820.447439
875.433900	2814.927376
875.744780	2819.285453
876.055618	2824.790393
876.366415	2828.109993
876.677169	2837.915037
876.987882	2836.674913
877.298554	2827.522698
877.609183	2843.286387
877.919771	2859.773480
878.230317	2880.822818
878.540822	2924.169179
878.851285	2946.083075
879.161707	2971.624081
879.472087	3032.367464
879.782425	3173.466840
880.092722	3448.726443
880.402977	3750.086620
880.713191	4000.621884
881.023363	4421.933796
881.333494	4912.304474
881.643583	5147.328108
881.953631	5126.152741
882.263637	4991.372452
882.573602	4828.276002
882.883526	4584.831121
883.193408	4270.941156
883.503248	4005.284951
883.813048	3856.424719
884.122806	3707.725804
884.432522	3519.559696
884.742197	3374.291286
885.051831	3247.662542
885.361424	3152.664519
885.670975	3109.807149
885.980485	3056.572565
886.289954	3006.342508
886.599382	2979.586584
886.908768	2955.404169
887.218113	2925.563058
887.527417	2888.523181
887.836680	2855.911956
888.145901	2858.813140
888.455082	2854.830629
888.764221	2819.169507
889.073319	2798.377267
889.382376	2799.788791
889.691392	2801.664100
890.000366	2800.189562
890.309300	2791.047430
890.618193	2800.381126
890.927044	2812.426963
891.235855	2811.602735
891.544625	2797.888276
891.853353	2805.142496
892.162041	2818.050370
892.470687	2841.375789
892.779293	2873.971890
893.087858	2906.131931
893.396381	2947.973508
893.704864	3018.227028
894.013306	3156.825991
894.321707	3335.786953
894.630068	3468.858291
894.938387	3476.893890
895.246665	3464.646407
895.554903	3407.167171
895.863100	3284.132770
896.171256	3179.765762
896.479371	3094.232504
896.787446	3019.300794
897.095480	2946.403188
897.403473	2898.086249
897.711425	2867.950232
898.019336	2864.643235
898.327207	2850.099506
898.635038	2825.259220
898.942827	2813.906542
899.250576	2803.120993
899.558284	2779.951850
899.865952	2769.027670
900.173579	2757.634662
900.481165	2752.406986
900.788711	2747.995976
901.096216	2729.636094
901.403681	2716.317365
901.711105	2724.804148
902.018489	2725.905640
902.325832	2722.780124
902.633135	2729.636094
902.940397	2751.885226
903.247619	2799.201496
903.554800	2917.638365
903.861941	3111.916872
904.169041	3361.567413
904.476101	3554.366342
904.783121	3564.688105
905.090100	3436.831840
905.397039	3277.327212
905.703938	3111.800926
906.010796	2987.700321
906.317614	2913.527304
906.624391	2852.529342
906.931129	2806.712815
907.237826	2761.135743
907.544483	2726.402193
907.851099	2709.287476
908.157675	2693.160825
908.464211	2679.340502
908.770707	2670.778102
909.077163	2662.631597
909.383578	2653.988539
909.689954	2643.936478
909.996289	2643.034112
910.302584	2641.597383
910.608839	2645.862199
910.915054	2640.359780
911.221229	2631.275620
911.527363	2636.478091
911.833458	2641.292393
912.139513	2643.260964
912.445527	2643.853299
912.751502	2653.199598
913.057436	2662.142605
913.363331	2666.528409
913.669186	2678.793537
913.975000	2701.874459
914.280775	2741.865933
914.586510	2789.220012
914.892205	2839.198011
915.197859	2911.253743
915.503475	3029.017618
915.809050	3156.271464
916.114585	3251.614807
916.420081	3279.615896
916.725536	3254.823501
917.030952	3188.529808
917.336328	3106.691716
917.641665	3018.927748
917.946961	2953.881740
918.252218	2910.663928
918.557435	2860.955631
918.862612	2817.780669
919.167750	2787.223715
919.472848	2761.680188
919.777906	2741.064389
920.082925	2722.767522
920.387904	2702.048379
920.692843	2691.908098
920.997743	2682.924762
921.302603	2676.288083
921.607423	2665.648728
921.912204	2658.956596
922.216946	2653.789413
922.521647	2646.152065
922.826310	2639.838020
923.130932	2632.987092
923.435516	2627.678757
923.740059	2623.058540
924.044564	2618.851697
924.349028	2615.501850
924.653454	2607.196549
924.957840	2604.650766
925.262186	2601.520210
925.566493	2594.898654
925.870761	2591.079980
926.174989	2588.889599
926.479178	2586.681573
926.783328	2582.008424
927.087438	2583.722416
927.391509	2581.978177
927.695541	2577.776375
927.999533	2579.175295
928.303486	2576.342167
928.607400	2574.499625
928.911275	2574.159347
929.215110	2577.272260
929.518906	2569.594583
929.822663	2572.352094
930.126381	2571.046435
930.430060	2574.353432
930.733699	2573.705643
931.037299	2573.970304
931.340861	2573.904769
931.644383	2574.391240
931.947866	2574.176991
932.251309	2573.274625
932.554714	2571.250602
932.858080	2571.318657
933.161407	2568.795560
933.464694	2571.646332
933.767943	2565.987637
934.071153	2567.535271
934.374323	2568.611558
934.677455	2568.805642
934.980548	2569.042576
935.283602	2567.878070
935.586617	2564.742472
935.889593	2567.925961
936.192530	2564.989488
936.495428	2567.174829
936.798287	2570.323029
937.101108	2571.467371
937.403890	2574.015674
937.706632	2578.756880
938.009336	2581.958012
938.312002	2587.210895
938.614628	2597.147009
938.917216	2601.089191
939.219765	2603.866867
939.522275	2600.151537
939.824747	2599.241608
940.127179	2596.852101
940.429573	2593.842532
940.731929	2592.670464
941.034246	2589.282809
941.336524	2585.562437
941.638763	2586.787438
941.940964	2584.052612
942.243126	2582.694021
942.545250	2584.350040
942.847335	2579.397106
943.149381	2577.262177
943.451389	2574.600448
943.753359	2573.292269
944.055290	2569.496280
944.357182	2573.579615
944.659036	2569.904613
944.960851	2571.696744
945.262628	2570.237330
945.564367	2569.919737
945.866067	2573.166240
946.167729	2569.481157
946.469352	2570.890159
946.770937	2570.375961
947.072484	2567.457133
947.373992	2566.136351
947.675462	2568.036866
947.976893	2562.269786
948.278286	2560.780125
948.579641	2562.723490
948.880958	2560.286092
949.182236	2563.968655
949.483476	2562.799107
949.784678	2561.080074
950.085841	2562.952862
950.386967	2564.016546
950.688054	2563.187276
950.989103	2564.462688
951.290114	2566.940415
951.591087	2565.546536
951.892021	2568.160374
952.192917	2568.921588
952.493776	2571.001064
952.794596	2571.230437
953.095378	2571.394274
953.396122	2571.303534
953.696828	2572.049624
953.997496	2571.815211
954.298126	2567.520148
954.598718	2564.656772
954.899272	2564.553429
955.199788	2562.705846
955.500266	2559.608057
955.800706	2560.893551
956.101108	2557.311811
956.401472	2556.568241
956.701798	2557.243756
957.002087	2554.294681
957.302337	2552.956254
957.602550	2552.227807
957.902724	2552.361398
958.202861	2548.373845
958.502960	2547.257230
958.803022	2549.039278
959.103045	2546.801005
959.403031	2547.249668
959.702979	2544.519883
960.002889	2544.345963
960.302762	2544.887887
960.602596	2545.699513
960.902393	2544.529966
961.202153	2542.558874
961.501875	2543.783875
961.801559	2543.110881
962.101205	2543.325130
962.400814	2544.139276
962.700385	2542.853782
962.999918	2542.435366
963.299414	2539.844213
963.598873	2542.367311
963.898293	2538.697351
964.197677	2543.796478
964.497022	2542.004348
964.796331	2545.576005
965.095601	2542.889070
965.394835	2542.793288
965.694030	2542.500901
965.993189	2538.606610
966.292309	2543.718340
966.591393	2543.020140
966.890439	2543.627599
967.189447	2541.099460
967.488419	2539.211548
967.787353	2544.280428
968.086249	2545.621375
968.385108	2542.911755
968.683930	2543.015099
968.982714	2542.054759
969.281462	2542.092568
969.580172	2542.639533
969.878844	2541.175078
970.177480	2544.424101
970.476078	2542.725233
970.774639	2543.665408
971.073162	2544.905532
971.371649	2545.860830
971.670098	2542.349667
971.968510	2545.785213
972.266885	2543.957795
972.565223	2545.432332
972.863524	2544.035933
973.161788	2546.175902
973.460014	2542.954605
973.758204	2545.235727
974.056356	2545.891077
974.354471	2542.664739
974.652550	2542.989893
974.950591	2543.851930
975.248595	2545.137425
975.546563	2542.498381
975.844493	2544.867723
976.142386	2542.851261
976.440243	2540.834800
976.738062	2543.380583
977.035845	2544.159441
977.333590	2544.255223
977.631299	2541.948895
977.928971	2540.766744
978.226606	2538.624254
978.524204	2539.312371
978.821765	2537.104346
979.119290	2539.806404
979.416777	2541.669111
979.714228	2542.470654
980.011642	2540.870088
980.309020	2542.384955
980.606360	2539.977804
980.903664	2540.391178
981.200931	2542.604245
981.498162	2541.893442
981.795356	2540.194573
982.092513	2544.298072
982.389633	2543.793957
982.686717	2550.317210
982.983764	2552.457180
983.280775	2551.811912
983.577749	2554.017417
983.874686	2555.484393
984.171587	2550.591953
984.468451	2551.625390
984.765279	2550.692776
985.062070	2549.427447
985.358824	2549.641696
985.655543	2545.689431
985.952224	2544.323278
986.248869	2544.403937
986.545478	2542.712630
986.842050	2542.384955
987.138586	2540.865047
987.435086	2543.302445
987.731549	2540.446631
988.027975	2541.835469
988.324366	2542.944523
988.620719	2538.871270
988.917037	2538.921682
989.213318	2541.699358
989.509563	2539.876981
989.805772	2540.058462
990.101944	2541.694317
990.398080	2541.863195
990.694180	2539.445962
990.990244	2541.414533
991.286271	2541.414533
991.582262	2543.816642
991.878217	2541.041487
992.174136	2538.772968
992.470019	2539.589635
992.765865	2540.272711
993.061676	2535.718029
993.357450	2536.630477
993.653188	2533.366330
993.948890	2542.001827
994.244556	2539.161137
994.540186	2539.695499
994.835780	2538.694830
995.131337	2540.118956
995.426859	2541.744728
995.722345	2541.306148
996.017795	2543.627599
996.313208	2541.011240
996.608586	2543.912424
996.903928	2545.606252
997.199234	2544.550130
997.494504	2544.086344
997.789738	2545.485264
998.084936	2544.315717
998.380099	2543.146169
998.675225	2542.536189
998.970316	2544.620706
999.265371	2542.901673
999.560390	2541.502753
999.855373	2540.570139
1000.150320	2539.536703
1000.445232	2538.909079
1000.740108	2539.934954
1001.034948	2538.682227
1001.329752	2540.408822
1001.624521	2540.222300
1001.919254	2541.570808
1002.213951	2542.858823
1002.508613	2540.570139
1002.803239	2537.895807
1003.097829	2540.313040
1003.392384	2538.006713
1003.686903	2540.272711
1003.981386	2542.805891
1004.275834	2539.516538
1004.570246	2541.631302
1004.864623	2539.050231
1005.158964	2541.533000
1005.453270	2540.849923
1005.747540	2539.660211
1006.041775	2541.406971
1006.335974	2540.481919
1006.630138	2539.791281
1006.924266	2539.619882
1007.218359	2540.111394
1007.512416	2536.968235
1007.806438	2536.267514
1008.100425	2538.377237
1008.394376	2534.303985
1008.688292	2538.815818
1008.982172	2537.187525
1009.276017	2537.318595
1009.569827	2539.859337
1009.863602	2535.763399
1010.157341	2539.529141
1010.451045	2538.687268
1010.744714	2540.602907
1011.038347	2538.682227
1011.331945	2541.512835
1011.625508	2539.340098
1011.919036	2540.000489
1012.212528	2537.868081
1012.505986	2537.489994
1012.799408	2540.686086
1013.092795	2538.881353
1013.386147	2539.317413
1013.679464	2540.219779
1013.972745	2540.812115
1014.265992	2538.800694
1014.559204	2538.281455
1014.852380	2539.755993
1015.145521	2540.108874
1015.438628	2539.304810
1015.731699	2538.725077
1016.024736	2538.931764
1016.317737	2537.386651
1016.610703	2540.950746
1016.903635	2539.075437
1017.196531	2538.357073
1017.489393	2537.691640
1017.782219	2539.529141
1018.075011	2538.031918
1018.367768	2538.042001
1018.660490	2541.301107
1018.953177	2541.301107
1019.245829	2541.301107
