Dividing Wavelength (nm)	Counts (n)	Blue Motor Position (mm): 1.800000	Red Motor Position (mm): 0.000000	
326.493990	2163.678354
326.888308	2163.678354
327.282561	2163.678354
327.676750	2123.618825
328.070874	2120.032044
328.464933	2119.878289
328.858929	2123.636469
329.252859	2127.112345
329.646726	2134.585855
330.040528	2151.277116
330.434265	2163.885042
330.827938	2180.238545
331.221547	2196.108097
331.615091	2212.393544
332.008571	2233.122769
332.401986	2250.645820
332.795338	2272.521907
333.188625	2291.963117
333.581847	2305.788481
333.975006	2325.953097
334.368100	2345.729543
334.761129	2360.575741
335.154095	2379.911087
335.546996	2395.846174
335.939833	2410.223545
336.332606	2428.901020
336.725315	2439.696651
337.117960	2455.951851
337.510540	2464.552060
337.903056	2473.580766
338.295508	2483.148876
338.687896	2494.146153
339.080220	2498.670589
339.472480	2507.096878
339.864676	2513.620131
340.256807	2519.167921
340.648875	2524.234280
341.040879	2524.380474
341.432818	2527.626977
341.824694	2531.395239
342.216506	2532.597554
342.608253	2531.460774
342.999937	2535.249201
343.391557	2531.778367
343.783113	2531.821217
344.174605	2530.591175
344.566033	2530.893644
344.957397	2529.504807
345.348697	2525.045906
345.739934	2527.790814
346.131106	2526.964065
346.522215	2523.639424
346.913260	2521.025586
347.304241	2518.341171
347.695159	2516.705317
348.086012	2514.252796
348.476802	2515.147600
348.867528	2512.067455
349.258191	2505.894562
349.648789	2507.038904
350.039324	2501.904489
350.429796	2504.241064
350.820203	2503.331136
351.210548	2504.498163
351.600828	2501.155878
351.991045	2502.849706
352.381198	2502.007833
352.771288	2501.329798
353.161314	2496.880979
353.551276	2500.802997
353.941175	2495.189672
354.331010	2497.707729
354.720782	2496.197903
355.110490	2498.279900
355.500135	2498.194200
355.889717	2498.050527
356.279235	2498.116062
356.668689	2499.572956
357.058080	2496.996926
357.447408	2499.706546
357.836672	2500.245950
358.225873	2498.504231
358.615010	2497.206134
359.004084	2499.923316
359.393095	2500.031701
359.782043	2500.041783
360.170927	2498.935250
360.559748	2500.656804
360.948505	2501.894407
361.337199	2503.555467
361.725830	2501.511279
362.114398	2502.091012
362.502903	2503.835251
362.891344	2503.159737
363.279722	2504.725015
363.668037	2507.389265
364.056289	2505.849192
364.444478	2505.289624
364.832603	2505.541682
365.220665	2507.769872
365.608665	2504.591424
365.996601	2506.262567
366.384474	2506.741476
366.772284	2511.250788
367.160031	2509.567043
367.547715	2511.044101
367.935336	2510.056035
368.322893	2508.127794
368.710388	2505.836589
369.097820	2509.012516
369.485189	2503.671414
369.872495	2510.436642
370.259738	2511.016375
370.646918	2513.907477
371.034035	2508.904131
371.421090	2512.989987
371.808081	2512.785820
372.195010	2513.423526
372.581875	2512.558968
372.968678	2515.319000
373.355418	2515.240862
373.742096	2513.988135
374.128710	2510.739111
374.515262	2516.730523
374.901751	2514.330933
375.288177	2515.843280
375.674540	2514.383866
376.060841	2515.835718
376.447079	2518.147087
376.833254	2515.225738
377.219367	2515.319000
377.605417	2516.070132
377.991404	2514.608197
378.377329	2519.903929
378.763191	2517.801768
379.148991	2515.961747
379.534727	2516.049967
379.920402	2516.501150
380.306013	2520.241686
380.691563	2517.554751
381.077049	2518.603311
381.462474	2517.756397
381.847835	2518.436953
382.233134	2519.359484
382.618371	2517.524504
383.003545	2519.183044
383.388657	2517.093486
383.773706	2520.352592
384.158693	2517.947961
384.543618	2518.441994
384.928480	2519.482993
385.313280	2518.252951
385.698017	2522.051461
386.082692	2520.219001
386.467305	2518.310924
386.851856	2518.215142
387.236344	2521.340658
387.620770	2517.443846
388.005133	2517.549710
388.389435	2518.575585
388.773674	2516.291942
389.157851	2524.007428
389.541965	2522.028775
389.926018	2523.520957
390.310008	2522.366533
390.693936	2522.789990
391.077802	2521.862417
391.461606	2522.038858
391.845348	2522.706811
392.229027	2521.625483
392.612645	2522.200175
392.996200	2523.256296
393.379694	2522.530370
393.763125	2526.230577
394.146494	2523.067253
394.529801	2525.628159
394.913047	2525.338293
395.296230	2521.559948
395.679351	2525.035824
396.062410	2528.259642
396.445408	2525.199661
396.828343	2524.451050
397.211217	2525.449198
397.594028	2525.416431
397.976778	2526.636390
398.359466	2526.560773
398.742092	2525.751667
399.124656	2527.821061
399.507158	2527.251411
399.889598	2528.763757
400.271977	2525.474404
400.654294	2528.582275
401.036549	2525.582789
401.418742	2529.227543
401.800874	2528.796524
402.182944	2531.165867
402.564952	2528.236956
402.946898	2530.182842
403.328783	2527.609333
403.710606	2529.837523
404.092367	2529.764426
404.474067	2528.937677
404.855705	2527.599250
405.237282	2528.768798
405.618797	2528.988088
406.000250	2534.808100
406.381642	2528.463808
406.762972	2528.715866
407.144240	2529.048582
407.525447	2527.901720
407.906593	2524.791328
408.287677	2530.555887
408.668700	2529.714014
409.049661	2533.628470
409.430560	2533.104190
409.811399	2531.186031
410.192176	2533.081505
410.572891	2530.762574
410.953545	2530.303829
411.334138	2532.877338
411.714669	2531.342307
412.095139	2532.375744
412.475547	2530.185362
412.855894	2529.250228
413.236180	2533.678882
413.616405	2532.456402
413.996568	2533.678882
414.376670	2531.359951
414.756711	2532.264838
415.136691	2532.302647
415.516609	2532.965559
415.896466	2534.210724
416.276262	2534.528316
416.655997	2535.705426
417.035670	2532.254756
417.415283	2536.915303
417.794834	2536.580066
418.174324	2534.248532
418.553753	2533.545291
418.933121	2535.965045
419.312428	2532.983203
419.691674	2533.661238
420.070859	2535.322298
420.449983	2535.029911
420.829045	2533.482277
421.208047	2534.671989
421.586988	2536.937988
421.965867	2537.048893
422.344686	2535.279448
422.723444	2537.772299
423.102141	2535.307175
423.480777	2536.028060
423.859352	2536.726259
424.237866	2539.027546
424.616319	2537.815149
424.994712	2535.213913
425.373044	2538.241126
425.751314	2535.672658
426.129524	2533.298275
426.507673	2535.939839
426.885762	2530.928932
427.263789	2535.549150
427.641756	2538.714995
428.019662	2538.452855
428.397508	2535.894469
428.775292	2537.217772
429.153016	2539.186343
429.530679	2537.676517
429.908282	2538.541075
430.285824	2540.577701
430.663305	2538.324305
431.040726	2539.025026
431.418086	2535.869263
431.795385	2538.944367
432.172624	2537.457227
432.549802	2539.461085
432.926920	2536.096115
433.303977	2539.662732
433.680974	2542.233720
434.057910	2541.134748
434.434786	2537.444624
434.811601	2539.251877
435.188355	2536.668286
435.565050	2537.366486
435.941683	2541.545603
436.318257	2539.337577
436.694770	2541.338915
437.071222	2541.099460
437.447614	2538.062165
437.823946	2540.592824
438.200218	2539.821528
438.576429	2540.066024
438.952580	2538.425128
439.328670	2542.747918
439.704700	2542.561395
440.080670	2540.187012
440.456580	2540.181970
440.832429	2543.430994
441.208218	2542.258926
441.583947	2544.776982
441.959616	2543.418391
442.335224	2539.947557
442.710773	2541.931251
443.086261	2542.770603
443.461689	2544.088865
443.837057	2543.693134
444.212365	2542.536189
444.587612	2539.987886
444.962800	2538.165509
445.337927	2539.705581
445.712995	2538.341949
446.088002	2544.320758
446.462949	2542.165664
446.837837	2543.466282
447.212664	2544.608103
447.587431	2542.115253
447.962139	2543.423432
448.336786	2544.222455
448.711374	2544.169523
449.085901	2544.711447
449.460369	2542.435366
449.834776	2543.703216
450.209124	2543.965356
450.583412	2544.635830
450.957640	2541.293545
451.331808	2542.745397
451.705917	2543.914945
452.079965	2545.790254
452.453954	2542.936961
452.827883	2544.217414
453.201752	2545.543237
453.575562	2543.713299
453.949311	2544.540048
454.323001	2545.792775
454.696632	2543.473844
455.070202	2544.514842
455.443713	2542.405119
455.817164	2547.693290
456.190556	2544.287990
456.563888	2545.704554
456.937160	2544.524924
457.310373	2544.963505
457.683526	2546.269164
458.056619	2540.804553
458.429653	2542.979811
458.802628	2547.791592
459.175542	2546.468289
459.548398	2543.937630
459.921194	2543.231868
460.293930	2547.295038
460.666607	2544.487116
461.039224	2543.645243
461.411782	2545.631458
461.784280	2546.553989
462.156719	2544.250182
462.529099	2545.538196
462.901419	2547.811757
463.273680	2543.841848
463.645882	2541.437218
464.018024	2544.411498
464.390106	2540.968390
464.762130	2544.464431
465.134094	2548.578012
465.505999	2542.566436
465.877845	2547.552137
466.249631	2546.478372
466.621358	2547.161448
466.993026	2548.141952
467.364634	2552.318548
467.736184	2548.746891
468.107674	2545.946530
468.479105	2549.175389
468.850477	2546.463248
469.221790	2546.649771
469.593043	2548.630944
469.964238	2548.600697
470.335373	2547.249668
470.706449	2547.579864
471.077467	2547.156407
471.448425	2548.948537
471.819324	2548.028526
472.190164	2549.157745
472.560945	2550.173537
472.931667	2546.294369
473.302330	2545.734801
473.672934	2549.987015
474.043479	2547.559699
474.413965	2549.702189
474.784393	2549.152704
475.154761	2547.491643
475.525070	2547.353012
475.895321	2545.734801
476.265513	2547.489123
476.635645	2550.649926
477.005719	2549.634134
477.375734	2548.290666
477.745691	2550.914587
478.115588	2546.947199
478.485427	2547.854607
478.855207	2548.416695
479.224928	2547.443752
479.594591	2549.760163
479.964194	2549.790410
480.333739	2549.382076
480.703226	2548.257899
481.072653	2549.981973
481.442022	2553.349464
481.811333	2546.669935
482.180584	2544.335881
482.549777	2547.879812
482.918912	2543.052907
483.287988	2549.460214
483.657005	2547.950388
484.025964	2549.029195
484.394864	2551.713610
484.763706	2549.382076
485.132489	2548.840152
485.501213	2550.894422
485.869879	2550.191181
486.238487	2551.091027
486.607036	2550.458362
486.975527	2549.051881
487.343959	2551.179247
487.712333	2550.108002
488.080648	2549.561037
488.448905	2549.339226
488.817104	2552.280740
489.185244	2552.926007
489.553326	2551.927859
489.921350	2551.484237
490.289315	2552.069011
490.657222	2550.763352
491.025070	2550.710420
491.392861	2552.812581
491.760593	2551.716130
492.128267	2551.582540
492.495883	2552.210163
492.863440	2547.133722
493.230939	2551.668239
493.598380	2549.172868
493.965763	2550.997766
494.333088	2551.703527
494.700354	2554.839125
495.067563	2550.662529
495.434713	2549.611449
495.801805	2551.093548
496.168839	2551.494320
496.535815	2551.786707
496.902733	2552.512633
497.269593	2550.912066
497.636395	2551.421223
498.003139	2551.524567
498.369825	2551.887530
498.736453	2552.558003
499.103023	2551.844680
499.469535	2553.266285
499.835989	2553.041954
500.202385	2550.415513
500.568723	2545.628937
500.935003	2552.179917
501.301226	2544.603062
501.667390	2550.004659
502.033497	2555.323076
502.399546	2552.744526
502.765537	2550.491130
503.131470	2549.792930
503.497345	2552.310987
503.863163	2555.144115
504.228923	2549.316541
504.594625	2551.466593
504.960269	2551.587581
505.325856	2552.187478
505.691385	2551.234700
506.056856	2554.241748
506.422270	2553.160421
506.787625	2551.965667
507.152924	2549.954247
507.518164	2551.149001
507.883347	2550.823846
508.248472	2549.389638
508.613540	2551.131357
508.978550	2553.223435
509.343503	2553.198230
509.708398	2553.036913
510.073236	2550.997766
510.438016	2554.750905
510.802738	2554.677808
511.167403	2550.632282
511.532010	2552.694114
511.896561	2553.873744
512.261053	2555.232335
512.625488	2550.377704
512.989866	2552.626059
513.354186	2554.763508
513.718449	2551.600184
514.082655	2553.876265
514.446803	2552.981460
514.810894	2553.964485
515.174927	2553.578837
515.538904	2554.035061
515.902822	2549.929041
516.266684	2551.222097
516.630488	2552.615976
516.994235	2554.277037
517.357925	2553.442726
517.721558	2553.656975
518.085133	2555.439023
518.448651	2549.382076
518.812112	2548.280584
519.175516	2549.379556
519.538863	2548.762014
519.902152	2553.604042
520.265385	2552.046326
520.628560	2552.994063
520.991678	2550.876778
521.354739	2556.177552
521.717743	2552.323589
522.080690	2551.050698
522.443580	2554.909701
522.806413	2551.040616
523.169189	2553.964485
523.531908	2553.324258
523.894569	2555.938097
524.257174	2553.094886
524.619722	2551.073383
524.982213	2553.236038
525.344647	2555.207129
525.707025	2553.185627
526.069345	2550.715461
526.431608	2556.079249
526.793815	2555.257541
527.155964	2554.312325
527.518057	2552.835267
527.880093	2555.587737
528.242072	2553.682180
528.603995	2556.008673
528.965860	2551.978270
529.327669	2552.590771
529.689421	2553.934238
530.051117	2555.277706
530.412755	2553.331820
530.774337	2554.072870
531.135862	2553.097407
531.497331	2554.899619
531.858743	2553.941800
532.220098	2554.834084
532.581396	2555.948179
532.942638	2556.429609
533.303824	2552.915925
533.664953	2556.197716
534.026025	2553.712427
534.387040	2555.607901
534.747999	2554.917263
535.108902	2556.144784
535.469748	2553.452808
535.830537	2557.279044
536.191270	2555.224773
536.551947	2551.930379
536.912567	2551.091027
537.273131	2553.291491
537.633638	2550.468445
537.994089	2552.066491
538.354483	2554.705535
538.714821	2554.259392
539.075103	2553.069680
539.435328	2553.878785
539.795497	2553.389793
540.155609	2555.791903
540.515665	2556.328786
540.875665	2554.597150
541.235609	2553.407438
541.595496	2552.202602
541.955328	2553.389793
542.315102	2554.191337
542.674821	2551.428785
543.034483	2555.030689
543.394090	2555.711245
543.753640	2554.627397
544.113134	2554.793755
544.472571	2557.286605
544.831953	2555.418858
545.191278	2553.780483
545.550548	2555.360885
545.909761	2556.401883
546.268918	2555.358364
546.628019	2554.297201
546.987064	2554.887016
547.346053	2555.416337
547.704986	2556.664023
548.063863	2554.740823
548.422684	2553.833415
548.781449	2556.099414
549.140158	2556.243087
549.498811	2555.514640
549.857408	2552.742005
550.215949	2556.119578
550.574434	2556.225443
550.932864	2554.536656
551.291237	2551.416182
551.649555	2555.988508
552.007817	2556.122099
552.366022	2552.938610
552.724173	2554.745864
553.082267	2552.805020
553.440305	2556.046482
553.798288	2555.643189
554.156215	2554.408107
554.514086	2552.966337
554.871902	2549.576161
555.229661	2551.108671
555.587365	2549.833259
555.945014	2552.805020
556.302606	2556.495144
556.660143	2553.213353
557.017625	2555.759136
557.375050	2556.255689
557.732421	2555.073539
558.089735	2553.346944
558.446994	2554.796275
558.804197	2556.646379
559.161345	2554.080432
559.518437	2554.685370
559.875474	2553.987170
560.232455	2554.650082
560.589381	2552.595812
560.946251	2555.547407
561.303065	2554.738302
561.659825	2553.546069
562.016528	2555.068498
562.373177	2556.550597
562.729770	2552.177396
563.086307	2554.803837
563.442789	2557.848694
563.799216	2554.153528
564.155587	2555.030689
564.511904	2556.774928
564.868164	2553.616645
565.224370	2553.846018
565.580520	2558.062943
565.936615	2554.304763
566.292654	2552.711758
566.648638	2554.927345
567.004567	2555.242418
567.360441	2555.436502
567.716260	2555.403734
568.072023	2555.698642
568.427732	2551.809392
568.783385	2557.213509
569.138982	2556.008673
569.494525	2555.852397
569.850013	2552.336192
570.205445	2555.242417
570.560823	2555.938097
570.916145	2553.508261
571.271412	2554.844166
571.626625	2554.297201
571.981782	2555.552448
572.336884	2551.983312
572.691931	2550.559186
573.046923	2551.453990
573.401860	2550.629762
573.756743	2554.087993
574.111570	2554.887016
574.466342	2555.552448
574.821059	2553.525905
575.175722	2553.467931
575.530330	2553.362067
575.884882	2553.341902
576.239380	2555.217212
576.593823	2558.299877
576.948211	2555.968344
577.302544	2553.732592
577.656823	2552.575647
578.011047	2555.406255
578.365216	2553.944320
578.719330	2557.813406
579.073389	2552.941131
579.427394	2558.594785
579.781344	2555.948179
580.135239	2557.268961
580.489080	2553.916594
580.842866	2555.612942
581.196597	2557.510937
581.550273	2556.636297
581.903895	2558.224260
582.257463	2555.817109
582.610975	2556.417006
582.964434	2555.474311
583.317837	2553.997252
583.671186	2555.675957
584.024481	2555.088662
584.377721	2555.786862
584.730906	2558.138560
585.084037	2555.640669
585.437113	2557.662171
585.790135	2553.558672
586.143103	2557.135371
586.496016	2558.995557
586.848874	2557.115206
587.201679	2559.043447
587.554428	2557.800803
587.907124	2556.911039
588.259765	2556.409445
588.612352	2556.573282
588.964884	2554.700493
589.317362	2558.367933
589.669786	2553.848538
590.022155	2554.539177
590.374470	2549.293856
590.726731	2551.511964
591.078937	2553.520863
591.431090	2557.750392
591.783188	2556.391801
592.135232	2553.828374
592.487222	2557.168138
592.839157	2557.405072
593.191038	2557.452963
593.542866	2556.870710
593.894639	2556.895916
594.246358	2555.086142
594.598022	2554.077911
594.949633	2555.025648
595.301190	2553.793086
595.652692	2557.132850
596.004141	2556.447253
596.355535	2555.706204
596.706876	2554.869372
597.058162	2556.054043
597.409395	2553.669578
597.760573	2557.684857
598.111698	2555.915412
598.462768	2557.274003
598.813785	2554.539177
599.164748	2557.389949
599.515657	2557.881462
599.866511	2554.614794
600.217312	2556.457336
600.568060	2557.221070
600.918753	2557.468087
601.269392	2556.434650
601.619978	2555.406255
601.970510	2554.748384
602.320988	2555.502037
602.671412	2557.584033
603.021783	2554.360216
603.372100	2557.740309
603.722363	2555.718807
604.072572	2556.598488
604.422728	2554.453477
604.772830	2551.726213
605.122878	2555.058415
605.472872	2554.763508
605.822813	2558.297357
606.172701	2557.674774
606.522534	2554.055226
606.872314	2556.472459
607.222041	2555.635627
607.571714	2554.019938
607.921333	2552.119423
608.270899	2554.781152
608.620411	2550.405430
608.969870	2558.473797
609.319276	2559.298026
609.668627	2564.376988
610.017926	2566.486711
610.367171	2569.763461
610.716362	2569.521486
611.065500	2566.148954
611.414585	2564.586196
611.763616	2561.400187
612.112594	2562.408418
612.461518	2560.991853
612.810389	2561.256514
613.159207	2559.608057
613.507971	2561.251473
613.856682	2560.139898
614.205340	2560.656617
614.553945	2561.067471
614.902496	2556.331307
615.250994	2556.177552
615.599439	2558.796431
615.947830	2558.272151
616.296169	2560.588561
616.644454	2553.659495
616.992686	2557.377346
617.340864	2559.860114
617.688990	2557.899106
618.037063	2559.812223
618.385082	2558.383056
618.733048	2555.617983
619.080961	2555.698642
619.428821	2557.750392
619.776628	2555.749053
620.124382	2556.837943
620.472083	2556.785011
620.819731	2555.020607
621.167326	2555.917932
621.514868	2559.492110
621.862357	2559.973540
622.209793	2555.030689
622.557176	2557.026986
622.904506	2556.366595
623.251783	2559.441699
623.599007	2557.185782
623.946179	2558.642676
624.293297	2555.244938
624.640363	2554.561862
624.987376	2554.899619
625.334336	2552.189999
625.681243	2552.820143
626.028097	2552.381563
626.374899	2557.969682
626.721647	2555.345761
627.068343	2557.934394
627.414987	2555.875082
627.761577	2555.209650
628.108115	2557.601678
628.454600	2557.470608
628.801032	2557.500854
629.147412	2558.607388
629.493739	2556.477500
629.840014	2557.997408
630.186236	2555.890206
630.532405	2556.522871
630.878521	2557.755433
631.224585	2556.905998
631.570597	2556.144784
631.916556	2556.911039
632.262462	2554.677808
632.608316	2556.734599
632.954117	2555.249979
633.299866	2556.437171
633.645562	2555.570092
633.991206	2554.602191
634.336797	2557.221070
634.682336	2556.406924
635.027823	2555.887685
635.373257	2554.251831
635.718639	2557.185782
636.063968	2556.754764
636.409245	2555.287788
636.754470	2555.928014
637.099642	2553.964485
637.444762	2555.176882
637.789829	2557.916750
638.134845	2553.833415
638.479808	2553.621687
638.824719	2555.706204
639.169577	2556.515309
639.514383	2556.386759
639.859137	2556.802655
640.203839	2553.737633
640.548489	2555.383570
640.893086	2555.683518
641.237632	2555.406255
641.582125	2554.622356
641.926566	2554.703014
642.270955	2551.600184
642.615292	2551.499361
642.959576	2551.625390
643.303809	2551.174206
643.647990	2555.406255
643.992118	2555.307952
644.336195	2558.549414
644.680219	2555.005483
645.024192	2553.581357
645.368112	2556.800134
645.711981	2553.838456
646.055797	2553.699824
646.399562	2556.341389
646.743274	2556.621173
647.086935	2553.578837
647.430544	2554.561862
647.774101	2554.695452
648.117606	2553.682180
648.461059	2556.868190
648.804460	2557.231153
649.147810	2555.491955
649.491108	2556.674105
649.834354	2554.675288
650.177548	2555.852397
650.520690	2557.218550
650.863781	2556.356513
651.206820	2557.236194
651.549807	2553.508261
651.892742	2553.394835
652.235626	2557.616801
652.578458	2554.808878
652.921238	2556.122099
653.263967	2556.704352
653.606644	2553.604042
653.949269	2556.530432
654.291843	2552.931048
654.634365	2556.963972
654.976836	2556.182593
655.319255	2555.360885
655.661622	2552.989022
656.003938	2557.601677
656.346203	2555.355843
656.688416	2557.442881
657.030577	2554.718137
657.372687	2553.606563
657.714746	2556.371636
658.056753	2554.806358
658.398708	2556.417006
658.740612	2556.376677
659.082465	2554.024979
659.424266	2552.827705
659.766016	2551.658157
660.107715	2552.169834
660.449362	2551.968188
660.790958	2555.466749
661.132503	2554.403065
661.473996	2554.186296
661.815438	2553.155380
662.156829	2556.255689
662.498168	2554.755946
662.839456	2557.024465
663.180693	2554.138405
663.521879	2556.114537
663.863013	2556.016235
664.204097	2555.766697
664.545129	2554.140925
664.886110	2552.537838
665.227040	2553.997253
665.567918	2556.911039
665.908746	2556.139743
666.249522	2556.157387
666.590248	2553.273847
666.930922	2553.334341
667.271545	2555.703683
667.612118	2555.214691
667.952639	2554.138405
668.293109	2555.832232
668.633528	2555.128992
668.973896	2553.420040
669.314213	2555.101265
669.654480	2556.008673
669.994695	2556.963972
670.334859	2554.309804
670.674973	2556.217881
671.015035	2554.617314
671.355047	2553.672098
671.695008	2553.803168
672.034918	2553.230997
672.374777	2554.725699
672.714585	2552.104299
673.054342	2555.796944
673.394049	2552.066491
673.733705	2553.891388
674.073310	2554.244269
674.412864	2554.924825
674.752368	2554.009855
675.091820	2552.507592
675.431223	2554.082952
675.770574	2557.420196
676.109875	2555.436502
676.449125	2551.980791
676.788324	2551.045657
677.127473	2550.292004
677.466571	2549.508105
677.805619	2553.319217
678.144616	2555.791903
678.483562	2553.225956
678.822458	2553.367108
679.161303	2552.880637
679.500098	2557.150494
679.838842	2555.935576
680.177535	2552.976419
680.516179	2558.259548
680.854771	2554.793755
681.193314	2554.733261
681.531805	2555.118909
681.870247	2556.656461
682.208638	2555.217212
682.546978	2556.064126
682.885268	2553.294012
683.223508	2555.146636
683.561697	2552.941131
683.899836	2557.392470
684.237925	2554.002294
684.575963	2554.617314
684.913951	2552.293343
685.251889	2555.239897
685.589776	2552.578168
685.927614	2552.656306
686.265401	2555.469269
686.603137	2554.793755
686.940824	2552.540359
687.278460	2555.746533
687.616046	2554.297201
687.953582	2555.315514
688.291068	2554.455998
688.628504	2556.477500
688.965889	2551.383414
689.303224	2558.060423
689.640510	2553.939279
689.977745	2553.462890
690.314930	2555.123950
690.652065	2556.711914
690.989150	2554.360216
691.326185	2553.414999
691.663170	2555.239897
692.000105	2554.738302
692.336990	2555.307952
692.673825	2554.597150
693.010610	2553.205791
693.347345	2552.472303
693.684030	2550.967519
694.020665	2549.797971
694.357251	2549.240924
694.693786	2555.340720
695.030272	2554.526574
695.366707	2550.846531
695.703093	2553.747715
696.039429	2553.689742
696.375716	2553.485575
696.711952	2556.343910
697.048139	2552.973898
697.384276	2555.948179
697.720363	2551.849721
698.056400	2553.818292
698.392388	2556.379198
698.728326	2556.031358
699.064214	2552.079093
699.400053	2553.954403
699.735842	2553.704866
700.071581	2553.457849
700.407270	2552.366439
700.742910	2554.355174
701.078501	2552.926007
701.414042	2553.752757
701.749533	2552.552962
702.084974	2554.219063
702.420366	2551.146480
702.755709	2554.879454
703.091002	2553.813250
703.426246	2552.527756
703.761440	2556.129661
704.096584	2557.059753
704.431679	2551.887530
704.766725	2554.632438
705.101721	2555.499516
705.436668	2552.893240
705.771565	2555.106306
706.106413	2554.093034
706.441212	2552.522715
706.775961	2555.950700
707.110661	2553.241079
707.445311	2554.254351
707.779913	2556.490103
708.114465	2556.747202
708.448967	2554.062788
708.783421	2554.554300
709.117825	2549.384597
709.452180	2554.829043
709.786485	2552.316028
710.120742	2551.970709
710.454949	2550.539021
710.789107	2551.126315
711.123216	2546.372507
711.457275	2552.805020
711.791286	2554.443395
712.125247	2554.907181
712.459159	2555.222253
712.793023	2554.566903
713.126837	2552.769732
713.460602	2549.487940
713.794318	2552.242931
714.127985	2554.168652
714.461602	2552.552962
714.795171	2552.928528
715.128691	2553.072201
715.462162	2552.358877
715.795584	2553.319217
716.128957	2553.984650
716.462281	2552.343754
716.795556	2550.596994
717.128782	2554.745864
717.461960	2552.300904
717.795088	2553.258723
718.128167	2552.815102
718.461198	2554.335010
718.794180	2553.568754
719.127113	2553.162942
719.459997	2552.900802
719.792833	2551.527087
720.125619	2553.992211
720.458357	2554.060267
720.791046	2554.859290
721.123686	2553.258723
721.456278	2552.515153
721.788821	2552.991542
722.121315	2556.061605
722.453761	2554.128322
722.786158	2552.192519
723.118506	2552.832746
723.450805	2556.611091
723.783056	2554.594629
724.115259	2554.322407
724.447412	2551.312838
724.779518	2552.852911
725.111574	2549.387117
725.443582	2551.847200
725.775542	2550.418033
726.107453	2553.351985
726.439315	2551.569937
726.771129	2554.435833
727.102895	2548.847714
727.434612	2550.478527
727.766281	2548.010882
728.097901	2552.381563
728.429473	2550.135729
728.760996	2553.019269
729.092471	2550.528939
729.423897	2551.842159
729.755276	2551.751418
730.086606	2554.944989
730.417887	2554.869372
730.749120	2555.106306
731.080305	2554.738302
731.411442	2549.087169
731.742530	2551.469114
732.073570	2552.615976
732.404562	2554.488765
732.735506	2554.317366
733.066401	2553.319217
733.397249	2554.496327
733.728048	2549.810574
734.058798	2552.351316
734.389501	2551.098589
734.720156	2554.758467
735.050762	2551.224618
735.381320	2552.452139
735.711831	2553.248641
736.042293	2552.449618
736.372707	2551.789227
736.703073	2551.113713
737.033391	2552.681511
737.363661	2554.317366
737.693883	2552.283260
738.024056	2552.716799
738.354182	2554.539177
738.684260	2551.751418
739.014290	2551.900133
739.344272	2553.838456
739.674207	2554.183775
740.004093	2551.312838
740.333931	2553.654454
740.663722	2554.738302
740.993464	2551.907694
741.323159	2553.964485
741.652806	2552.729402
741.982405	2551.708569
742.311956	2550.211346
742.641460	2554.461039
742.970915	2553.099927
743.300323	2549.054401
743.629683	2550.392827
743.958996	2548.678835
744.288260	2547.209339
744.617477	2552.948692
744.946647	2553.621687
745.275768	2551.569937
745.604842	2552.305945
745.933869	2553.089845
746.262847	2550.899463
746.591778	2550.289484
746.920662	2550.745708
747.249498	2552.076573
747.578286	2552.051367
747.907027	2554.246790
748.235720	2550.057591
748.564365	2554.899619
748.892963	2553.614125
749.221514	2553.578837
749.550017	2552.308466
749.878473	2552.500030
750.206881	2554.196378
750.535242	2551.355688
750.863555	2553.551110
751.191821	2553.747715
751.520039	2551.665719
751.848210	2551.524567
752.176334	2552.928528
752.504411	2556.036399
752.832440	2549.666901
753.160421	2551.224618
753.488356	2550.213867
753.816243	2554.720658
754.144082	2550.934752
754.471875	2553.004145
754.799620	2552.253013
755.127318	2553.452808
755.454969	2552.893240
755.782572	2552.482386
756.110129	2551.486758
756.437638	2552.883157
756.765100	2552.931048
757.092515	2554.478683
757.419882	2550.165976
757.747203	2553.803168
758.074477	2550.811243
758.401703	2554.524053
758.728882	2551.431305
759.056014	2555.028168
759.383099	2551.370811
759.710138	2549.150183
760.037129	2547.327806
760.364073	2551.554813
760.690970	2547.809236
761.017820	2553.437684
761.344623	2551.305276
761.671379	2553.064639
761.998088	2552.968857
762.324751	2552.888199
762.651366	2553.702345
762.977935	2552.258054
763.304456	2550.808723
763.630931	2554.811399
763.957359	2556.505227
764.283740	2552.857952
764.610074	2552.018600
764.936362	2551.217056
765.262602	2550.463404
765.588796	2553.326779
765.914943	2554.582026
766.241044	2552.449618
766.567097	2554.279557
766.893104	2551.557334
767.219064	2552.520194
767.544978	2551.784186
767.870845	2554.161090
768.196665	2551.882488
768.522438	2551.390976
768.848165	2552.686553
769.173846	2552.568085
769.499479	2554.887016
769.825066	2551.769062
770.150607	2552.653785
770.476101	2549.056922
770.801548	2552.820143
771.126949	2551.002807
771.452303	2551.103630
771.777611	2550.284443
772.102872	2552.356357
772.428087	2548.817467
772.753256	2551.572457
773.078378	2550.513815
773.403453	2550.642365
773.728482	2551.801830
774.053465	2550.208825
774.378401	2550.259237
774.703291	2551.620348
775.028135	2551.980791
775.352932	2550.579350
775.677683	2550.808723
776.002388	2550.760832
776.327046	2548.641027
776.651658	2549.460214
776.976224	2543.635161
777.300743	2551.988353
777.625216	2549.334185
777.949643	2551.849721
778.274024	2552.167314
778.598359	2551.741336
778.922647	2549.981973
779.246889	2551.819474
779.571086	2549.934083
779.895236	2550.619679
780.219339	2550.967519
780.543397	2554.519012
780.867409	2548.961140
781.191374	2550.942313
781.515294	2549.563558
781.839167	2549.886192
782.162995	2552.540359
782.486776	2552.605894
782.810511	2550.022303
783.134201	2551.378373
783.457844	2551.769063
783.781441	2550.932231
784.104993	2552.968857
784.428498	2555.370967
784.751958	2552.074052
785.075372	2551.874927
785.398739	2551.295194
785.722061	2549.576161
786.045337	2551.229659
786.368568	2552.275698
786.691752	2551.244782
787.014891	2553.467931
787.337983	2551.438867
787.661030	2550.831408
787.984031	2552.089176
788.306987	2551.146480
788.629897	2550.637323
788.952760	2552.318548
789.275579	2550.859134
789.598351	2551.280071
789.921078	2552.618497
790.243759	2552.893240
790.566395	2550.561706
790.888984	2553.009186
791.211529	2552.953734
791.534027	2549.576161
791.856480	2552.026161
792.178888	2548.061294
792.501249	2546.793444
792.823566	2548.512477
793.145836	2546.402754
793.468062	2549.787889
793.790241	2549.795451
794.112375	2550.385266
794.434464	2549.523228
794.756507	2551.882488
795.078505	2551.607746
795.400457	2548.696479
795.722364	2549.293856
796.044226	2549.989535
796.366042	2550.339895
796.687812	2551.481717
797.009538	2549.994576
797.331218	2551.537169
797.652852	2549.863506
797.974442	2550.922149
798.295986	2552.104299
798.617484	2552.182437
798.938938	2552.411810
799.260346	2550.942313
799.581709	2548.988866
799.903026	2555.865000
800.224299	2548.232693
800.545526	2551.126315
800.866708	2548.149514
801.187845	2552.855431
801.508936	2548.709082
801.829983	2549.719833
802.150984	2549.550955
802.471940	2555.350802
802.792851	2551.592622
803.113717	2550.778476
803.434538	2551.983312
803.755314	2548.358722
804.076045	2553.379711
804.396731	2551.698486
804.717372	2548.746891
805.037967	2551.338044
805.358518	2550.448280
805.679024	2549.598846
805.999485	2549.515667
806.319901	2552.777293
806.640272	2553.220915
806.960598	2550.385266
807.280879	2551.758980
807.601115	2552.840308
807.921306	2549.944165
808.241453	2549.830739
808.561554	2547.267312
808.881611	2550.110523
809.201623	2543.935109
809.521590	2549.848383
809.841513	2552.923487
810.161390	2548.880481
810.481223	2550.208825
810.801011	2549.898794
811.120755	2550.506253
811.440453	2551.028013
811.760107	2549.256047
812.079716	2548.938455
812.399281	2552.870555
812.718801	2551.212015
813.038276	2551.607746
813.357707	2550.934752
813.677093	2550.256716
813.996434	2548.194884
814.315731	2552.023641
814.634983	2546.546427
814.954191	2549.122457
815.273354	2551.527087
815.592473	2551.940462
815.911547	2551.574978
816.230577	2549.319062
816.549562	2549.442570
816.868502	2550.813764
817.187399	2549.649257
817.506250	2549.157745
817.825058	2550.057591
818.143821	2549.561037
818.462539	2551.244782
818.781213	2548.593136
819.099843	2548.872920
819.418429	2549.974412
819.736970	2552.169834
820.055466	2549.465255
820.373919	2551.025492
820.692327	2548.164638
821.010691	2550.697817
821.329011	2551.443908
821.647286	2551.025492
821.965517	2551.045657
822.283704	2549.127498
822.601847	2550.743188
822.919945	2550.660009
823.237999	2552.119423
823.556010	2550.090358
823.873976	2548.958619
824.191897	2547.131201
824.509775	2547.211859
824.827609	2549.190512
825.145398	2546.990049
825.463144	2550.178578
825.780845	2549.813095
826.098502	2552.333672
826.416116	2547.244627
826.733685	2548.320913
827.051210	2550.917107
827.368692	2547.015254
827.686129	2547.095913
828.003522	2551.910215
828.320872	2549.513146
828.638177	2548.951057
828.955439	2552.326110
829.272656	2550.256716
829.589830	2548.847714
829.906960	2551.985832
830.224046	2546.395192
830.541088	2550.685214
830.858086	2549.263609
831.175041	2547.499205
831.491952	2550.511295
831.808819	2550.153373
832.125642	2550.415513
832.442421	2552.832746
832.759157	2550.559186
833.075849	2549.921480
833.392497	2548.086500
833.709101	2549.583722
834.025662	2550.193702
834.342179	2550.100441
834.658653	2548.802343
834.975083	2548.444422
835.291469	2558.614949
835.607811	2551.464073
835.924110	2549.293856
836.240366	2550.710420
836.556578	2551.174206
836.872746	2548.956099
837.188871	2549.674463
837.504952	2549.661860
837.820990	2549.150183
838.136984	2550.284443
838.452935	2547.489123
838.768842	2548.759494
839.084706	2547.680687
839.400526	2549.283774
839.716303	2549.913918
840.032037	2546.906870
840.347727	2547.388300
840.663373	2549.707231
840.978977	2544.043494
841.294537	2549.046839
841.610054	2551.479196
841.925527	2550.203784
842.240957	2549.397200
842.556344	2549.200595
842.871687	2549.535831
843.186987	2549.840821
843.502244	2549.606408
843.817458	2550.108002
844.132629	2548.946016
844.447756	2548.832590
844.762840	2548.537683
845.077881	2550.571788
845.392879	2547.778989
845.707833	2551.229659
846.022745	2548.179761
846.337613	2549.442570
846.652438	2546.790923
846.967221	2552.061449
847.281960	2550.571788
847.596656	2548.847714
847.911309	2549.477858
848.225919	2548.762014
848.540485	2548.572971
848.855009	2549.215718
849.169490	2549.122457
849.483928	2549.921480
849.798323	2550.937272
850.112675	2548.741850
850.426984	2548.608259
850.741251	2549.167827
851.055474	2549.223280
851.369654	2552.268137
851.683792	2549.243444
851.997887	2549.419885
852.311938	2549.145142
852.625947	2550.400389
852.939914	2549.908877
853.253837	2550.788558
853.567718	2547.277394
853.881555	2550.909546
854.195350	2547.940306
854.509103	2549.392158
854.822812	2549.964329
855.136479	2549.074566
855.450103	2548.653629
855.763685	2548.358722
856.077224	2544.771941
856.390720	2547.040460
856.704173	2542.533669
857.017584	2547.322765
857.330953	2548.220090
857.644278	2549.871068
857.957561	2553.074721
858.270802	2547.733619
858.584000	2547.441232
858.897155	2548.807385
859.210268	2546.203629
859.523339	2549.495502
859.836367	2548.081458
860.149352	2547.370656
860.462295	2549.566078
860.775195	2548.971222
861.088054	2548.479710
861.400869	2546.843855
861.713642	2548.457024
862.026373	2546.680018
862.339062	2549.011551
862.651708	2547.247147
862.964312	2551.527087
863.276873	2550.697817
863.589392	2547.932744
863.901869	2549.130018
864.214303	2547.945347
864.526696	2548.562889
864.839045	2549.356870
865.151353	2547.055584
865.463619	2548.479710
865.775842	2552.540359
866.088023	2548.714123
866.400162	2550.135729
866.712258	2548.051212
867.024313	2548.381407
867.336325	2546.846376
867.648296	2547.907539
867.960224	2549.119936
868.272110	2549.840821
868.583954	2549.276212
868.895755	2550.274360
869.207515	2546.700182
869.519233	2549.644216
869.830909	2549.671942
870.142542	2547.342929
870.454134	2547.279915
870.765684	2548.875440
871.077191	2548.177240
871.388657	2546.664894
871.700081	2544.219935
872.011463	2547.579864
872.322803	2542.508463
872.634101	2549.056922
872.945357	2548.857796
873.256571	2549.702189
873.567744	2549.853424
873.878874	2548.918290
874.189963	2548.618341
874.501010	2546.329658
874.812015	2548.220090
875.122979	2553.107489
875.433900	2549.072045
875.744780	2550.844011
876.055618	2544.219935
876.366415	2548.560368
876.677169	2547.862168
876.987882	2549.046839
877.298554	2546.816129
877.609183	2548.242775
877.919771	2547.605069
878.230317	2548.378887
878.540822	2549.843342
878.851285	2551.743857
879.161707	2551.033054
879.472087	2548.517518
879.782425	2550.251675
880.092722	2551.811912
880.402977	2546.175902
880.713191	2547.012734
881.023363	2548.373845
881.333494	2548.520039
881.643583	2549.072045
881.953631	2547.907539
882.263637	2548.041129
882.573602	2547.766386
882.883526	2545.954092
883.193408	2548.315872
883.503248	2548.618341
883.813048	2549.152704
884.122806	2548.625903
884.432522	2548.033568
884.742197	2546.553989
885.051831	2550.239072
885.361424	2549.379556
885.670975	2548.202446
885.980485	2547.574823
886.289954	2548.217570
886.599382	2548.293187
886.908768	2546.385110
887.218113	2543.108360
887.527417	2546.369987
887.836680	2544.008206
888.145901	2547.723537
888.455082	2548.008362
888.764221	2547.247147
889.073319	2546.226314
889.382376	2546.725388
889.691392	2547.630275
890.000366	2549.006510
890.309300	2546.871582
890.618193	2548.900646
890.927044	2546.430481
891.235855	2550.324772
891.544625	2547.569781
891.853353	2549.780327
892.162041	2547.673125
892.470687	2545.545758
892.779293	2548.250337
893.087858	2550.871737
893.396381	2548.696479
893.704864	2548.525080
894.013306	2547.287477
894.321707	2549.787889
894.630068	2545.775131
894.938387	2546.864020
895.246665	2546.745553
895.554903	2549.429967
895.863100	2549.704710
896.171256	2546.541386
896.479371	2544.582898
896.787446	2548.643547
897.095480	2546.105326
897.403473	2549.755122
897.711425	2547.274874
898.019336	2547.012734
898.327207	2547.123639
898.635038	2547.539534
898.942827	2548.036088
899.250576	2548.245296
899.558284	2549.339226
899.865952	2547.489123
900.173579	2548.988866
900.481165	2547.423588
900.788711	2548.020965
901.096216	2551.118754
901.403681	2546.899308
901.711105	2547.869730
902.018489	2547.353012
902.325832	2546.458207
902.633135	2544.519883
902.940397	2543.375541
903.247619	2546.884184
903.554800	2547.322765
903.861941	2546.082641
904.169041	2549.180430
904.476101	2545.336550
904.783121	2546.064997
905.090100	2549.190512
905.397039	2551.128836
905.703938	2548.993907
906.010796	2550.367622
906.317614	2546.559030
906.624391	2548.628424
906.931129	2547.196736
907.237826	2546.125491
907.544483	2549.908877
907.851099	2547.680687
908.157675	2547.894936
908.464211	2546.881664
908.770707	2549.336706
909.077163	2545.286139
909.383578	2547.988197
909.689954	2551.333003
909.996289	2548.830070
910.302584	2544.023330
910.608839	2546.967363
910.915054	2548.421736
911.221229	2542.253885
911.527363	2548.971222
911.833458	2547.652960
912.139513	2549.009031
912.445527	2546.901828
912.751502	2547.171530
913.057436	2548.154555
913.363331	2546.944678
913.669186	2547.965512
913.975000	2546.664894
914.280775	2543.262115
914.586510	2548.983825
914.892205	2547.804195
915.197859	2547.232024
915.503475	2545.583567
915.809050	2547.181612
916.114585	2545.114739
916.420081	2547.617672
916.725536	2547.219421
917.030952	2548.336037
917.336328	2547.894936
917.641665	2543.252033
917.946961	2545.172713
918.252218	2545.245809
918.557435	2542.296734
918.862612	2545.092054
919.167750	2547.418547
919.472848	2549.455173
919.777906	2547.337888
920.082925	2546.627086
920.387904	2547.610111
920.692843	2547.877292
920.997743	2548.048691
921.302603	2547.773948
921.607423	2549.921480
921.912204	2545.109698
922.216946	2546.269164
922.521647	2546.748073
922.826310	2548.686397
923.130932	2548.194884
923.435516	2542.942002
923.740059	2546.039791
924.044564	2545.596170
924.349028	2547.955430
924.653454	2547.347971
924.957840	2547.216901
925.262186	2546.672456
925.566493	2546.826211
925.870761	2546.997610
926.174989	2547.778989
926.479178	2546.390151
926.783328	2548.605738
927.087438	2547.824360
927.391509	2548.822508
927.695541	2545.424770
927.999533	2548.819987
928.303486	2547.176571
928.607400	2546.553989
928.911275	2545.734801
929.215110	2547.927703
929.518906	2546.314534
929.822663	2547.728578
930.126381	2547.295038
930.430060	2544.245140
930.733699	2547.554658
931.037299	2548.915769
931.340861	2550.181099
931.644383	2547.221942
931.947866	2545.674308
932.251309	2548.467107
932.554714	2545.487785
932.858080	2545.407126
933.161407	2541.288504
933.464694	2545.349153
933.767943	2542.480737
934.071153	2544.913093
934.374323	2547.264792
934.677455	2547.937786
934.980548	2546.717826
935.283602	2546.584236
935.586617	2550.566747
935.889593	2546.856458
936.192530	2548.502395
936.495428	2547.211859
936.798287	2546.168341
937.101108	2548.704041
937.403890	2544.545089
937.706632	2544.509801
938.009336	2545.644061
938.312002	2547.758825
938.614628	2546.972405
938.917216	2547.441232
939.219765	2547.960471
939.522275	2545.732281
939.824747	2546.770758
940.127179	2546.687579
940.429573	2547.030378
940.731929	2546.972405
941.034246	2546.700182
941.336524	2545.366797
941.638763	2546.896787
941.940964	2546.997610
942.243126	2544.701365
942.545250	2545.381921
942.847335	2545.321427
943.149381	2546.072559
943.451389	2546.601880
943.753359	2545.933927
944.055290	2545.671787
944.357182	2548.141952
944.659036	2546.921993
944.960851	2545.215563
945.262628	2546.395192
945.564367	2547.100954
945.866067	2550.032385
946.167729	2545.898639
946.469352	2545.893598
946.770937	2549.999618
947.072484	2544.968546
947.373992	2546.841335
947.675462	2544.842517
947.976893	2548.711603
948.278286	2543.972918
948.579641	2544.416540
948.880958	2538.936805
949.182236	2545.034081
949.483476	2544.419060
949.784678	2546.644730
950.085841	2546.004503
950.386967	2545.533155
950.688054	2546.309493
950.989103	2544.061138
951.290114	2547.380738
951.591087	2544.892929
951.892021	2547.206818
952.192917	2548.396531
952.493776	2545.538196
952.794596	2546.168341
953.095378	2546.783361
953.396122	2544.222455
953.696828	2547.307641
953.997496	2545.732281
954.298126	2544.784544
954.598718	2547.806716
954.899272	2546.150697
955.199788	2547.962991
955.500266	2548.338557
955.800706	2547.610111
956.101108	2547.151366
956.401472	2545.384441
956.701798	2545.976777
957.002087	2542.369831
957.302337	2549.303938
957.602550	2544.338402
957.902724	2545.447456
958.202861	2544.986190
958.502960	2546.826211
958.803022	2547.892415
959.103045	2543.771272
959.403031	2548.726726
959.702979	2545.999462
960.002889	2547.743701
960.302762	2546.916952
960.602596	2545.659184
960.902393	2545.250851
961.202153	2545.223124
961.501875	2543.161292
961.801559	2547.065666
962.101205	2545.780172
962.400814	2546.858979
962.700385	2543.604914
962.999918	2545.273536
963.299414	2540.691127
963.598873	2544.706406
963.898293	2540.557536
964.197677	2547.244627
964.497022	2547.685728
964.796331	2549.198074
965.095601	2543.451159
965.394835	2546.478372
965.694030	2546.740512
965.993189	2546.846376
966.292309	2544.499719
966.591393	2548.383928
966.890439	2542.490819
967.189447	2547.821839
967.488419	2545.523073
967.787353	2546.513660
968.086249	2545.593649
968.385108	2548.671273
968.683930	2547.887374
968.982714	2548.280584
969.281462	2544.328319
969.580172	2547.060625
969.878844	2545.714637
970.177480	2546.415357
970.476078	2546.072559
970.774639	2546.629606
971.073162	2549.750080
971.371649	2545.530635
971.670098	2546.541386
971.968510	2545.744884
972.266885	2545.331509
972.565223	2545.941489
972.863524	2547.605069
973.161788	2547.325285
973.460014	2547.350491
973.758204	2546.765717
974.056356	2545.492826
974.354471	2546.871582
974.652550	2546.241437
974.950591	2549.878630
975.248595	2548.794782
975.546563	2546.629606
975.844493	2546.178423
976.142386	2544.492157
976.440243	2545.192877
976.738062	2544.275387
977.035845	2547.491643
977.333590	2545.477702
977.631299	2545.976777
977.928971	2543.879657
978.226606	2540.986034
978.524204	2542.831097
978.821765	2540.744059
979.119290	2548.086500
979.416777	2546.009544
979.714228	2548.381407
980.011642	2544.308155
980.309020	2545.104657
980.606360	2543.436035
980.903664	2549.765204
981.200931	2542.657177
981.498162	2545.465100
981.795356	2544.988711
982.092513	2548.983825
982.389633	2543.418391
982.686717	2545.891077
982.983764	2546.140614
983.280775	2544.837476
983.577749	2545.339071
983.874686	2545.669266
984.171587	2545.906201
984.468451	2548.144473
984.765279	2546.760676
985.062070	2545.349153
985.358824	2547.658002
985.655543	2546.617003
985.952224	2545.215562
986.248869	2546.785882
986.545478	2548.083979
986.842050	2544.776982
987.138586	2544.351005
987.435086	2547.050543
987.731549	2545.754966
988.027975	2546.914431
988.324366	2545.825542
988.620719	2545.480223
988.917037	2544.829914
989.213318	2546.604400
989.509563	2545.621375
989.805772	2546.828732
990.101944	2545.094575
990.398080	2545.477702
990.694180	2545.127342
990.990244	2544.298073
991.286271	2544.444266
991.582262	2544.227496
991.878217	2545.407126
992.174136	2550.125646
992.470019	2546.369987
992.765865	2543.862013
993.061676	2538.896476
993.357450	2542.334543
993.653188	2539.894625
993.948890	2544.330840
994.244556	2547.012734
994.540186	2543.214224
994.835780	2544.890408
995.131337	2543.425953
995.426859	2543.945192
995.722345	2547.428629
996.017795	2547.027857
996.313208	2545.956612
996.608586	2544.434184
996.903928	2544.545089
997.199234	2545.931406
997.494504	2547.063145
997.789738	2544.184647
998.084936	2545.316386
998.380099	2546.503577
998.675225	2544.270346
998.970316	2543.932589
999.265371	2546.848896
999.560390	2545.190357
999.855373	2545.886036
1000.150320	2545.323947
1000.445232	2544.280428
1000.740108	2544.310675
1001.034948	2546.254040
1001.329752	2543.766231
1001.624521	2546.012065
1001.919254	2545.364277
1002.213951	2543.340253
1002.508613	2544.897970
1002.803239	2544.542568
1003.097829	2544.492157
1003.392384	2544.338402
1003.686903	2545.419729
1003.981386	2545.281098
1004.275834	2543.486447
1004.570246	2544.567774
1004.864623	2543.468803
1005.158964	2544.058618
1005.453270	2544.988711
1005.747540	2544.020809
1006.041775	2544.015768
1006.335974	2544.212373
1006.630138	2545.240768
1006.924266	2546.879143
1007.218359	2543.824204
1007.512416	2542.669780
1007.806438	2541.003678
1008.100425	2544.963505
1008.394376	2540.860006
1008.688292	2542.982331
1008.982172	2542.994934
1009.276017	2547.763866
1009.569827	2543.047866
1009.863602	2545.520552
1010.157341	2544.305634
1010.451045	2545.356715
1010.744714	2545.213042
1011.038347	2542.657177
1011.331945	2544.005686
1011.625508	2546.223793
1011.919036	2546.445604
1012.212528	2543.471323
1012.505986	2545.533155
1012.799408	2545.137425
1013.092795	2543.246992
1013.386147	2545.525593
1013.679464	2546.251520
1013.972745	2546.543907
1014.265992	2546.122970
1014.559204	2544.966025
1014.852380	2542.586601
1015.145521	2546.677497
1015.438628	2546.319575
1015.731699	2545.810419
1016.024736	2544.759338
1016.317737	2546.085162
1016.610703	2544.169523
1016.903635	2547.416026
1017.196531	2546.795964
1017.489393	2546.755635
1017.782219	2544.058618
1018.075011	2544.081303
1018.367768	2541.354039
1018.660490	2546.831252
1018.953177	2546.831252
1019.245829	2546.831252
