Dividing Wavelength (nm)	Counts (n)	Blue Motor Position (mm): 3.900000	Red Motor Position (mm): 0.000000	
326.493990	2159.847077
326.888308	2159.847077
327.282561	2159.847077
327.676750	2119.356530
328.070874	2113.934769
328.464933	2114.953082
328.858929	2116.868720
329.252859	2123.596140
329.646726	2134.013684
330.040528	2145.086579
330.434265	2155.733496
330.827938	2177.579336
331.221547	2194.293282
331.615091	2211.198791
332.008571	2227.824516
332.401986	2247.790006
332.795338	2266.492687
333.188625	2282.775614
333.581847	2303.703964
333.975006	2319.361788
334.368100	2341.424398
334.761129	2358.108096
335.154095	2373.218955
335.546996	2390.744526
335.939833	2407.186250
336.332606	2420.328538
336.725315	2432.936463
337.117960	2448.969853
337.510540	2459.410083
337.903056	2468.731176
338.295508	2479.466313
338.687896	2489.223467
339.080220	2492.381750
339.472480	2502.983296
339.864676	2505.186280
340.256807	2514.378824
340.648875	2514.920748
341.040879	2518.479803
341.432818	2523.841070
341.824694	2524.471214
342.216506	2526.049096
342.608253	2527.132944
342.999937	2528.531864
343.391557	2527.407687
343.783113	2525.277799
344.174605	2526.477594
344.566033	2525.983561
344.957397	2523.873838
345.348697	2524.693025
345.739934	2522.807634
346.131106	2519.540966
346.522215	2517.973167
346.913260	2516.264216
347.304241	2515.767662
347.695159	2510.119049
348.086012	2514.744308
348.476802	2504.906496
348.867528	2503.328615
349.258191	2501.838954
349.648789	2500.553460
350.039324	2499.313336
350.429796	2502.401043
350.820203	2499.336021
351.210548	2498.980620
351.600828	2496.265959
351.991045	2494.244456
352.381198	2495.824858
352.771288	2494.113386
353.161314	2493.074908
353.551276	2493.427789
353.941175	2491.398725
354.331010	2493.389980
354.720782	2491.013076
355.110490	2493.440392
355.500135	2492.069198
355.889717	2492.979126
356.279235	2491.655823
356.668689	2490.579537
357.058080	2493.382419
357.447408	2491.071050
357.836672	2494.236894
358.225873	2494.239415
358.615010	2494.965341
359.004084	2494.073057
359.393095	2493.800834
359.782043	2494.977944
360.170927	2494.347800
360.559748	2497.478356
360.948505	2496.485249
361.337199	2499.338542
361.725830	2497.478356
362.114398	2498.499190
362.502903	2499.789725
362.891344	2500.051865
363.279722	2497.468274
363.668037	2502.479181
364.056289	2499.061278
364.444478	2499.973727
364.832603	2504.016733
365.220665	2502.688389
365.608665	2502.201917
365.996601	2502.307782
366.384474	2506.504542
366.772284	2505.075375
367.160031	2505.955056
367.547715	2504.452792
367.935336	2503.351300
368.322893	2505.103101
368.710388	2500.329129
369.097820	2502.970693
369.485189	2500.971876
369.872495	2504.803153
370.259738	2506.502022
370.646918	2503.958759
371.034035	2508.909172
371.421090	2506.439007
371.808081	2508.021929
372.195010	2508.662156
372.581875	2506.998575
372.968678	2505.977742
373.355418	2507.480005
373.742096	2507.185098
374.128710	2509.562002
374.515262	2508.034532
374.901751	2508.604183
375.288177	2510.968484
375.674540	2508.813391
376.060841	2508.800788
376.447079	2512.440501
376.833254	2509.562002
377.219367	2510.071158
377.605417	2513.743639
377.991404	2511.923782
378.377329	2511.026457
378.763191	2511.969153
379.148991	2511.258350
379.534727	2515.835718
379.920402	2511.545696
380.306013	2516.962416
380.691563	2510.913031
381.077049	2514.169617
381.462474	2512.972342
381.847835	2509.710716
382.233134	2514.804802
382.618371	2514.058711
383.003545	2510.625685
383.388657	2515.371932
383.773706	2512.500995
384.158693	2516.173475
384.543618	2514.920748
384.928480	2515.984432
385.313280	2515.825636
385.698017	2514.104082
386.082692	2515.276150
386.467305	2514.605676
386.851856	2515.155162
387.236344	2518.283198
387.620770	2512.102743
388.005133	2513.121057
388.389435	2514.522497
388.773674	2511.454955
389.157851	2517.791686
389.541965	2516.002076
389.926018	2516.526356
390.310008	2520.629855
390.693936	2517.648013
391.077802	2517.711027
391.461606	2518.704134
391.845348	2517.837056
392.229027	2517.476613
392.612645	2519.606501
392.996200	2519.828312
393.379694	2518.111799
393.763125	2522.527850
394.146494	2517.174144
394.529801	2520.720596
394.913047	2522.421985
395.296230	2521.199506
395.679351	2520.418127
396.062410	2521.073477
396.445408	2518.255472
396.828343	2522.764784
397.211217	2523.115144
397.594028	2519.777900
397.976778	2520.342509
398.359466	2522.114475
398.742092	2520.995339
399.124656	2521.244876
399.507158	2523.339475
399.889598	2525.209743
400.271977	2523.704959
400.654294	2525.151770
401.036549	2521.509537
401.418742	2521.030627
401.800874	2521.932993
402.182944	2523.810823
402.564952	2523.286543
402.946898	2520.473579
403.328783	2522.326203
403.710606	2522.671523
404.092367	2525.159332
404.474067	2525.323169
404.855705	2524.624970
405.237282	2523.205885
405.618797	2524.922398
406.000250	2526.228057
406.381642	2524.183869
406.762972	2522.646317
407.144240	2522.903416
407.525447	2522.346368
407.906593	2517.753877
408.287677	2525.275278
408.668700	2522.684125
409.049661	2526.286030
409.430560	2525.834847
409.811399	2526.270906
410.192176	2524.506503
410.572891	2526.291071
410.953545	2526.638911
411.334138	2527.132944
411.714669	2527.047244
412.095139	2526.822913
412.475547	2528.040351
412.855894	2528.075639
413.236180	2529.088911
413.616405	2528.368026
413.996568	2528.529343
414.376670	2528.184024
414.756711	2526.510361
415.136691	2529.003212
415.516609	2529.028417
415.896466	2528.433561
416.276262	2529.598068
416.655997	2531.276772
417.035670	2528.557070
417.415283	2531.543953
417.794834	2528.683098
418.174324	2530.192924
418.553753	2530.019004
418.933121	2528.408356
419.312428	2528.657893
419.691674	2528.783922
420.070859	2528.345341
420.449983	2533.878008
420.829045	2529.766947
421.208047	2531.002029
421.586988	2530.999509
421.965867	2533.356248
422.344686	2529.247708
422.723444	2528.705784
423.102141	2532.083357
423.480777	2532.872297
423.859352	2533.883049
424.237866	2530.636546
424.616319	2531.929602
424.994712	2533.477236
425.373044	2531.574200
425.751314	2529.419107
426.129524	2528.821730
426.507673	2529.280475
426.885762	2529.517409
427.263789	2532.960517
427.641756	2528.715866
428.019662	2529.575383
428.397508	2530.384488
428.775292	2534.266176
429.153016	2530.760054
429.530679	2532.695857
429.908282	2531.732997
430.285824	2535.781043
430.663305	2533.411701
431.040726	2536.002854
431.418086	2534.286341
431.795385	2534.818183
432.172624	2532.680733
432.549802	2534.520755
432.926920	2535.811290
433.303977	2534.220806
433.680974	2535.896990
434.057910	2533.426824
434.434786	2536.897659
434.811601	2534.465302
435.188355	2534.815662
435.565050	2534.026722
435.941683	2533.144520
436.318257	2537.734490
436.694770	2533.446989
437.071222	2536.617875
437.447614	2535.014788
437.823946	2537.230375
438.200218	2535.501259
438.576429	2536.305323
438.952580	2537.137113
439.328670	2537.384130
439.704700	2534.982020
440.080670	2536.340611
440.456580	2536.174253
440.832429	2535.032432
441.208218	2536.476722
441.583947	2535.229037
441.959616	2536.728780
442.335224	2537.056455
442.710773	2535.937319
443.086261	2535.685261
443.461689	2537.981507
443.837057	2538.984696
444.212365	2535.226516
444.587612	2533.210055
444.962800	2532.126207
445.337927	2534.888759
445.712995	2531.226361
446.088002	2540.179450
446.462949	2538.657021
446.837837	2539.889583
447.212664	2538.631816
447.587431	2539.045190
447.962139	2536.973276
448.336786	2537.454706
448.711374	2536.542257
449.085901	2538.064686
449.460369	2539.289686
449.834776	2540.008051
450.209124	2539.831610
450.583412	2540.131559
450.957640	2537.915972
451.331808	2538.346990
451.705917	2537.689120
452.079965	2540.446631
452.453954	2539.607279
452.827883	2537.144675
453.201752	2540.744059
453.575562	2537.857998
453.949311	2541.893442
454.323001	2539.524100
454.696632	2540.602907
455.070202	2540.098791
455.443713	2539.965201
455.817164	2538.483102
456.190556	2538.888914
456.563888	2541.379244
456.937160	2540.764224
457.310373	2539.125849
457.683526	2540.116435
458.056619	2542.100129
458.429653	2536.569984
458.802628	2540.867567
459.175542	2540.358411
459.548398	2543.108360
459.921194	2539.957639
460.293930	2539.582073
460.666607	2541.699358
461.039224	2543.655325
461.411782	2540.912938
461.784280	2539.627443
462.156719	2539.486291
462.529099	2543.579708
462.901419	2540.587783
463.273680	2541.023843
463.645882	2538.157947
464.018024	2539.221631
464.390106	2536.990920
464.762130	2543.204142
465.134094	2541.117104
465.505999	2543.846889
465.877845	2541.021322
466.249631	2543.988042
466.621358	2541.180119
466.993026	2544.633309
467.364634	2545.568443
467.736184	2543.156251
468.107674	2543.526776
468.479105	2544.890408
468.850477	2542.735315
469.221790	2544.802188
469.593043	2539.229192
469.964238	2543.599873
470.335373	2541.462423
470.706449	2543.690613
471.077467	2541.071734
471.448425	2542.309337
471.819324	2542.024512
472.190164	2546.574153
472.560945	2542.843700
472.931667	2540.917979
473.302330	2546.306972
473.672934	2541.069213
474.043479	2544.542568
474.413965	2541.812784
474.784393	2540.600386
475.154761	2542.231199
475.525070	2543.153731
475.895321	2543.564585
476.265513	2542.851261
476.635645	2542.992414
477.005719	2543.930068
477.375734	2546.483413
477.745691	2543.957795
478.115588	2541.908566
478.485427	2543.027702
478.855207	2545.717157
479.224928	2545.366797
479.594591	2546.347302
479.964194	2545.437373
480.333739	2541.757331
480.703226	2544.522404
481.072653	2546.440563
481.442022	2542.415202
481.811333	2540.005530
482.180584	2539.617361
482.549777	2544.439225
482.918912	2538.578883
483.287988	2545.568443
483.657005	2546.775800
484.025964	2546.317055
484.394864	2546.816129
484.763706	2546.085162
485.132489	2545.598690
485.501213	2543.209183
485.869879	2544.308155
486.238487	2544.441745
486.607036	2546.717826
486.975527	2544.356046
487.343959	2547.073228
487.712333	2545.250851
488.080648	2545.593649
488.448905	2547.133722
488.817104	2545.404606
489.185244	2545.465100
489.553326	2547.645399
489.921350	2547.748742
490.289315	2544.459389
490.657222	2545.891077
491.025070	2545.994421
491.392861	2547.282436
491.760593	2547.272353
492.128267	2547.965512
492.495883	2550.286963
492.863440	2546.846376
493.230939	2544.615665
493.598380	2544.877805
493.965763	2545.170192
494.333088	2546.617003
494.700354	2545.273536
495.067563	2545.331509
495.434713	2543.851930
495.801805	2547.864689
496.168839	2546.884184
496.535815	2548.262940
496.902733	2545.906201
497.269593	2547.242106
497.636395	2544.686241
498.003139	2547.305121
498.369825	2546.889226
498.736453	2546.584236
499.103023	2550.032385
499.469535	2547.975594
499.835989	2546.735470
500.202385	2543.367980
500.568723	2540.499563
500.935003	2545.462579
501.301226	2542.185829
501.667390	2547.002652
502.033497	2547.650440
502.399546	2547.647919
502.765537	2547.484082
503.131470	2546.574153
503.497345	2546.743032
503.863163	2548.943496
504.228923	2548.827549
504.594625	2548.313352
504.960269	2545.260933
505.325856	2548.575492
505.691385	2547.836963
506.056856	2548.492312
506.422270	2547.184133
506.787625	2545.976777
507.152924	2546.357384
507.518164	2547.978115
507.883347	2548.832590
508.248472	2548.227652
508.613540	2545.893598
508.978550	2549.006510
509.343503	2547.806716
509.708398	2546.659853
510.073236	2547.436191
510.438016	2544.776982
510.802738	2548.295708
511.167403	2549.621531
511.532010	2546.243958
511.896561	2546.889226
512.261053	2547.945347
512.625488	2547.549617
512.989866	2546.672456
513.354186	2549.422405
513.718449	2548.043650
514.082655	2550.768393
514.446803	2549.487940
514.810894	2547.637837
515.174927	2550.473486
515.538904	2547.045501
515.902822	2545.578526
516.266684	2549.649257
516.630488	2547.463917
516.994235	2548.522559
517.357925	2546.813608
517.721558	2552.235369
518.085133	2546.748073
518.448651	2551.070863
518.812112	2543.103319
519.175516	2546.516180
519.538863	2541.850592
519.902152	2547.093392
520.265385	2548.431819
520.628560	2549.876109
520.991678	2548.192364
521.354739	2549.135060
521.717743	2547.310162
522.080690	2548.764535
522.443580	2548.026006
522.806413	2548.749411
523.169189	2549.258568
523.531908	2548.154555
523.894569	2547.075748
524.257174	2549.061963
524.619722	2548.580533
524.982213	2549.719833
525.344647	2546.672456
525.707025	2549.823177
526.069345	2547.189174
526.431608	2547.403423
526.793815	2545.386962
527.155964	2547.360573
527.518057	2549.649257
527.880093	2546.380069
528.242072	2547.940306
528.603995	2550.067673
528.965860	2548.520039
529.327669	2550.770914
529.689421	2549.659340
530.051117	2548.593136
530.412755	2548.963660
530.774337	2546.687579
531.135862	2548.298228
531.497331	2551.199412
531.858743	2549.724875
532.220098	2551.015410
532.581396	2549.722354
532.942638	2549.939124
533.303824	2547.244627
533.664953	2551.280071
534.026025	2551.534649
534.387040	2549.593805
534.747999	2551.227138
535.108902	2551.101110
535.469748	2548.467107
535.830537	2548.343598
536.191270	2549.150183
536.551947	2545.273536
536.912567	2543.310006
537.273131	2545.916283
537.633638	2544.839997
537.994089	2548.199926
538.354483	2549.157745
538.714821	2551.925338
539.075103	2547.317724
539.435328	2550.075235
539.795497	2548.204967
540.155609	2548.797302
540.515665	2548.489792
540.875665	2548.956099
541.235609	2552.290822
541.595496	2548.898125
541.955328	2547.847045
542.315102	2551.786707
542.674821	2551.401058
543.034483	2550.964998
543.394090	2547.715975
543.753640	2549.462735
544.113134	2549.387117
544.472571	2550.211346
544.831953	2551.945503
545.191278	2550.775955
545.550548	2549.326623
545.909761	2550.173537
546.268918	2552.033723
546.628019	2550.201264
546.987064	2550.884340
547.346053	2547.829401
547.704986	2551.922818
548.063863	2548.330996
548.422684	2548.946016
548.781449	2550.410472
549.140158	2549.719833
549.498811	2551.907694
549.857408	2549.734957
550.215949	2550.007179
550.574434	2551.703527
550.932864	2549.500543
551.291237	2551.184289
551.649555	2547.226983
552.007817	2551.580019
552.366022	2552.260575
552.724173	2549.021634
553.082267	2548.139432
553.440305	2548.265461
553.798288	2548.613300
554.156215	2550.342416
554.514086	2549.394679
554.871902	2544.577857
555.229661	2549.543393
555.587365	2545.538196
555.945014	2551.471634
556.302606	2549.344268
556.660143	2548.509957
557.017625	2549.359391
557.375050	2550.493651
557.732421	2548.479710
558.089735	2550.445760
558.446994	2548.623383
558.804197	2550.226469
559.161345	2552.615976
559.518437	2550.531459
559.875474	2550.256716
560.232455	2552.101779
560.589381	2549.175389
560.946251	2552.580688
561.303065	2547.504246
561.659825	2551.685883
562.016528	2547.552137
562.373177	2547.940306
562.729770	2550.271840
563.086307	2552.600853
563.442789	2549.377035
563.799216	2551.285112
564.155587	2551.179247
564.511904	2550.372663
564.868164	2552.074052
565.224370	2550.163455
565.580520	2550.349978
565.936615	2555.912891
566.292654	2550.702858
566.648638	2549.354350
567.004567	2549.949206
567.360441	2549.399720
567.716260	2549.356870
568.072023	2549.200595
568.427732	2550.259237
568.783385	2550.591953
569.138982	2546.750594
569.494525	2551.333003
569.850013	2551.925338
570.205445	2549.848383
570.560823	2548.220090
570.916145	2549.989535
571.271412	2546.357384
571.626625	2551.353167
571.981782	2550.934752
572.336884	2546.682538
572.691931	2544.414019
573.046923	2546.092723
573.401860	2546.218752
573.756743	2552.464742
574.111570	2549.699669
574.466342	2549.843342
574.821059	2548.913249
575.175722	2550.498692
575.530330	2554.254351
575.884882	2550.816284
576.239380	2551.859803
576.593823	2552.028682
576.948211	2551.075904
577.302544	2551.564896
577.656823	2549.797971
578.011047	2548.900646
578.365216	2552.530277
578.719330	2551.731254
579.073389	2551.854762
579.427394	2552.192519
579.781344	2551.678322
580.135239	2551.169165
580.489080	2550.397869
580.842866	2552.862993
581.196597	2553.208312
581.550273	2551.212015
581.903895	2548.003321
582.257463	2553.052036
582.610975	2548.527601
582.964434	2549.651778
583.317837	2549.860986
583.671186	2552.731923
584.024481	2552.638662
584.377721	2552.091696
584.730906	2549.752601
585.084037	2552.106820
585.437113	2549.394679
585.790135	2550.407951
586.143103	2549.510626
586.496016	2551.602704
586.848874	2555.930535
587.201679	2553.898950
587.554428	2554.703014
587.907124	2550.531459
588.259765	2554.438353
588.612352	2551.514484
588.964884	2552.011038
589.317362	2552.681511
589.669786	2551.287632
590.022155	2548.378887
590.374470	2547.655481
590.726731	2547.703372
591.078937	2544.643392
591.431090	2553.959444
591.783188	2552.353836
592.135232	2552.303425
592.487222	2552.255534
592.839157	2550.312169
593.191038	2552.235369
593.542866	2549.684545
593.894639	2551.312838
594.246358	2550.339895
594.598022	2549.838301
594.949633	2551.300235
595.301190	2548.056253
595.652692	2549.109854
596.004141	2551.615307
596.355535	2552.903322
596.706876	2549.974412
597.058162	2549.490461
597.409395	2551.191850
597.760573	2551.748898
598.111698	2550.798640
598.462768	2550.102961
598.813785	2550.067673
599.164748	2551.688404
599.515657	2550.544062
599.866511	2551.149001
600.217312	2550.692776
600.568060	2552.905843
600.918753	2552.626059
601.269392	2551.459032
601.619978	2550.367622
601.970510	2546.720347
602.320988	2552.192519
602.671412	2552.454659
603.021783	2551.509443
603.372100	2549.792930
603.722363	2549.198074
604.072572	2552.631100
604.422728	2549.253527
604.772830	2552.590771
605.122878	2548.270502
605.472872	2550.899463
605.822813	2548.865358
606.172701	2550.914587
606.522534	2550.478527
606.872314	2551.315359
607.222041	2552.903322
607.571714	2549.409802
607.921333	2546.974925
608.270899	2551.048178
608.620411	2547.431150
608.969870	2554.544218
609.319276	2555.081101
609.668627	2559.744168
610.017926	2561.286761
610.367171	2563.920764
610.716362	2564.061916
611.065500	2561.944632
611.414585	2558.546894
611.763616	2557.369784
612.112594	2557.513457
612.461518	2557.266441
612.810389	2555.416337
613.159207	2555.832232
613.507971	2554.846687
613.856682	2553.271326
614.205340	2551.098589
614.553945	2555.391132
614.902496	2552.016079
615.250994	2550.869217
615.599439	2552.129505
615.947830	2553.445246
616.296169	2552.142108
616.644454	2552.474824
616.992686	2553.112530
617.340864	2553.800647
617.688990	2551.219577
618.037063	2549.036757
618.385082	2552.767211
618.733048	2553.311656
619.080961	2550.833928
619.428821	2552.096737
619.776628	2552.426933
620.124382	2553.253682
620.472083	2551.582540
620.819731	2552.464742
621.167326	2552.326110
621.514868	2550.281922
621.862357	2551.383414
622.209793	2550.561706
622.557176	2552.986501
622.904506	2553.664536
623.251783	2550.949875
623.599007	2550.019782
623.946179	2549.868548
624.293297	2552.137067
624.640363	2551.726213
624.987376	2550.748229
625.334336	2546.317055
625.681243	2548.850234
626.028097	2545.354194
626.374899	2554.246790
626.721647	2548.946016
627.068343	2553.011707
627.414987	2549.853424
627.761577	2552.139587
628.108115	2551.428785
628.454600	2552.903322
628.801032	2550.617159
629.147412	2552.245452
629.493739	2549.319062
629.840014	2552.275698
630.186236	2551.738816
630.532405	2551.562375
630.878521	2552.648744
631.224585	2551.007848
631.570597	2552.013558
631.916556	2553.140256
632.262462	2549.707231
632.608316	2550.423074
632.954117	2550.604556
633.299866	2550.397869
633.645562	2548.136911
633.991206	2547.284956
634.336797	2550.561706
634.682336	2551.711089
635.027823	2551.955585
635.373257	2551.269988
635.718639	2551.151521
636.063968	2551.983312
636.409245	2547.859648
636.754470	2550.092879
637.099642	2549.997097
637.444762	2552.724361
637.789829	2549.167827
638.134845	2549.760163
638.479808	2550.939793
638.824719	2549.709751
639.169577	2548.709082
639.514383	2549.742519
639.859137	2551.827036
640.203839	2550.609597
640.548489	2550.047508
640.893086	2551.590102
641.237632	2549.823177
641.582125	2549.742519
641.926566	2552.439536
642.270955	2546.533824
642.615292	2544.913093
642.959576	2550.352498
643.303809	2544.572815
643.647990	2550.458362
643.992118	2550.171017
644.336195	2551.428785
644.680219	2551.469114
645.024192	2550.617159
645.368112	2549.167827
645.711981	2548.116747
646.055797	2547.053063
646.399562	2552.469783
646.743274	2549.636654
647.086935	2552.308466
647.430544	2550.884340
647.774101	2553.208312
648.117606	2551.154042
648.461059	2552.870555
648.804460	2553.193188
649.147810	2548.366284
649.491108	2551.149001
649.834354	2550.554144
650.177548	2549.956768
650.520690	2548.273022
650.863781	2552.069011
651.206820	2549.956768
651.549807	2546.664894
651.892742	2551.398538
652.235626	2551.874927
652.578458	2548.033568
652.921238	2550.846531
653.263967	2552.714279
653.606644	2549.608928
653.949269	2550.465924
654.291843	2547.836962
654.634365	2549.500543
654.976836	2551.885009
655.319255	2549.591284
655.661622	2549.271171
656.003938	2548.706562
656.346203	2549.482899
656.688416	2551.731254
657.030577	2548.865358
657.372687	2549.394679
657.714746	2548.154555
658.056753	2551.143959
658.398708	2551.874927
658.740612	2549.634134
659.082465	2550.390307
659.424266	2547.990718
659.766016	2547.836963
660.107715	2548.729247
660.449362	2545.891077
660.790958	2553.140256
661.132503	2548.996428
661.473996	2549.465255
661.815438	2549.495502
662.156829	2549.712272
662.498168	2549.293856
662.839456	2549.755122
663.180693	2551.149001
663.521879	2550.085317
663.863013	2549.929041
664.204097	2551.595143
664.545129	2549.006510
664.886110	2551.385935
665.227040	2548.880481
665.567918	2548.953578
665.908746	2549.593805
666.249522	2550.312169
666.590248	2548.467107
666.930922	2548.280584
667.271545	2548.078938
667.612118	2550.060111
667.952639	2550.700338
668.293109	2548.787220
668.633528	2550.052550
668.973896	2551.080945
669.314213	2548.096582
669.654480	2550.465924
669.994695	2551.806871
670.334859	2552.126984
670.674973	2549.548434
671.015035	2551.282591
671.355047	2548.799823
671.695008	2552.459701
672.034918	2550.294525
672.374777	2552.865513
672.714585	2549.112374
673.054342	2550.483568
673.394049	2550.478527
673.733705	2550.647406
674.073310	2550.135729
674.412864	2548.330996
674.752368	2548.857796
675.091820	2549.150183
675.431223	2548.762014
675.770574	2549.929041
676.109875	2549.319062
676.449125	2549.324103
676.788324	2545.853268
677.127473	2548.091541
677.466571	2546.685059
677.805619	2547.993238
678.144616	2550.879299
678.483562	2551.741336
678.822458	2549.124977
679.161303	2549.187992
679.500098	2550.274360
679.838842	2550.050029
680.177535	2549.689587
680.516179	2550.317210
680.854771	2549.011551
681.193314	2548.109185
681.531805	2549.997097
681.870247	2548.323434
682.208638	2549.079607
682.546978	2548.683876
682.885268	2549.566078
683.223508	2548.935934
683.561697	2548.588094
683.899836	2548.245296
684.237925	2550.377704
684.575963	2548.522559
684.913951	2548.608259
685.251889	2547.988197
685.589776	2551.348126
685.927614	2548.409133
686.265401	2547.705892
686.603137	2546.828732
686.940824	2549.785368
687.278460	2549.671943
687.616046	2550.019782
687.953582	2550.357539
688.291068	2547.955430
688.628504	2551.043136
688.965889	2549.243444
689.303224	2548.769576
689.640510	2550.024823
689.977745	2547.484082
690.314930	2550.271840
690.652065	2549.354350
690.989150	2551.857283
691.326185	2546.559030
691.663170	2547.073228
692.000105	2552.240410
692.336990	2550.980122
692.673825	2550.622200
693.010610	2548.779658
693.347345	2547.781510
693.684030	2544.194729
694.020665	2545.810419
694.357251	2545.949050
694.693786	2551.060780
695.030272	2549.417364
695.366707	2548.114226
695.703093	2550.004659
696.039429	2547.088351
696.375716	2549.361912
696.711952	2549.344267
697.048139	2546.175902
697.384276	2549.382076
697.720363	2547.753783
698.056400	2550.793599
698.392388	2549.586243
698.728326	2549.314021
699.064214	2549.414844
699.400053	2549.906356
699.735842	2548.656150
700.071581	2551.277550
700.407270	2549.238403
700.742910	2549.999618
701.078501	2547.617672
701.414042	2550.521377
701.749533	2548.139432
702.084974	2548.530121
702.420366	2547.993238
702.755709	2548.391489
703.091002	2549.303938
703.426246	2549.069525
703.761440	2548.416695
704.096584	2548.222611
704.431679	2549.886192
704.766725	2548.051212
705.101721	2549.525749
705.436668	2547.582384
705.771565	2548.789741
706.106413	2551.753939
706.441212	2549.228321
706.775961	2549.687066
707.110661	2548.714123
707.445311	2549.177909
707.779913	2549.238403
708.114465	2548.310831
708.448967	2549.477858
708.783421	2549.984494
709.117825	2548.267981
709.452180	2549.573640
709.786485	2549.772766
710.120742	2546.417878
710.454949	2545.260933
710.789107	2546.198587
711.123216	2545.838145
711.457275	2549.540873
711.791286	2551.176727
712.125247	2549.944165
712.459159	2550.292004
712.793023	2550.309648
713.126837	2551.844680
713.460602	2549.906356
713.794318	2551.184289
714.127985	2548.726726
714.461602	2549.472817
714.795171	2549.457693
715.128691	2549.644216
715.462162	2548.187323
715.795584	2548.895605
716.128957	2547.471479
716.462281	2550.871737
716.795556	2547.955430
717.128782	2549.906356
717.461960	2548.756973
717.795088	2547.993238
718.128167	2548.298228
718.461198	2548.802343
718.794180	2548.242775
719.127113	2547.549617
719.459997	2547.831921
719.792833	2548.615821
720.125619	2548.394010
720.458357	2546.806047
720.791046	2544.071221
721.123686	2546.531304
721.456278	2548.850234
721.788821	2550.203784
722.121315	2549.293856
722.453761	2547.456355
722.786158	2548.893084
723.118506	2549.137580
723.450805	2547.642878
723.783056	2547.267312
724.115259	2551.431305
724.447412	2548.152035
724.779518	2546.879143
725.111574	2545.326468
725.443582	2548.938455
725.775542	2547.390820
726.107453	2548.411654
726.439315	2548.048691
726.771129	2548.729247
727.102895	2543.509132
727.434612	2546.596839
727.766281	2544.358566
728.097901	2553.760318
728.429473	2547.282436
728.760996	2550.206305
729.092471	2548.094061
729.423897	2549.155224
729.755276	2549.036757
730.086606	2548.560368
730.417887	2549.356870
730.749120	2550.460883
731.080305	2548.774617
731.411442	2544.855120
731.742530	2549.427447
732.073570	2548.101623
732.404562	2549.321582
732.735506	2547.330327
733.066401	2548.502395
733.397249	2548.091541
733.728048	2546.233876
734.058798	2550.665050
734.389501	2547.620193
734.720156	2550.486089
735.050762	2549.911397
735.381320	2547.287477
735.711831	2545.081972
736.042293	2546.503577
736.372707	2547.234545
736.703073	2546.117929
737.033391	2546.185985
737.363661	2548.346119
737.693883	2550.017262
738.024056	2549.046839
738.354182	2547.332847
738.684260	2548.857796
739.014290	2549.603887
739.344272	2549.303938
739.674207	2549.603887
740.004093	2547.405944
740.333931	2545.936447
740.663722	2549.850903
740.993464	2546.924514
741.323159	2547.431150
741.652806	2550.352498
741.982405	2546.314534
742.311956	2547.272353
742.641460	2545.570964
742.970915	2548.691438
743.300323	2544.966025
743.629683	2542.281611
743.958996	2545.618855
744.288260	2542.727753
744.617477	2545.865871
744.946647	2547.625234
745.275768	2548.058773
745.604842	2546.014585
745.933869	2546.019627
746.262847	2549.177909
746.591778	2546.095244
746.920662	2547.789072
747.249498	2548.242775
747.578286	2547.365615
747.907027	2547.501726
748.235720	2548.819988
748.564365	2547.267312
748.892963	2546.929555
749.221514	2548.933413
749.550017	2547.302600
749.878473	2547.615152
750.206881	2546.475851
750.535242	2545.402085
750.863555	2547.721016
751.191821	2547.373176
751.520039	2548.933413
751.848210	2548.086500
752.176334	2549.739998
752.504411	2545.452497
752.832440	2547.121119
753.160421	2548.507436
753.488356	2546.412837
753.816243	2546.448125
754.144082	2543.620037
754.471875	2546.617003
754.799620	2546.710265
755.127318	2547.738660
755.454969	2546.657332
755.782572	2546.869061
756.110129	2546.848896
756.437638	2546.702703
756.765100	2547.950388
757.092515	2545.959133
757.419882	2546.687579
757.747203	2546.826211
758.074477	2547.320244
758.401703	2548.192364
758.728882	2547.363094
759.056014	2546.501057
759.383099	2545.790254
759.710138	2545.099616
760.037129	2543.753628
760.364073	2544.766900
760.690970	2541.989224
761.017820	2545.971736
761.344623	2546.969884
761.671379	2544.419060
761.998088	2547.955430
762.324751	2548.373845
762.651366	2544.744215
762.977935	2545.966694
763.304456	2548.230172
763.630931	2545.429812
763.957359	2545.598690
764.283740	2547.035419
764.610074	2545.792775
764.936362	2546.962322
765.262602	2548.706562
765.588796	2544.993752
765.914943	2547.226983
766.241044	2549.535831
766.567097	2546.662374
766.893104	2548.620862
767.219064	2545.026519
767.544978	2546.614483
767.870845	2544.708927
768.196665	2546.312013
768.522438	2545.369318
768.848165	2547.209339
769.173846	2545.371838
769.499479	2545.921324
769.825066	2546.400234
770.150607	2548.099103
770.476101	2545.901159
770.801548	2549.881150
771.126949	2545.313865
771.452303	2548.086500
771.777611	2545.167672
772.102872	2547.252189
772.428087	2546.395192
772.753256	2546.334699
773.078378	2547.105995
773.403453	2548.280584
773.728482	2549.775286
774.053465	2545.608772
774.378401	2547.176571
774.703291	2547.695810
775.028135	2545.933927
775.352932	2544.356046
775.677683	2548.298228
776.002388	2544.058618
776.327046	2544.787064
776.651658	2544.061138
776.976224	2542.332022
777.300743	2546.644730
777.625216	2549.039278
777.949643	2547.211859
778.274024	2546.617003
778.598359	2547.897456
778.922647	2544.870243
779.246889	2545.548279
779.571086	2547.060625
779.895236	2548.709082
780.219339	2547.501726
780.543397	2546.317055
780.867409	2548.477189
781.191374	2547.128680
781.515294	2544.789585
781.839167	2546.490974
782.162995	2548.704041
782.486776	2548.078938
782.810511	2546.546427
783.134201	2547.844524
783.457844	2546.964843
783.781441	2545.760007
784.104993	2544.535007
784.428498	2546.057435
784.751958	2546.410316
785.075372	2546.155738
785.398739	2545.220604
785.722061	2548.371325
786.045337	2546.813608
786.368568	2547.955430
786.691752	2547.486602
787.014891	2546.269164
787.337983	2545.059287
787.661030	2544.474513
787.984031	2549.387117
788.306987	2548.373845
788.629897	2546.518701
788.952760	2547.658002
789.275579	2547.766386
789.598351	2545.996941
789.921078	2548.051212
790.243759	2547.327806
790.566395	2544.456869
790.888984	2546.730429
791.211529	2546.642209
791.534027	2546.745553
791.856480	2545.218083
792.178888	2542.982331
792.501249	2544.764379
792.823566	2543.670449
793.145836	2541.974101
793.468062	2544.363608
793.790241	2545.800336
794.112375	2545.026519
794.434464	2546.465769
794.756507	2546.516180
795.078505	2546.687579
795.400457	2545.210521
795.722364	2546.672456
796.044226	2546.256561
796.366042	2545.255892
796.687812	2544.010727
797.009538	2545.853268
797.331218	2544.880326
797.652852	2544.918134
797.974442	2547.602549
798.295986	2547.461397
798.617484	2547.864689
798.938938	2545.540717
799.260346	2546.932075
799.581709	2546.604400
799.903026	2546.634647
800.224299	2545.409647
800.545526	2546.017106
800.866708	2547.252189
801.187845	2548.134391
801.508936	2546.659853
801.829983	2544.971067
802.150984	2545.684390
802.471940	2548.167158
802.792851	2547.143804
803.113717	2549.429967
803.434538	2545.268495
803.755314	2542.979811
804.076045	2546.458207
804.396731	2542.644574
804.717372	2544.829914
805.037967	2545.308824
805.358518	2545.323947
805.679024	2544.151879
805.999485	2545.702034
806.319901	2545.722198
806.640272	2543.796478
806.960598	2546.281767
807.280879	2542.994934
807.601115	2546.440563
807.921306	2543.672969
808.241453	2545.775131
808.561554	2543.587270
808.881611	2546.158258
809.201623	2541.588452
809.521590	2545.293700
809.841513	2547.037940
810.161390	2545.071890
810.481223	2546.740512
810.801011	2543.892260
811.120755	2547.398382
811.440453	2543.612476
811.760107	2546.826211
812.079716	2546.090203
812.399281	2545.029040
812.718801	2546.874102
813.038276	2545.823022
813.357707	2548.172199
813.677093	2544.842517
813.996434	2547.063145
814.315731	2544.522404
814.634983	2546.269164
814.954191	2544.106509
815.273354	2545.573484
815.592473	2546.024668
815.911547	2544.063659
816.230577	2547.484082
816.549562	2547.947868
816.868502	2546.642209
817.187399	2547.678166
817.506250	2542.384955
817.825058	2546.382590
818.143821	2547.857127
818.462539	2544.524924
818.781213	2548.303269
819.099843	2547.373176
819.418429	2546.614483
819.736970	2544.479554
820.055466	2545.374359
820.373919	2548.492312
820.692327	2543.035263
821.010691	2544.340922
821.329011	2546.690100
821.647286	2547.259750
821.965517	2542.296734
822.283704	2544.540048
822.601847	2546.299411
822.919945	2545.744884
823.237999	2546.216232
823.556010	2546.400234
823.873976	2544.736653
824.191897	2542.387475
824.509775	2540.280273
824.827609	2544.711447
825.145398	2539.529141
825.463144	2545.220604
825.780845	2546.185985
826.098502	2546.090203
826.416116	2544.696324
826.733685	2546.107847
827.051210	2544.802188
827.368692	2545.336550
827.686129	2545.830583
828.003522	2547.083310
828.320872	2544.671118
828.638177	2543.917465
828.955439	2545.029040
829.272656	2545.301262
829.589830	2544.862682
829.906960	2546.992569
830.224046	2544.686241
830.541088	2544.219935
830.858086	2545.127342
831.175041	2545.749925
831.491952	2546.342260
831.808819	2545.938968
832.125642	2543.070552
832.442421	2546.674977
832.759157	2545.447456
833.075849	2545.079451
833.392497	2544.043494
833.709101	2546.833773
834.025662	2545.497867
834.342179	2544.345963
834.658653	2545.197918
834.975083	2544.782023
835.291469	2551.363250
835.607811	2543.284801
835.924110	2544.812270
836.240366	2542.616848
836.556578	2545.346632
836.872746	2544.555171
837.188871	2546.367466
837.504952	2547.736139
837.820990	2546.811088
838.136984	2546.624565
838.452935	2545.797816
838.768842	2543.846889
839.084706	2545.457538
839.400526	2544.794626
839.716303	2545.578526
840.032037	2543.214224
840.347727	2540.640715
840.663373	2543.403268
840.978977	2540.539892
841.294537	2542.999975
841.610054	2544.640871
841.925527	2543.388144
842.240957	2544.678680
842.556344	2542.024512
842.871687	2541.240613
843.186987	2545.465100
843.502244	2543.519214
843.817458	2544.497198
844.132629	2546.685059
844.447756	2544.477033
844.762840	2545.724719
845.077881	2547.758825
845.392879	2544.484595
845.707833	2546.664894
846.022745	2541.787578
846.337613	2543.584749
846.652438	2546.813608
846.967221	2546.034750
847.281960	2545.858310
847.596656	2544.141797
847.911309	2543.224307
848.225919	2545.152548
848.540485	2543.320089
848.855009	2543.947712
849.169490	2543.549461
849.483928	2543.499050
849.798323	2543.327650
850.112675	2545.192877
850.426984	2545.240768
850.741251	2543.347815
851.055474	2544.482075
851.369654	2544.456869
851.683792	2544.605583
851.997887	2545.505429
852.311938	2545.543237
852.625947	2542.992414
852.939914	2545.427291
853.253837	2546.097764
853.567718	2543.264636
853.881555	2543.607434
854.195350	2542.218597
854.509103	2543.720860
854.822812	2542.926879
855.136479	2545.414688
855.450103	2544.996272
855.763685	2541.263298
856.077224	2537.384130
856.390720	2544.101467
856.704173	2538.619213
857.017584	2545.223124
857.330953	2545.200439
857.644278	2546.322096
857.957561	2544.421581
858.270802	2545.109698
858.584000	2544.903011
858.897155	2546.357384
859.210268	2542.664739
859.523339	2546.770758
859.836367	2543.894780
860.149352	2545.959133
860.462295	2540.504604
860.775195	2545.455017
861.088054	2543.844369
861.400869	2543.975439
861.713642	2543.564585
862.026373	2547.688248
862.339062	2543.927548
862.651708	2543.680531
862.964312	2543.806560
863.276873	2546.354863
863.589392	2544.071221
863.901869	2543.504091
864.214303	2544.517363
864.526696	2545.833104
864.839045	2542.904193
865.151353	2544.255223
865.463619	2544.303114
865.775842	2543.917465
866.088023	2544.688762
866.400162	2545.049204
866.712258	2544.303114
867.024313	2544.040974
867.336325	2546.493495
867.648296	2542.589121
867.960224	2545.633978
868.272110	2546.501057
868.583954	2544.219935
868.895755	2543.829245
869.207515	2542.069883
869.519233	2545.172713
869.830909	2546.417878
870.142542	2543.012578
870.454134	2543.073072
870.765684	2545.651622
871.077191	2545.341591
871.388657	2542.367311
871.700081	2541.437218
872.011463	2541.810263
872.322803	2536.126362
872.634101	2545.218083
872.945357	2546.478372
873.256571	2546.715306
873.567744	2545.623896
873.878874	2544.141797
874.189963	2543.441076
874.501010	2543.705737
874.812015	2542.188350
875.122979	2543.531817
875.433900	2543.703216
875.744780	2545.278577
876.055618	2546.246478
876.366415	2544.461910
876.677169	2544.590459
876.987882	2546.024668
877.298554	2544.388813
877.609183	2543.993083
877.919771	2544.356046
878.230317	2546.463248
878.540822	2545.283618
878.851285	2542.306817
879.161707	2543.428473
879.472087	2544.391334
879.782425	2542.359749
880.092722	2545.265974
880.402977	2544.363607
880.713191	2545.341591
881.023363	2543.229348
881.333494	2542.942002
881.643583	2542.735315
881.953631	2547.229503
882.263637	2545.860830
882.573602	2544.219935
882.883526	2544.787064
883.193408	2543.914945
883.503248	2543.753628
883.813048	2545.555840
884.122806	2544.414019
884.432522	2543.809081
884.742197	2544.880326
885.051831	2543.430994
885.361424	2542.969728
885.670975	2544.736653
885.980485	2544.038453
886.289954	2544.774462
886.599382	2540.769265
886.908768	2540.744059
887.218113	2537.890766
887.527417	2539.342618
887.836680	2539.869419
888.145901	2545.187836
888.455082	2544.345963
888.764221	2542.987373
889.073319	2542.878988
889.382376	2540.895294
889.691392	2541.328833
890.000366	2543.655325
890.309300	2541.953936
890.618193	2547.358053
890.927044	2541.926210
891.235855	2544.663556
891.544625	2541.981662
891.853353	2544.426622
892.162041	2543.390665
892.470687	2544.061138
892.779293	2544.338402
893.087858	2545.944009
893.396381	2541.084337
893.704864	2543.410829
894.013306	2542.780685
894.321707	2543.141128
894.630068	2542.221117
894.938387	2542.458051
895.246665	2543.239430
895.554903	2544.066179
895.863100	2544.366128
896.171256	2542.175747
896.479371	2542.752959
896.787446	2545.016437
897.095480	2544.381252
897.403473	2544.189688
897.711425	2544.219935
898.019336	2541.122146
898.327207	2546.445604
898.635038	2542.395037
898.942827	2545.886036
899.250576	2544.489636
899.558284	2544.121632
899.865952	2541.999306
900.173579	2542.185829
900.481165	2545.248330
900.788711	2544.812270
901.096216	2540.570139
901.403681	2542.667259
901.711105	2544.482075
902.018489	2545.427291
902.325832	2538.009233
902.633135	2540.935623
902.940397	2539.627443
903.247619	2540.986034
903.554800	2544.109029
903.861941	2541.807743
904.169041	2541.003678
904.476101	2543.297403
904.783121	2543.103319
905.090100	2544.343443
905.397039	2545.202960
905.703938	2544.098947
906.010796	2540.983514
906.317614	2541.434697
906.624391	2543.302445
906.931129	2543.201622
907.237826	2542.432846
907.544483	2540.428987
907.851099	2543.461241
908.157675	2544.078782
908.464211	2543.189019
908.770707	2542.019471
909.077163	2541.588452
909.383578	2544.459389
909.689954	2544.555171
909.996289	2542.200952
910.302584	2542.664739
910.608839	2540.108874
910.915054	2542.725233
911.221229	2542.929399
911.527363	2545.076931
911.833458	2541.701878
912.139513	2541.114584
912.445527	2544.207332
912.751502	2543.824204
913.057436	2543.723381
913.363331	2545.026519
913.669186	2543.670449
913.975000	2541.744728
914.280775	2542.778165
914.586510	2542.221117
914.892205	2541.590973
915.197859	2544.580377
915.503475	2540.479398
915.809050	2543.388144
916.114585	2543.393185
916.420081	2542.183308
916.725536	2542.800850
917.030952	2542.934440
917.336328	2543.332692
917.641665	2538.326826
917.946961	2541.374203
918.252218	2540.098791
918.557435	2538.261291
918.862612	2542.727753
919.167750	2541.056611
919.472848	2539.390509
919.777906	2544.187167
920.082925	2543.456200
920.387904	2542.518545
920.692843	2544.676159
920.997743	2541.230530
921.302603	2542.821014
921.607423	2541.596014
921.912204	2541.999306
922.216946	2538.157947
922.521647	2543.975439
922.826310	2544.368649
923.130932	2543.080634
923.435516	2542.599204
923.740059	2543.831766
924.044564	2541.084337
924.349028	2543.436035
924.653454	2541.469985
924.957840	2542.200953
925.262186	2542.984852
925.566493	2542.372352
925.870761	2539.713143
926.174989	2541.230530
926.479178	2544.469472
926.783328	2541.951415
927.087438	2540.038297
927.391509	2540.731456
927.695541	2542.861344
927.999533	2540.126518
928.303486	2542.899152
928.607400	2541.893442
928.911275	2541.079296
929.215110	2541.381765
929.518906	2542.480737
929.822663	2542.155582
930.126381	2543.720860
930.430060	2545.034081
930.733699	2540.968390
931.037299	2542.571477
931.340861	2541.379244
931.644383	2543.466282
931.947866	2541.399409
932.251309	2541.119625
932.554714	2542.175747
932.858080	2537.469830
933.161407	2537.374048
933.464694	2539.617361
933.767943	2539.251877
934.071153	2543.516694
934.374323	2541.328833
934.677455	2544.782023
934.980548	2542.132897
935.283602	2544.361087
935.586617	2540.383617
935.889593	2543.151210
936.192530	2541.676673
936.495428	2543.541899
936.798287	2544.890408
937.101108	2544.071221
937.403890	2542.054759
937.706632	2542.556354
938.009336	2542.470654
938.312002	2539.927392
938.614628	2540.870088
938.917216	2539.362783
939.219765	2539.955118
939.522275	2543.743546
939.824747	2540.897814
940.127179	2541.958977
940.429573	2542.795809
940.731929	2543.869574
941.034246	2540.486960
941.336524	2544.764379
941.638763	2543.617517
941.940964	2541.898483
942.243126	2539.579553
942.545250	2542.495860
942.847335	2543.360418
943.149381	2542.185829
943.451389	2542.238761
943.753359	2541.764893
944.055290	2543.725902
944.357182	2540.479398
944.659036	2541.843031
944.960851	2540.640715
945.262628	2541.046528
945.564367	2542.100129
945.866067	2544.640871
946.167729	2539.380427
946.469352	2540.965870
946.770937	2540.829759
947.072484	2541.613658
947.373992	2542.432846
947.675462	2541.240613
947.976893	2541.343956
948.278286	2539.032587
948.579641	2537.182484
948.880958	2540.320602
949.182236	2542.301776
949.483476	2540.353370
949.784678	2542.006868
950.085841	2544.093906
950.386967	2541.722043
950.688054	2542.100129
950.989103	2541.094419
951.290114	2540.219779
951.591087	2540.630633
951.892021	2542.145500
952.192917	2543.110881
952.493776	2543.441076
952.794596	2543.178936
953.095378	2545.142466
953.396122	2541.941333
953.696828	2536.869932
953.997496	2541.996786
954.298126	2540.355890
954.598718	2542.498381
954.899272	2540.860006
955.199788	2542.440407
955.500266	2541.941333
955.800706	2542.982331
956.101108	2539.783719
956.401472	2542.821014
956.701798	2541.515356
957.002087	2542.488298
957.302337	2543.531817
957.602550	2541.175078
957.902724	2541.346477
958.202861	2539.236754
958.502960	2540.618030
958.803022	2545.422250
959.103045	2540.512166
959.403031	2540.479398
959.702979	2542.122815
960.002889	2542.397558
960.302762	2541.641384
960.602596	2544.512322
960.902393	2541.540561
961.202153	2541.016281
961.501875	2541.742208
961.801559	2542.337064
962.101205	2544.575336
962.400814	2543.781354
962.700385	2542.788247
962.999918	2538.737680
963.299414	2538.115097
963.598873	2538.974614
963.898293	2536.622916
964.197677	2540.587783
964.497022	2542.563916
964.796331	2540.665921
965.095601	2539.796322
965.394835	2541.419574
965.694030	2540.025695
965.993189	2541.747249
966.292309	2541.354039
966.591393	2540.887732
966.890439	2541.580891
967.189447	2542.495860
967.488419	2542.480737
967.787353	2541.401930
968.086249	2541.137269
968.385108	2540.454193
968.683930	2540.746580
968.982714	2541.480068
969.281462	2541.626261
969.580172	2542.566436
969.878844	2539.929913
970.177480	2541.485109
970.476078	2543.360418
970.774639	2540.799512
971.073162	2540.000489
971.371649	2540.423946
971.670098	2542.899152
971.968510	2538.851106
972.266885	2541.553164
972.565223	2541.124666
972.863524	2539.481250
973.161788	2541.447300
973.460014	2540.318082
973.758204	2541.969059
974.056356	2538.674665
974.354471	2539.987886
974.652550	2540.371014
974.950591	2541.250695
975.248595	2540.348328
975.546563	2541.412012
975.844493	2538.904038
976.142386	2542.642053
976.440243	2540.103832
976.738062	2540.519728
977.035845	2542.029553
977.333590	2542.972249
977.631299	2542.332022
977.928971	2538.525951
978.226606	2539.670293
978.524204	2540.983514
978.821765	2533.391536
979.119290	2539.143493
979.416777	2539.667773
979.714228	2540.983514
980.011642	2538.528472
980.309020	2538.289017
980.606360	2540.257588
980.903664	2542.190870
981.200931	2539.950077
981.498162	2541.170037
981.795356	2539.115766
982.092513	2540.134079
982.389633	2541.792619
982.686717	2540.242464
982.983764	2539.524100
983.280775	2540.265149
983.577749	2540.870088
983.874686	2540.877650
984.171587	2540.764224
984.468451	2541.502753
984.765279	2539.229192
985.062070	2537.482432
985.358824	2541.933771
985.655543	2540.708771
985.952224	2540.403781
986.248869	2540.000489
986.545478	2540.060983
986.842050	2539.019984
987.138586	2540.943185
987.435086	2542.175747
987.731549	2537.921013
988.027975	2542.389996
988.324366	2537.898328
988.620719	2544.267826
988.917037	2540.365973
989.213318	2539.317413
989.509563	2538.674665
989.805772	2542.309337
990.101944	2540.839841
990.398080	2542.735315
990.694180	2539.198945
990.990244	2538.934285
991.286271	2540.655839
991.582262	2539.824048
991.878217	2541.071734
992.174136	2541.580891
992.470019	2540.633154
992.765865	2538.374717
993.061676	2538.173071
993.357450	2537.472350
993.653188	2535.856660
993.948890	2539.181301
994.244556	2541.492670
994.540186	2539.904707
994.835780	2537.971424
995.131337	2541.326312
995.426859	2539.907228
995.722345	2538.838503
996.017795	2538.546116
996.313208	2541.661549
996.608586	2540.383617
996.903928	2541.696837
997.199234	2537.273225
997.494504	2540.580222
997.789738	2539.685417
998.084936	2540.519728
998.380099	2540.907897
998.675225	2542.498381
998.970316	2538.984696
999.265371	2542.400078
999.560390	2540.005530
999.855373	2542.758000
1000.150320	2540.582742
1000.445232	2541.084337
1000.740108	2542.543751
1001.034948	2539.738349
1001.329752	2539.456044
1001.624521	2537.449665
1001.919254	2541.419574
1002.213951	2540.252547
1002.508613	2539.443441
1002.803239	2539.304810
1003.097829	2540.134079
1003.392384	2539.733308
1003.686903	2540.381096
1003.981386	2539.849254
1004.275834	2538.432690
1004.570246	2541.109543
1004.864623	2536.774150
1005.158964	2541.154913
1005.453270	2539.463606
1005.747540	2538.387320
1006.041775	2538.092412
1006.335974	2540.875129
1006.630138	2540.895294
1006.924266	2541.754810
1007.218359	2541.167516
1007.512416	2537.190046
1007.806438	2537.928575
1008.100425	2537.477391
1008.394376	2535.622247
1008.688292	2541.885880
1008.982172	2541.253216
1009.276017	2541.530479
1009.569827	2541.006199
1009.863602	2540.199614
1010.157341	2541.152393
1010.451045	2542.397558
1010.744714	2538.326826
1011.038347	2538.157947
1011.331945	2541.149872
1011.625508	2539.375386
1011.919036	2539.811446
1012.212528	2540.307999
1012.505986	2539.287166
1012.799408	2538.886394
1013.092795	2541.374203
1013.386147	2539.932433
1013.679464	2540.832279
1013.972745	2539.834131
1014.265992	2539.375386
1014.559204	2538.982176
1014.852380	2541.936292
1015.145521	2539.980324
1015.438628	2543.030222
1015.731699	2540.383617
1016.024736	2539.337577
1016.317737	2537.177443
1016.610703	2542.450490
1016.903635	2540.096271
1017.196531	2540.698689
1017.489393	2538.397402
1017.782219	2539.690458
1018.075011	2540.277752
1018.367768	2538.094933
1018.660490	2539.380427
1018.953177	2539.380427
1019.245829	2539.380427
