Dividing Wavelength (nm)	Counts (n)	Blue Motor Position (mm): 22.700000	Red Motor Position (mm): 0.000000	
326.493990	2189.990657
326.888308	2189.990657
327.282561	2189.990657
327.676750	2150.064718
328.070874	2146.485499
328.464933	2149.142187
328.858929	2151.854328
329.252859	2155.229380
329.646726	2166.365289
330.040528	2177.987669
330.434265	2190.101562
330.827938	2206.888604
331.221547	2225.664382
331.615091	2243.013513
332.008571	2261.910278
332.401986	2281.233021
332.795338	2297.815896
333.188625	2316.435398
333.581847	2336.068172
333.975006	2353.639113
334.368100	2371.343646
334.761129	2390.288302
335.154095	2407.009809
335.546996	2434.612647
335.939833	2465.590537
336.332606	2482.979998
336.725315	2494.226812
337.117960	2506.507063
337.510540	2517.249762
337.903056	2527.420289
338.295508	2539.004861
338.687896	2550.355019
339.080220	2554.592109
339.472480	2562.174004
339.864676	2567.028635
340.256807	2573.226734
340.648875	2574.580284
341.040879	2580.072621
341.432818	2584.594536
341.824694	2585.204515
342.216506	2585.711151
342.608253	2588.796338
342.999937	2587.387335
343.391557	2587.112592
343.783113	2584.569330
344.174605	2583.619072
344.566033	2584.607139
344.957397	2585.154104
345.348697	2584.012282
345.739934	2582.081521
346.131106	2581.348033
346.522215	2574.005592
346.913260	2575.361662
347.304241	2573.670355
347.695159	2569.859243
348.086012	2570.449058
348.476802	2569.372772
348.867528	2561.236349
349.258191	2558.819116
349.648789	2562.662996
350.039324	2555.708724
350.429796	2561.115362
350.820203	2558.544373
351.210548	2558.216698
351.600828	2554.811399
351.991045	2554.403065
352.381198	2552.878116
352.771288	2555.973385
353.161314	2553.016748
353.551276	2553.001625
353.941175	2551.312838
354.331010	2555.300391
354.720782	2551.428785
355.110490	2552.063970
355.500135	2551.292673
355.889717	2554.897098
356.279235	2550.110523
356.668689	2551.869886
357.058080	2552.782334
357.447408	2552.505071
357.836672	2551.948023
358.225873	2553.742674
358.615010	2553.478014
359.004084	2553.170503
359.393095	2553.601522
359.782043	2555.307953
360.170927	2554.642520
360.559748	2552.999104
360.948505	2557.074877
361.337199	2559.159394
361.725830	2555.335679
362.114398	2557.037068
362.502903	2558.897254
362.891344	2558.400700
363.279722	2560.402038
363.668037	2556.253169
364.056289	2559.913047
364.444478	2559.862635
364.832603	2564.210630
365.220665	2559.275341
365.608665	2562.017728
365.996601	2562.685681
366.384474	2562.153839
366.772284	2563.872873
367.160031	2562.105948
367.547715	2562.768860
367.935336	2565.034859
368.322893	2560.502862
368.710388	2561.874055
369.097820	2559.910526
369.485189	2560.157542
369.872495	2564.283727
370.259738	2563.600651
370.646918	2566.832030
371.034035	2567.258008
371.421090	2567.636094
371.808081	2566.196845
372.195010	2568.273800
372.581875	2566.819427
372.968678	2567.580642
373.355418	2569.156002
373.742096	2568.077195
374.128710	2570.406208
374.515262	2569.851681
374.901751	2570.474264
375.288177	2570.479305
375.674540	2572.092474
376.060841	2570.101218
376.447079	2571.298492
376.833254	2569.713050
377.219367	2569.902093
377.605417	2570.199521
377.991404	2571.747155
378.377329	2571.326219
378.763191	2570.338153
379.148991	2569.219017
379.534727	2573.256981
379.920402	2572.195818
380.306013	2573.826631
380.691563	2573.819069
381.077049	2574.013154
381.462474	2572.548699
381.847835	2575.500294
382.233134	2573.299831
382.618371	2576.173288
383.003545	2572.369738
383.388657	2574.398802
383.773706	2575.790161
384.158693	2576.052301
384.543618	2575.752352
384.928480	2572.931826
385.313280	2576.412743
385.698017	2574.035839
386.082692	2576.715212
386.467305	2579.313927
386.851856	2576.309399
387.236344	2579.238310
387.620770	2576.117836
388.005133	2574.507187
388.389435	2574.408884
388.773674	2573.907290
389.157851	2576.803432
389.541965	2581.199319
389.926018	2580.816191
390.310008	2579.631520
390.693936	2579.228227
391.077802	2578.756880
391.461606	2582.250399
391.845348	2579.840728
392.229027	2581.186716
392.612645	2581.950451
392.996200	2576.405181
393.379694	2580.864082
393.763125	2581.148907
394.146494	2580.629668
394.529801	2583.387179
394.913047	2580.196129
395.296230	2584.201326
395.679351	2583.815677
396.062410	2580.112950
396.445408	2584.123188
396.828343	2583.813157
397.211217	2581.022878
397.594028	2584.501274
397.976778	2585.023034
398.359466	2585.272571
398.742092	2583.177972
399.124656	2582.487333
399.507158	2583.619072
399.889598	2584.894484
400.271977	2584.667632
400.654294	2582.961202
401.036549	2585.534711
401.418742	2587.374732
401.800874	2586.731985
402.182944	2589.791965
402.564952	2584.972622
402.946898	2588.816502
403.328783	2586.389187
403.710606	2588.720720
404.092367	2588.904722
404.474067	2586.714341
404.855705	2586.321131
405.237282	2587.778024
405.618797	2586.558065
406.000250	2589.751636
406.381642	2588.955134
406.762972	2586.948755
407.144240	2585.494382
407.525447	2586.021182
407.906593	2586.232911
408.287677	2589.653334
408.668700	2592.587285
409.049661	2593.121647
409.430560	2591.984867
409.811399	2591.773139
410.192176	2594.928901
410.572891	2587.949424
410.953545	2593.535022
411.334138	2591.468149
411.714669	2591.637028
412.095139	2593.595516
412.475547	2593.787080
412.855894	2593.182141
413.236180	2592.040320
413.616405	2592.234404
413.996568	2593.290526
414.376670	2591.377408
414.756711	2595.400249
415.136691	2596.080805
415.516609	2594.240784
415.896466	2596.073243
416.276262	2595.276741
416.655997	2593.023345
417.035670	2594.160125
417.415283	2594.260948
417.794834	2596.186669
418.174324	2596.126175
418.553753	2596.206834
418.933121	2598.157760
419.312428	2596.166504
419.691674	2593.671133
420.070859	2597.421752
420.449983	2596.184148
420.829045	2598.946701
421.208047	2596.020311
421.586988	2596.695826
421.965867	2600.408635
422.344686	2599.266814
422.723444	2600.229674
423.102141	2596.965527
423.480777	2598.984509
423.859352	2598.513162
424.237866	2600.849736
424.616319	2597.174735
424.994712	2601.565580
425.373044	2601.691609
425.751314	2596.504262
426.129524	2596.811772
426.507673	2597.197420
426.885762	2598.402256
427.263789	2600.877463
427.641756	2602.243615
428.019662	2601.356372
428.397508	2602.127669
428.775292	2601.489963
429.153016	2604.222268
429.530679	2601.754623
429.908282	2603.773606
430.285824	2602.626743
430.663305	2604.512135
431.040726	2601.336208
431.418086	2603.846702
431.795385	2602.984665
432.172624	2601.515169
432.549802	2601.943667
432.926920	2603.166147
433.303977	2604.328132
433.680974	2605.888370
434.057910	2606.044645
434.434786	2606.659666
434.811601	2604.938112
435.188355	2605.921137
435.565050	2604.756631
435.941683	2605.928699
436.318257	2606.216045
436.694770	2606.331991
437.071222	2606.450458
437.447614	2607.776282
437.823946	2605.827876
438.200218	2606.735283
438.576429	2607.947681
438.952580	2609.518000
439.328670	2610.861468
439.704700	2605.822835
440.080670	2608.197218
440.456580	2607.982969
440.832429	2611.300048
441.208218	2608.822321
441.583947	2611.080758
441.959616	2610.725357
442.335224	2609.492795
442.710773	2611.819287
443.086261	2610.750562
443.461689	2609.243257
443.837057	2610.876591
444.212365	2613.256016
444.587612	2608.678648
444.962800	2609.369286
445.337927	2609.954060
445.712995	2608.325768
446.088002	2612.588063
446.462949	2612.288114
446.837837	2614.705348
447.212664	2615.143928
447.587431	2615.070831
447.962139	2617.132663
448.336786	2621.354630
448.711374	2619.917901
449.085901	2620.238014
449.460369	2618.163579
449.834776	2618.710544
450.209124	2615.895060
450.583412	2620.215329
450.957640	2621.528549
451.331808	2619.726337
451.705917	2619.628034
452.079965	2618.617283
452.453954	2622.085597
452.827883	2620.749691
453.201752	2623.850001
453.575562	2623.179527
453.949311	2623.088787
454.323001	2626.846967
454.696632	2626.436113
455.070202	2626.846967
455.443713	2625.795886
455.817164	2625.881586
456.190556	2627.492234
456.563888	2628.271093
456.937160	2628.807976
457.310373	2629.183542
457.683526	2630.630353
458.056619	2632.573718
458.429653	2635.033801
458.802628	2631.240332
459.175542	2634.481794
459.548398	2637.259470
459.921194	2639.102012
460.293930	2641.052938
460.666607	2643.071920
461.039224	2646.144504
461.411782	2652.236738
461.784280	2653.169352
462.156719	2656.138591
462.529099	2659.105310
462.901419	2655.110196
463.273680	2658.828047
463.645882	2656.614980
464.018024	2662.203099
464.390106	2664.496824
464.762130	2675.224400
465.134094	2683.242355
465.505999	2701.672813
465.877845	2736.328225
466.249631	2757.430495
466.621358	2763.845364
466.993026	2760.051895
467.364634	2770.323246
467.736184	2765.861825
468.107674	2772.954729
468.479105	2790.704631
468.850477	2803.330201
469.221790	2810.186170
469.593043	2818.199084
469.964238	2826.605208
470.335373	2841.872343
470.706449	2867.310005
471.077467	2882.441028
471.448425	2938.143258
471.819324	3059.778738
472.190164	3142.988024
472.560945	3089.307297
472.931667	3065.094635
473.302330	3084.019127
473.672934	3111.493415
474.043479	3159.885972
474.413965	3194.642207
474.784393	3228.727968
475.154761	3305.902993
475.525070	3355.742360
475.895321	3390.649830
476.265513	3478.423880
476.635645	3566.248342
477.005719	3619.908904
477.375734	3696.665513
477.745691	3805.284734
478.115588	3915.217176
478.485427	4036.978685
478.855207	4200.763253
479.224928	4459.329075
479.594591	4793.703768
479.964194	4893.954674
480.333739	5026.065673
480.703226	5056.272267
481.072653	5160.399820
481.442022	5375.808324
481.811333	5624.974914
482.180584	5763.745277
482.549777	5751.593575
482.918912	5862.047777
483.287988	6028.262181
483.657005	6134.015506
484.025964	6224.257201
484.394864	6357.255442
484.763706	6449.987467
485.132489	6533.806732
485.501213	6677.386356
485.869879	6845.897005
486.238487	6911.091728
486.607036	7147.811709
486.975527	7233.763382
487.343959	7450.013759
487.712333	7646.747308
488.080648	7696.508538
488.448905	8005.674942
488.817104	8109.996579
489.185244	8447.728681
489.553326	8662.499479
489.921350	9078.810567
490.289315	9937.752606
490.657222	10700.743843
491.025070	11074.878117
491.392861	11237.677139
491.760593	11196.236334
492.128267	11187.769716
492.495883	11021.053718
492.863440	10975.340534
493.230939	10858.839469
493.598380	11019.319561
493.965763	11076.536657
494.333088	11117.281783
494.700354	11289.381734
495.067563	11465.025616
495.434713	11575.772204
495.801805	11781.889862
496.168839	11955.245060
496.535815	12096.793098
496.902733	12381.827499
497.269593	12387.478632
497.636395	12727.675858
498.003139	12913.722162
498.369825	13047.161504
498.736453	13297.918578
499.103023	13438.317234
499.469535	13659.996933
499.835989	13966.589827
500.202385	14208.718967
500.568723	14143.168844
500.935003	14431.903451
501.301226	14441.489205
501.667390	15035.558939
502.033497	15439.985506
502.399546	15420.120839
502.765537	15452.636282
503.131470	15834.085270
503.497345	16121.274763
503.863163	15817.293186
504.228923	16405.167342
504.594625	16725.295735
504.960269	16577.214361
505.325856	17101.000328
505.691385	16912.206596
506.056856	17471.779714
506.422270	17688.120831
506.787625	17554.585707
507.152924	18070.663750
507.518164	18224.958346
507.883347	18249.473477
508.248472	18191.711936
508.613540	18941.240772
508.978550	18981.915322
509.343503	19122.008987
509.708398	19515.123205
510.073236	19768.720970
510.438016	20083.828374
510.802738	20028.093377
511.167403	20363.667865
511.532010	20264.026938
511.896561	21044.049714
512.261053	21199.569310
512.625488	21191.816016
512.989866	21255.458063
513.354186	21253.718864
513.718449	21493.725678
514.082655	21929.803130
514.446803	21852.229855
514.810894	22350.600845
515.174927	22036.965458
515.538904	22200.535777
515.902822	22734.424216
516.266684	22642.050113
516.630488	22660.697341
516.994235	22776.192696
517.357925	23123.452579
517.721558	23418.067692
518.085133	23593.061266
518.448651	23634.166834
518.812112	23466.291370
519.175516	23706.535118
519.538863	23973.002949
519.902152	23844.352702
520.265385	24218.003026
520.628560	24091.109622
520.991678	24200.989131
521.354739	24327.295241
521.717743	24471.252951
522.080690	24331.093750
522.443580	24725.735438
522.806413	24776.091524
523.169189	24941.761483
523.531908	25056.372116
523.894569	24730.771551
524.257174	24843.406051
524.619722	25099.794095
524.982213	24827.019781
525.344647	24968.540092
525.707025	25105.528407
526.069345	25171.761607
526.431608	25165.359342
526.793815	25400.569498
527.155964	24883.400045
527.518057	25084.484110
527.880093	25071.155300
528.242072	25305.450486
528.603995	25059.356479
528.965860	24888.741148
529.327669	24970.806091
529.689421	24970.019671
530.051117	24835.010009
530.412755	25034.705237
530.774337	24875.553489
531.135862	24759.095274
531.497331	24982.599871
531.858743	24541.985380
532.220098	25037.094744
532.581396	24729.065120
532.942638	24709.187851
533.303824	24801.829135
533.664953	24847.648182
534.026025	24538.842221
534.387040	24772.267809
534.747999	24857.034811
535.108902	25010.724468
535.469748	24513.921277
535.830537	24728.281221
536.191270	24840.487223
536.551947	24754.754840
536.912567	24436.877323
537.273131	24726.448761
537.633638	24468.563495
537.994089	24679.102244
538.354483	24244.121244
538.714821	24747.367029
539.075103	24797.602127
539.435328	24580.736730
539.795497	24134.871878
540.155609	24550.439395
540.515665	24849.359654
540.875665	24099.924079
541.235609	24356.465878
541.595496	24359.172977
541.955328	24700.907755
542.315102	24625.350942
542.674821	24206.743608
543.034483	24070.546755
543.394090	24243.138219
543.753640	24034.888153
544.113134	24666.796788
544.472571	24267.008082
544.831953	24546.794641
545.191278	24163.568646
545.550548	24111.581747
545.909761	24314.939373
546.268918	24539.101840
546.628019	24499.259081
546.987064	24214.635535
547.346053	23974.157373
547.704986	24103.021868
548.063863	24268.391879
548.422684	24252.300516
548.781449	23830.958357
549.140158	24214.713673
549.498811	23796.519714
549.857408	23526.714640
550.215949	23975.576458
550.574434	23647.856087
550.932864	23878.166242
551.291237	24003.915304
551.649555	23897.859509
552.007817	23949.319608
552.366022	23817.823630
552.724173	23868.051167
553.082267	23793.101812
553.440305	24262.481126
553.798288	23543.355489
554.156215	24068.492485
554.514086	24144.150122
554.871902	23518.298433
555.229661	23801.150014
555.587365	23680.777342
555.945014	23499.749508
556.302606	23782.260811
556.660143	23703.155024
557.017625	23976.151149
557.375050	23514.270552
557.732421	23897.902359
558.089735	23704.054870
558.446994	23777.791828
558.804197	23791.183653
559.161345	23755.159568
559.518437	23489.047138
559.875474	23717.895358
560.232455	23876.621128
560.589381	23709.640469
560.946251	23663.672708
561.303065	24003.028061
561.659825	24086.622995
562.016528	23697.241751
562.373177	23428.036574
562.729770	23778.933649
563.086307	23663.740763
563.442789	23819.199865
563.799216	23649.154184
564.155587	23679.882538
564.511904	23655.876563
564.868164	23571.086876
565.224370	23568.878851
565.580520	23465.681390
565.936615	23603.937555
566.292654	23277.437144
566.648638	23603.088121
567.004567	23419.327981
567.360441	23361.208518
567.716260	23099.892747
568.072023	23423.691099
568.427732	23170.985619
568.783385	22970.229228
569.138982	23190.331047
569.494525	23228.285894
569.850013	22980.462771
570.205445	23084.726435
570.560823	22886.483060
570.916145	22649.715188
571.271412	22816.010250
571.626625	22575.058220
571.981782	22680.393129
572.336884	22494.525787
572.691931	22623.261733
573.046923	22371.801417
573.401860	22239.506417
573.756743	22245.767530
574.111570	22161.786948
574.466342	22101.260334
574.821059	22181.855781
575.175722	21894.015979
575.530330	21877.894369
575.884882	21906.649111
576.239380	21806.408287
576.593823	21700.266793
576.948211	21688.631810
577.302544	21530.422758
577.656823	21405.878532
578.011047	21492.800627
578.365216	21367.447295
578.719330	21241.942729
579.073389	21159.802168
579.427394	21299.527829
579.781344	21078.211093
580.135239	20962.524174
580.489080	20940.353180
580.842866	20698.224040
581.196597	20879.796319
581.550273	20864.481294
581.903895	20763.791807
582.257463	21077.656566
582.610975	20595.462639
582.964434	20901.793394
583.317837	20616.794282
583.671186	20718.214735
584.024481	20674.923827
584.377721	20460.770570
584.730906	20496.088894
585.084037	20538.656397
585.437113	20440.764751
585.790135	20639.408898
586.143103	20117.939341
586.496016	20121.924373
586.848874	20357.293326
587.201679	20307.274997
587.554428	19966.251022
587.907124	20297.921136
588.259765	20078.822508
588.612352	20161.888120
588.964884	19726.854187
589.317362	19907.478730
589.669786	19952.617221
590.022155	20012.498567
590.374470	20180.341264
590.726731	19990.781277
591.078937	19722.526357
591.431090	19845.248206
591.783188	19578.125026
592.135232	19560.186080
592.487222	19654.760646
592.839157	19688.110400
593.191038	19565.612882
593.542866	19460.295616
593.894639	19177.438994
594.246358	19403.091123
594.598022	19311.024530
594.949633	19058.571107
595.301190	19011.932872
595.652692	19176.697945
596.004141	19426.295554
596.355535	18760.195293
596.706876	18767.888094
597.058162	18651.805445
597.409395	18881.467811
597.760573	18958.047979
598.111698	18755.365868
598.462768	18683.063119
598.813785	18639.595770
599.164748	18467.694944
599.515657	18494.236619
599.866511	18288.665927
600.217312	18653.249735
600.568060	18190.875104
600.918753	18490.324684
601.269392	18393.564777
601.619978	18168.517587
601.970510	18382.159167
602.320988	18326.714036
602.671412	18538.472744
603.021783	18435.071117
603.372100	18173.893978
603.722363	18311.363722
604.072572	18248.540863
604.422728	18387.389364
604.772830	18137.136404
605.122878	18096.867667
605.472872	18086.956759
605.822813	18071.906394
606.172701	18035.252165
606.522534	18241.256396
606.872314	18261.249612
607.222041	18096.088809
607.571714	18315.177355
607.921333	18142.890882
608.270899	18209.514771
608.620411	18407.070028
608.969870	18159.209097
609.319276	18166.286877
609.668627	18191.167491
610.017926	18337.630655
610.367171	18446.080997
610.716362	18483.763622
611.065500	18304.890881
611.414585	18446.151573
611.763616	18422.964786
612.112594	18369.034523
612.461518	18327.997010
612.810389	18523.775260
613.159207	18393.652997
613.507971	18294.349828
613.856682	18584.211133
614.205340	18501.931941
614.553945	18641.791192
614.902496	18394.893121
615.250994	18633.679976
615.599439	18567.852589
615.947830	18559.577535
616.296169	18598.643957
616.644454	18566.453669
616.992686	18543.808806
617.340864	18747.789014
617.688990	18512.392335
618.037063	18692.477474
618.385082	18530.033853
618.733048	18811.657913
619.080961	18677.369136
619.428821	18718.270537
619.776628	18610.261296
620.124382	18531.654584
620.472083	18563.794460
620.819731	18596.819059
621.167326	18284.655689
621.514868	18335.082351
621.862357	18077.602898
622.209793	18109.417620
622.557176	17942.053833
622.904506	17767.922297
623.251783	17659.434145
623.599007	17444.257535
623.946179	17384.000623
624.293297	17328.636151
624.640363	17084.767813
624.987376	17104.682891
625.334336	16894.197074
625.681243	16753.463182
626.028097	16745.243581
626.374899	16684.391813
626.721647	16545.777726
627.068343	16379.913682
627.414987	16315.036552
627.761577	16287.433715
628.108115	16331.896692
628.454600	16056.400154
628.801032	16148.018084
629.147412	16078.563587
629.493739	16101.820951
629.840014	15915.701551
630.186236	16005.996178
630.532405	15768.025990
630.878521	15964.053778
631.224585	15858.444125
631.570597	15685.945923
631.916556	15728.054681
632.262462	15702.110383
632.608316	15616.413288
632.954117	15564.262551
633.299866	15553.512291
633.645562	15473.942718
633.991206	15224.856786
634.336797	15099.218630
634.682336	15071.988837
635.027823	14967.659638
635.373257	14852.857441
635.718639	14733.951745
636.063968	14689.392987
636.409245	14444.113126
636.754470	14476.626047
637.099642	14319.221060
637.444762	14091.859980
637.789829	14142.800840
638.134845	13975.515190
638.479808	14001.439324
638.824719	13955.952993
639.169577	13797.673365
639.514383	13847.815202
639.859137	13669.847347
640.203839	13753.235594
640.548489	13590.517230
640.893086	13577.541300
641.237632	13449.947176
641.582125	13599.354373
641.926566	13435.723560
642.270955	13439.396041
642.615292	13401.763827
642.959576	13416.294953
643.303809	13456.374647
643.647990	13387.812434
643.992118	13438.327316
644.336195	13217.355899
644.680219	13414.217998
645.024192	13339.732429
645.368112	13561.817941
645.711981	13630.806132
646.055797	13818.460563
646.399562	13782.053350
646.743274	14050.875399
647.086935	14318.530422
647.430544	14286.710658
647.774101	14315.848528
648.117606	14462.004181
648.461059	14442.293269
648.804460	14427.255507
649.147810	14165.773378
649.491108	14056.385380
649.834354	14077.880860
650.177548	13784.024441
650.520690	13592.437910
650.863781	13507.575126
651.206820	13555.352661
651.549807	13387.593144
651.892742	13199.653887
652.235626	13125.863998
652.578458	13139.439825
652.921238	12813.660299
653.263967	13019.178059
653.606644	12841.452180
653.949269	12811.530411
654.291843	12623.689457
654.634365	12770.818053
654.976836	12628.602062
655.319255	12642.694607
655.661622	12596.958739
656.003938	12517.016121
656.346203	12448.264865
656.688416	12505.073628
657.030577	12470.456024
657.372687	12395.206721
657.714746	12365.685724
658.056753	12544.119885
658.398708	12373.164276
658.740612	12379.621994
659.082465	12475.164462
659.424266	12441.655913
659.766016	12459.385651
660.107715	12369.683359
660.449362	12443.737909
660.790958	12401.046898
661.132503	12356.896472
661.473996	12411.550142
661.815438	12430.764500
662.156829	12437.809512
662.498168	12421.634970
662.839456	12419.442068
663.180693	12444.501644
663.521879	12533.422557
663.863013	12509.156963
664.204097	12483.278199
664.545129	12605.062394
664.886110	12570.671642
665.227040	12660.862926
665.567918	12668.492712
665.908746	12702.293649
666.249522	12677.934793
666.590248	12732.278432
666.930922	12841.157273
667.271545	12830.666631
667.612118	12905.404258
667.952639	12811.911018
668.293109	12821.884941
668.633528	12780.547480
668.973896	12752.687543
669.314213	12838.876150
669.654480	12575.866551
669.994695	12640.322744
670.334859	12670.733505
670.674973	12620.989919
671.015035	12649.308601
671.355047	12586.735279
671.695008	12562.741907
672.034918	12573.227507
672.374777	12611.179834
672.714585	12525.749920
673.054342	12557.738562
673.394049	12509.121674
673.733705	12603.335799
674.073310	12514.029238
674.412864	12530.629757
674.752368	12409.717682
675.091820	12413.082653
675.431223	12395.892318
675.770574	12279.277827
676.109875	12194.452851
676.449125	12170.429233
676.788324	12096.110022
677.127473	11944.756940
677.466571	11926.908734
677.805619	11831.462048
678.144616	11743.670354
678.483562	11720.322250
678.822458	11580.994840
679.161303	11562.191336
679.500098	11558.286962
679.838842	11508.066988
680.177535	11529.214628
680.516179	11587.134965
680.854771	11538.843232
681.193314	11752.525141
681.531805	11899.232800
681.870247	12303.896301
682.208638	12716.141698
682.546978	13036.527190
682.885268	13093.729162
683.223508	12781.190227
683.561697	12622.540074
683.899836	12523.267152
684.237925	12329.475116
684.575963	12243.599060
684.913951	12175.553566
685.251889	12119.203548
685.589776	12217.926984
685.927614	12138.992597
686.265401	12103.686876
686.603137	12145.286478
686.940824	12301.834469
687.278460	12410.541911
687.616046	12459.683079
687.953582	12635.427784
688.291068	12562.590673
688.628504	12792.540385
688.965889	12804.424905
689.303224	12771.382662
689.640510	12671.015810
689.977745	12370.225283
690.314930	12140.484779
690.652065	12052.599823
690.989150	11765.208684
691.326185	11541.318438
691.663170	11332.662560
692.000105	11090.712381
692.336990	10985.400157
692.673825	10730.897505
693.010610	10615.543302
693.347345	10409.370192
693.684030	10205.947032
694.020665	10151.782354
694.357251	9955.978898
694.693786	9900.765660
695.030272	9732.103776
695.366707	9618.859296
695.703093	9552.026199
696.039429	9541.553202
696.375716	9473.666503
696.711952	9341.255556
697.048139	9384.569150
697.384276	9334.467643
697.720363	9348.368624
698.056400	9288.167165
698.392388	9237.125482
698.728326	9203.846305
699.064214	9139.889187
699.400053	9183.389303
699.735842	8999.150253
700.071581	8953.963871
700.407270	8884.363180
700.742910	8800.001991
701.078501	8715.292963
701.414042	8594.764015
701.749533	8518.385493
702.084974	8385.304073
702.420366	8498.011670
702.755709	8379.766366
703.091002	8247.546982
703.426246	8274.267618
703.761440	8226.404383
704.096584	8185.306377
704.431679	8116.184596
704.766725	8107.770910
705.101721	8055.264772
705.436668	8094.822706
705.771565	7992.096594
706.106413	8067.955877
706.441212	8118.826160
706.775961	8069.201042
707.110661	8100.317564
707.445311	8249.437415
707.779913	8141.423132
708.114465	8278.802136
708.448967	8313.303793
708.783421	8452.043909
709.117825	8632.217268
709.452180	8675.412395
709.786485	8756.108665
710.120742	9036.961428
710.454949	9044.865957
710.789107	9133.549936
711.123216	9346.873922
711.457275	9508.924333
711.791286	9675.448768
712.125247	9667.057768
712.459159	9653.975973
712.793023	9913.487012
713.126837	9484.436928
713.460602	9637.786308
713.794318	9465.101583
714.127985	9501.057613
714.461602	9177.423098
714.795171	9128.838977
715.128691	8882.097182
715.462162	8627.776011
715.795584	8569.386847
716.128957	8432.539685
716.462281	8255.917818
716.795556	8308.560067
717.128782	8109.212680
717.461960	7841.424067
717.795088	7905.660970
718.128167	7815.320972
718.461198	7655.317270
718.794180	7593.863084
719.127113	7588.257321
719.459997	7444.685259
719.792833	7207.375462
720.125619	7269.732015
720.458357	7124.975282
720.791046	7119.054447
721.123686	7115.916329
721.456278	6957.291382
721.788821	6978.111347
722.121315	6870.202929
722.453761	6935.485871
722.786158	6880.484362
723.118506	6892.048769
723.450805	6856.037286
723.783056	6923.437513
724.115259	6836.396951
724.447412	6824.615774
724.779518	6875.791048
725.111574	6877.772221
725.443582	6954.319622
725.775542	6933.776920
726.107453	7122.996629
726.439315	7041.639968
726.771129	7090.944973
727.102895	7260.973010
727.434612	7374.724126
727.766281	7407.017758
728.097901	7494.678382
728.429473	7481.646999
728.760996	7453.073739
729.092471	7433.647653
729.423897	7381.350723
729.755276	7396.464102
730.086606	7321.671023
730.417887	7418.987978
730.749120	7602.322140
731.080305	7792.754247
731.411442	7922.911798
731.742530	7916.844770
732.073570	8026.366357
732.404562	8110.785520
732.735506	7952.652085
733.066401	8101.116587
733.397249	8034.553191
733.728048	7792.285420
734.058798	7468.545040
734.389501	7252.939932
734.720156	7066.588638
735.050762	6836.386869
735.381320	6734.293421
735.711831	6689.167532
736.042293	6579.109062
736.372707	6603.636796
736.703073	6463.719571
737.033391	6499.985631
737.363661	6511.887796
737.693883	6536.102978
738.024056	6617.318487
738.354182	6666.126939
738.684260	6700.116918
739.014290	6811.148332
739.344272	6922.376350
739.674207	6946.553724
740.004093	7010.954465
740.333931	7035.182250
740.663722	7040.551079
740.993464	7116.569158
741.323159	7115.933973
741.652806	6863.014243
741.982405	6867.586570
742.311956	6928.851713
742.641460	6773.795903
742.970915	6580.248362
743.300323	6567.814356
743.629683	6511.723958
743.958996	6386.917592
744.288260	6298.838552
744.617477	6240.232618
744.946647	6253.997488
745.275768	6080.201189
745.604842	6042.478235
745.933869	6018.623495
746.262847	5975.599767
746.591778	5970.467873
746.920662	5928.855668
747.249498	5915.794038
747.578286	5958.986645
747.907027	6039.352719
748.235720	6098.049394
748.564365	6071.946299
748.892963	6086.918526
749.221514	6248.671509
749.550017	6089.975986
749.878473	5961.713909
750.206881	6015.515623
750.535242	5957.519669
750.863555	5889.058279
751.191821	5911.098204
751.520039	5912.159367
751.848210	5817.214275
752.176334	5836.799158
752.504411	5888.241612
752.832440	5815.031455
753.160421	5741.614611
753.488356	5792.691582
753.816243	5828.761038
754.144082	5675.285630
754.471875	5640.867152
754.799620	5686.570252
755.127318	5698.767324
755.454969	5653.399460
755.782572	5619.800170
756.110129	5660.310882
756.437638	5650.440303
756.765100	5591.080716
757.092515	5581.724335
757.419882	5634.595956
757.747203	5616.047031
758.074477	5679.431979
758.401703	5671.237583
758.728882	5615.527792
759.056014	5666.571995
759.383099	5805.662471
759.710138	5816.102701
760.037129	5801.385052
760.364073	5800.742305
760.690970	5883.197938
761.017820	5871.399117
761.344623	5818.885418
761.671379	5920.346200
761.998088	6033.494898
762.324751	6270.262771
762.651366	6849.914805
762.977935	8135.449365
763.304456	9759.262992
763.630931	10679.608806
763.957359	10313.046345
764.283740	9380.327019
764.610074	8558.860918
764.936362	7572.289466
765.262602	6976.573795
765.588796	6430.432832
765.914943	6092.320123
766.241044	5930.609990
766.567097	5737.652264
766.893104	5479.388912
767.219064	5293.607269
767.544978	5233.010079
767.870845	5160.782948
768.196665	5049.827151
768.522438	4981.159074
768.848165	4947.640442
769.173846	4884.174836
769.499479	4840.422662
769.825066	4785.083395
770.150607	4726.676587
770.476101	4702.673133
770.801548	4698.879665
771.126949	4626.402996
771.452303	4571.351075
771.777611	4528.483623
772.102872	4545.797466
772.428087	4507.341024
772.753256	4471.173266
773.078378	4428.973767
773.403453	4354.745297
773.728482	4343.427907
774.053465	4295.252120
774.378401	4283.163433
774.703291	4284.781644
775.028135	4215.150706
775.352932	4165.349147
775.677683	4148.985562
776.002388	4168.204961
776.327046	4186.148948
776.651658	4110.181280
776.976224	4048.338925
777.300743	4055.847724
777.625216	4073.287596
777.949643	4071.538315
778.274024	4028.214639
778.598359	3978.513903
778.922647	3998.013087
779.246889	3998.963344
779.571086	3990.282477
779.895236	3975.406032
780.219339	3963.309783
780.543397	3951.165644
780.867409	4003.823016
781.191374	4021.398999
781.515294	3958.588743
781.839167	3953.018268
782.162995	3968.812203
782.486776	3954.676807
782.810511	3965.727017
783.134201	3964.335658
783.457844	3924.371911
783.781441	3862.705997
784.104993	3869.007439
784.428498	3890.371849
784.751958	3885.113926
785.075372	3865.491234
785.398739	3827.856500
785.722061	3839.741020
786.045337	3881.965725
786.368568	3915.537289
786.691752	3829.454546
787.014891	3877.285014
787.337983	3999.079291
787.661030	4157.275739
787.984031	4315.777178
788.306987	4492.671267
788.629897	4576.422476
788.952760	4526.502450
789.275579	4459.618941
789.598351	4395.659302
789.921078	4262.305659
790.243759	4063.003642
790.566395	4037.477759
790.888984	4037.324004
791.211529	3930.713683
791.534027	3871.568345
791.856480	3861.236500
792.178888	3800.094866
792.501249	3748.178543
792.823566	3756.035181
793.145836	3790.675470
793.468062	3737.420721
793.790241	3692.975388
794.112375	3723.363463
794.434464	3785.301600
794.756507	3809.993172
795.078505	3790.294863
795.400457	3821.514729
795.722364	3957.875420
796.044226	4063.129671
796.366042	4135.205568
796.687812	4117.722846
797.009538	4123.038743
797.331218	4082.182712
797.652852	4052.439904
797.974442	4036.411555
798.295986	4038.624622
798.617484	3957.467086
798.938938	3866.696070
799.260346	3907.657966
799.581709	3907.471443
799.903026	3833.129547
800.224299	3797.271820
800.545526	3790.085655
800.866708	3751.722474
801.187845	3688.503884
801.508936	3725.851273
801.829983	3728.218094
802.150984	3645.812873
802.471940	3634.568579
802.792851	3648.121722
803.113717	3646.828666
803.434538	3650.909480
803.755314	3593.331941
804.076045	3563.828588
804.396731	3582.158223
804.717372	3612.228706
805.037967	3599.192282
805.358518	3583.037905
805.679024	3613.027729
805.999485	3628.234370
806.319901	3627.500882
806.640272	3642.977224
806.960598	3659.154287
807.280879	3633.089001
807.601115	3640.910351
807.921306	3660.076818
808.241453	3702.414948
808.561554	3678.161957
808.881611	3611.026391
809.201623	3647.458810
809.521590	3660.686797
809.841513	3631.488434
810.161390	3661.266530
810.481223	3644.151813
810.801011	3587.912701
811.120755	3577.497677
811.440453	3614.587966
811.760107	3616.682566
812.079716	3577.515321
812.399281	3541.372768
812.718801	3565.560224
813.038276	3540.004095
813.357707	3534.141233
813.677093	3558.520253
813.996434	3500.110924
814.315731	3508.827079
814.634983	3511.919827
814.954191	3529.447919
815.273354	3556.473545
815.592473	3552.619582
815.911547	3558.968916
816.230577	3596.114658
816.549562	3649.697082
816.868502	3691.273998
817.187399	3715.164027
817.506250	3711.685630
817.825058	3682.300745
818.143821	3768.832150
818.462539	3873.922564
818.781213	3919.169440
819.099843	3978.702947
819.418429	4214.089543
819.736970	4452.659628
820.055466	4694.418243
820.373919	5054.822935
820.692327	5458.175736
821.010691	5891.266304
821.329011	7215.819395
821.647286	9904.077698
821.965517	14384.597263
822.283704	18425.903779
822.601847	20670.230513
822.919945	18895.565398
823.237999	16354.811256
823.556010	13880.938103
823.873976	11812.104017
824.191897	9724.428619
824.509775	8360.453705
824.827609	7236.702375
825.145398	6683.869280
825.463144	6564.870322
825.780845	6682.356933
826.098502	6850.567634
826.416116	7701.673200
826.733685	9012.151389
827.051210	10127.090783
827.368692	10206.718328
827.686129	8984.871185
828.003522	7467.317519
828.320872	6454.143899
828.638177	5762.021202
828.955439	5204.895564
829.272656	4708.518351
829.589830	4422.858848
829.906960	4249.528855
830.224046	4063.608580
830.541088	3936.916822
830.858086	3891.957292
831.175041	3813.209428
831.491952	3797.034886
831.808819	3807.855722
832.125642	3878.041187
832.442421	4020.647867
832.759157	4292.391265
833.075849	4824.326257
833.392497	5675.852759
833.709101	6450.499145
834.025662	6800.345139
834.342179	6463.278470
834.658653	5801.846318
834.975083	5162.196991
835.291469	4587.041667
835.607811	4169.165301
835.924110	4034.105227
836.240366	3839.055423
836.556578	3633.023466
836.872746	3525.750233
837.188871	3485.216835
837.504952	3421.375663
837.820990	3339.419104
838.136984	3289.846918
838.452935	3312.154023
838.768842	3311.347439
839.084706	3333.465501
839.400526	3484.826146
839.716303	3814.308399
840.032037	4327.119774
840.347727	4606.825675
840.663373	4336.713090
840.978977	3961.895740
841.294537	3657.611694
841.610054	3425.890016
841.925527	3317.376659
842.240957	3246.588777
842.556344	3196.275541
842.871687	3136.063999
843.186987	3089.748398
843.502244	3051.183571
843.817458	3018.012779
844.132629	2983.974908
844.447756	2991.360198
844.762840	2980.526759
845.077881	2949.896708
845.392879	2930.765529
845.707833	2929.250663
846.022745	2925.706731
846.337613	2929.558173
846.652438	2916.070566
846.967221	2912.917324
847.281960	2900.997516
847.596656	2895.921074
847.911309	2891.376474
848.225919	2886.746174
848.540485	2884.132336
848.855009	2883.300545
849.169490	2873.525748
849.483928	2863.244315
849.798323	2864.113914
850.112675	2859.680219
850.426984	2871.015253
850.741251	2867.229347
851.055474	2857.124354
851.369654	2852.486492
851.683792	2857.194930
851.997887	2865.336393
852.311938	2867.075592
852.625947	2856.935311
852.939914	2859.536546
853.253837	2866.705067
853.567718	2851.460617
853.881555	2847.203363
854.195350	2865.686754
854.509103	2863.627442
854.822812	2853.172089
855.136479	2848.665298
855.450103	2852.146214
855.763685	2845.070955
856.077224	2839.991992
856.390720	2853.240145
856.704173	2862.180631
857.017584	2855.397759
857.330953	2850.860720
857.644278	2861.242977
857.957561	2869.480222
858.270802	2871.650439
858.584000	2873.727394
858.897155	2861.253059
859.210268	2861.535363
859.523339	2858.523274
859.836367	2856.521936
860.149352	2853.073787
860.462295	2848.534228
860.775195	2854.187882
861.088054	2855.818695
861.400869	2839.649194
861.713642	2833.879593
862.026373	2850.885926
862.339062	2853.729137
862.651708	2859.302132
862.964312	2865.616178
863.276873	2854.528160
863.589392	2866.248842
863.901869	2878.559340
864.214303	2897.700601
864.526696	2912.425812
864.839045	2910.190060
865.151353	2908.458423
865.463619	2909.449010
865.775842	2910.026222
866.088023	2926.286464
866.400162	2934.284255
866.712258	2906.983886
867.024313	2898.282854
867.336325	2903.132444
867.648296	2925.542894
867.960224	2915.286666
868.272110	2903.329049
868.583954	2907.800553
868.895755	2922.535846
869.207515	2910.051428
869.519233	2910.994124
869.830909	2928.955755
870.142542	2933.586055
870.454134	2933.397012
870.765684	2937.876077
871.077191	2937.802980
871.388657	2943.852365
871.700081	2959.658903
872.011463	2966.961014
872.322803	2968.375058
872.634101	2970.230202
872.945357	2986.518170
873.256571	3006.813856
873.567744	3003.910151
873.878874	2993.699294
874.189963	3017.501102
874.501010	3021.710465
874.812015	3011.822242
875.122979	3008.444669
875.433900	3006.541633
875.744780	3012.165040
876.055618	3021.765918
876.366415	3016.457583
876.677169	3029.947711
876.987882	3026.388656
877.298554	3021.481093
877.609183	3040.120759
877.919771	3063.531878
878.230317	3089.108172
878.540822	3142.549443
878.851285	3181.199970
879.161707	3218.970815
879.472087	3317.200218
879.782425	3537.475956
880.092722	3962.357005
880.402977	4488.209845
880.713191	5101.841777
881.023363	6238.614407
881.333494	7510.679004
881.643583	8082.487003
881.953631	7794.190976
882.263637	7180.649785
882.573602	6603.185612
882.883526	6027.266553
883.193408	5454.321774
883.503248	4992.655426
883.813048	4687.920196
884.122806	4393.665526
884.432522	4080.335129
884.742197	3846.707895
885.051831	3652.134480
885.361424	3516.081299
885.670975	3445.096812
885.980485	3364.035058
886.289954	3286.489509
886.599382	3241.459402
886.908768	3203.444061
887.218113	3155.500168
887.527417	3102.260542
887.836680	3054.641803
888.145901	3046.243240
888.455082	3038.270656
888.764221	2989.442039
889.073319	2955.477265
889.382376	2956.309056
889.691392	2957.937348
890.000366	2958.950620
890.309300	2948.714558
890.618193	2959.033799
890.927044	2976.128352
891.235855	2977.106336
891.544625	2962.207206
891.853353	2969.922692
892.162041	2989.875579
892.470687	3028.747916
892.779293	3078.957808
893.087858	3126.344654
893.396381	3196.600695
893.704864	3312.627892
894.013306	3545.539282
894.321707	3844.210003
894.630068	4051.779513
894.938387	4055.215059
895.246665	4005.375692
895.554903	3893.119278
895.863100	3693.754246
896.171256	3524.036240
896.479371	3391.625293
896.787446	3269.072323
897.095480	3168.392919
897.403473	3103.583845
897.711425	3065.311405
898.019336	3055.473593
898.327207	3029.090714
898.635038	2991.884478
898.942827	2978.767396
899.250576	2965.995633
899.558284	2935.524378
899.865952	2915.546286
900.173579	2896.145405
900.481165	2889.934704
900.788711	2874.811242
901.096216	2854.107223
901.403681	2839.341684
901.711105	2846.870647
902.018489	2848.599763
902.325832	2845.927951
902.633135	2854.906246
902.940397	2887.225083
903.247619	2966.265335
903.554800	3148.815598
903.861941	3487.762618
904.169041	3906.465733
904.476101	4212.269687
904.783121	4179.824821
905.090100	3939.626443
905.397039	3666.837005
905.703938	3419.601177
906.010796	3234.610995
906.317614	3122.304170
906.624391	3029.128523
906.931129	2957.806278
907.237826	2896.896537
907.544483	2854.646627
907.851099	2819.224959
908.157675	2798.445323
908.464211	2778.807508
908.770707	2767.495159
909.077163	2754.867069
909.383578	2739.025243
909.689954	2730.974520
909.996289	2729.452092
910.302584	2728.252297
910.608839	2727.556618
910.915054	2723.957234
911.221229	2717.154197
911.527363	2718.792572
911.833458	2723.196020
912.139513	2728.090980
912.445527	2732.217164
912.751502	2739.776375
913.057436	2749.775503
913.363331	2762.627925
913.669186	2784.612397
913.975000	2815.572643
914.280775	2874.463402
914.586510	2944.532920
914.892205	3022.738861
915.197859	3144.364259
915.503475	3335.965914
915.809050	3544.936864
916.114585	3690.545552
916.420081	3719.874985
916.725536	3661.216119
917.030952	3542.338149
917.336328	3419.147473
917.641665	3287.830456
917.946961	3187.635003
918.252218	3120.174282
918.557435	3040.592107
918.862612	2984.456338
919.167750	2934.006991
919.472848	2894.983419
919.777906	2867.652804
920.082925	2843.374607
920.387904	2812.918476
920.692843	2796.055816
920.997743	2783.213477
921.302603	2772.322064
921.607423	2761.765888
921.912204	2750.345154
922.216946	2739.204204
922.521647	2731.302195
922.826310	2721.303066
923.130932	2715.987170
923.435516	2706.852599
923.740059	2698.426310
924.044564	2690.244517
924.349028	2687.940710
924.653454	2678.710357
924.957840	2673.956549
925.262186	2669.588390
925.566493	2664.416166
925.870761	2661.469611
926.174989	2658.578510
926.479178	2653.854948
926.783328	2649.154073
927.087438	2645.138793
927.391509	2645.973104
927.695541	2644.352373
927.999533	2637.617392
928.303486	2633.957514
928.607400	2636.851137
928.911275	2636.475571
929.215110	2630.821917
929.518906	2634.103708
929.822663	2630.375774
930.126381	2632.505662
930.430060	2631.028604
930.733699	2631.232771
931.037299	2634.055817
931.340861	2636.210910
931.644383	2638.318112
931.947866	2634.605302
932.251309	2635.038842
932.554714	2631.699077
932.858080	2630.963069
933.161407	2629.531381
933.464694	2626.965434
933.767943	2625.599281
934.071153	2627.653551
934.374323	2624.608694
934.677455	2625.896709
934.980548	2625.737913
935.283602	2625.473252
935.586617	2625.470732
935.889593	2626.269755
936.192530	2624.732203
936.495428	2627.333438
936.798287	2626.577265
937.101108	2630.000208
937.403890	2632.440127
937.706632	2640.039666
938.009336	2643.757517
938.312002	2651.664567
938.614628	2660.584889
938.917216	2667.070333
939.219765	2669.275838
939.522275	2665.568069
939.824747	2664.080929
940.127179	2662.571103
940.429573	2662.253511
940.731929	2657.361071
941.034246	2652.990391
941.336524	2651.309166
941.638763	2651.087355
941.940964	2647.813126
942.243126	2645.670635
942.545250	2645.216931
942.847335	2642.850110
943.149381	2637.156126
943.451389	2631.966258
943.753359	2629.652369
944.055290	2632.087246
944.357182	2630.779067
944.659036	2628.951648
944.960851	2627.945938
945.262628	2625.364867
945.564367	2626.161370
945.866067	2628.122379
946.167729	2627.028448
946.469352	2628.074488
946.770937	2627.146915
947.072484	2626.332769
947.373992	2626.194137
947.675462	2621.463014
947.976893	2620.825308
948.278286	2615.549741
948.579641	2619.544855
948.880958	2613.518156
949.182236	2618.065277
949.483476	2616.074021
949.784678	2616.494957
950.085841	2615.015379
950.386967	2617.503188
950.688054	2617.062087
950.989103	2618.019906
951.290114	2620.663992
951.591087	2623.570217
951.892021	2621.959568
952.192917	2624.916205
952.493776	2628.140023
952.794596	2630.665641
953.095378	2629.085239
953.396122	2628.969293
953.696828	2627.283027
953.997496	2628.855867
954.298126	2623.504682
954.598718	2623.539970
954.899272	2621.684825
955.199788	2619.451594
955.500266	2614.128136
955.800706	2614.065121
956.101108	2611.335336
956.401472	2608.033381
956.701798	2606.851230
957.002087	2605.043976
957.302337	2604.978441
957.602550	2602.016763
957.902724	2601.018615
958.202861	2599.450816
958.502960	2599.347473
958.803022	2598.525764
959.103045	2598.364448
959.403031	2593.582913
959.702979	2597.883017
960.002889	2595.420414
960.302762	2593.088880
960.602596	2594.195413
960.902393	2594.762543
961.202153	2592.925042
961.501875	2588.997984
961.801559	2594.127358
962.101205	2590.714497
962.400814	2594.276072
962.700385	2593.603078
962.999918	2593.093921
963.299414	2588.380442
963.598873	2588.728282
963.898293	2587.246183
964.197677	2588.587130
964.497022	2592.582244
964.796331	2591.962182
965.095601	2589.058477
965.394835	2589.567634
965.694030	2589.678539
965.993189	2590.394383
966.292309	2588.549321
966.591393	2591.793303
966.890439	2588.496389
967.189447	2591.422779
967.488419	2590.858169
967.787353	2589.396235
968.086249	2588.940010
968.385108	2586.525298
968.683930	2589.250041
968.982714	2591.339600
969.281462	2590.018817
969.580172	2589.660895
969.878844	2587.031934
970.177480	2587.024372
970.476078	2589.902871
970.774639	2589.852459
971.073162	2588.594691
971.371649	2591.337079
971.670098	2591.271544
971.968510	2589.479414
972.266885	2588.672829
972.565223	2591.132912
972.863524	2590.538056
973.161788	2589.471852
973.460014	2589.093766
973.758204	2589.504620
974.056356	2589.552511
974.354471	2591.301791
974.652550	2587.087386
974.950591	2592.683067
975.248595	2590.069229
975.546563	2591.067377
975.844493	2590.538056
976.142386	2590.399424
976.440243	2588.004876
976.738062	2587.069742
977.035845	2589.020669
977.333590	2585.086048
977.631299	2586.043867
977.928971	2584.642427
978.226606	2586.159814
978.524204	2584.723085
978.821765	2585.393559
979.119290	2589.234918
979.416777	2586.535380
979.714228	2582.691500
980.011642	2588.942531
980.309020	2586.520257
980.606360	2588.400607
980.903664	2590.452357
981.200931	2587.384814
981.498162	2589.499578
981.795356	2590.202819
982.092513	2593.277923
982.389633	2592.693149
982.686717	2597.295723
982.983764	2599.332349
983.280775	2602.162957
983.577749	2604.267639
983.874686	2606.745366
984.171587	2600.698502
984.468451	2599.160950
984.765279	2596.471494
985.062070	2595.095259
985.358824	2593.925712
985.655543	2594.843202
985.952224	2591.301791
986.248869	2588.214084
986.545478	2587.629310
986.842050	2586.626121
987.138586	2586.719382
987.435086	2587.394897
987.731549	2586.149732
988.027975	2583.601428
988.324366	2585.721234
988.620719	2583.480441
988.917037	2585.247365
989.213318	2586.868096
989.509563	2582.124370
989.805772	2584.788620
990.101944	2585.144022
990.398080	2583.588826
990.694180	2585.690987
990.990244	2583.253589
991.286271	2583.687128
991.582262	2580.790985
991.878217	2583.079669
992.174136	2582.159658
992.470019	2584.103023
992.765865	2582.855338
993.061676	2582.038671
993.357450	2582.746953
993.653188	2577.655387
993.948890	2582.595718
994.244556	2582.222673
994.540186	2584.929772
994.835780	2585.164186
995.131337	2583.432550
995.426859	2583.331727
995.722345	2587.425144
996.017795	2586.490010
996.313208	2589.857500
996.608586	2586.847932
996.903928	2588.972778
997.199234	2587.987232
997.494504	2590.875813
997.789738	2589.658375
998.084936	2588.355237
998.380099	2587.888930
998.675225	2586.384145
998.970316	2587.528487
999.265371	2587.314238
999.560390	2586.948755
999.855373	2584.438260
1000.150320	2581.179154
1000.445232	2582.338619
1000.740108	2586.646285
1001.034948	2583.399782
1001.329752	2582.515060
1001.624521	2583.430029
1001.919254	2583.309042
1002.213951	2584.889443
1002.508613	2581.063208
1002.803239	2581.017837
1003.097829	2579.918866
1003.392384	2584.627303
1003.686903	2581.947930
1003.981386	2582.134453
1004.275834	2581.726119
1004.570246	2583.243507
1004.864623	2579.540779
1005.158964	2583.034299
1005.453270	2583.157807
1005.747540	2584.846593
1006.041775	2584.634865
1006.335974	2581.837025
1006.630138	2580.869123
1006.924266	2580.095306
1007.218359	2582.845255
1007.512416	2580.871644
1007.806438	2577.975501
1008.100425	2578.293093
1008.394376	2576.574060
1008.688292	2580.526325
1008.982172	2581.516911
1009.276017	2583.130081
1009.569827	2582.386510
1009.863602	2579.306365
1010.157341	2581.436253
1010.451045	2580.760738
1010.744714	2581.925245
1011.038347	2582.845255
1011.331945	2581.421129
1011.625508	2579.671849
1011.919036	2580.712847
1012.212528	2578.124215
1012.505986	2580.664956
1012.799408	2579.876016
1013.092795	2582.421798
1013.386147	2583.210739
1013.679464	2581.958012
1013.972745	2585.227201
1014.265992	2581.164031
1014.559204	2581.978177
1014.852380	2581.869792
1015.145521	2581.463979
1015.438628	2581.269895
1015.731699	2577.736046
1016.024736	2580.289390
1016.317737	2580.246541
1016.610703	2581.620255
1016.903635	2582.878023
1017.196531	2582.706624
1017.489393	2582.570512
1017.782219	2577.915007
1018.075011	2580.309555
1018.367768	2578.187229
1018.660490	2579.250913
1018.953177	2579.250913
1019.245829	2579.250913
