Dividing Wavelength (nm)	Counts (n)	Blue Motor Position (mm): 41.400000	Red Motor Position (mm): 0.000000	
326.493990	2253.869638
326.888308	2253.869638
327.282561	2253.869638
327.676750	2216.136601
328.070874	2212.839687
328.464933	2210.719881
328.858929	2215.335058
329.252859	2217.953937
329.646726	2226.750751
330.040528	2241.276835
330.434265	2254.093969
330.827938	2272.612648
331.221547	2285.883485
331.615091	2305.881743
332.008571	2325.033086
332.401986	2345.835407
332.795338	2365.566483
333.188625	2384.216232
333.581847	2402.097205
333.975006	2424.374064
334.368100	2441.390478
334.761129	2459.818416
335.154095	2474.750314
335.546996	2504.727535
335.939833	2541.958977
336.332606	2560.084446
336.725315	2572.105077
337.117960	2584.448342
337.510540	2597.978799
337.903056	2606.228647
338.295508	2616.812550
338.687896	2628.331587
339.080220	2631.028604
339.472480	2636.112607
339.864676	2643.951602
340.256807	2647.886222
340.648875	2649.774134
341.040879	2654.250679
341.432818	2656.539363
341.824694	2657.529950
342.216506	2657.764363
342.608253	2660.758809
342.999937	2660.446257
343.391557	2661.799807
343.783113	2659.944662
344.174605	2660.126144
344.566033	2656.919970
344.957397	2658.505413
345.348697	2658.601195
345.739934	2656.050371
346.131106	2654.732109
346.522215	2652.156080
346.913260	2649.494350
347.304241	2648.844042
347.695159	2644.112919
348.086012	2642.499749
348.476802	2643.583597
348.867528	2640.596714
349.258191	2637.506487
349.648789	2633.836527
350.039324	2631.862915
350.429796	2636.284007
350.820203	2635.671507
351.210548	2633.060189
351.600828	2633.329891
351.991045	2629.639766
352.381198	2631.918368
352.771288	2629.549025
353.161314	2630.786628
353.551276	2628.611371
353.941175	2629.483490
354.331010	2627.709004
354.720782	2626.423510
355.110490	2630.007770
355.500135	2626.549539
355.889717	2627.918212
356.279235	2626.156329
356.668689	2628.566000
357.058080	2630.516927
357.447408	2626.967954
357.836672	2629.075157
358.225873	2627.058695
358.615010	2627.547687
359.004084	2630.199334
359.393095	2627.686319
359.782043	2629.992647
360.170927	2631.386526
360.559748	2632.044396
360.948505	2634.706126
361.337199	2635.484984
361.725830	2633.229068
362.114398	2635.656383
362.502903	2635.948770
362.891344	2636.445324
363.279722	2638.877680
363.668037	2636.548667
364.056289	2635.293420
364.444478	2640.034625
364.832603	2637.360293
365.220665	2641.332722
365.608665	2642.540079
365.996601	2640.258957
366.384474	2644.100316
366.772284	2643.954122
367.160031	2642.991262
367.547715	2643.838176
367.935336	2645.161479
368.322893	2644.433032
368.710388	2642.988741
369.097820	2643.623927
369.485189	2642.900521
369.872495	2645.612662
370.259738	2647.861017
370.646918	2649.501912
371.034035	2648.486120
371.421090	2648.385297
371.808081	2648.057622
372.195010	2649.433857
372.581875	2649.466624
372.968678	2651.992242
373.355418	2650.351347
373.742096	2653.270175
374.128710	2652.887047
374.515262	2651.183137
374.901751	2651.883857
375.288177	2655.329486
375.674540	2653.204640
376.060841	2655.079949
376.447079	2654.744712
376.833254	2655.800834
377.219367	2657.063643
377.605417	2655.251348
377.991404	2657.605567
378.377329	2658.278561
378.763191	2660.158911
379.148991	2660.859632
379.534727	2660.479025
379.920402	2658.825526
380.306013	2662.049344
380.691563	2660.902482
381.077049	2658.646565
381.462474	2661.046154
381.847835	2664.148985
382.233134	2667.085457
382.618371	2666.808193
383.003545	2666.987154
383.388657	2672.330777
383.773706	2675.660459
384.158693	2679.085923
384.543618	2686.728313
384.928480	2695.454550
385.313280	2706.348483
385.698017	2719.095041
386.082692	2740.151941
386.467305	2755.812285
386.851856	2779.979577
387.236344	2809.916469
387.620770	2840.692713
388.005133	2878.516490
388.389435	2924.940476
388.773674	2957.120682
389.157851	3015.840042
389.541965	3075.302972
389.926018	3107.347066
390.310008	3180.847089
390.693936	3243.730442
391.077802	3305.116573
391.461606	3352.276567
391.845348	3426.565531
392.229027	3504.655524
392.612645	3551.981877
392.996200	3655.436436
393.379694	3740.634456
393.763125	3852.469934
394.146494	3922.252106
394.529801	4012.887011
394.913047	4117.080099
395.296230	4141.849809
395.679351	4267.261113
396.062410	4356.340823
396.445408	4390.182088
396.828343	4492.061287
397.211217	4581.715687
397.594028	4537.671126
397.976778	4672.751364
398.359466	4753.873612
398.742092	4815.421059
399.124656	4775.124596
399.507158	4912.009567
399.889598	5000.053319
400.271977	5146.098066
400.654294	5167.717055
401.036549	5231.079317
401.418742	5177.212068
401.800874	5391.899687
402.182944	5467.978260
402.564952	5587.234316
402.946898	5663.650647
403.328783	5530.836407
403.710606	5553.289707
404.092367	5875.316094
404.474067	5903.849024
404.855705	5823.283824
405.237282	5766.273415
405.618797	6011.460015
406.000250	6005.471124
406.381642	6210.298246
406.762972	6236.171968
407.144240	6292.249764
407.525447	6279.515809
407.906593	6313.999822
408.287677	6465.693182
408.668700	6382.947683
409.049661	6502.927145
409.430560	6532.498553
409.811399	6388.457664
410.192176	6665.733729
410.572891	6668.650036
410.953545	6866.938782
411.334138	6604.650068
411.714669	6777.644823
412.095139	6568.394089
412.475547	6813.641183
412.855894	6883.496451
413.236180	7058.285858
413.616405	6743.019658
413.996568	6960.343801
414.376670	6992.130796
414.756711	6894.231588
415.136691	6982.802141
415.516609	7187.442740
415.896466	7182.255393
416.276262	7378.300825
416.655997	7359.598144
417.035670	7549.790796
417.415283	7889.809062
417.794834	7936.570805
418.174324	7796.769526
418.553753	7716.431178
418.933121	8033.547481
419.312428	8129.344528
419.691674	7905.890342
420.070859	8385.929176
420.449983	8064.764826
420.829045	8424.811596
421.208047	8202.509314
421.586988	8501.999223
421.965867	8516.328703
422.344686	8632.310529
422.723444	8670.729163
423.102141	8038.576032
423.480777	8789.791134
423.859352	8311.025192
424.237866	8931.339172
424.616319	8795.558214
424.994712	9205.620792
425.373044	8775.212117
425.751314	9235.144309
426.129524	9109.387685
426.507673	9219.713337
426.885762	9371.759578
427.263789	9290.281929
427.641756	9211.629847
428.019662	9307.706678
428.397508	9557.150532
428.775292	9239.459537
429.153016	9615.885015
429.530679	9452.115571
429.908282	9486.750818
430.285824	9208.242192
430.663305	9888.155214
431.040726	9343.327471
431.418086	9330.729627
431.795385	9660.171552
432.172624	9739.622657
432.549802	9654.157455
432.926920	9737.391946
433.303977	9610.725394
433.680974	9816.555706
434.057910	9902.285568
434.434786	9970.956166
434.811601	9803.917533
435.188355	10375.047496
435.565050	10112.708371
435.941683	10032.780876
436.318257	10525.183140
436.694770	10664.586167
437.071222	10718.760927
437.447614	10562.354088
437.823946	10467.202309
438.200218	10588.195042
438.576429	10419.399568
438.952580	10657.639457
439.328670	10690.475013
439.704700	10491.304066
440.080670	10482.401388
440.456580	11025.618482
440.832429	10791.963522
441.208218	10387.761286
441.583947	10713.409742
441.959616	10870.877744
442.335224	10669.851652
442.710773	10803.152363
443.086261	11020.668069
443.461689	10298.323655
443.837057	10963.955088
444.212365	11225.601055
444.587612	10860.127484
444.962800	11082.207955
445.337927	10840.905564
445.712995	10467.212391
446.088002	11529.181861
446.462949	11204.755884
446.837837	11174.158601
447.212664	11137.146449
447.587431	11680.217350
447.962139	12415.028538
448.336786	14694.300550
448.711374	15205.891966
449.085901	13044.363663
449.460369	12679.981502
449.834776	12126.505659
450.209124	13020.932380
450.583412	13440.323613
450.957640	14376.397827
451.331808	13471.669508
451.705917	12504.773679
452.079965	11785.784153
452.453954	12690.192359
452.827883	12329.313799
453.201752	12622.603089
453.575562	12152.215544
453.949311	12574.702045
454.323001	12547.008466
454.696632	12774.636727
455.070202	13053.946897
455.443713	13269.264660
455.817164	13747.534049
456.190556	13732.153488
456.563888	14094.229322
456.937160	14254.837963
457.310373	13600.027367
457.683526	13694.309547
458.056619	13227.662538
458.429653	13414.202874
458.802628	12813.554435
459.175542	13196.697250
459.548398	14149.462724
459.921194	14498.078678
460.293930	14578.502725
460.666607	15427.163331
461.039224	16488.053994
461.411782	17186.536106
461.784280	17008.333838
462.156719	17099.074607
462.529099	16775.273734
462.901419	15725.329937
463.273680	15490.192878
463.645882	15382.218924
464.018024	15100.746099
464.390106	15336.868704
464.762130	16049.138372
465.134094	16827.923545
465.505999	18857.093832
465.877845	22112.638218
466.249631	24931.535503
466.621358	24575.244393
466.993026	23143.100476
467.364634	22568.305594
467.736184	21097.427972
468.107674	20296.398708
468.479105	20442.050245
468.850477	19904.955632
469.221790	19495.170318
469.593043	18798.838258
469.964238	18244.220594
470.335373	17892.418632
470.706449	18368.699286
471.077467	17931.490095
471.448425	19790.402973
471.819324	23878.254462
472.190164	25790.139785
472.560945	22170.230881
472.931667	19846.170737
473.302330	19231.303723
473.672934	18826.675510
474.043479	19083.499613
474.413965	18893.082629
474.784393	18500.958998
475.154761	19238.081555
475.525070	19181.587864
475.895321	18894.249657
476.265513	19477.851434
476.635645	20075.112219
477.005719	19837.215127
477.375734	20024.075577
477.745691	20513.662356
478.115588	21046.628264
478.485427	21591.763518
478.855207	22670.177231
479.224928	24451.226967
479.594591	26682.660950
479.964194	26632.992981
480.333739	26854.962547
480.703226	26427.548318
481.072653	26129.069161
481.442022	26733.992499
481.811333	27649.786150
482.180584	27544.607517
482.549777	26593.719872
482.918912	26262.931960
483.287988	26395.058082
483.657005	26025.970003
484.025964	25801.366434
484.394864	25691.159249
484.763706	25352.970923
485.132489	24801.198991
485.501213	24991.747044
485.869879	24897.613578
486.238487	24729.269287
486.607036	24864.841037
486.975527	24602.232210
487.343959	24907.085907
487.712333	24822.397042
488.080648	24489.506969
488.448905	24994.154195
488.817104	24739.548200
489.185244	25428.830206
489.553326	25382.837239
489.921350	26427.573524
490.289315	28744.797862
490.657222	30475.012603
491.025070	30984.809368
491.392861	30747.005538
491.760593	29876.110923
492.128267	28968.609970
492.495883	27923.104909
492.863440	27049.853555
493.230939	26180.246954
493.598380	26026.148964
493.965763	25631.736648
494.333088	25159.856922
494.700354	25116.424861
495.067563	24968.703930
495.434713	24732.041922
495.801805	24897.333794
496.168839	24677.179044
496.535815	24529.919379
496.902733	24754.270889
497.269593	24443.698004
497.636395	24617.345589
498.003139	24566.495470
498.369825	24292.803666
498.736453	24517.369426
499.103023	24392.558019
499.469535	24387.461412
499.835989	24609.367963
500.202385	24635.891994
500.568723	24155.119672
500.935003	24352.533778
501.301226	24016.757643
501.667390	24852.580951
502.033497	25086.712300
502.399546	24808.576719
502.765537	24351.265928
503.131470	24744.054991
503.497345	24881.524736
503.863163	24116.065854
504.228923	24682.290774
504.594625	24915.154273
504.960269	24457.314160
505.325856	24942.666370
505.691385	24341.375184
506.056856	24958.820748
506.422270	24935.565905
506.787625	24459.169305
507.152924	24887.054882
507.518164	24934.968528
507.883347	24738.088786
508.248472	24413.332614
508.613540	25199.634147
508.978550	25001.231975
509.343503	25014.830488
509.708398	25218.404883
510.073236	25401.229889
510.438016	25603.702792
510.802738	25261.083291
511.167403	25524.133220
511.532010	25246.489151
511.896561	26012.505081
512.261053	25970.421528
512.625488	25798.568594
512.989866	25691.456677
513.354186	25526.013570
513.718449	25659.634394
514.082655	26020.583530
514.446803	25751.537149
514.810894	26238.537816
515.174927	25730.366823
515.538904	25754.566883
515.902822	26246.361687
516.266684	25996.751475
516.630488	25911.127477
516.994235	25862.651742
517.357925	26187.299529
517.721558	26352.205753
518.085133	26471.877704
518.448651	26357.798913
518.812112	26106.779699
519.175516	26326.694994
519.538863	26489.960323
519.902152	26273.669617
520.265385	26535.968414
520.628560	26343.711409
520.991678	26332.388978
521.354739	26391.514150
521.717743	26477.995145
522.080690	26253.401658
522.443580	26582.833501
522.806413	26559.477835
523.169189	26674.829517
523.531908	26716.885343
523.894569	26328.635838
524.257174	26426.061178
524.619722	26572.433600
524.982213	26278.972911
525.344647	26313.288046
525.707025	26481.833983
526.069345	26438.303620
526.431608	26402.914720
526.793815	26583.937513
527.155964	26073.505563
527.518057	26232.664872
527.880093	26158.978326
528.242072	26390.843677
528.603995	26098.728976
528.965860	25900.349490
529.327669	25942.599400
529.689421	25924.383191
530.051117	25763.610713
530.412755	25961.072709
530.774337	25726.165022
531.135862	25617.331551
531.497331	25812.111654
531.858743	25385.453598
532.220098	25849.748908
532.581396	25549.291098
532.942638	25441.239006
533.303824	25574.421250
533.664953	25567.542595
534.026025	25226.962242
534.387040	25461.491842
534.747999	25519.162642
535.108902	25681.734812
535.469748	25175.053480
535.830537	25349.230387
536.191270	25481.931200
536.551947	25314.464069
536.912567	24960.665810
537.273131	25365.069692
537.633638	25044.429622
537.994089	25265.201914
538.354483	24784.704335
538.714821	25281.739419
539.075103	25306.662884
539.435328	25092.983496
539.795497	24695.760737
540.155609	25048.323914
540.515665	25358.788415
540.875665	24571.430760
541.235609	24902.800926
541.595496	24839.990669
541.955328	25205.126484
542.315102	25122.885100
542.674821	24641.195288
543.034483	24538.244844
543.394090	24698.523290
543.753640	24503.087837
544.113134	25128.702591
544.472571	24732.185594
544.831953	25016.204202
545.191278	24672.019423
545.550548	24564.428597
545.909761	24766.815801
546.268918	24999.598641
546.628019	24984.444933
546.987064	24659.023329
547.346053	24396.696806
547.704986	24515.196689
548.063863	24665.912065
548.422684	24700.489340
548.781449	24199.237330
549.140158	24602.514515
549.498811	24197.036867
549.857408	23944.157466
550.215949	24351.477656
550.574434	24037.837228
550.932864	24239.105296
551.291237	24410.318004
551.649555	24264.636219
552.007817	24327.023019
552.366022	24180.990874
552.724173	24206.126067
553.082267	24168.002341
553.440305	24652.232894
553.798288	23896.337081
554.156215	24397.642022
554.514086	24514.014538
554.871902	23898.308172
555.229661	24177.691439
555.587365	24022.330639
555.945014	23925.560650
556.302606	24139.638289
556.660143	24122.349652
557.017625	24365.560119
557.375050	23876.984091
557.732421	24271.923207
558.089735	24084.341872
558.446994	24135.048318
558.804197	24176.935266
559.161345	24084.873714
559.518437	23869.452608
559.875474	24052.317943
560.232455	24231.631785
560.589381	24038.437126
560.946251	24036.637434
561.303065	24340.233362
561.659825	24430.495222
562.016528	24056.063520
562.373177	23780.014977
562.729770	24145.080215
563.086307	23993.890970
563.442789	24165.794316
563.799216	24003.146528
564.155587	23997.518080
564.511904	23994.453058
564.868164	23935.370735
565.224370	23894.998655
565.580520	23839.971940
565.936615	23955.323622
566.292654	23646.457167
566.648638	23904.004676
567.004567	23732.514704
567.360441	23679.118803
567.716260	23399.876688
568.072023	23718.759916
568.427732	23508.407690
568.783385	23270.553448
569.138982	23519.256253
569.494525	23545.306415
569.850013	23305.629797
570.205445	23404.307863
570.560823	23228.638775
570.916145	22988.301765
571.271412	23172.868490
571.626625	22920.926744
571.981782	23035.560062
572.336884	22844.414631
572.691931	22978.766422
573.046923	22715.401422
573.401860	22593.297114
573.756743	22611.853602
574.111570	22527.104244
574.466342	22439.057971
574.821059	22515.728880
575.175722	22223.987225
575.530330	22197.483358
575.884882	22198.531918
576.239380	22119.037963
576.593823	22013.768589
576.948211	21996.827791
577.302544	21852.683559
577.656823	21701.587575
578.011047	21815.855409
578.365216	21682.489164
578.719330	21549.972353
579.073389	21450.512908
579.427394	21608.512752
579.781344	21355.474555
580.135239	21249.181826
580.489080	21193.073784
580.842866	20979.301134
581.196597	21193.330883
581.550273	21149.805560
581.903895	21023.043226
582.257463	21337.913695
582.610975	20863.596571
582.964434	21206.049714
583.317837	20873.464630
583.671186	20966.756223
584.024481	20960.847991
584.377721	20712.790454
584.730906	20800.065430
585.084037	20792.279368
585.437113	20705.836182
585.790135	20919.911301
586.143103	20372.401664
586.496016	20388.591329
586.848874	20635.202055
587.201679	20545.033457
587.554428	20242.294524
587.907124	20572.185111
588.259765	20327.966413
588.612352	20409.890204
588.964884	19985.719958
589.317362	20160.819396
589.669786	20210.696572
590.022155	20222.253417
590.374470	20453.682708
590.726731	20223.327183
591.078937	20010.237610
591.431090	20091.531257
591.783188	19851.731130
592.135232	19818.638476
592.487222	19915.037940
592.839157	19917.939124
593.191038	19807.356373
593.542866	19702.823007
593.894639	19408.084386
594.246358	19621.415934
594.598022	19516.847280
594.949633	19267.731101
595.301190	19250.066898
595.652692	19418.562424
596.004141	19639.281783
596.355535	18972.032140
596.706876	18996.068361
597.058162	18881.563593
597.409395	19122.319018
597.760573	19171.152676
598.111698	18952.432134
598.462768	18896.797960
598.813785	18867.350060
599.164748	18672.126336
599.515657	18730.455006
599.866511	18525.630405
600.217312	18875.226862
600.568060	18385.362820
600.918753	18691.302885
601.269392	18585.446216
601.619978	18395.545951
601.970510	18580.621832
602.320988	18525.769037
602.671412	18727.757989
603.021783	18655.714859
603.372100	18365.425056
603.722363	18533.093833
604.072572	18461.174212
604.422728	18613.285988
604.772830	18367.854892
605.122878	18323.601123
605.472872	18300.452145
605.822813	18284.491852
606.172701	18278.170245
606.522534	18460.425601
606.872314	18484.436616
607.222041	18323.258325
607.571714	18536.413433
607.921333	18363.892546
608.270899	18437.269060
608.620411	18596.262012
608.969870	18394.404129
609.319276	18386.187048
609.668627	18408.854597
610.017926	18547.912305
610.367171	18666.137445
610.716362	18716.402790
611.065500	18523.003964
611.414585	18668.269853
611.763616	18656.627308
612.112594	18590.492411
612.461518	18566.675480
612.810389	18755.159181
613.159207	18612.318087
613.507971	18523.253501
613.856682	18766.839534
614.205340	18702.521973
614.553945	18852.002267
614.902496	18603.536397
615.250994	18810.790834
615.599439	18769.672663
615.947830	18757.352083
616.296169	18818.425662
616.644454	18788.342576
616.992686	18750.879241
617.340864	18975.450042
617.688990	18730.008864
618.037063	18899.633609
618.385082	18755.595241
618.733048	19031.575728
619.080961	18921.119007
619.428821	18947.310321
619.776628	18820.106886
620.124382	18759.529861
620.472083	18805.180030
620.819731	18810.120361
621.167326	18508.382097
621.514868	18548.325680
621.862357	18326.018357
622.209793	18324.453078
622.557176	18155.584507
622.904506	17995.381679
623.251783	17925.176050
623.599007	17665.105443
623.946179	17607.114530
624.293297	17543.948873
624.640363	17274.930218
624.987376	17298.732026
625.334336	17103.956965
625.681243	16953.561702
626.028097	16969.048126
626.374899	16893.627423
626.721647	16746.899600
627.068343	16581.302737
627.414987	16526.512956
627.761577	16489.841083
628.108115	16525.799633
628.454600	16246.655821
628.801032	16350.228848
629.147412	16294.040147
629.493739	16291.612831
629.840014	16109.780932
630.186236	16199.712597
630.532405	15973.231198
630.878521	16177.891962
631.224585	16076.290027
631.570597	15888.691048
631.916556	15916.404792
632.262462	15903.373409
632.608316	15819.579350
632.954117	15763.612460
633.299866	15753.520070
633.645562	15667.964127
633.991206	15428.272385
634.336797	15299.428055
634.682336	15265.763229
635.027823	15138.300175
635.373257	15011.663870
635.718639	14924.472073
636.063968	14872.943919
636.409245	14624.536022
636.754470	14653.225228
637.099642	14497.234284
637.444762	14274.475778
637.789829	14317.202078
638.134845	14147.113547
638.479808	14183.583774
638.824719	14102.380868
639.169577	13968.003871
639.514383	14004.726156
639.859137	13838.567205
640.203839	13934.865846
640.548489	13770.677986
640.893086	13753.648968
641.237632	13634.135814
641.582125	13788.339669
641.926566	13607.495836
642.270955	13628.504845
642.615292	13579.003235
642.959576	13587.618567
643.303809	13618.606539
643.647990	13552.638000
643.992118	13613.537659
644.336195	13381.851269
644.680219	13610.891053
645.024192	13516.717258
645.368112	13759.763888
645.711981	13808.620231
646.055797	13989.085977
646.399562	13971.202483
646.743274	14230.584972
647.086935	14504.833824
647.430544	14469.649090
647.774101	14504.516231
648.117606	14648.305062
648.461059	14629.282268
648.804460	14606.612199
649.147810	14336.439121
649.491108	14246.174740
649.834354	14267.614768
650.177548	13933.045990
650.520690	13745.497423
650.863781	13675.034695
651.206820	13715.442063
651.549807	13547.896795
651.892742	13336.128004
652.235626	13282.278399
652.578458	13278.590795
652.921238	12981.387049
653.263967	13180.419365
653.606644	13008.105164
653.949269	12996.263494
654.291843	12785.853294
654.634365	12954.129530
654.976836	12798.695634
655.319255	12800.734780
655.661622	12764.307403
656.003938	12676.772807
656.346203	12603.915531
656.688416	12680.951924
657.030577	12633.771765
657.372687	12543.605687
657.714746	12532.651260
658.056753	12724.482287
658.398708	12533.132690
658.740612	12533.858616
659.082465	12644.043116
659.424266	12610.965585
659.766016	12642.223259
660.107715	12550.287737
660.449362	12629.869912
660.790958	12576.693301
661.132503	12516.764064
661.473996	12595.801794
661.815438	12609.695214
662.156829	12630.837813
662.498168	12602.128442
662.839456	12604.190274
663.180693	12615.258128
663.521879	12709.956203
663.863013	12685.516689
664.204097	12662.597083
664.545129	12790.914613
664.886110	12765.424018
665.227040	12853.863501
665.567918	12854.302081
665.908746	12882.978685
666.249522	12872.659443
666.590248	12929.029625
666.930922	13047.345506
667.271545	13010.416533
667.612118	13099.846603
667.952639	12994.199142
668.293109	13021.481866
668.633528	12963.332157
668.973896	12944.785752
669.314213	13016.317204
669.654480	12755.029159
669.994695	12844.063498
670.334859	12855.375847
670.674973	12803.313331
671.015035	12833.494719
671.355047	12780.270216
671.695008	12751.036565
672.034918	12763.815890
672.374777	12809.264413
672.714585	12723.337945
673.054342	12749.425917
673.394049	12712.403683
673.733705	12811.369094
674.073310	12703.120398
674.412864	12726.886918
674.752368	12573.618197
675.091820	12612.046912
675.431223	12591.549581
675.770574	12460.446813
676.109875	12385.938560
676.449125	12329.911176
676.788324	12287.699074
677.127473	12118.885955
677.466571	12106.083945
677.805619	11993.451965
678.144616	11930.182964
678.483562	11905.539283
678.822458	11769.544076
679.161303	11749.835685
679.500098	11739.466032
679.838842	11692.006089
680.177535	11726.023795
680.516179	11789.764144
680.854771	11734.324055
681.193314	11946.130654
681.531805	12111.601488
681.870247	12548.203220
682.208638	12958.991723
682.546978	13260.200665
682.885268	13287.853915
683.223508	12993.188390
683.561697	12837.331037
683.899836	12745.456008
684.237925	12536.454811
684.575963	12452.287706
684.913951	12373.612938
685.251889	12325.288438
685.589776	12427.727204
685.927614	12341.059688
686.265401	12319.244094
686.603137	12374.490099
686.940824	12519.501410
687.278460	12656.260352
687.616046	12683.706914
687.953582	12843.501409
688.291068	12782.271554
688.628504	13013.249662
688.965889	13031.407898
689.303224	12975.269609
689.640510	12863.469419
689.977745	12544.203064
690.314930	12326.974704
690.652065	12231.122204
690.989150	11937.802668
691.326185	11715.495345
691.663170	11505.995073
692.000105	11274.696853
692.336990	11152.723615
692.673825	10886.601103
693.010610	10783.214600
693.347345	10570.782897
693.684030	10378.898938
694.020665	10319.688065
694.357251	10127.365525
694.693786	10048.153875
695.030272	9900.183407
695.366707	9780.327453
695.703093	9720.204132
696.039429	9707.097132
696.375716	9616.820149
696.711952	9492.394390
697.048139	9536.932984
697.384276	9497.385132
697.720363	9515.109829
698.056400	9444.072410
698.392388	9400.673116
698.728326	9355.743833
699.064214	9299.187128
699.400053	9338.205658
699.735842	9154.929469
700.071581	9113.108057
700.407270	9048.019199
700.742910	8965.193041
701.078501	8869.766519
701.414042	8733.776353
701.749533	8678.590842
702.084974	8540.874081
702.420366	8659.184920
702.755709	8534.310498
703.091002	8404.987258
703.426246	8432.695960
703.761440	8386.017396
704.096584	8341.259512
704.431679	8279.974205
704.766725	8261.377388
705.101721	8210.582722
705.436668	8266.058099
705.771565	8158.585741
706.106413	8240.703616
706.441212	8274.219728
706.775961	8237.152123
707.110661	8279.127291
707.445311	8414.699041
707.779913	8310.001838
708.114465	8440.497146
708.448967	8471.694327
708.783421	8628.128892
709.117825	8804.952404
709.452180	8835.577414
709.786485	8932.685161
710.120742	9218.725271
710.454949	9224.910767
710.789107	9330.676695
711.123216	9549.258605
711.457275	9723.919462
711.791286	9861.444660
712.125247	9874.039983
712.459159	9848.786323
712.793023	10082.264842
713.126837	9666.878807
713.460602	9823.651130
713.794318	9649.559923
714.127985	9679.726187
714.461602	9337.099125
714.795171	9289.003997
715.128691	9037.780615
715.462162	8794.078636
715.795584	8740.478567
716.128957	8581.178106
716.462281	8404.536075
716.795556	8458.584806
717.128782	8244.061025
717.461960	7991.559711
717.795088	8056.091521
718.128167	7969.098850
718.461198	7810.814181
718.794180	7752.659430
719.127113	7742.017554
719.459997	7571.530772
719.792833	7352.384253
720.125619	7422.879748
720.458357	7275.499095
720.791046	7260.340345
721.123686	7251.989674
721.456278	7087.864828
721.788821	7115.371884
722.121315	7012.020669
722.453761	7083.012718
722.786158	7015.433530
723.118506	7035.351129
723.450805	6997.282855
723.783056	7060.279634
724.115259	6974.070863
724.447412	6976.014227
724.779518	7023.557349
725.111574	7024.104314
725.443582	7105.403003
725.775542	7079.236893
726.107453	7277.812985
726.439315	7185.955600
726.771129	7262.402177
727.102895	7433.698064
727.434612	7539.990793
727.766281	7581.698780
728.097901	7652.307701
728.429473	7661.127200
728.760996	7641.993500
729.092471	7616.765046
729.423897	7553.286837
729.755276	7552.311373
730.086606	7475.393448
730.417887	7579.042092
730.749120	7788.597816
731.080305	7977.751990
731.411442	8078.539779
731.742530	8078.086075
732.073570	8184.698917
732.404562	8272.377186
732.735506	8131.837378
733.066401	8256.633662
733.397249	8176.174326
733.728048	7935.592821
734.058798	7608.114426
734.389501	7379.399796
734.720156	7206.087448
735.050762	6981.867007
735.381320	6898.531693
735.711831	6832.928637
736.042293	6725.073151
736.372707	6740.867086
736.703073	6606.653926
737.033391	6645.047354
737.363661	6653.967676
737.693883	6697.550971
738.024056	6773.468228
738.354182	6811.876779
738.684260	6849.496389
739.014290	6973.312169
739.344272	7080.822336
739.674207	7109.004907
740.004093	7187.442740
740.333931	7198.931530
740.663722	7205.404371
740.993464	7278.561596
741.323159	7255.132833
741.652806	7007.491192
741.982405	7043.676594
742.311956	7085.684529
742.641460	6906.549648
742.970915	6717.919753
743.300323	6707.030861
743.629683	6668.037536
743.958996	6525.009919
744.288260	6436.048677
744.617477	6387.237705
744.946647	6379.373505
745.275768	6219.137909
745.604842	6175.826836
745.933869	6156.176418
746.262847	6114.967506
746.591778	6100.542245
746.920662	6061.105298
747.249498	6059.293003
747.578286	6108.930725
747.907027	6176.993863
748.235720	6240.766980
748.564365	6212.448298
748.892963	6256.427324
749.221514	6389.130658
749.550017	6206.784562
749.878473	6097.015958
750.206881	6165.464744
750.535242	6105.853100
750.863555	6035.118150
751.191821	6048.825047
751.520039	6043.567124
751.848210	5948.306960
752.176334	5978.755529
752.504411	6025.534917
752.832440	5950.875428
753.160421	5881.902361
753.488356	5930.781389
753.816243	5958.356500
754.144082	5808.800589
754.471875	5784.865191
754.799620	5823.364483
755.127318	5835.904353
755.454969	5795.534793
755.782572	5757.650522
756.110129	5803.507378
756.437638	5785.129851
756.765100	5721.576025
757.092515	5729.936778
757.419882	5787.456344
757.747203	5757.690851
758.074477	5821.773999
758.401703	5804.876051
758.728882	5759.979535
759.056014	5831.962171
759.383099	5946.129182
759.710138	5955.654442
760.037129	5946.381239
760.364073	5951.825686
760.690970	6032.879878
761.017820	6002.673284
761.344623	5970.394776
761.671379	6071.182565
761.998088	6200.588984
762.324751	6462.061031
762.651366	7094.403205
762.977935	8453.967109
763.304456	10113.358679
763.630931	10972.731737
763.957359	10525.117605
764.283740	9561.460718
764.610074	8697.495169
764.936362	7695.079371
765.262602	7105.902077
765.588796	6571.524646
765.914943	6241.850828
766.241044	6070.275157
766.567097	5861.021902
766.893104	5602.766111
767.219064	5429.191622
767.544978	5363.812898
767.870845	5276.530360
768.196665	5177.348179
768.522438	5100.722641
768.848165	5070.231222
769.173846	4999.967619
769.499479	4953.919199
769.825066	4909.234412
770.150607	4842.963403
770.476101	4820.976411
770.801548	4815.605061
771.126949	4733.182196
771.452303	4681.449875
771.777611	4641.932270
772.102872	4659.775434
772.428087	4621.465186
772.753256	4581.511521
773.078378	4534.291033
773.403453	4462.714210
773.728482	4450.686017
774.053465	4401.524684
774.378401	4392.236358
774.703291	4388.909197
775.028135	4313.778361
775.352932	4265.398407
775.677683	4254.141511
776.002388	4273.023152
776.327046	4281.903145
776.651658	4204.755847
776.976224	4144.738390
777.300743	4150.717198
777.625216	4173.291485
777.949643	4163.020134
778.274024	4125.408085
778.598359	4086.185388
778.922647	4111.040797
779.246889	4100.996298
779.571086	4091.823918
779.895236	4075.205755
780.219339	4063.326276
780.543397	4059.106830
780.867409	4113.170684
781.191374	4126.348261
781.515294	4055.131880
781.839167	4052.520562
782.162995	4079.624326
782.486776	4062.885175
782.810511	4075.704829
783.134201	4067.044127
783.457844	4016.630068
783.781441	3963.604691
784.104993	3972.144406
784.428498	3989.402796
784.751958	3981.762927
785.075372	3964.007983
785.398739	3927.575564
785.722061	3938.008232
786.045337	3982.808967
786.368568	4011.364582
786.691752	3924.530707
787.014891	3981.057166
787.337983	4115.247640
787.661030	4276.975417
787.984031	4437.707566
788.306987	4605.681333
788.629897	4689.984549
788.952760	4642.605264
789.275579	4575.268052
789.598351	4504.936394
789.921078	4360.285525
790.243759	4159.146008
790.566395	4146.286024
790.888984	4139.861073
791.211529	4031.289743
791.534027	3971.068119
791.856480	3955.001962
792.178888	3895.213877
792.501249	3848.721836
792.823566	3859.328424
793.145836	3889.807240
793.468062	3830.193075
793.790241	3791.797127
794.112375	3823.758042
794.434464	3891.115419
794.756507	3910.173501
795.078505	3887.049729
795.400457	3926.378290
795.722364	4072.538984
796.044226	4174.342566
796.366042	4251.194956
796.687812	4221.903332
797.009538	4227.642685
797.331218	4188.951830
797.652852	4160.628107
797.974442	4136.876710
798.295986	4139.430055
798.617484	4051.920665
798.938938	3971.622646
799.260346	4015.959594
799.581709	4006.257894
799.903026	3926.874844
800.224299	3897.792427
800.545526	3887.947054
800.866708	3849.349460
801.187845	3793.170841
801.508936	3823.896674
801.829983	3817.101198
802.150984	3739.865680
802.471940	3730.126171
802.792851	3736.341914
803.113717	3744.284252
803.434538	3739.417018
803.755314	3681.181608
804.076045	3660.759894
804.396731	3679.704550
804.717372	3708.187070
805.037967	3690.018751
805.358518	3676.778161
805.679024	3709.250753
805.999485	3721.783062
806.319901	3730.073239
806.640272	3739.658993
806.960598	3749.562340
807.280879	3725.521077
807.601115	3742.174529
807.921306	3760.506685
808.241453	3798.209474
808.561554	3768.360803
808.881611	3704.900237
809.201623	3745.274838
809.521590	3756.718258
809.841513	3724.656519
810.161390	3757.134153
810.481223	3734.012901
810.801011	3681.221938
811.120755	3677.897297
811.440453	3709.528017
811.760107	3705.979044
812.079716	3662.126047
812.399281	3639.796256
812.718801	3660.517919
813.038276	3633.320894
813.357707	3630.291160
813.677093	3646.937050
813.996434	3591.819595
814.315731	3608.583952
814.634983	3609.294755
814.954191	3626.616159
815.273354	3650.975015
815.592473	3642.750372
815.911547	3658.060356
816.230577	3700.622818
816.549562	3752.178699
816.868502	3790.604894
817.187399	3815.596414
817.506250	3813.365703
817.825058	3789.808392
818.143821	3884.229203
818.462539	3984.023885
818.781213	4027.503837
819.099843	4093.701748
819.418429	4354.077344
819.736970	4595.909056
820.055466	4851.898848
820.373919	5221.710333
820.692327	5636.383045
821.010691	6122.045286
821.329011	7589.663803
821.647286	10469.014604
821.965517	15193.258834
822.283704	19213.425271
822.601847	21238.489539
822.919945	19313.676177
823.237999	16655.193449
823.556010	14145.039112
823.873976	11985.184473
824.191897	9873.205672
824.509775	8532.528451
824.827609	7405.807881
825.145398	6875.536469
825.463144	6758.427945
825.780845	6864.145982
826.098502	7088.888182
826.416116	8023.346706
826.733685	9395.263958
827.051210	10492.302214
827.368692	10455.000196
827.686129	9131.888875
828.003522	7615.340920
828.320872	6594.547595
828.638177	5877.244335
828.955439	5311.636956
829.272656	4805.757167
829.589830	4535.054767
829.906960	4357.865772
830.224046	4166.788397
830.541088	4042.448337
830.858086	3994.408662
831.175041	3917.336981
831.491952	3904.613109
831.808819	3911.332967
832.125642	3991.865399
832.442421	4148.746107
832.759157	4441.029687
833.075849	5016.633674
833.392497	5910.921763
833.709101	6703.696138
834.025662	7014.140474
834.342179	6604.468586
834.658653	5922.644967
834.975083	5267.627683
835.291469	4682.523641
835.607811	4276.476343
835.924110	4129.872027
836.240366	3931.482459
836.556578	3726.126016
836.872746	3618.610807
837.188871	3572.038107
837.504952	3506.026718
837.820990	3422.484717
838.136984	3379.725650
838.452935	3405.627098
838.768842	3401.213568
839.084706	3426.552928
839.400526	3597.679936
839.716303	3953.209832
840.032037	4500.911032
840.347727	4742.974637
840.663373	4432.616001
840.978977	4046.282135
841.294537	3730.151377
841.610054	3502.770133
841.925527	3400.974113
842.240957	3332.348886
842.556344	3276.245885
842.871687	3214.897563
843.186987	3164.291940
843.502244	3129.429841
843.817458	3095.200406
844.132629	3065.954152
844.447756	3073.558733
844.762840	3053.583160
845.077881	3023.918491
845.392879	3010.446007
845.707833	3004.137003
846.022745	3001.896210
846.337613	3002.370078
846.652438	2986.646720
846.967221	2986.256030
847.281960	2972.536530
847.596656	2968.924543
847.911309	2968.400263
848.225919	2960.311732
848.540485	2957.559262
848.855009	2954.963068
849.169490	2948.696913
849.483928	2935.957918
849.798323	2938.254163
850.112675	2936.371292
850.426984	2949.737912
850.741251	2942.970163
851.055474	2931.642690
851.369654	2927.398038
851.683792	2934.639656
851.997887	2939.741304
852.311938	2944.454783
852.625947	2931.892227
852.939914	2932.592948
853.253837	2935.327773
853.567718	2925.283274
853.881555	2923.907039
854.195350	2938.428083
854.509103	2932.345931
854.822812	2927.519026
855.136479	2923.823860
855.450103	2927.859304
855.763685	2920.549631
856.077224	2916.262130
856.390720	2928.663368
856.704173	2939.116201
857.017584	2928.885179
857.330953	2926.800662
857.644278	2937.840789
857.957561	2942.960080
858.270802	2948.896039
858.584000	2949.722788
858.897155	2936.167126
859.210268	2933.878442
859.523339	2933.543205
859.836367	2931.360385
860.149352	2925.817637
860.462295	2921.394024
860.775195	2929.989192
861.088054	2927.307298
861.400869	2913.605442
861.713642	2911.939340
862.026373	2929.585899
862.339062	2925.603388
862.651708	2931.761157
862.964312	2935.841971
863.276873	2929.517844
863.589392	2940.620985
863.901869	2953.828808
864.214303	2974.868064
864.526696	2992.121413
864.839045	2987.498675
865.151353	2987.029847
865.463619	2983.052377
865.775842	2984.768890
866.088023	3005.409894
866.400162	3008.421984
866.712258	2978.875781
867.024313	2970.721715
867.336325	2980.007520
867.648296	3002.738083
867.960224	2995.219202
868.272110	2980.315030
868.583954	2985.651092
868.895755	2997.833040
869.207515	2986.384580
869.519233	2993.825323
869.830909	3001.588700
870.142542	3008.810152
870.454134	3011.411388
870.765684	3015.068745
871.077191	3012.008765
871.388657	3024.495703
871.700081	3035.470295
872.011463	3048.877243
872.322803	3048.834393
872.634101	3047.773231
872.945357	3065.031621
873.256571	3093.143615
873.567744	3081.788416
873.878874	3075.567632
874.189963	3100.730552
874.501010	3099.354317
874.812015	3089.372832
875.122979	3092.384922
875.433900	3090.552462
875.744780	3097.358020
876.055618	3105.592745
876.366415	3099.228288
876.677169	3107.911675
876.987882	3105.065944
877.298554	3103.014194
877.609183	3124.875158
877.919771	3147.134373
878.230317	3178.797860
878.540822	3227.291240
878.851285	3271.534926
879.161707	3317.527893
879.472087	3429.237342
879.782425	3669.292047
880.092722	4126.862458
880.402977	4670.802958
880.713191	5333.263506
881.023363	6546.457508
881.333494	7852.144081
881.643583	8377.074389
881.953631	8056.089001
882.263637	7383.949438
882.573602	6760.540188
882.883526	6178.019738
883.193408	5601.044557
883.503248	5141.036748
883.813048	4829.412782
884.122806	4508.077033
884.432522	4181.909338
884.742197	3944.284469
885.051831	3749.474120
885.361424	3620.113071
885.670975	3542.948129
885.980485	3455.436219
886.289954	3374.465206
886.599382	3331.058350
886.908768	3293.106024
887.218113	3252.093717
887.527417	3187.624921
887.836680	3139.002992
888.145901	3132.562918
888.455082	3119.942389
888.764221	3068.023546
889.073319	3038.915923
889.382376	3036.702857
889.691392	3042.948846
890.000366	3042.366593
890.309300	3029.181455
890.618193	3041.355842
890.927044	3058.382339
891.235855	3055.657595
891.544625	3043.649567
891.853353	3056.083573
892.162041	3075.854978
892.470687	3116.411061
892.779293	3168.902075
893.087858	3215.557954
893.396381	3290.900519
893.704864	3420.412802
894.013306	3673.733304
894.321707	3986.536900
894.630068	4185.806150
894.938387	4176.595962
895.246665	4133.846977
895.554903	4004.042307
895.863100	3796.127478
896.171256	3627.876448
896.479371	3482.645847
896.787446	3355.475179
897.095480	3250.536000
897.403473	3185.283305
897.711425	3154.562513
898.019336	3143.300575
898.327207	3109.948302
898.635038	3073.011767
898.942827	3056.025599
899.250576	3045.257695
899.558284	3015.958509
899.865952	2993.167452
900.173579	2972.042497
900.481165	2966.736683
900.788711	2950.763787
901.096216	2928.071033
901.403681	2916.725916
901.711105	2925.842843
902.018489	2921.835125
902.325832	2918.601225
902.633135	2933.268462
902.940397	2966.719038
903.247619	3059.677915
903.554800	3266.420676
903.861941	3633.673775
904.169041	4080.204059
904.476101	4376.288668
904.783121	4301.208243
905.090100	4045.072258
905.397039	3761.260337
905.703938	3509.341277
906.010796	3320.086279
906.317614	3208.828014
906.624391	3107.226078
906.931129	3033.940304
907.237826	2970.943525
907.544483	2926.765374
907.851099	2896.251269
908.157675	2874.644884
908.464211	2849.902901
908.770707	2839.626509
909.077163	2824.553459
909.383578	2809.112405
909.689954	2797.001032
909.996289	2798.652010
910.302584	2799.738379
910.608839	2802.755510
910.915054	2792.532050
911.221229	2783.591563
911.527363	2789.129271
911.833458	2796.086063
912.139513	2798.170580
912.445527	2801.921199
912.751502	2812.074082
913.057436	2821.697645
913.363331	2837.562156
913.669186	2858.233408
913.975000	2898.091291
914.280775	2961.055302
914.586510	3030.978627
914.892205	3114.049280
915.197859	3251.816453
915.503475	3459.580047
915.809050	3681.421063
916.114585	3830.830781
916.420081	3839.390660
916.725536	3776.025877
917.030952	3652.353770
917.336328	3516.358563
917.641665	3381.011144
917.946961	3279.870474
918.252218	3205.573949
918.557435	3123.771145
918.862612	3063.352917
919.167750	3013.321985
919.472848	2973.411170
919.777906	2947.139197
920.082925	2920.884868
920.387904	2884.913714
920.692843	2868.083822
920.997743	2858.314066
921.302603	2844.329905
921.607423	2833.783812
921.912204	2820.800320
922.216946	2811.484267
922.521647	2797.820220
922.826310	2790.921401
923.130932	2783.488220
923.435516	2774.330964
923.740059	2768.420211
924.044564	2757.874117
924.349028	2755.000659
924.653454	2747.234762
924.957840	2739.970459
925.262186	2738.319481
925.566493	2732.653224
925.870761	2729.041237
926.174989	2722.059239
926.479178	2717.086141
926.783328	2713.620348
927.087438	2711.233362
927.391509	2710.588094
927.695541	2707.265973
927.999533	2706.270346
928.303486	2701.897145
928.607400	2703.412011
928.911275	2700.649459
929.215110	2697.264324
929.518906	2698.086032
929.822663	2701.420756
930.126381	2696.803059
930.430060	2701.007381
930.733699	2698.267514
931.037299	2700.518389
931.340861	2703.689275
931.644383	2703.603575
931.947866	2700.747762
932.251309	2696.606454
932.554714	2699.477391
932.858080	2696.661906
933.161407	2696.402287
933.464694	2694.466484
933.767943	2691.489682
934.071153	2692.868438
934.374323	2691.535053
934.677455	2689.977336
934.980548	2689.253931
935.283602	2688.253262
935.586617	2689.188396
935.889593	2689.974816
936.192530	2688.056657
936.495428	2691.472038
936.798287	2697.075281
937.101108	2693.153263
937.403890	2697.851619
937.706632	2703.832948
938.009336	2710.336036
938.312002	2721.605536
938.614628	2729.615929
938.917216	2736.040880
939.219765	2736.275293
939.522275	2735.307392
939.824747	2733.467371
940.127179	2728.937894
940.429573	2728.832030
940.731929	2724.511761
941.034246	2722.765001
941.336524	2718.230483
941.638763	2716.652602
941.940964	2713.885008
942.243126	2712.486088
942.545250	2712.594473
942.847335	2704.402598
943.149381	2702.088708
943.451389	2700.972093
943.753359	2697.924715
944.055290	2696.238449
944.357182	2693.430527
944.659036	2692.467666
944.960851	2691.860207
945.262628	2690.335258
945.564367	2693.730475
945.866067	2692.303829
946.167729	2692.354240
946.469352	2695.326001
946.770937	2691.293077
947.072484	2689.659744
947.373992	2692.019004
947.675462	2689.463139
947.976893	2684.343847
948.278286	2683.622962
948.579641	2687.507171
948.880958	2680.202539
949.182236	2686.430885
949.483476	2680.830163
949.784678	2686.619928
950.085841	2681.936696
950.386967	2683.053312
950.688054	2684.190092
950.989103	2686.435926
951.290114	2686.922397
951.591087	2687.688652
951.892021	2689.803417
952.192917	2693.838860
952.493776	2695.454550
952.794596	2696.107379
953.095378	2694.519416
953.396122	2696.591330
953.696828	2693.022193
953.997496	2691.245187
954.298126	2687.434074
954.598718	2687.315607
954.899272	2685.026923
955.199788	2680.562982
955.500266	2677.097188
955.800706	2676.812363
956.101108	2676.900583
956.401472	2670.803308
956.701798	2674.309430
957.002087	2671.564522
957.302337	2669.744665
957.602550	2665.805004
957.902724	2664.101094
958.202861	2663.443223
958.502960	2660.942811
958.803022	2664.154026
959.103045	2661.877945
959.403031	2660.814261
959.702979	2661.336021
960.002889	2660.128664
960.302762	2660.665547
960.602596	2657.981133
960.902393	2658.868376
961.202153	2658.502892
961.501875	2657.890392
961.801559	2658.417193
962.101205	2658.341575
962.400814	2657.950886
962.700385	2658.026503
962.999918	2654.134732
963.299414	2651.820843
963.598873	2654.734630
963.898293	2649.398568
964.197677	2655.599188
964.497022	2655.006852
964.796331	2653.935607
965.095601	2657.134219
965.394835	2653.872592
965.694030	2653.318066
965.993189	2653.731440
966.292309	2652.634989
966.591393	2657.151863
966.890439	2653.630617
967.189447	2654.129691
967.488419	2654.711945
967.787353	2655.407624
968.086249	2654.273364
968.385108	2652.345123
968.683930	2654.626245
968.982714	2656.879641
969.281462	2654.301091
969.580172	2657.209836
969.878844	2653.103817
970.177480	2655.664723
970.476078	2654.875782
970.774639	2655.334527
971.073162	2655.523570
971.371649	2653.970895
971.670098	2653.817140
971.968510	2653.587767
972.266885	2654.739671
972.565223	2655.568941
972.863524	2652.627427
973.161788	2655.773107
973.460014	2655.700011
973.758204	2654.870741
974.056356	2655.947027
974.354471	2654.175062
974.652550	2653.943169
974.950591	2656.579692
975.248595	2654.651451
975.546563	2653.552479
975.844493	2654.606080
976.142386	2654.543066
976.440243	2653.814619
976.738062	2653.302942
977.035845	2653.925525
977.333590	2655.979795
977.631299	2653.809578
977.928971	2651.462921
978.226606	2647.467807
978.524204	2650.064001
978.821765	2645.595018
979.119290	2653.867551
979.416777	2651.296563
979.714228	2652.035092
980.011642	2652.458549
980.309020	2653.073570
980.606360	2653.761687
980.903664	2652.753456
981.200931	2653.149187
981.498162	2651.896460
981.795356	2653.161790
982.092513	2655.763025
982.389633	2659.523726
982.686717	2664.443892
982.983764	2663.826351
983.280775	2667.322391
983.577749	2673.316323
983.874686	2667.816424
984.171587	2665.643687
984.468451	2664.922802
984.765279	2661.439364
985.062070	2659.410300
985.358824	2661.608243
985.655543	2656.801503
985.952224	2656.519198
986.248869	2652.773621
986.545478	2651.417551
986.842050	2650.605925
987.138586	2650.056439
987.435086	2651.972077
987.731549	2649.171717
988.027975	2651.445277
988.324366	2649.701038
988.620719	2652.405617
988.917037	2647.387148
989.213318	2648.627272
989.509563	2650.071562
989.805772	2648.516367
990.101944	2651.888898
990.398080	2649.007879
990.694180	2649.695997
990.990244	2650.215235
991.286271	2646.530152
991.582262	2649.895122
991.878217	2648.473517
992.174136	2649.726243
992.470019	2649.925369
992.765865	2644.294400
993.061676	2643.187867
993.357450	2648.435708
993.653188	2645.658032
993.948890	2648.355050
994.244556	2650.121974
994.540186	2648.997797
994.835780	2651.593991
995.131337	2651.407468
995.426859	2650.749598
995.722345	2651.788075
996.017795	2653.910401
996.313208	2652.927376
996.608586	2653.204640
996.903928	2652.645072
997.199234	2654.943838
997.494504	2654.626245
997.789738	2653.862510
998.084936	2652.647592
998.380099	2653.892757
998.675225	2653.416368
998.970316	2652.554331
999.265371	2652.745895
999.560390	2649.776655
999.855373	2650.772283
1000.150320	2650.026192
1000.445232	2648.677683
1000.740108	2647.238434
1001.034948	2650.913435
1001.329752	2647.677014
1001.624521	2646.872950
1001.919254	2645.489154
1002.213951	2647.813126
1002.508613	2646.653660
1002.803239	2646.535193
1003.097829	2649.610297
1003.392384	2645.113588
1003.686903	2646.015954
1003.981386	2645.683238
1004.275834	2645.090902
1004.570246	2648.841521
1004.864623	2646.673825
1005.158964	2645.549647
1005.453270	2647.399751
1005.747540	2647.142652
1006.041775	2648.198774
1006.335974	2647.122487
1006.630138	2649.209525
1006.924266	2647.901346
1007.218359	2647.457724
1007.512416	2643.399595
1007.806438	2643.497898
1008.100425	2644.012096
1008.394376	2643.354225
1008.688292	2647.145173
1008.982172	2646.855306
1009.276017	2646.366314
1009.569827	2646.094092
1009.863602	2646.875471
1010.157341	2645.960502
1010.451045	2645.481592
1010.744714	2646.809936
1011.038347	2644.203659
1011.331945	2646.401602
1011.625508	2644.629637
1011.919036	2647.155255
1012.212528	2646.252888
1012.505986	2644.173412
1012.799408	2649.327992
1013.092795	2644.680048
1013.386147	2645.441263
1013.679464	2644.662404
1013.972745	2647.697179
1014.265992	2647.077117
1014.559204	2646.240286
1014.852380	2645.824390
1015.145521	2646.275574
1015.438628	2649.096099
1015.731699	2645.736170
1016.024736	2646.184833
1016.317737	2644.780872
1016.610703	2645.000162
1016.903635	2646.305821
1017.196531	2645.683238
1017.489393	2647.747591
1017.782219	2645.499236
1018.075011	2646.895636
1018.367768	2643.588639
1018.660490	2646.320944
1018.953177	2646.320944
1019.245829	2646.320944
