Dividing Wavelength (nm)	Counts (n)	Blue Motor Position (mm): 22.600000	Red Motor Position (mm): 0.000000	
326.493990	2190.257838
326.888308	2190.257838
327.282561	2190.257838
327.676750	2151.612353
328.070874	2146.430046
328.464933	2147.607156
328.858929	2150.473052
329.252859	2155.909936
329.646726	2164.689106
330.040528	2177.786023
330.434265	2190.575431
330.827938	2210.669470
331.221547	2226.531460
331.615091	2243.598287
332.008571	2261.696029
332.401986	2277.802516
332.795338	2297.694909
333.188625	2316.001859
333.581847	2336.116063
333.975006	2353.755060
334.368100	2373.077803
334.761129	2392.574465
335.154095	2411.264543
335.546996	2434.874787
335.939833	2466.702112
336.332606	2481.785244
336.725315	2494.493993
337.117960	2508.158041
337.510540	2519.982067
337.903056	2531.231402
338.295508	2539.337577
338.687896	2548.126829
339.080220	2553.523384
339.472480	2562.967986
339.864676	2566.166598
340.256807	2572.082392
340.648875	2576.548854
341.040879	2581.360636
341.432818	2579.704617
341.824694	2587.354567
342.216506	2587.102510
342.608253	2585.867427
342.999937	2584.806264
343.391557	2588.564444
343.783113	2586.994125
344.174605	2585.968250
344.566033	2586.230390
344.957397	2583.999680
345.348697	2582.066397
345.739934	2580.836356
346.131106	2580.112950
346.522215	2574.998699
346.913260	2574.285376
347.304241	2574.970973
347.695159	2572.430232
348.086012	2570.557443
348.476802	2566.141392
348.867528	2562.224416
349.258191	2560.149981
349.648789	2558.254507
350.039324	2556.656461
350.429796	2557.768036
350.820203	2559.303067
351.210548	2555.897768
351.600828	2556.638817
351.991045	2554.312325
352.381198	2553.719989
352.771288	2552.767211
353.161314	2553.238559
353.551276	2551.070863
353.941175	2552.573127
354.331010	2551.721172
354.720782	2549.286294
355.110490	2551.968188
355.500135	2552.711758
355.889717	2552.023641
356.279235	2550.372663
356.668689	2553.911553
357.058080	2550.982642
357.447408	2552.137067
357.836672	2553.462890
358.225873	2549.873589
358.615010	2551.527087
359.004084	2554.163611
359.393095	2551.196892
359.782043	2554.017417
360.170927	2552.956254
360.559748	2557.372305
360.948505	2554.735782
361.337199	2559.958417
361.725830	2561.183417
362.114398	2557.515978
362.502903	2555.635628
362.891344	2561.027142
363.279722	2559.832388
363.668037	2561.072512
364.056289	2560.666699
364.444478	2563.073850
364.832603	2561.251473
365.220665	2560.412121
365.608665	2561.725341
365.996601	2562.221895
366.384474	2561.793397
366.772284	2562.121072
367.160031	2563.467060
367.547715	2565.796073
367.935336	2564.961762
368.322893	2561.495969
368.710388	2562.138716
369.097820	2562.468912
369.485189	2561.881617
369.872495	2564.737431
370.259738	2565.811197
370.646918	2565.601989
371.034035	2567.608368
371.421090	2565.927143
371.808081	2566.564849
372.195010	2567.552915
372.581875	2567.068964
372.968678	2568.200703
373.355418	2565.879252
373.742096	2566.726166
374.128710	2570.275138
374.515262	2567.058882
374.901751	2568.694737
375.288177	2569.670200
375.674540	2570.645663
376.060841	2571.734552
376.447079	2568.364541
376.833254	2570.993503
377.219367	2570.935529
377.605417	2571.232957
377.991404	2572.775551
378.377329	2571.364027
378.763191	2570.202042
379.148991	2571.210272
379.534727	2572.069789
379.920402	2567.852864
380.306013	2575.207907
380.691563	2574.487022
381.077049	2572.236147
381.462474	2572.846127
381.847835	2572.934347
382.233134	2570.126424
382.618371	2573.612382
383.003545	2573.932495
383.388657	2572.457958
383.773706	2573.282187
384.158693	2575.427198
384.543618	2574.335788
384.928480	2578.202353
385.313280	2574.602969
385.698017	2575.719584
386.082692	2575.671693
386.467305	2578.588001
386.851856	2578.671180
387.236344	2576.803432
387.620770	2576.228741
388.005133	2574.764286
388.389435	2575.959039
388.773674	2571.043914
389.157851	2577.690676
389.541965	2578.572878
389.926018	2579.550861
390.310008	2578.182188
390.693936	2579.883577
391.077802	2578.192270
391.461606	2579.815522
391.845348	2579.414750
392.229027	2579.944071
392.612645	2579.011458
392.996200	2582.116809
393.379694	2582.578074
393.763125	2582.535224
394.146494	2578.895511
394.529801	2582.376428
394.913047	2581.547158
395.296230	2581.199319
395.679351	2580.039853
396.062410	2581.998342
396.445408	2584.004721
396.828343	2582.409196
397.211217	2582.464648
397.594028	2583.185533
397.976778	2582.751994
398.359466	2582.852817
398.742092	2581.799216
399.124656	2584.972622
399.507158	2587.168045
399.889598	2585.905236
400.271977	2584.276943
400.654294	2585.383476
401.036549	2585.978332
401.418742	2586.061512
401.800874	2583.891295
402.182944	2587.256265
402.564952	2584.740729
402.946898	2585.834660
403.328783	2585.794330
403.710606	2589.635690
404.092367	2590.127202
404.474067	2585.902715
404.855705	2588.544280
405.237282	2587.099989
405.618797	2588.347675
406.000250	2589.305494
406.381642	2586.202664
406.762972	2584.302149
407.144240	2586.031265
407.525447	2585.902715
407.906593	2584.922211
408.287677	2591.856318
408.668700	2586.580750
409.049661	2592.856987
409.430560	2590.268354
409.811399	2590.381780
410.192176	2591.390011
410.572891	2592.017635
410.953545	2592.625094
411.334138	2591.921853
411.714669	2592.993098
412.095139	2589.837336
412.475547	2592.425968
412.855894	2591.957141
413.236180	2592.536874
413.616405	2594.291195
413.996568	2593.255238
414.376670	2592.423448
414.756711	2591.813468
415.136691	2592.219281
415.516609	2594.462594
415.896466	2593.701380
416.276262	2591.863880
416.655997	2597.366299
417.035670	2593.943356
417.415283	2597.394025
417.794834	2597.262955
418.174324	2595.937132
418.553753	2594.550815
418.933121	2595.952255
419.312428	2596.844540
419.691674	2598.056937
420.070859	2597.376381
420.449983	2596.869745
420.829045	2596.587441
421.208047	2596.952924
421.586988	2599.241608
421.965867	2598.442585
422.344686	2600.128851
422.723444	2599.690271
423.102141	2598.293871
423.480777	2599.100456
423.859352	2599.927205
424.237866	2599.423090
424.616319	2598.480394
424.994712	2601.290837
425.373044	2597.257914
425.751314	2598.397215
426.129524	2594.966710
426.507673	2600.602720
426.885762	2596.385795
427.263789	2601.668924
427.641756	2599.954932
428.019662	2600.431321
428.397508	2600.809407
428.775292	2603.166147
429.153016	2602.377206
429.530679	2603.110694
429.908282	2602.861157
430.285824	2601.447113
430.663305	2602.475508
431.040726	2603.342587
431.418086	2602.241095
431.795385	2603.831579
432.172624	2604.154213
432.549802	2604.587752
432.926920	2603.665221
433.303977	2606.692434
433.680974	2602.558687
434.057910	2605.568256
434.434786	2604.953236
434.811601	2607.030191
435.188355	2607.632609
435.565050	2605.432145
435.941683	2607.262084
436.318257	2607.100767
436.694770	2604.761672
437.071222	2605.868205
437.447614	2607.723350
437.823946	2606.788216
438.200218	2604.706219
438.576429	2607.821652
438.952580	2606.664707
439.328670	2609.686879
439.704700	2610.826180
440.080670	2605.515324
440.456580	2608.524893
440.832429	2612.383896
441.208218	2609.114708
441.583947	2611.481530
441.959616	2608.426591
442.335224	2608.537496
442.710773	2609.886005
443.086261	2611.342898
443.461689	2607.680500
443.837057	2609.704523
444.212365	2613.616458
444.587612	2607.070520
444.962800	2609.518000
445.337927	2611.158896
445.712995	2606.909203
446.088002	2614.886829
446.462949	2613.069493
446.837837	2612.025974
447.212664	2614.178547
447.587431	2615.733743
447.962139	2614.866665
448.336786	2617.472941
448.711374	2622.113323
449.085901	2618.884464
449.460369	2616.792385
449.834776	2619.451594
450.209124	2618.531583
450.583412	2621.624331
450.957640	2621.311780
451.331808	2618.937396
451.705917	2621.515947
452.079965	2618.420678
452.453954	2618.859258
452.827883	2621.641975
453.201752	2622.100720
453.575562	2622.783797
453.949311	2623.895371
454.323001	2621.571399
454.696632	2623.658437
455.070202	2625.684981
455.443713	2625.465691
455.817164	2625.173304
456.190556	2626.171452
456.563888	2629.791001
456.937160	2628.525671
457.310373	2627.449385
457.683526	2628.250928
458.056619	2631.013480
458.429653	2629.380147
458.802628	2634.081022
459.175542	2629.773357
459.548398	2632.830816
459.921194	2635.830303
460.293930	2637.135962
460.666607	2640.765592
461.039224	2645.078300
461.411782	2647.235913
461.784280	2649.063332
462.156719	2651.132725
462.529099	2654.303611
462.901419	2652.264464
463.273680	2651.213384
463.645882	2649.557365
464.018024	2657.789569
464.390106	2655.057264
464.762130	2668.247443
465.134094	2675.738597
465.505999	2690.289888
465.877845	2718.333827
466.249631	2738.523648
466.621358	2739.408370
466.993026	2738.130438
467.364634	2744.741911
467.736184	2742.969946
468.107674	2747.030595
468.479105	2759.262955
468.850477	2769.882145
469.221790	2777.355656
469.593043	2783.949485
469.964238	2794.598923
470.335373	2804.741724
470.706449	2823.267965
471.077467	2841.234637
471.448425	2886.448746
471.819324	2985.635968
472.190164	3057.626166
472.560945	3015.373735
472.931667	2996.444202
473.302330	3009.314268
473.672934	3032.279244
474.043479	3075.771799
474.413965	3106.275821
474.784393	3139.698671
475.154761	3199.690922
475.525070	3242.830596
475.895321	3275.290586
476.265513	3352.309334
476.635645	3432.186417
477.005719	3479.714416
477.375734	3552.201167
477.745691	3647.078203
478.115588	3743.737287
478.485427	3854.443546
478.855207	4002.512316
479.224928	4234.145774
479.594591	4534.936300
479.964194	4628.285867
480.333739	4743.992950
480.703226	4774.736427
481.072653	4873.621180
481.442022	5072.285492
481.811333	5298.598011
482.180584	5429.499133
482.549777	5421.171147
482.918912	5526.553947
483.287988	5679.578172
483.657005	5788.066323
484.025964	5873.105548
484.394864	5995.512325
484.763706	6092.325164
485.132489	6173.245765
485.501213	6314.498896
485.869879	6471.820705
486.238487	6537.935437
486.607036	6760.918275
486.975527	6845.697880
487.343959	7049.095835
487.712333	7231.482260
488.080648	7281.019158
488.448905	7581.265240
488.817104	7682.922628
489.185244	8003.136721
489.553326	8208.644398
489.921350	8590.383253
490.289315	9399.432992
490.657222	10128.280495
491.025070	10479.096912
491.392861	10639.856787
491.760593	10612.944587
492.128267	10601.866652
492.495883	10461.241145
492.863440	10417.347818
493.230939	10322.246451
493.598380	10485.925154
493.965763	10537.702846
494.333088	10591.456669
494.700354	10760.478996
495.067563	10937.146232
495.434713	11047.509693
495.801805	11238.927346
496.168839	11432.674011
496.535815	11572.104765
496.902733	11843.903616
497.269593	11860.541944
497.636395	12176.929801
498.003139	12361.894776
498.369825	12501.005417
498.736453	12755.828182
499.103023	12896.768761
499.469535	13128.573618
499.835989	13427.312395
500.202385	13660.233867
500.568723	13611.077576
500.935003	13894.019897
501.301226	13912.044543
501.667390	14478.433301
502.033497	14876.946595
502.399546	14881.770979
502.765537	14920.350929
503.131470	15284.780982
503.497345	15588.049236
503.863163	15296.577282
504.228923	15871.011722
504.594625	16190.797316
504.960269	16053.002417
505.325856	16570.675985
505.691385	16403.166004
506.056856	16936.671316
506.422270	17159.366807
506.787625	17029.045419
507.152924	17544.074901
507.518164	17706.503399
507.883347	17745.348010
508.248472	17689.310544
508.613540	18444.482952
508.978550	18490.344849
509.343503	18646.003077
509.708398	19033.400626
510.073236	19288.717424
510.438016	19604.059242
510.802738	19561.728673
511.167403	19892.282172
511.532010	19804.346804
511.896561	20592.039696
512.261053	20755.428533
512.625488	20755.405848
512.989866	20820.429171
513.354186	20845.259374
513.718449	21088.174934
514.082655	21507.886280
514.446803	21465.258283
514.810894	21967.619346
515.174927	21661.167603
515.538904	21827.671874
515.902822	22355.273994
516.266684	22292.299900
516.630488	22313.906286
516.994235	22449.190690
517.357925	22801.332931
517.721558	23082.415066
518.085133	23275.647534
518.448651	23311.147340
518.812112	23169.425382
519.175516	23420.351335
519.538863	23689.180946
519.902152	23574.043513
520.265385	23961.577173
520.628560	23839.213246
520.991678	23951.998981
521.354739	24109.472024
521.717743	24242.014041
522.080690	24112.665595
522.443580	24497.666076
522.806413	24584.235291
523.169189	24742.915690
523.531908	24859.250398
523.894569	24551.639190
524.257174	24672.611759
524.619722	24928.687251
524.982213	24685.038203
525.344647	24833.275852
525.707025	24971.884898
526.069345	25043.227307
526.431608	25032.240112
526.793815	25266.424394
527.155964	24768.849906
527.518057	24979.817154
527.880093	24945.439005
528.242072	25201.133890
528.603995	24954.818072
528.965860	24790.105932
529.327669	24885.900457
529.689421	24906.065073
530.051117	24756.637711
530.412755	24978.453522
530.774337	24806.381297
531.135862	24699.944895
531.497331	24921.143164
531.858743	24491.024356
532.220098	24997.378013
532.581396	24678.429250
532.942638	24676.790875
533.303824	24770.513487
533.664953	24808.506143
534.026025	24498.268494
534.387040	24740.117850
534.747999	24825.394008
535.108902	24991.532795
535.469748	24498.379400
535.830537	24713.545928
536.191270	24824.763864
536.551947	24738.933179
536.912567	24418.214971
537.273131	24709.482758
537.633638	24454.390291
537.994089	24660.775130
538.354483	24243.899433
538.714821	24731.421860
539.075103	24788.835561
539.435328	24569.099226
539.795497	24132.641167
540.155609	24551.971906
540.515665	24839.284908
540.875665	24109.081335
541.235609	24362.749676
541.595496	24356.778429
541.955328	24709.336565
542.315102	24624.970334
542.674821	24200.301014
543.034483	24082.370781
543.394090	24250.515947
543.753640	24033.227093
544.113134	24666.252343
544.472571	24270.554534
544.831953	24569.016047
545.191278	24167.896477
545.550548	24118.049548
545.909761	24321.092101
546.268918	24555.014242
546.628019	24508.673436
546.987064	24227.170364
547.346053	23979.533763
547.704986	24114.946718
548.063863	24272.011427
548.422684	24261.117494
548.781449	23836.654861
549.140158	24229.648091
549.498811	23796.134066
549.857408	23536.239900
550.215949	23988.527182
550.574434	23662.530886
550.932864	23881.329566
551.291237	24014.552139
551.649555	23909.063474
552.007817	23941.296612
552.366022	23834.363656
552.724173	23866.264078
553.082267	23805.162772
553.440305	24282.552480
553.798288	23554.821593
554.156215	24079.804834
554.514086	24159.195445
554.871902	23522.774978
555.229661	23813.914216
555.587365	23690.269835
555.945014	23509.456250
556.302606	23795.753459
556.660143	23717.792015
557.017625	23988.706143
557.375050	23526.165154
557.732421	23907.392331
558.089735	23715.299164
558.446994	23792.423777
558.804197	23800.419047
559.161345	23763.361525
559.518437	23495.199867
559.875474	23719.442992
560.232455	23882.403332
560.589381	23715.851170
560.946251	23674.027237
561.303065	24008.893443
561.659825	24093.297482
562.016528	23697.541700
562.373177	23434.373304
562.729770	23802.488440
563.086307	23667.829139
563.442789	23844.302291
563.799216	23661.835207
564.155587	23688.248332
564.511904	23668.981042
564.868164	23592.506739
565.224370	23587.319391
565.580520	23478.375016
565.936615	23619.277786
566.292654	23279.761116
566.648638	23614.922229
567.004567	23423.111367
567.360441	23371.331155
567.716260	23101.006842
568.072023	23431.318365
568.427732	23174.194313
568.783385	22983.195076
569.138982	23200.244476
569.494525	23251.192897
569.850013	22991.117249
570.205445	23094.942333
570.560823	22902.284557
570.916145	22665.219256
571.271412	22825.827897
571.626625	22598.282815
571.981782	22708.474877
572.336884	22512.532788
572.691931	22646.045227
573.046923	22367.503833
573.401860	22256.250609
573.756743	22253.898911
574.111570	22172.312877
574.466342	22111.324998
574.821059	22202.537115
575.175722	21896.879354
575.530330	21884.979711
575.884882	21912.272518
576.239380	21823.339002
576.593823	21707.420190
576.948211	21693.499044
577.302544	21533.293695
577.656823	21405.941546
578.011047	21504.057523
578.365216	21379.835931
578.719330	21260.655492
579.073389	21166.123775
579.427394	21299.358951
579.781344	21086.745767
580.135239	20982.015796
580.489080	20944.388623
580.842866	20710.000175
581.196597	20897.432796
581.550273	20875.992768
581.903895	20772.959146
582.257463	21083.504305
582.610975	20612.121132
582.964434	20914.275291
583.317837	20641.349742
583.671186	20732.027497
584.024481	20680.421205
584.377721	20469.166612
584.730906	20504.870584
585.084037	20546.273581
585.437113	20443.514701
585.790135	20645.581791
586.143103	20120.530494
586.496016	20126.443768
586.848874	20376.732015
587.201679	20315.144238
587.554428	19976.287959
587.907124	20314.272119
588.259765	20092.080742
588.612352	20162.185548
588.964884	19737.304499
589.317362	19910.987373
589.669786	19962.691967
590.022155	20018.192551
590.374470	20182.287149
590.726731	19998.824437
591.078937	19744.924203
591.431090	19848.451859
591.783188	19591.531974
592.135232	19566.056503
592.487222	19663.375978
592.839157	19692.090391
593.191038	19574.621424
593.542866	19468.510176
593.894639	19184.915026
594.246358	19405.394930
594.598022	19316.879830
594.949633	19070.629547
595.301190	19030.280152
595.652692	19191.919709
596.004141	19438.485064
596.355535	18760.286034
596.706876	18779.586092
597.058162	18667.624585
597.409395	18880.220125
597.760573	18976.052460
598.111698	18753.062061
598.462768	18688.739458
598.813785	18649.806627
599.164748	18475.390266
599.515657	18508.608949
599.866511	18296.431825
600.217312	18658.651332
600.568060	18191.071709
600.918753	18498.640067
601.269392	18404.567095
601.619978	18168.444490
601.970510	18387.578407
602.320988	18336.045212
602.671412	18543.458446
603.021783	18443.215101
603.372100	18186.189352
603.722363	18312.674423
604.072572	18256.407584
604.422728	18382.827119
604.772830	18156.101225
605.122878	18088.789218
605.472872	18082.933918
605.822813	18086.878621
606.172701	18044.943783
606.522534	18254.045803
606.872314	18259.946474
607.222041	18106.004759
607.571714	18316.795566
607.921333	18143.329462
608.270899	18214.001398
608.620411	18414.046985
608.969870	18164.678748
609.319276	18175.217281
609.668627	18207.427733
610.017926	18347.574331
610.367171	18455.187842
610.716362	18493.551023
611.065500	18324.647163
611.414585	18449.912274
611.763616	18427.088450
612.112594	18380.871152
612.461518	18342.989401
612.810389	18539.125574
613.159207	18403.483247
613.507971	18293.901166
613.856682	18583.696936
614.205340	18511.994084
614.553945	18656.236619
614.902496	18402.477537
615.250994	18642.179361
615.599439	18580.004290
615.947830	18565.601714
616.296169	18603.458259
616.644454	18583.775073
616.992686	18550.546308
617.340864	18759.340818
617.688990	18520.768212
618.037063	18691.665848
618.385082	18543.332417
618.733048	18827.535027
619.080961	18687.816927
619.428821	18722.058965
619.776628	18620.605743
620.124382	18541.983908
620.472083	18572.117405
620.819731	18605.414226
621.167326	18302.662691
621.514868	18335.465479
621.862357	18096.537472
622.209793	18108.679091
622.557176	17935.790199
622.904506	17770.639479
623.251783	17677.995674
623.599007	17453.923947
623.946179	17391.930358
624.293297	17326.002148
624.640363	17090.834841
624.987376	17107.720186
625.334336	16906.474804
625.681243	16754.040394
626.028097	16759.331085
626.374899	16692.145107
626.721647	16553.674693
627.068343	16386.847789
627.414987	16310.744010
627.761577	16288.832635
628.108115	16335.150756
628.454600	16055.059207
628.801032	16151.309958
629.147412	16079.077785
629.493739	16106.252125
629.840014	15910.138637
630.186236	16013.051272
630.532405	15781.576611
630.878521	15980.676982
631.224585	15859.780031
631.570597	15689.631006
631.916556	15731.283540
632.262462	15711.103801
632.608316	15620.095851
632.954117	15564.731379
633.299866	15559.728033
633.645562	15479.145189
633.991206	15235.002108
634.336797	15106.210710
634.682336	15068.318877
635.027823	14975.884280
635.373257	14852.499519
635.718639	14743.161933
636.063968	14699.941601
636.409245	14447.326861
636.754470	14479.401203
637.099642	14324.579806
637.444762	14095.497173
637.789829	14140.691117
638.134845	13982.613135
638.479808	14005.517617
638.824719	13953.742447
639.169577	13800.708140
639.514383	13857.403476
639.859137	13671.304241
640.203839	13750.576385
640.548489	13590.479421
640.893086	13583.222680
641.237632	13459.628712
641.582125	13604.942492
641.926566	13443.008027
642.270955	13439.879991
642.615292	13411.155497
642.959576	13421.411724
643.303809	13455.305922
643.647990	13385.332186
643.992118	13447.948358
644.336195	13217.857494
644.680219	13413.797061
645.024192	13344.622348
645.368112	13582.658071
645.711981	13642.879695
646.055797	13818.468125
646.399562	13779.875571
646.743274	14058.462336
647.086935	14323.848839
647.430544	14291.552687
647.774101	14320.564527
648.117606	14481.889012
648.461059	14447.581439
648.804460	14435.638946
649.147810	14169.045087
649.491108	14057.348241
649.834354	14089.866204
650.177548	13791.699598
650.520690	13590.093773
650.863781	13512.515457
651.206820	13551.133216
651.549807	13388.286302
651.892742	13188.863297
652.235626	13132.712405
652.578458	13136.226089
652.921238	12822.641114
653.263967	13021.197041
653.606644	12843.410668
653.949269	12814.363540
654.291843	12617.730813
654.634365	12783.171400
654.976836	12629.627937
655.319255	12644.426244
655.661622	12596.159716
656.003938	12517.956297
656.346203	12441.870162
656.688416	12517.311029
657.030577	12473.006848
657.372687	12401.354408
657.714746	12369.761497
658.056753	12546.307746
658.398708	12375.813402
658.740612	12380.405893
659.082465	12478.161428
659.424266	12432.312134
659.766016	12460.371196
660.107715	12377.235008
660.449362	12441.968464
660.790958	12406.375397
661.132503	12351.562932
661.473996	12417.415524
661.815438	12429.264756
662.156829	12446.621449
662.498168	12423.013726
662.839456	12408.485120
663.180693	12442.742281
663.521879	12525.175229
663.863013	12508.224349
664.204097	12481.065133
664.545129	12600.003596
664.886110	12564.803739
665.227040	12665.399964
665.567918	12664.883246
665.908746	12702.586036
666.249522	12685.083149
666.590248	12731.091240
666.930922	12847.151204
667.271545	12831.765603
667.612118	12910.412644
667.952639	12814.091317
668.293109	12826.288389
668.633528	12789.898820
668.973896	12754.635949
669.314213	12842.039474
669.654480	12582.409969
669.994695	12634.752269
670.334859	12666.887105
670.674973	12614.416255
671.015035	12645.681491
671.355047	12591.380702
671.695008	12565.711147
672.034918	12568.859348
672.374777	12613.932304
672.714585	12527.075744
673.054342	12559.364334
673.394049	12511.566634
673.733705	12603.280346
674.073310	12511.894309
674.412864	12534.899615
674.752368	12410.499061
675.091820	12412.427303
675.431223	12405.825912
675.770574	12281.896706
676.109875	12200.358563
676.449125	12163.830362
676.788324	12095.842841
677.127473	11943.042947
677.466571	11921.406315
677.805619	11830.345432
678.144616	11748.812331
678.483562	11713.347813
678.822458	11592.339957
679.161303	11562.140924
679.500098	11554.480891
679.838842	11509.269303
680.177535	11531.528518
680.516179	11592.191243
680.854771	11536.262161
681.193314	11751.839544
681.531805	11898.234651
681.870247	12305.529635
682.208638	12719.937687
682.546978	13038.445349
682.885268	13089.391250
683.223508	12782.926904
683.561697	12621.725928
683.899836	12528.895600
684.237925	12333.566012
684.575963	12243.273906
684.913951	12175.374605
685.251889	12116.781273
685.589776	12215.582848
685.927614	12141.251034
686.265401	12096.548602
686.603137	12146.743371
686.940824	12293.992955
687.278460	12416.707242
687.616046	12465.777834
687.953582	12637.766879
688.291068	12555.419631
688.628504	12784.892954
688.965889	12801.647229
689.303224	12769.920727
689.640510	12671.207373
689.977745	12364.501053
690.314930	12136.383800
690.652065	12052.062940
690.989150	11763.353539
691.326185	11541.071422
691.663170	11331.694659
692.000105	11092.557444
692.336990	10980.661472
692.673825	10733.352547
693.010610	10616.785947
693.347345	10409.246684
693.684030	10205.979799
694.020665	10146.302620
694.357251	9949.090161
694.693786	9903.190455
695.030272	9731.730730
695.366707	9611.773954
695.703093	9541.462461
696.039429	9543.045383
696.375716	9467.385226
696.711952	9337.048713
697.048139	9377.083037
697.384276	9329.076129
697.720363	9344.650773
698.056400	9280.280280
698.392388	9233.654648
698.728326	9199.029483
699.064214	9136.090677
699.400053	9179.936113
699.735842	8993.131116
700.071581	8952.950599
700.407270	8880.302531
700.742910	8799.787742
701.078501	8711.055873
701.414042	8586.357891
701.749533	8521.576544
702.084974	8384.747026
702.420366	8493.167121
702.755709	8380.930872
703.091002	8245.497753
703.426246	8277.267105
703.761440	8228.952687
704.096584	8184.706479
704.431679	8114.213504
704.766725	8105.630940
705.101721	8046.432670
705.436668	8095.551153
705.771565	7988.996284
706.106413	8070.395795
706.441212	8111.818956
706.775961	8067.313130
707.110661	8099.740352
707.445311	8249.329030
707.779913	8137.100343
708.114465	8273.118235
708.448967	8313.603742
708.783421	8446.912014
709.117825	8628.322977
709.452180	8660.828337
709.786485	8752.284950
710.120742	9034.516468
710.454949	9031.743834
710.789107	9136.448599
711.123216	9345.510290
711.457275	9507.742183
711.791286	9673.341566
712.125247	9672.043469
712.459159	9652.246858
712.793023	9909.527185
713.126837	9486.042536
713.460602	9634.161718
713.794318	9467.997726
714.127985	9487.796857
714.461602	9174.330350
714.795171	9125.151373
715.128691	8879.571564
715.462162	8627.579406
715.795584	8569.175118
716.128957	8431.387781
716.462281	8253.815657
716.795556	8306.909090
717.128782	8104.451310
717.461960	7838.427101
717.795088	7903.810866
718.128167	7813.075138
718.461198	7653.026065
718.794180	7588.708504
719.127113	7577.897750
719.459997	7436.430370
719.792833	7206.142900
720.125619	7267.057683
720.458357	7126.515355
720.791046	7112.939528
721.123686	7116.163345
721.456278	6959.035621
721.788821	6973.476006
722.121315	6866.280911
722.453761	6931.248781
722.786158	6873.434308
723.118506	6890.276803
723.450805	6855.873449
723.783056	6925.287617
724.115259	6831.902762
724.447412	6828.411763
724.779518	6876.937910
725.111574	6870.681838
725.443582	6948.779394
725.775542	6934.381858
726.107453	7123.387319
726.439315	7039.439504
726.771129	7091.519665
727.102895	7258.195334
727.434612	7371.248251
727.766281	7401.225472
728.097901	7494.156623
728.429473	7478.040054
728.760996	7454.286137
729.092471	7427.777229
729.423897	7375.785289
729.755276	7392.615181
730.086606	7314.956206
730.417887	7415.950682
730.749120	7594.780574
731.080305	7794.077550
731.411442	7920.970954
731.742530	7914.382166
732.073570	8026.303343
732.404562	8111.087989
732.735506	7953.625028
733.066401	8094.369002
733.397249	8032.551853
733.728048	7794.304402
734.058798	7464.612940
734.389501	7245.350474
734.720156	7069.391520
735.050762	6829.611558
735.381320	6732.037505
735.711831	6685.915988
736.042293	6579.272899
736.372707	6602.512618
736.703073	6461.030115
737.033391	6500.908162
737.363661	6505.911508
737.693883	6536.438215
738.024056	6617.331090
738.354182	6662.283059
738.684260	6697.160282
739.014290	6804.995604
739.344272	6918.887872
739.674207	6948.912984
740.004093	7017.475197
740.333931	7030.433483
740.663722	7041.040071
740.993464	7118.920857
741.323159	7114.550176
741.652806	6863.026846
741.982405	6863.319233
742.311956	6927.188132
742.641460	6773.805985
742.970915	6570.932310
743.300323	6570.347536
743.629683	6513.783269
743.958996	6383.139247
744.288260	6292.826976
744.617477	6238.556434
744.946647	6252.550677
745.275768	6082.794862
745.604842	6032.713520
745.933869	6017.196848
746.262847	5978.145550
746.591778	5965.908149
746.920662	5922.334936
747.249498	5909.255662
747.578286	5957.796932
747.907027	6035.864241
748.235720	6093.739208
748.564365	6067.910856
748.892963	6088.025060
749.221514	6248.726962
749.550017	6087.674699
749.878473	5963.758097
750.206881	6012.866497
750.535242	5957.073527
750.863555	5887.190532
751.191821	5904.295167
751.520039	5910.994860
751.848210	5816.614378
752.176334	5834.855793
752.504411	5885.458895
752.832440	5809.972658
753.160421	5741.987657
753.488356	5788.802332
753.816243	5820.768288
754.144082	5674.663047
754.471875	5640.035361
754.799620	5688.004461
755.127318	5696.783630
755.454969	5652.028266
755.782572	5617.665241
756.110129	5660.636037
756.437638	5649.573224
756.765100	5590.702630
757.092515	5588.197176
757.419882	5629.864833
757.747203	5617.186332
758.074477	5678.428789
758.401703	5668.485113
758.728882	5618.847392
759.056014	5666.710627
759.383099	5803.726668
759.710138	5815.593544
760.037129	5793.382220
760.364073	5801.793385
760.690970	5879.228029
761.017820	5866.473910
761.344623	5814.250077
761.671379	5914.969810
761.998088	6031.639754
762.324751	6265.685403
762.651366	6850.378591
762.977935	8134.229406
763.304456	9753.833669
763.630931	10680.813642
763.957359	10305.507299
764.283740	9369.143219
764.610074	8557.658602
764.936362	7566.300575
765.262602	6967.746735
765.588796	6427.960146
765.914943	6092.539413
766.241044	5926.186377
766.567097	5735.655968
766.893104	5478.342872
767.219064	5295.417043
767.544978	5229.287187
767.870845	5154.761289
768.196665	5051.926792
768.522438	4977.090863
768.848165	4947.398467
769.173846	4880.051172
769.499479	4836.140202
769.825066	4788.352584
770.150607	4725.078541
770.476101	4699.219942
770.801548	4696.913615
771.126949	4621.954178
771.452303	4568.157504
771.777611	4528.934807
772.102872	4540.526940
772.428087	4505.937063
772.753256	4469.464315
773.078378	4425.276081
773.403453	4359.395762
773.728482	4342.901106
774.053465	4293.260864
774.378401	4279.455665
774.703291	4286.513280
775.028135	4215.760686
775.352932	4163.239424
775.677683	4151.916993
776.002388	4170.017256
776.327046	4180.399512
776.651658	4106.236577
776.976224	4044.384140
777.300743	4050.967887
777.625216	4072.508737
777.949643	4070.199889
778.274024	4024.496788
778.598359	3974.236484
778.922647	3999.638859
779.246889	3995.782376
779.571086	3990.368177
779.895236	3976.517607
780.219339	3960.416161
780.543397	3948.745890
780.867409	4004.783356
781.191374	4018.381869
781.515294	3956.995738
781.839167	3951.702527
782.162995	3967.914877
782.486776	3957.005821
782.810511	3967.894713
783.134201	3964.398673
783.457844	3922.113474
783.781441	3865.639948
784.104993	3868.437789
784.428498	3888.257085
784.751958	3886.117115
785.075372	3864.558621
785.398739	3827.516222
785.722061	3840.073737
786.045337	3881.315416
786.368568	3916.784975
786.691752	3826.079493
787.014891	3875.147564
787.337983	3998.544928
787.661030	4151.901869
787.984031	4314.542095
788.306987	4490.294362
788.629897	4570.705807
788.952760	4526.031102
789.275579	4457.307572
789.598351	4394.782141
789.921078	4259.442284
790.243759	4061.650092
790.566395	4039.060682
790.888984	4036.088922
791.211529	3931.285854
791.534027	3866.302860
791.856480	3861.251624
792.178888	3798.375833
792.501249	3747.558481
792.823566	3761.126747
793.145836	3788.180099
793.468062	3736.588930
793.790241	3690.366591
794.112375	3719.920355
794.434464	3784.074079
794.756507	3808.322029
795.078505	3790.032723
795.400457	3819.047084
795.722364	3956.816777
796.044226	4061.100606
796.366042	4134.459477
796.687812	4122.027992
797.009538	4126.650730
797.331218	4080.534254
797.652852	4051.587949
797.974442	4030.962068
798.295986	4033.916184
798.617484	3955.927014
798.938938	3864.856049
799.260346	3908.119231
799.581709	3907.625198
799.903026	3832.418744
800.224299	3793.158238
800.545526	3786.889563
800.866708	3750.217690
801.187845	3686.830221
801.508936	3725.999987
801.829983	3726.252044
802.150984	3648.293121
802.471940	3636.398518
802.792851	3648.114160
803.113717	3646.437976
803.434538	3648.068789
803.755314	3595.106427
804.076045	3563.894123
804.396731	3583.655446
804.717372	3610.192080
805.037967	3597.127930
805.358518	3586.279367
805.679024	3612.919344
805.999485	3628.264617
806.319901	3628.461222
806.640272	3645.084426
806.960598	3658.130932
807.280879	3635.617139
807.601115	3642.747852
807.921306	3661.773166
808.241453	3698.956717
808.561554	3681.068182
808.881611	3612.566463
809.201623	3646.949653
809.521590	3657.851148
809.841513	3630.381901
810.161390	3661.737878
810.481223	3641.482522
810.801011	3584.255343
811.120755	3574.435176
811.440453	3615.089561
811.760107	3618.991414
812.079716	3573.172367
812.399281	3541.574414
812.718801	3564.957807
813.038276	3536.830689
813.357707	3539.260525
813.677093	3555.437588
813.996434	3504.884897
814.315731	3511.146010
814.634983	3514.316896
814.954191	3526.188813
815.273354	3558.563103
815.592473	3550.240158
815.911547	3555.435067
816.230577	3597.808486
816.549562	3649.616424
816.868502	3692.458670
817.187399	3714.974983
817.506250	3710.667317
817.825058	3679.966690
818.143821	3773.651493
818.462539	3873.574724
818.781213	3919.766817
819.099843	3975.022904
819.418429	4210.830437
819.736970	4450.933033
820.055466	4692.124518
820.373919	5055.702616
820.692327	5468.762159
821.010691	5883.853288
821.329011	7220.570683
821.647286	9902.358665
821.965517	14395.387853
822.283704	18429.041897
822.601847	20663.397228
822.919945	18901.879443
823.237999	16345.689288
823.556010	13868.002502
823.873976	11794.656584
824.191897	9714.323626
824.509775	8361.169549
824.827609	7228.581076
825.145398	6682.167890
825.463144	6564.502318
825.780845	6678.140008
826.098502	6851.349013
826.416116	7698.696399
826.733685	9005.073609
827.051210	10129.596236
827.368692	10217.239216
827.686129	8992.818564
828.003522	7470.576625
828.320872	6452.001408
828.638177	5755.326550
828.955439	5202.017065
829.272656	4707.197568
829.589830	4420.320627
829.906960	4246.141199
830.224046	4062.922983
830.541088	3937.660393
830.858086	3889.106519
831.175041	3816.380313
831.491952	3795.905667
831.808819	3806.277841
832.125642	3878.772154
832.442421	4021.625851
832.759157	4287.337509
833.075849	4823.028160
833.392497	5676.293860
833.709101	6453.566687
834.025662	6795.137627
834.342179	6463.003727
834.658653	5798.990504
834.975083	5158.630375
835.291469	4584.505966
835.607811	4171.743851
835.924110	4032.166904
836.240366	3840.300588
836.556578	3631.528764
836.872746	3524.227804
837.188871	3484.198522
837.504952	3419.475148
837.820990	3340.641584
838.136984	3285.803912
838.452935	3317.636278
838.768842	3309.429280
839.084706	3331.948114
839.400526	3485.768841
839.716303	3813.348059
840.032037	4329.098427
840.347727	4600.612453
840.663373	4338.149819
840.978977	3959.145790
841.294537	3652.525169
841.610054	3426.681477
841.925527	3316.093685
842.240957	3250.674632
842.556344	3194.122968
842.871687	3136.164822
843.186987	3087.031216
843.502244	3049.252809
843.817458	3014.975484
844.132629	2984.836945
844.447756	2994.437823
844.762840	2980.342757
845.077881	2949.206070
845.392879	2931.322577
845.707833	2924.325455
846.022745	2923.523912
846.337613	2928.118923
846.652438	2915.001841
846.967221	2913.706265
847.281960	2898.126579
847.596656	2894.517113
847.911309	2892.404869
848.225919	2890.942934
848.540485	2880.921121
848.855009	2882.836759
849.169490	2874.571787
849.483928	2861.747092
849.798323	2861.162318
850.112675	2858.523274
850.426984	2871.085829
850.741251	2868.986189
851.055474	2859.730630
851.369654	2853.678725
851.683792	2858.813140
851.997887	2865.417052
852.311938	2868.013246
852.625947	2857.875486
852.939914	2861.442102
853.253837	2866.286651
853.567718	2850.371728
853.881555	2846.106912
854.195350	2865.348996
854.509103	2862.450333
854.822812	2852.045391
855.136479	2848.347705
855.450103	2850.505319
855.763685	2844.844103
856.077224	2840.319667
856.390720	2852.610001
856.704173	2864.744058
857.017584	2856.380784
857.330953	2851.727799
857.644278	2861.056454
857.957561	2870.143134
858.270802	2874.758310
858.584000	2872.288145
858.897155	2860.753985
859.210268	2858.901361
859.523339	2858.193078
859.836367	2856.673171
860.149352	2853.925742
860.462295	2847.604135
860.775195	2855.430526
861.088054	2856.237111
861.400869	2838.840089
861.713642	2836.168277
862.026373	2851.536235
862.339062	2854.041688
862.651708	2859.213912
862.964312	2865.101980
863.276873	2857.096628
863.589392	2866.342104
863.901869	2878.145965
864.214303	2894.454098
864.526696	2914.621234
864.839045	2909.012950
865.151353	2909.660739
865.463619	2907.324164
865.775842	2907.840882
866.088023	2926.256217
866.400162	2934.405242
866.712258	2905.839544
867.024313	2893.808830
867.336325	2904.821231
867.648296	2924.396031
867.960224	2916.955288
868.272110	2902.487177
868.583954	2907.929102
868.895755	2924.920311
869.207515	2907.482960
869.519233	2911.283990
869.830909	2925.144643
870.142542	2931.945159
870.454134	2933.739810
870.765684	2935.758792
871.077191	2933.742331
871.388657	2937.863474
871.700081	2957.014817
872.011463	2969.388329
872.322803	2968.783391
872.634101	2967.215592
872.945357	2983.974908
873.256571	3008.772344
873.567744	3003.776560
873.878874	2993.091835
874.189963	3014.703261
874.501010	3020.901360
874.812015	3008.306037
875.122979	3010.536748
875.433900	3008.195132
875.744780	3009.457941
876.055618	3018.869775
876.366415	3014.254599
876.677169	3030.103986
876.987882	3021.821371
877.298554	3017.758201
877.609183	3037.015408
877.919771	3062.417783
878.230317	3087.928542
878.540822	3141.589104
878.851285	3176.945236
879.161707	3218.043243
879.472087	3315.030002
879.782425	3535.056203
880.092722	3967.405721
880.402977	4483.458558
880.713191	5098.791879
881.023363	6236.887812
881.333494	7510.623552
881.643583	8082.920542
881.953631	7794.196017
882.263637	7181.842018
882.573602	6602.255519
882.883526	6023.478126
883.193408	5454.357062
883.503248	4989.681145
883.813048	4685.049259
884.122806	4395.976895
884.432522	4076.765992
884.742197	3847.045652
885.051831	3647.917555
885.361424	3516.996269
885.670975	3444.607820
885.980485	3363.309132
886.289954	3284.306690
886.599382	3240.864546
886.908768	3200.048844
887.218113	3156.553769
887.527417	3104.508897
887.836680	3052.474107
888.145901	3043.836089
888.455082	3038.260573
888.764221	2986.823160
889.073319	2958.499437
889.382376	2956.498099
889.691392	2960.707463
890.000366	2957.718058
890.309300	2946.942592
890.618193	2958.075980
890.927044	2976.811428
891.235855	2977.953250
891.544625	2960.621763
891.853353	2972.246664
892.162041	2991.118223
892.470687	3028.904192
892.779293	3081.294383
893.087858	3123.927421
893.396381	3196.383925
893.704864	3313.235351
894.013306	3544.188253
894.321707	3847.244778
894.630068	4055.441911
894.938387	4052.112229
895.246665	4005.884848
895.554903	3892.310173
895.863100	3696.138712
896.171256	3524.744522
896.479371	3388.560272
896.787446	3267.756582
897.095480	3166.371416
897.403473	3098.368771
897.711425	3063.824264
898.019336	3054.770352
898.327207	3026.098790
898.635038	2994.251300
898.942827	2980.201604
899.250576	2967.122331
899.558284	2934.357351
899.865952	2914.497726
900.173579	2892.656927
900.481165	2886.647871
900.788711	2876.452138
901.096216	2853.698890
901.403681	2838.338494
901.711105	2846.122036
902.018489	2845.131449
902.325832	2845.776717
902.633135	2853.739219
902.940397	2887.010834
903.247619	2963.394398
903.554800	3148.911380
903.861941	3489.418637
904.169041	3908.867842
904.476101	4215.067527
904.783121	4178.052855
905.090100	3936.485804
905.397039	3662.559586
905.703938	3414.827204
906.010796	3234.086715
906.317614	3125.711990
906.624391	3027.704397
906.931129	2959.704273
907.237826	2895.381670
907.544483	2851.130422
907.851099	2819.224959
908.157675	2799.584624
908.464211	2782.301028
908.770707	2766.683533
909.077163	2754.761204
909.383578	2740.114132
909.689954	2728.950497
909.996289	2729.091649
910.302584	2728.567369
910.608839	2728.655589
910.915054	2721.915567
911.221229	2717.270143
911.527363	2718.858107
911.833458	2725.628376
912.139513	2729.116855
912.445527	2733.414438
912.751502	2742.155799
913.057436	2752.394383
913.363331	2761.849067
913.669186	2784.902263
913.975000	2816.149855
914.280775	2875.330481
914.586510	2945.694906
914.892205	3024.067205
915.197859	3146.473982
915.503475	3335.577745
915.809050	3548.647153
916.114585	3692.859441
916.420081	3715.325343
916.725536	3661.027075
917.030952	3541.917213
917.336328	3414.275198
917.641665	3287.217956
917.946961	3184.869930
918.252218	3119.886936
918.557435	3042.651418
918.862612	2986.591267
919.167750	2932.129161
919.472848	2894.557442
919.777906	2867.274717
920.082925	2841.988289
920.387904	2811.706078
920.692843	2795.052627
920.997743	2783.599125
921.302603	2772.417846
921.607423	2760.712287
921.912204	2750.302304
922.216946	2738.349728
922.521647	2728.935373
922.826310	2721.345916
923.130932	2713.121274
923.435516	2703.507793
923.740059	2700.702391
924.044564	2691.862728
924.349028	2684.936182
924.653454	2679.506860
924.957840	2674.775737
925.262186	2668.428924
925.566493	2664.002791
925.870761	2658.931390
926.174989	2654.958961
926.479178	2654.099444
926.783328	2644.407826
927.087438	2646.273053
927.391509	2647.132570
927.695541	2642.852630
927.999533	2636.893986
928.303486	2636.256280
928.607400	2635.540437
928.911275	2635.157309
929.215110	2633.455919
929.518906	2633.604633
929.822663	2633.012298
930.126381	2628.805455
930.430060	2631.260497
930.733699	2631.996505
931.037299	2635.303502
931.340861	2634.297792
931.644383	2637.100674
931.947866	2637.307361
932.251309	2632.427524
932.554714	2631.613378
932.858080	2634.375930
933.161407	2631.121865
933.464694	2628.623973
933.767943	2624.359157
934.071153	2626.390742
934.374323	2624.316307
934.677455	2626.151287
934.980548	2628.313942
935.283602	2624.936369
935.586617	2624.225567
935.889593	2624.608694
936.192530	2622.463683
936.495428	2624.830505
936.798287	2625.929477
937.101108	2627.333438
937.403890	2635.699233
937.706632	2639.356590
938.009336	2644.304482
938.312002	2652.239259
938.614628	2660.189158
938.917216	2669.795077
939.219765	2668.502021
939.522275	2669.485046
939.824747	2663.438182
940.127179	2661.951042
940.429573	2658.618839
940.731929	2657.340906
941.034246	2654.699342
941.336524	2651.644402
941.638763	2648.413023
941.940964	2647.956798
942.243126	2642.688793
942.545250	2645.395892
942.847335	2644.319606
943.149381	2636.664614
943.451389	2634.466671
943.753359	2629.218830
944.055290	2631.714201
944.357182	2628.359313
944.659036	2629.871659
944.960851	2627.081380
945.262628	2624.049126
945.564367	2626.423510
945.866067	2623.668519
946.167729	2627.081380
946.469352	2626.683129
946.770937	2629.196144
947.072484	2625.006946
947.373992	2625.082563
947.675462	2621.805813
947.976893	2620.182561
948.278286	2614.478496
948.579641	2617.278857
948.880958	2612.913217
949.182236	2619.764146
949.483476	2618.428240
949.784678	2619.479320
950.085841	2614.634772
950.386967	2621.256327
950.688054	2619.060905
950.989103	2618.836573
951.290114	2619.426388
951.591087	2623.628190
951.892021	2622.957717
952.192917	2627.671195
952.493776	2627.580455
952.794596	2630.426186
953.095378	2631.676392
953.396122	2629.483490
953.696828	2627.204889
953.997496	2624.976699
954.298126	2623.723972
954.598718	2623.986112
954.899272	2617.203239
955.199788	2617.977057
955.500266	2615.138887
955.800706	2611.698299
956.101108	2609.094543
956.401472	2608.366097
956.701798	2605.830396
957.002087	2601.457195
957.302337	2601.326125
957.602550	2602.820827
957.902724	2600.171701
958.202861	2597.298243
958.502960	2596.388315
958.803022	2598.460229
959.103045	2597.908223
959.403031	2596.116093
959.702979	2595.929570
960.002889	2595.370002
960.302762	2594.656679
960.602596	2593.366143
960.902393	2594.422265
961.202153	2593.867738
961.501875	2592.831781
961.801559	2592.549477
962.101205	2592.115937
962.400814	2593.446802
962.700385	2589.045875
962.999918	2589.975968
963.299414	2588.375401
963.598873	2589.343303
963.898293	2587.036975
964.197677	2590.215422
964.497022	2591.455546
964.796331	2588.859352
965.095601	2591.077460
965.394835	2591.639548
965.694030	2591.092583
965.993189	2591.823550
966.292309	2590.240628
966.591393	2590.848087
966.890439	2590.434712
967.189447	2587.964547
967.488419	2592.272213
967.787353	2590.938828
968.086249	2588.249372
968.385108	2591.079980
968.683930	2588.876996
968.982714	2589.756677
969.281462	2590.215422
969.580172	2589.471852
969.878844	2588.340113
970.177480	2592.604929
970.476078	2588.279619
970.774639	2590.351533
971.073162	2588.924887
971.371649	2589.779362
971.670098	2591.142995
971.968510	2589.597881
972.266885	2589.116451
972.565223	2590.961513
972.863524	2591.987388
973.161788	2587.772983
973.460014	2588.997984
973.758204	2588.211564
974.056356	2589.451687
974.354471	2589.595360
974.652550	2588.196440
974.950591	2589.048395
975.248595	2588.430854
975.546563	2588.496389
975.844493	2588.655185
976.142386	2589.343303
976.440243	2589.887747
976.738062	2586.358940
977.035845	2588.670309
977.333590	2586.308528
977.631299	2588.017479
977.928971	2585.610328
978.226606	2586.868096
978.524204	2584.617221
978.821765	2580.554051
979.119290	2588.093097
979.416777	2587.402458
979.714228	2589.048395
980.011642	2585.650657
980.309020	2586.358940
980.606360	2588.440936
980.903664	2588.584609
981.200931	2589.222315
981.498162	2588.854311
981.795356	2589.212233
982.092513	2593.938314
982.389633	2593.078798
982.686717	2598.150198
982.983764	2599.259252
983.280775	2604.383585
983.577749	2604.444079
983.874686	2602.404932
984.171587	2600.252360
984.468451	2599.440734
984.765279	2595.685074
985.062070	2595.445619
985.358824	2595.619539
985.655543	2590.865731
985.952224	2590.394383
986.248869	2588.819023
986.545478	2590.641400
986.842050	2587.180648
987.138586	2585.892633
987.435086	2589.101327
987.731549	2585.103692
988.027975	2584.942375
988.324366	2583.225863
988.620719	2585.867427
988.917037	2586.182499
989.213318	2584.135791
989.509563	2582.847776
989.805772	2581.774010
990.101944	2582.968764
990.398080	2584.806264
990.694180	2584.496233
990.990244	2584.481110
991.286271	2586.006059
991.582262	2584.723085
991.878217	2581.181675
992.174136	2581.952971
992.470019	2584.483630
992.765865	2581.837025
993.061676	2578.734194
993.357450	2583.145204
993.653188	2582.026068
993.948890	2584.158476
994.244556	2585.764083
994.540186	2584.632344
994.835780	2585.045719
995.131337	2586.179979
995.426859	2584.055132
995.722345	2587.465473
996.017795	2588.057808
996.313208	2587.672160
996.608586	2589.451687
996.903928	2589.113930
997.199234	2592.574682
997.494504	2589.252562
997.789738	2587.594022
998.084936	2587.941862
998.380099	2588.171234
998.675225	2586.832808
998.970316	2585.212077
999.265371	2585.990935
999.560390	2584.486151
999.855373	2584.637386
1000.150320	2583.619072
1000.445232	2585.259968
1000.740108	2583.951789
1001.034948	2583.046902
1001.329752	2581.095975
1001.624521	2581.577405
1001.919254	2582.575554
1002.213951	2583.233424
1002.508613	2581.199319
1002.803239	2579.979359
1003.097829	2582.532704
1003.392384	2581.007755
1003.686903	2578.966087
1003.981386	2582.676377
1004.275834	2581.300142
1004.570246	2584.433219
1004.864623	2584.647468
1005.158964	2584.372725
1005.453270	2584.889443
1005.747540	2581.814339
1006.041775	2581.970615
1006.335974	2581.700913
1006.630138	2582.041191
1006.924266	2583.513208
1007.218359	2578.782085
1007.512416	2578.708989
1007.806438	2579.170254
1008.100425	2580.238979
1008.394376	2575.669173
1008.688292	2582.618403
1008.982172	2580.768300
1009.276017	2579.180337
1009.569827	2580.017168
1009.863602	2580.077662
1010.157341	2581.418609
1010.451045	2580.750656
1010.744714	2580.748135
1011.038347	2579.908783
1011.331945	2581.262333
1011.625508	2579.571026
1011.919036	2579.087075
1012.212528	2581.186716
1012.505986	2578.608166
1012.799408	2581.935327
1013.092795	2580.637230
1013.386147	2582.961202
1013.679464	2579.235789
1013.972745	2581.514391
1014.265992	2580.861561
1014.559204	2578.207394
1014.852380	2580.435584
1015.145521	2582.815008
1015.438628	2579.578588
1015.731699	2579.243351
1016.024736	2582.003383
1016.317737	2581.267374
1016.610703	2580.833835
1016.903635	2582.827611
1017.196531	2579.865933
1017.489393	2580.372569
1017.782219	2580.654874
1018.075011	2582.903229
1018.367768	2578.499781
1018.660490	2581.771490
1018.953177	2581.771490
1019.245829	2581.771490
