Dividing Wavelength (nm)	Counts (n)	Blue Motor Position (mm): 31.800000	Red Motor Position (mm): 0.000000	
326.493990	2218.032075
326.888308	2218.032075
327.282561	2218.032075
327.676750	2178.121260
328.070874	2174.224448
328.464933	2173.296876
328.858929	2179.782320
329.252859	2183.958916
329.646726	2194.298323
330.040528	2206.734849
330.434265	2218.823536
330.827938	2236.265928
331.221547	2253.620101
331.615091	2271.062493
332.008571	2287.176541
332.401986	2306.587504
332.795338	2326.053920
333.188625	2347.257013
333.581847	2361.810824
333.975006	2379.787578
334.368100	2402.805487
334.761129	2419.690832
335.154095	2437.581887
335.546996	2464.476442
335.939833	2502.595127
336.332606	2516.579288
336.725315	2532.088398
337.117960	2543.796478
337.510540	2555.686039
337.903056	2560.724672
338.295508	2573.181363
338.687896	2585.181830
339.080220	2592.735999
339.472480	2596.718511
339.864676	2600.375868
340.256807	2607.408277
340.648875	2610.995058
341.040879	2615.476644
341.432818	2618.261882
341.824694	2619.706172
342.216506	2620.056532
342.608253	2622.065432
342.999937	2620.341358
343.391557	2621.372274
343.783113	2621.957047
344.174605	2617.843466
344.566033	2619.058384
344.957397	2617.964454
345.348697	2615.466562
345.739934	2614.130656
346.131106	2614.082765
346.522215	2612.262909
346.913260	2612.099071
347.304241	2607.017588
347.695159	2604.300406
348.086012	2603.332505
348.476802	2603.241764
348.867528	2597.880497
349.258191	2596.663058
349.648789	2595.894282
350.039324	2594.787749
350.429796	2593.804724
350.820203	2593.610639
351.210548	2594.069384
351.600828	2591.647110
351.991045	2589.575196
352.381198	2590.122161
352.771288	2588.720720
353.161314	2587.956985
353.551276	2588.466142
353.941175	2588.665267
354.331010	2585.201995
354.720782	2585.748960
355.110490	2587.092427
355.500135	2587.452870
355.889717	2586.265678
356.279235	2587.379773
356.668689	2587.669640
357.058080	2590.543097
357.447408	2588.488827
357.836672	2587.856162
358.225873	2586.563106
358.615010	2587.702407
359.004084	2589.045875
359.393095	2588.113261
359.782043	2591.700042
360.170927	2589.761718
360.559748	2593.403952
360.948505	2593.436720
361.337199	2592.123499
361.725830	2591.369847
362.114398	2592.491503
362.502903	2593.426637
362.891344	2592.678026
363.279722	2595.695157
363.668037	2594.737337
364.056289	2597.305805
364.444478	2594.220619
364.832603	2595.508634
365.220665	2594.873448
365.608665	2597.719180
365.996601	2597.061309
366.384474	2597.313367
366.772284	2598.984509
367.160031	2601.311002
367.547715	2600.741352
367.935336	2601.242946
368.322893	2597.918305
368.710388	2597.963676
369.097820	2597.300764
369.485189	2595.400249
369.872495	2600.239757
370.259738	2602.851074
370.646918	2601.726897
371.034035	2603.203955
371.421090	2604.237392
371.808081	2606.198401
372.195010	2605.394337
372.581875	2605.227978
372.968678	2607.378031
373.355418	2602.979624
373.742096	2606.909203
374.128710	2605.308637
374.515262	2606.321909
374.901751	2607.486415
375.288177	2607.698144
375.674540	2603.755962
376.060841	2607.496498
376.447079	2608.151848
376.833254	2608.111518
377.219367	2609.008844
377.605417	2607.587238
377.991404	2609.323916
378.377329	2606.984821
378.763191	2609.996910
379.148991	2609.613782
379.534727	2609.785182
379.920402	2609.472630
380.306013	2611.221910
380.691563	2612.726695
381.077049	2610.014554
381.462474	2609.770058
381.847835	2612.154524
382.233134	2614.617127
382.618371	2610.866509
383.003545	2613.137549
383.388657	2614.995214
383.773706	2614.130656
384.158693	2615.088475
384.543618	2614.266767
384.928480	2611.519338
385.313280	2616.686521
385.698017	2614.342385
386.082692	2612.784668
386.467305	2615.801799
386.851856	2616.477313
387.236344	2618.077880
387.620770	2611.854575
388.005133	2615.872375
388.389435	2617.346912
388.773674	2615.123763
389.157851	2618.473610
389.541965	2619.870010
389.926018	2620.532922
390.310008	2618.337499
390.693936	2617.886316
391.077802	2620.732047
391.461606	2620.921090
391.845348	2614.760800
392.229027	2620.933693
392.612645	2620.875720
392.996200	2621.725154
393.379694	2621.193313
393.763125	2622.115844
394.146494	2623.436626
394.529801	2623.915536
394.913047	2626.529374
395.296230	2623.913015
395.679351	2624.243211
396.062410	2622.564507
396.445408	2625.140536
396.828343	2626.849487
397.211217	2628.944087
397.594028	2626.486524
397.976778	2631.762092
398.359466	2628.422327
398.742092	2630.383336
399.124656	2627.754374
399.507158	2628.813017
399.889598	2631.373923
400.271977	2630.242184
400.654294	2633.851650
401.036549	2632.072123
401.418742	2633.259314
401.800874	2632.729993
402.182944	2634.320477
402.564952	2633.430714
402.946898	2634.673358
403.328783	2633.854171
403.710606	2638.900366
404.092367	2638.328195
404.474067	2640.599234
404.855705	2635.754686
405.237282	2639.366672
405.618797	2638.900366
406.000250	2639.432207
406.381642	2641.829276
406.762972	2640.342136
407.144240	2638.731487
407.525447	2642.305665
407.906593	2637.317443
408.287677	2643.210552
408.668700	2646.835142
409.049661	2646.991417
409.430560	2646.502426
409.811399	2646.976294
410.192176	2647.011582
410.572891	2646.726757
410.953545	2648.203815
411.334138	2650.293373
411.714669	2651.372180
412.095139	2653.567603
412.475547	2652.352685
412.855894	2656.047850
413.236180	2655.503406
413.616405	2658.472645
413.996568	2659.213695
414.376670	2660.748726
414.756711	2663.758295
415.136691	2668.565035
415.516609	2672.920592
415.896466	2677.006447
416.276262	2686.193950
416.655997	2694.605116
417.035670	2704.379913
417.415283	2720.549414
417.794834	2736.918040
418.174324	2747.837180
418.553753	2766.701177
418.933121	2792.852163
419.312428	2817.669763
419.691674	2838.754389
420.070859	2890.494272
420.449983	2908.917168
420.829045	2967.462609
421.208047	3001.182887
421.586988	3064.598082
421.965867	3119.526494
422.344686	3188.509643
422.723444	3250.503232
423.102141	3248.501894
423.480777	3395.766601
423.859352	3407.641039
424.237866	3567.488466
424.616319	3625.129019
424.994712	3773.941360
425.373044	3788.134728
425.751314	3957.840132
426.129524	4021.824977
426.507673	4149.547651
426.885762	4280.045480
427.263789	4356.234958
427.641756	4434.660189
428.019662	4572.901230
428.397508	4743.201489
428.775292	4755.181791
429.153016	4996.108616
429.530679	5051.568870
429.908282	5174.078991
430.285824	5169.836860
430.663305	5549.879366
431.040726	5449.867915
431.418086	5544.525661
431.795385	5801.894208
432.172624	5954.636129
432.549802	6033.220156
432.926920	6188.853178
433.303977	6240.857721
433.680974	6453.342355
434.057910	6622.427697
434.434786	6762.269304
434.811601	6814.498179
435.188355	7243.563385
435.565050	7195.591765
435.941683	7270.604135
436.318257	7709.204684
436.694770	7899.304075
437.071222	8075.066424
437.447614	8087.323990
437.823946	8121.006459
438.200218	8352.186213
438.576429	8315.781520
438.952580	8588.505423
439.328670	8743.999813
439.704700	8672.997682
440.080670	8754.475331
440.456580	9304.409763
440.832429	9190.129326
441.208218	8951.047563
441.583947	9318.421650
441.959616	9516.657463
442.335224	9430.904916
442.710773	9633.614753
443.086261	9885.196056
443.461689	9335.778343
443.837057	9950.300038
444.212365	10284.475606
444.587612	10023.769814
444.962800	10308.385798
445.337927	10158.076235
445.712995	9790.886150
446.088002	10861.118071
446.462949	10585.477861
446.837837	10602.229615
447.212664	10658.745991
447.587431	11159.365335
447.962139	11854.535409
448.336786	14030.388150
448.711374	14635.548422
449.085901	12627.949232
449.460369	12272.202567
449.834776	11776.894078
450.209124	12613.559259
450.583412	13025.247608
450.957640	13985.753774
451.331808	13231.425759
451.705917	12215.184597
452.079965	11580.664644
452.453954	12460.280455
452.827883	12113.993515
453.201752	12402.597053
453.575562	11932.106164
453.949311	12349.740554
454.323001	12308.052733
454.696632	12538.965305
455.070202	12831.122856
455.443713	13094.124893
455.817164	13542.613666
456.190556	13557.565728
456.563888	13929.754116
456.937160	14117.337972
457.310373	13444.787555
457.683526	13522.237322
458.056619	13082.472266
458.429653	13214.878172
458.802628	12689.559694
459.175542	13035.912169
459.548398	13977.584584
459.921194	14311.462724
460.293930	14373.932702
460.666607	15262.526808
461.039224	16288.704085
461.411782	16977.620608
461.784280	16896.463072
462.156719	16935.834484
462.529099	16634.348278
462.901419	15552.695624
463.273680	15346.580487
463.645882	15207.547985
464.018024	14952.999962
464.390106	15160.274564
464.762130	15900.714200
465.134094	16636.047147
465.505999	18597.020705
465.877845	21846.677024
466.249631	24686.830333
466.621358	24417.194137
466.993026	22979.192400
467.364634	22411.200555
467.736184	20964.560800
468.107674	20155.463170
468.479105	20284.909918
468.850477	19753.330327
469.221790	19330.682510
469.593043	18663.710129
469.964238	18111.608001
470.335373	17774.717772
470.706449	18190.716308
471.077467	17729.080206
471.448425	19554.353465
471.819324	23531.528942
472.190164	25622.476049
472.560945	22129.642030
472.931667	19733.977338
473.302330	19083.053471
473.672934	18573.556655
474.043479	18940.535011
474.413965	18749.876052
474.784393	18387.129744
475.154761	19051.906702
475.525070	19063.750893
475.895321	18717.111072
476.265513	19298.330905
476.635645	19877.151148
477.005719	19658.717952
477.375734	19873.007320
477.745691	20339.084678
478.115588	20845.322388
478.485427	21355.898012
478.855207	22413.093508
479.224928	24154.426514
479.594591	26368.564297
479.964194	26461.407228
480.333739	26649.976629
480.703226	26212.190226
481.072653	25885.735185
481.442022	26451.108151
481.811333	27346.601076
482.180584	27298.846225
482.549777	26341.009351
482.918912	25968.883977
483.287988	26099.850633
483.657005	25786.794979
484.025964	25502.554561
484.394864	25448.815861
484.763706	25146.737319
485.132489	24569.081582
485.501213	24725.281734
485.869879	24656.633822
486.238487	24457.195693
486.607036	24603.648774
486.975527	24295.591424
487.343959	24622.583348
487.712333	24574.273971
488.080648	24255.315126
488.448905	24714.914601
488.817104	24454.468429
489.185244	25127.926254
489.553326	25096.401398
489.921350	26076.900780
490.289315	28342.682664
490.657222	30139.854010
491.025070	30629.319802
491.392861	30433.181109
491.760593	29579.756612
492.128267	28692.924389
492.495883	27663.745105
492.863440	26782.871526
493.230939	25901.440900
493.598380	25750.221408
493.965763	25344.821898
494.333088	24909.644292
494.700354	24826.311498
495.067563	24715.360743
495.434713	24461.757937
495.801805	24611.215546
496.168839	24419.760085
496.535815	24259.935343
496.902733	24471.890657
497.269593	24146.146419
497.636395	24334.065511
498.003139	24308.874865
498.369825	24053.646287
498.736453	24259.595065
499.103023	24127.244612
499.469535	24150.038189
499.835989	24356.218861
500.202385	24380.776842
500.568723	23886.411049
500.935003	24147.754547
501.301226	23745.039451
501.667390	24581.394601
502.033497	24817.595343
502.399546	24545.977974
502.765537	24123.360403
503.131470	24502.298897
503.497345	24643.867100
503.863163	23861.142265
504.228923	24456.217709
504.594625	24663.981303
504.960269	24186.808366
505.325856	24673.519167
505.691385	24081.773405
506.056856	24697.333577
506.422270	24665.317209
506.787625	24229.864861
507.152924	24646.022193
507.518164	24677.224415
507.883347	24476.571368
508.248472	24165.711137
508.613540	24949.154335
508.978550	24741.521811
509.343503	24726.015222
509.708398	24991.474822
510.073236	25138.603418
510.438016	25347.365160
510.802738	25035.267325
511.167403	25288.698732
511.532010	24985.496013
511.896561	25760.016370
512.261053	25721.620422
512.625488	25560.328704
512.989866	25461.010412
513.354186	25302.849251
513.718449	25408.514356
514.082655	25785.020493
514.446803	25517.514185
514.810894	25979.271274
515.174927	25455.470184
515.538904	25491.380843
515.902822	25992.101011
516.266684	25751.806851
516.630488	25652.244062
516.994235	25633.795960
517.357925	25937.754852
517.721558	26114.033919
518.085133	26205.959360
518.448651	26119.087676
518.812112	25847.492992
519.175516	26044.002210
519.538863	26204.688989
519.902152	25983.218498
520.265385	26274.879494
520.628560	26070.392650
520.991678	26083.504692
521.354739	26152.339127
521.717743	26213.631996
522.080690	26000.860015
522.443580	26335.262435
522.806413	26330.095253
523.169189	26431.077126
523.531908	26477.561605
523.894569	26086.080721
524.257174	26161.887072
524.619722	26345.624527
524.982213	26026.947987
525.344647	26096.828461
525.707025	26223.205147
526.069345	26222.254889
526.431608	26167.235736
526.793815	26355.545518
527.155964	25818.410575
527.518057	25995.392884
527.880093	25902.131538
528.242072	26131.004964
528.603995	25852.957603
528.965860	25644.009337
529.327669	25698.491608
529.689421	25678.558885
530.051117	25508.263667
530.412755	25691.358375
530.774337	25497.170608
531.135862	25360.870411
531.497331	25566.355404
531.858743	25113.528718
532.220098	25588.667551
532.581396	25275.876557
532.942638	25215.483534
533.303824	25321.209133
533.664953	25327.321532
534.026025	24986.768905
534.387040	25233.906431
534.747999	25283.070284
535.108902	25445.665139
535.469748	24937.423570
535.830537	25136.818849
536.191270	25253.829071
536.551947	25120.843433
536.912567	24780.815085
537.273131	25125.476253
537.633638	24835.723333
537.994089	25036.787233
538.354483	24569.091665
538.714821	25074.394241
539.075103	25117.584327
539.435328	24893.578135
539.795497	24467.421674
540.155609	24861.627302
540.515665	25158.616798
540.875665	24387.274889
541.235609	24691.400139
541.595496	24655.194572
541.955328	25001.967984
542.315102	24923.439410
542.674821	24471.686490
543.034483	24349.534291
543.394090	24518.077708
543.753640	24308.108609
544.113134	24939.530773
544.472571	24538.585122
544.831953	24829.051366
545.191278	24446.253869
545.550548	24370.392065
545.909761	24576.545011
546.268918	24813.509488
546.628019	24776.830053
546.987064	24478.605474
547.346053	24221.672986
547.704986	24342.035575
548.063863	24510.904146
548.422684	24511.819116
548.781449	24049.401635
549.140158	24463.214831
549.498811	24027.260887
549.857408	23766.368573
550.215949	24195.411095
550.574434	23880.570872
550.932864	24100.770993
551.291237	24253.366720
551.649555	24128.260405
552.007817	24166.656353
552.366022	24034.603328
552.724173	24086.587707
553.082267	24022.312995
553.440305	24504.983311
553.798288	23759.623509
554.156215	24270.315079
554.514086	24375.435740
554.871902	23743.653134
555.229661	24023.638818
555.587365	23875.554924
555.945014	23743.945521
556.302606	23998.324664
556.660143	23943.776859
557.017625	24192.759448
557.375050	23725.850299
557.732421	24122.765547
558.089735	23936.661271
558.446994	23987.264373
558.804197	24015.066336
559.161345	23964.906856
559.518437	23715.142888
559.875474	23913.965996
560.232455	24093.703295
560.589381	23919.546553
560.946251	23903.119953
561.303065	24215.817685
561.659825	24308.685822
562.016528	23918.785339
562.373177	23655.150637
562.729770	24009.790769
563.086307	23868.434294
563.442789	24043.364853
563.799216	23861.933727
564.155587	23872.240366
564.511904	23860.723850
564.868164	23802.680004
565.224370	23777.378453
565.580520	23687.880328
565.936615	23822.716070
566.292654	23492.119722
566.648638	23793.963849
567.004567	23619.373568
567.360441	23576.256579
567.716260	23301.044867
568.072023	23625.886739
568.427732	23381.915057
568.783385	23171.666174
569.138982	23402.263675
569.494525	23440.662144
569.850013	23193.559906
570.205445	23280.955869
570.560823	23094.579370
570.916145	22854.222196
571.271412	23025.838197
571.626625	22783.242750
571.981782	22894.168299
572.336884	22699.408362
572.691931	22846.620136
573.046923	22569.278537
573.401860	22452.051545
573.756743	22474.222540
574.111570	22368.436447
574.466342	22304.945635
574.821059	22389.122822
575.175722	22090.079055
575.530330	22077.788722
575.884882	22101.376281
576.239380	22013.539216
576.593823	21903.367319
576.948211	21881.443341
577.302544	21719.274463
577.656823	21603.310281
578.011047	21699.104807
578.365216	21560.231101
578.719330	21444.224068
579.073389	21338.301864
579.427394	21477.321764
579.781344	21254.074266
580.135239	21146.122997
580.489080	21106.055907
580.842866	20873.041173
581.196597	21069.610885
581.550273	21046.335878
581.903895	20929.431520
582.257463	21253.615521
582.610975	20772.679362
582.964434	21087.988411
583.317837	20794.167280
583.671186	20876.454034
584.024481	20843.492450
584.377721	20624.542535
584.730906	20683.161072
585.084037	20708.260977
585.437113	20613.179774
585.790135	20821.175262
586.143103	20276.811305
586.496016	20289.830084
586.848874	20538.187570
587.201679	20470.988989
587.554428	20141.922631
587.907124	20475.528548
588.259765	20247.295349
588.612352	20323.837708
588.964884	19892.314939
589.317362	20068.473019
589.669786	20119.159300
590.022155	20160.090949
590.374470	20346.255719
590.726731	20143.384565
591.078937	19908.749101
591.431090	20005.246868
591.783188	19748.553834
592.135232	19726.831502
592.487222	19820.667540
592.839157	19845.764924
593.191038	19722.415452
593.542866	19617.582137
593.894639	19328.240071
594.246358	19543.046157
594.598022	19457.404514
594.949633	19208.880671
595.301190	19172.470937
595.652692	19329.575976
596.004141	19579.067721
596.355535	18906.071162
596.706876	18910.898067
597.058162	18813.618921
597.409395	19036.790802
597.760573	19107.520711
598.111698	18892.994409
598.462768	18828.036621
598.813785	18793.794584
599.164748	18610.619218
599.515657	18645.592223
599.866511	18440.936500
600.217312	18797.179719
600.568060	18320.457964
600.918753	18627.421383
601.269392	18533.406385
601.619978	18313.443198
601.970510	18518.865177
602.320988	18467.364749
602.671412	18671.390327
603.021783	18580.548735
603.372100	18312.959248
603.722363	18449.332542
604.072572	18391.797853
604.422728	18532.501498
604.772830	18290.606772
605.122878	18244.114730
605.472872	18248.994567
605.822813	18222.407522
606.172701	18187.555505
606.522534	18381.755874
606.872314	18421.006298
607.222041	18248.624042
607.571714	18465.502042
607.921333	18284.000339
608.270899	18363.890025
608.620411	18539.763280
608.969870	18306.577147
609.319276	18311.731727
609.668627	18339.798351
610.017926	18475.826326
610.367171	18592.798739
610.716362	18646.754208
611.065500	18464.425756
611.414585	18598.197815
611.763616	18577.539166
612.112594	18520.196041
612.461518	18487.700763
612.810389	18681.394497
613.159207	18540.640441
613.507971	18449.854301
613.856682	18722.469819
614.205340	18649.110948
614.553945	18796.801632
614.902496	18545.069094
615.250994	18770.396068
615.599439	18719.984530
615.947830	18701.022230
616.296169	18752.205065
616.644454	18715.266010
616.992686	18684.212502
617.340864	18905.262057
617.688990	18659.243667
618.037063	18834.075924
618.385082	18681.331483
618.733048	18969.733374
619.080961	18832.918979
619.428821	18872.643271
619.776628	18758.703112
620.124382	18685.782822
620.472083	18727.253874
620.819731	18744.620649
621.167326	18439.116643
621.514868	18475.717941
621.862357	18242.468793
622.209793	18263.868492
622.557176	18094.231144
622.904506	17914.082991
623.251783	17825.202407
623.599007	17590.904700
623.946179	17541.519036
624.293297	17460.001058
624.640363	17228.317189
624.987376	17241.162049
625.334336	17039.740227
625.681243	16881.700053
626.028097	16899.754946
626.374899	16812.565670
626.721647	16686.902307
627.068343	16515.898807
627.414987	16443.974144
627.761577	16420.464723
628.108115	16464.274871
628.454600	16186.466965
628.801032	16280.111439
629.147412	16214.636933
629.493739	16230.566979
629.840014	16041.916919
630.186236	16138.394522
630.532405	15900.852832
630.878521	16105.846312
631.224585	15995.649209
631.570597	15816.264791
631.916556	15851.948598
632.262462	15821.290821
632.608316	15746.255767
632.954117	15684.027764
633.299866	15689.283167
633.645562	15596.432675
633.991206	15356.095665
634.336797	15229.550101
634.682336	15196.318814
635.027823	15084.642133
635.373257	14965.615450
635.718639	14867.968300
636.063968	14807.421522
636.409245	14560.578903
636.754470	14598.642135
637.099642	14444.342498
637.444762	14204.358369
637.789829	14251.936779
638.134845	14094.892234
638.479808	14121.973313
638.824719	14060.846802
639.169577	13918.603084
639.514383	13963.124034
639.859137	13785.241880
640.203839	13868.105846
640.548489	13707.340929
640.893086	13694.687633
641.237632	13566.097881
641.582125	13722.313156
641.926566	13544.562072
642.270955	13550.528277
642.615292	13522.504503
642.959576	13536.556719
643.303809	13559.388105
643.647990	13490.997291
643.992118	13556.252507
644.336195	13326.393536
644.680219	13531.263508
645.024192	13452.936580
645.368112	13695.892469
645.711981	13753.621242
646.055797	13922.237756
646.399562	13892.245411
646.743274	14172.004244
647.086935	14451.916832
647.430544	14410.470985
647.774101	14439.513073
648.117606	14587.410444
648.461059	14569.801694
648.804460	14551.792172
649.147810	14271.521662
649.491108	14178.386345
649.834354	14184.806254
650.177548	13878.712434
650.520690	13691.642776
650.863781	13614.162762
651.206820	13666.215196
651.549807	13494.997447
651.892742	13293.237867
652.235626	13232.713774
652.578458	13220.640211
652.921238	12919.577462
653.263967	13119.968368
653.606644	12948.138119
653.949269	12926.662803
654.291843	12731.386148
654.634365	12885.451371
654.976836	12733.132907
655.319255	12742.353178
655.661622	12702.031509
656.003938	12621.607461
656.346203	12547.535267
656.688416	12621.073098
657.030577	12581.989033
657.372687	12494.494767
657.714746	12465.324130
658.056753	12661.059531
658.398708	12475.650933
658.740612	12471.141621
659.082465	12583.133375
659.424266	12553.511555
659.766016	12566.978997
660.107715	12484.581337
660.449362	12552.372254
660.790958	12514.805575
661.132503	12451.758385
661.473996	12521.815300
661.815438	12539.965974
662.156829	12557.720918
662.498168	12537.183257
662.839456	12538.546889
663.180693	12551.971482
663.521879	12647.181234
663.863013	12622.461936
664.204097	12596.530241
664.545129	12720.509858
664.886110	12688.783356
665.227040	12776.146552
665.567918	12785.087039
665.908746	12815.379332
666.249522	12795.476857
666.590248	12845.480062
666.930922	12957.383595
667.271545	12946.948407
667.612118	13027.044779
667.952639	12928.608689
668.293109	12942.580247
668.633528	12901.663722
668.973896	12878.542469
669.314213	12949.201802
669.654480	12688.954756
669.994695	12758.260539
670.334859	12789.722380
670.674973	12735.232548
671.015035	12767.664811
671.355047	12698.575798
671.695008	12681.687932
672.034918	12686.557687
672.374777	12732.931261
672.714585	12635.374852
673.054342	12682.328159
673.394049	12625.345476
673.733705	12728.855488
674.073310	12630.247998
674.412864	12645.280719
674.752368	12512.658044
675.091820	12538.667877
675.431223	12520.345803
675.770574	12390.362172
676.109875	12309.673464
676.449125	12272.263061
676.788324	12212.701828
677.127473	12040.521219
677.466571	12032.483099
677.805619	11927.543920
678.144616	11859.077489
678.483562	11823.045842
678.822458	11696.810308
679.161303	11667.914414
679.500098	11659.946871
679.838842	11611.203954
680.177535	11638.557255
680.516179	11700.810464
680.854771	11650.703915
681.193314	11864.479085
681.531805	12022.093281
681.870247	12436.982763
682.208638	12859.900282
682.546978	13165.752127
682.885268	13212.702914
683.223508	12900.899987
683.561697	12747.354002
683.899836	12647.390442
684.237925	12444.128598
684.575963	12363.152544
684.913951	12283.101542
685.251889	12237.360632
685.589776	12337.359481
685.927614	12257.164805
686.265401	12221.289434
686.603137	12271.426229
686.940824	12422.786874
687.278460	12550.746482
687.616046	12588.242584
687.953582	12763.873863
688.291068	12692.397864
688.628504	12927.245057
688.965889	12929.894183
689.303224	12895.105180
689.640510	12790.113069
689.977745	12473.263947
690.314930	12245.197106
690.652065	12169.385714
690.989150	11870.911597
691.326185	11643.616053
691.663170	11443.058788
692.000105	11197.289935
692.336990	11080.420866
692.673825	10826.513070
693.010610	10708.668537
693.347345	10505.663792
693.684030	10304.042844
694.020665	10246.195604
694.357251	10053.966325
694.693786	9987.995266
695.030272	9825.188682
695.366707	9706.340959
695.703093	9642.225044
696.039429	9638.514755
696.375716	9559.766890
696.711952	9431.290564
697.048139	9468.348086
697.384276	9423.769162
697.720363	9440.238612
698.056400	9377.635043
698.392388	9335.097787
698.728326	9290.292012
699.064214	9230.471159
699.400053	9270.533209
699.735842	9087.050332
700.071581	9043.580463
700.407270	8967.902661
700.742910	8892.902895
701.078501	8797.252042
701.414042	8672.410388
701.749533	8612.957540
702.084974	8465.092936
702.420366	8582.670287
702.755709	8464.104869
703.091002	8327.968510
703.426246	8362.200465
703.761440	8310.717681
704.096584	8267.101618
704.431679	8204.203142
704.766725	8185.999535
705.101721	8139.315930
705.436668	8186.145729
705.771565	8076.702279
706.106413	8156.907036
706.441212	8199.348511
706.775961	8155.737489
707.110661	8188.661264
707.445311	8334.857247
707.779913	8231.881597
708.114465	8366.135086
708.448967	8403.540447
708.783421	8543.722333
709.117825	8729.251918
709.452180	8759.975230
709.786485	8850.055608
710.120742	9136.660328
710.454949	9131.677147
710.789107	9233.700018
711.123216	9450.096588
711.457275	9620.447259
711.791286	9774.048696
712.125247	9769.534343
712.459159	9759.636037
712.793023	10005.324232
713.126837	9583.793030
713.460602	9737.041586
713.794318	9555.058453
714.127985	9584.957536
714.461602	9270.747458
714.795171	9216.255106
715.128691	8966.748237
715.462162	8723.116833
715.795584	8668.135489
716.128957	8519.464300
716.462281	8337.506373
716.795556	8392.402018
717.128782	8187.597581
717.461960	7923.486490
717.795088	7989.913774
718.128167	7902.535454
718.461198	7737.694765
718.794180	7676.951382
719.127113	7668.545257
719.459997	7507.981987
719.792833	7284.984026
720.125619	7341.011410
720.458357	7205.966460
720.791046	7194.759975
721.123686	7185.771598
721.456278	7025.946856
721.788821	7046.340844
722.121315	6943.607170
722.453761	7009.253075
722.786158	6949.089425
723.118506	6965.256405
723.450805	6930.752228
723.783056	6994.351424
724.115259	6911.792448
724.447412	6905.581746
724.779518	6948.252593
725.111574	6950.977337
725.443582	7029.505911
725.775542	7010.384814
726.107453	7205.414454
726.439315	7115.245855
726.771129	7179.709610
727.102895	7353.392484
727.434612	7460.116231
727.766281	7485.906774
728.097901	7569.642860
728.429473	7564.581542
728.760996	7541.944240
729.092471	7513.711258
729.423897	7460.885007
729.755276	7469.142417
730.086606	7397.618526
730.417887	7501.325143
730.749120	7698.693878
731.080305	7891.097076
731.411442	8011.918411
731.742530	8004.192842
732.073570	8114.868854
732.404562	8197.884055
732.735506	8045.331178
733.066401	8194.793828
733.397249	8119.539483
733.728048	7882.353195
734.058798	7545.394910
734.389501	7312.843963
734.720156	7139.468600
735.050762	6906.383290
735.381320	6811.642365
735.711831	6763.728718
736.042293	6654.307953
736.372707	6672.002403
736.703073	6536.758328
737.033391	6575.728968
737.363661	6585.773467
737.693883	6616.847139
738.024056	6698.360076
738.354182	6742.971767
738.684260	6772.528052
739.014290	6890.879221
739.344272	7001.845100
739.674207	7030.274687
740.004093	7100.750017
740.333931	7118.207533
740.663722	7121.506968
740.993464	7197.872887
741.323159	7187.059612
741.652806	6938.024092
741.982405	6955.688295
742.311956	7007.425657
742.641460	6839.025913
742.970915	6650.937942
743.300323	6638.703062
743.629683	6589.776143
743.958996	6454.872346
744.288260	6362.946905
744.617477	6315.749102
744.946647	6315.925543
745.275768	6148.014790
745.604842	6109.298729
745.933869	6087.707467
746.262847	6047.632814
746.591778	6035.133273
746.920662	5995.935782
747.249498	5985.561087
747.578286	6036.557399
747.907027	6108.161949
748.235720	6168.532287
748.564365	6143.780221
748.892963	6170.659653
749.221514	6321.130534
749.550017	6154.979144
749.878473	6031.609507
750.206881	6087.170584
750.535242	6031.249064
750.863555	5955.972035
751.191821	5979.201672
751.520039	5975.577082
751.848210	5883.334049
752.176334	5905.179889
752.504411	5956.362724
752.832440	5879.991764
753.160421	5808.437626
753.488356	5858.760944
753.816243	5890.079113
754.144082	5738.070680
754.471875	5718.543771
754.799620	5758.431901
755.127318	5766.233086
755.454969	5726.087857
755.782572	5692.977559
756.110129	5733.543724
756.437638	5715.350200
756.765100	5656.474564
757.092515	5650.699922
757.419882	5708.990784
757.747203	5683.931208
758.074477	5749.057875
758.401703	5737.586729
758.728882	5685.642680
759.056014	5741.208798
759.383099	5874.509509
759.710138	5884.117948
760.037129	5872.772832
760.364073	5876.450353
760.690970	5955.528413
761.017820	5937.748263
761.344623	5895.147993
761.671379	5998.642881
761.998088	6112.608246
762.324751	6363.566967
762.651366	6971.056253
762.977935	8292.098180
763.304456	9927.269526
763.630931	10834.089924
763.957359	10419.369321
764.283740	9472.391091
764.610074	8637.812949
764.936362	7633.983107
765.262602	7035.197373
765.588796	6500.686352
765.914943	6164.572460
766.241044	6001.690259
766.567097	5796.933713
766.893104	5537.969640
767.219064	5359.482547
767.544978	5293.584584
767.870845	5214.647676
768.196665	5116.337615
768.522438	5043.825658
768.848165	5008.731665
769.173846	4940.182055
769.499479	4898.005242
769.825066	4846.706460
770.150607	4779.787663
770.476101	4758.022482
770.801548	4750.881687
771.126949	4677.585831
771.452303	4626.695383
771.777611	4586.247685
772.102872	4601.865179
772.428087	4566.032658
772.753256	4527.868603
773.078378	4479.917147
773.403453	4406.825458
773.728482	4394.824991
774.053465	4349.010985
774.378401	4337.166794
774.703291	4339.571424
775.028135	4264.324641
775.352932	4214.117270
775.677683	4200.012121
776.002388	4224.093713
776.327046	4232.162080
776.651658	4156.154083
776.976224	4091.690328
777.300743	4100.454374
777.625216	4125.251810
777.949643	4117.616982
778.274024	4074.172318
778.598359	4028.900236
778.922647	4052.719688
779.246889	4041.309036
779.571086	4036.429199
779.895236	4020.126108
780.219339	4011.520858
780.543397	4004.342255
780.867409	4055.197415
781.191374	4071.198037
781.515294	4007.505579
781.839167	3997.420751
782.162995	4021.278012
782.486776	4004.798480
782.810511	4018.676776
783.134201	4012.700488
783.457844	3965.757264
783.781441	3911.683327
784.104993	3917.110129
784.428498	3935.086884
784.751958	3932.462963
785.075372	3912.237854
785.398739	3874.371227
785.722061	3887.672311
786.045337	3930.852314
786.368568	3962.810709
786.691752	3877.668141
787.014891	3927.746964
787.337983	4052.346643
787.661030	4211.894121
787.984031	4376.013925
788.306987	4544.020460
788.629897	4628.119509
788.952760	4587.828087
789.275579	4515.651366
789.598351	4451.238023
789.921078	4307.597906
790.243759	4106.430662
790.566395	4087.622117
790.888984	4089.328547
791.211529	3977.999706
791.534027	3916.059048
791.856480	3904.640835
792.178888	3844.522555
792.501249	3797.536480
792.823566	3808.490908
793.145836	3833.825226
793.468062	3780.152061
793.790241	3739.913571
794.112375	3767.345010
794.434464	3832.375895
794.756507	3857.256509
795.078505	3835.594671
795.400457	3872.609343
795.722364	4009.660672
796.044226	4117.569091
796.366042	4189.266902
796.687812	4166.138088
797.009538	4173.815765
797.331218	4130.726503
797.652852	4107.101135
797.974442	4086.336622
798.295986	4082.767486
798.617484	4001.040299
798.938938	3911.637957
799.260346	3956.063125
799.581709	3951.604224
799.903026	3875.528172
800.224299	3839.826720
800.545526	3834.198272
800.866708	3796.369453
801.187845	3736.122624
801.508936	3770.730145
801.829983	3769.522788
802.150984	3690.515305
802.471940	3681.761341
802.792851	3687.538503
803.113717	3690.767363
803.434538	3690.686704
803.755314	3634.364413
804.076045	3611.429683
804.396731	3629.966006
804.717372	3652.159686
805.037967	3641.482522
805.358518	3632.899957
805.679024	3658.269564
805.999485	3672.689785
806.319901	3675.888397
806.640272	3687.082279
806.960598	3702.994681
807.280879	3676.813449
807.601115	3689.572609
807.921306	3706.531051
808.241453	3747.162751
808.561554	3720.583267
808.881611	3657.430212
809.201623	3692.746015
809.521590	3705.724466
809.841513	3677.698171
810.161390	3707.103222
810.481223	3684.894418
810.801011	3629.040954
811.120755	3621.292701
811.440453	3657.785613
811.760107	3659.151766
812.079716	3617.035446
812.399281	3586.871702
812.718801	3606.532202
813.038276	3580.729056
813.357707	3582.427925
813.677093	3598.826799
813.996434	3539.184908
814.315731	3552.377607
814.634983	3556.760890
814.954191	3569.104156
815.273354	3600.563476
815.592473	3597.536263
815.911547	3603.028600
816.230577	3641.666524
816.549562	3695.889175
816.868502	3733.425606
817.187399	3761.114144
817.506250	3754.414450
817.825058	3732.203127
818.143821	3823.780727
818.462539	3927.721758
818.781213	3972.313284
819.099843	4031.377963
819.418429	4277.807207
819.736970	4520.442983
820.055466	4768.326600
820.373919	5134.947034
820.692327	5548.911464
821.010691	6001.211349
821.329011	7394.077116
821.647286	10175.379995
821.965517	14771.215955
822.283704	18819.774170
822.601847	20971.479784
822.919945	19123.135685
823.237999	16510.693816
823.556010	14017.906253
823.873976	11899.676421
824.191897	9803.085743
824.509775	8454.163714
824.827609	7320.282185
825.145398	6776.616428
825.463144	6662.779613
825.780845	6773.667353
826.098502	6972.412323
826.416116	7854.004266
826.733685	9193.809368
827.051210	10311.279421
827.368692	10339.948462
827.686129	9065.741375
828.003522	7545.972122
828.320872	6529.506628
828.638177	5820.808618
828.955439	5258.508235
829.272656	4756.421915
829.589830	4475.057475
829.906960	4299.143891
830.224046	4114.418370
830.541088	3989.551510
830.858086	3938.270372
831.175041	3862.864793
831.491952	3847.098584
831.808819	3856.860779
832.125642	3929.597067
832.442421	4080.380499
832.759157	4361.770145
833.075849	4917.335546
833.392497	5786.816117
833.709101	6572.605973
834.025662	6897.483133
834.342179	6533.174068
834.658653	5862.950143
834.975083	5210.271955
835.291469	4636.444974
835.607811	4220.305286
835.924110	4080.526693
836.240366	3883.341960
836.556578	3675.107018
836.872746	3566.467632
837.188871	3526.763504
837.504952	3462.277064
837.820990	3378.145248
838.136984	3331.270079
838.452935	3357.680684
838.768842	3352.019468
839.084706	3376.839589
839.400526	3531.935728
839.716303	3879.109911
840.032037	4409.744286
840.347727	4672.791693
840.663373	4385.110687
840.978977	3998.549969
841.294537	3691.768032
841.610054	3463.789411
841.925527	3357.108513
842.240957	3286.010600
842.556344	3232.337435
842.871687	3169.139009
843.186987	3121.179992
843.502244	3089.024993
843.817458	3050.893705
844.132629	3023.248017
844.447756	3029.277237
844.762840	3012.215452
845.077881	2983.518684
845.392879	2965.380612
845.707833	2960.440281
846.022745	2960.122689
846.337613	2959.588326
846.652438	2947.948302
846.967221	2946.572067
847.281960	2930.853749
847.596656	2928.391146
847.911309	2924.320414
848.225919	2919.750608
848.540485	2917.063673
848.855009	2918.031575
849.169490	2907.147723
849.483928	2896.967113
849.798323	2896.410066
850.112675	2893.990312
850.426984	2907.699730
850.741251	2900.816034
851.055474	2893.942421
851.369654	2885.213663
851.683792	2891.351268
851.997887	2899.661610
852.311938	2902.736714
852.625947	2889.208778
852.939914	2891.726834
853.253837	2899.424676
853.567718	2880.676625
853.881555	2882.098230
854.195350	2896.984757
854.509103	2894.935528
854.822812	2884.155021
855.136479	2882.902294
855.450103	2885.425392
855.763685	2878.874412
856.077224	2873.533310
856.390720	2886.410937
856.704173	2895.860580
857.017584	2885.758108
857.330953	2884.800288
857.644278	2893.758419
857.957561	2903.581107
858.270802	2907.029256
858.584000	2905.970614
858.897155	2893.508882
859.210268	2893.854201
859.523339	2891.036196
859.836367	2890.194323
860.149352	2885.763149
860.462295	2881.153014
860.775195	2885.022099
861.088054	2886.312635
861.400869	2869.891076
861.713642	2868.789584
862.026373	2887.091493
862.339062	2887.051164
862.651708	2891.734396
862.964312	2893.846639
863.276873	2888.835732
863.589392	2897.541805
863.901869	2909.925399
864.214303	2934.392639
864.526696	2948.389403
864.839045	2942.367745
865.151353	2944.056531
865.463619	2944.520318
865.775842	2944.643826
866.088023	2965.168884
866.400162	2967.659214
866.712258	2938.833896
867.024313	2931.027669
867.336325	2936.474636
867.648296	2959.827781
867.960224	2951.923252
868.272110	2938.392795
868.583954	2942.612241
868.895755	2958.746454
869.207515	2939.758948
869.519233	2948.366718
869.830909	2957.781073
870.142542	2968.130562
870.454134	2967.233236
870.765684	2969.403453
871.077191	2967.681899
871.388657	2981.386276
871.700081	2995.788852
872.011463	3001.830675
872.322803	3003.032990
872.634101	3003.012826
872.945357	3020.664426
873.256571	3046.676780
873.567744	3040.181253
873.878874	3030.875283
874.189963	3054.616597
874.501010	3055.879406
874.812015	3047.730381
875.122979	3046.124773
875.433900	3043.153013
875.744780	3051.110474
876.055618	3058.856207
876.366415	3051.559137
876.677169	3064.630849
876.987882	3063.831826
877.298554	3057.537946
877.609183	3083.036102
877.919771	3101.469081
878.230317	3125.780045
878.540822	3180.831966
878.851285	3217.899570
879.161707	3263.995881
879.472087	3367.722662
879.782425	3600.598764
880.092722	4042.055127
880.402977	4573.601950
880.713191	5211.824630
881.023363	6385.569083
881.333494	7677.687390
881.643583	8223.672078
881.953631	7931.622912
882.263637	7279.302646
882.573602	6686.326842
882.883526	6101.971412
883.193408	5526.221231
883.503248	5065.144697
883.813048	4759.086165
884.122806	4450.154175
884.432522	4130.862614
884.742197	3894.548445
885.051831	3700.222047
885.361424	3562.096952
885.670975	3487.934017
885.980485	3405.029721
886.289954	3328.915860
886.599382	3283.999179
886.908768	3243.218765
887.218113	3197.442568
887.527417	3139.910399
887.836680	3092.069849
888.145901	3087.031216
888.455082	3073.868763
888.764221	3023.489992
889.073319	2996.867659
889.382376	2992.660816
889.691392	2997.167608
890.000366	2994.430261
890.309300	2982.555823
890.618193	2996.943276
890.927044	3009.359638
891.235855	3011.731501
891.544625	3000.519975
891.853353	3012.528003
892.162041	3027.487627
892.470687	3070.274421
892.779293	3119.226545
893.087858	3169.496931
893.396381	3239.969742
893.704864	3365.630583
894.013306	3607.646297
894.321707	3909.447575
894.630068	4115.209831
894.938387	4112.906024
895.246665	4065.269641
895.554903	3943.346814
895.863100	3744.027153
896.171256	3570.382088
896.479371	3432.811520
896.787446	3310.382058
897.095480	3205.526058
897.403473	3139.491984
897.711425	3103.684668
898.019336	3093.078080
898.327207	3066.738051
898.635038	3029.604912
898.942827	3014.501615
899.250576	3002.395284
899.558284	2972.760861
899.865952	2950.657922
900.173579	2930.105138
900.481165	2926.110024
900.788711	2911.218455
901.096216	2885.397665
901.403681	2877.233517
901.711105	2880.253168
902.018489	2881.931872
902.325832	2877.092364
902.633135	2891.371433
902.940397	2924.859818
903.247619	3006.103053
903.554800	3203.471788
903.861941	3554.883061
904.169041	3985.722753
904.476101	4284.895070
904.783121	4235.426227
905.090100	3988.545800
905.397039	3710.470712
905.703938	3454.173410
906.010796	3275.320833
906.317614	3161.998215
906.624391	3066.460788
906.931129	2992.519664
907.237826	2934.032197
907.544483	2883.890360
907.851099	2854.071935
908.157675	2830.857422
908.464211	2812.840338
908.770707	2799.340128
909.077163	2784.093158
909.383578	2772.017074
909.689954	2760.034251
909.996289	2757.508633
910.302584	2759.207502
910.608839	2760.571134
910.915054	2755.038468
911.221229	2745.790471
911.527363	2747.370873
911.833458	2757.536360
912.139513	2761.019797
912.445527	2764.951897
912.751502	2772.364914
913.057436	2783.745318
913.363331	2796.426341
913.669186	2816.822849
913.975000	2850.313755
914.280775	2912.496388
914.586510	2985.303252
914.892205	3064.822413
915.197859	3192.245138
915.503475	3388.265364
915.809050	3606.232254
916.114585	3753.940582
916.420081	3772.834827
916.725536	3712.711505
917.030952	3591.933021
917.336328	3463.809575
917.641665	3329.470387
917.946961	3228.841394
918.252218	3157.509067
918.557435	3077.576532
918.862612	3022.141484
919.167750	2968.198617
919.472848	2928.570107
919.777906	2902.787125
920.082925	2876.358876
920.387904	2846.225379
920.692843	2828.198213
920.997743	2819.071204
921.302603	2803.244502
921.607423	2792.040537
921.912204	2777.075872
922.216946	2767.727052
922.521647	2758.282450
922.826310	2752.958992
923.130932	2744.207549
923.435516	2735.002402
923.740059	2727.571741
924.044564	2720.224259
924.349028	2716.060266
924.653454	2708.720346
924.957840	2703.187680
925.262186	2697.952442
925.566493	2693.738037
925.870761	2685.059691
926.174989	2685.856193
926.479178	2679.383352
926.783328	2676.590552
927.087438	2675.695747
927.391509	2674.059893
927.695541	2669.648883
927.999533	2667.748368
928.303486	2662.311484
928.607400	2661.837616
928.911275	2662.946669
929.215110	2661.565393
929.518906	2658.195382
929.822663	2660.289981
930.126381	2662.399704
930.430060	2662.626556
930.733699	2662.276196
931.037299	2664.252328
931.340861	2663.985147
931.644383	2664.630415
931.947866	2665.434479
932.251309	2658.855773
932.554714	2662.172852
932.858080	2659.231339
933.161407	2656.509116
933.464694	2654.343940
933.767943	2653.912922
934.071153	2654.298570
934.374323	2652.761018
934.677455	2653.716317
934.980548	2654.820329
935.283602	2653.469300
935.586617	2650.878147
935.889593	2654.202788
936.192530	2651.720020
936.495428	2653.930566
936.798287	2654.790083
937.101108	2658.482728
937.403890	2661.860301
937.706632	2668.481856
938.009336	2672.897907
938.312002	2681.051973
938.614628	2689.765608
938.917216	2698.799356
939.219765	2697.145857
939.522275	2695.446988
939.824747	2696.218285
940.127179	2691.976154
940.429573	2688.699404
940.731929	2688.041533
941.034246	2685.336954
941.336524	2683.139011
941.638763	2677.011489
941.940964	2675.433607
942.243126	2671.251970
942.545250	2671.375479
942.847335	2669.013698
943.149381	2665.351300
943.451389	2660.899961
943.753359	2658.686894
944.055290	2660.620177
944.357182	2659.364930
944.659036	2656.206647
944.960851	2657.252686
945.262628	2654.802685
945.564367	2655.639517
945.866067	2655.954589
946.167729	2655.624393
946.469352	2658.185300
946.770937	2656.902326
947.072484	2652.375370
947.373992	2655.604229
947.675462	2651.747746
947.976893	2646.343629
948.278286	2645.905049
948.579641	2644.561581
948.880958	2642.683752
949.182236	2647.069555
949.483476	2647.883702
949.784678	2645.257261
950.085841	2648.007210
950.386967	2645.368166
950.688054	2646.845224
950.989103	2649.592653
951.290114	2647.664412
951.591087	2651.001655
951.892021	2653.552479
952.192917	2655.082469
952.493776	2655.999959
952.794596	2659.052378
953.095378	2656.753612
953.396122	2657.857625
953.696828	2655.702531
953.997496	2653.698673
954.298126	2652.637510
954.598718	2649.759011
954.899272	2649.096099
955.199788	2645.060656
955.500266	2640.410191
955.800706	2640.924389
956.101108	2637.743421
956.401472	2638.492032
956.701798	2636.321815
957.002087	2632.273769
957.302337	2630.902575
957.602550	2632.412401
957.902724	2628.470218
958.202861	2627.799745
958.502960	2627.668675
958.803022	2631.005919
959.103045	2624.553242
959.403031	2621.692387
959.702979	2621.866307
960.002889	2626.267234
960.302762	2623.524846
960.602596	2620.043930
960.902393	2621.296656
961.202153	2622.473766
961.501875	2619.423868
961.801559	2620.346399
962.101205	2618.826491
962.400814	2619.292798
962.700385	2617.782972
962.999918	2618.735750
963.299414	2614.206273
963.598873	2615.658126
963.898293	2613.412292
964.197677	2619.950668
964.497022	2619.375977
964.796331	2617.677108
965.095601	2618.002262
965.394835	2616.701645
965.694030	2616.797427
965.993189	2617.414968
966.292309	2614.725512
966.591393	2618.158538
966.890439	2617.132663
967.189447	2617.677108
967.488419	2616.857920
967.787353	2616.714247
968.086249	2614.977570
968.385108	2617.777931
968.683930	2618.105606
968.982714	2618.818929
969.281462	2617.293980
969.580172	2617.992180
969.878844	2617.276336
970.177480	2618.372787
970.476078	2617.946810
970.774639	2618.110647
971.073162	2619.870010
971.371649	2619.121398
971.670098	2615.695934
971.968510	2618.362705
972.266885	2616.038733
972.565223	2619.048302
972.863524	2620.815226
973.161788	2616.298352
973.460014	2616.560492
973.758204	2619.139042
974.056356	2618.879423
974.354471	2618.153497
974.652550	2618.660133
974.950591	2618.594598
975.248595	2618.113168
975.546563	2617.956892
975.844493	2620.855555
976.142386	2614.758280
976.440243	2616.449587
976.738062	2616.615945
977.035845	2616.747015
977.333590	2617.777931
977.631299	2615.703496
977.928971	2612.462034
978.226606	2612.290635
978.524204	2615.890019
978.821765	2610.952209
979.119290	2614.090327
979.416777	2614.435646
979.714228	2614.884309
980.011642	2617.263733
980.309020	2615.156531
980.606360	2614.665018
980.903664	2619.106275
981.200931	2616.464710
981.498162	2614.380193
981.795356	2618.632407
982.092513	2618.534104
982.389633	2621.130298
982.686717	2624.286061
982.983764	2629.047430
983.280775	2632.404839
983.577749	2634.484315
983.874686	2634.953142
984.171587	2631.084057
984.468451	2628.210599
984.765279	2622.718262
985.062070	2625.080042
985.358824	2621.226080
985.655543	2620.774897
985.952224	2619.965792
986.248869	2618.642489
986.545478	2614.813732
986.842050	2614.740636
987.138586	2617.485544
987.435086	2613.079576
987.731549	2614.612086
988.027975	2610.538834
988.324366	2611.463886
988.620719	2614.561675
988.917037	2611.166458
989.213318	2612.399020
989.509563	2613.417333
989.805772	2613.714761
990.101944	2610.808536
990.398080	2613.129987
990.694180	2614.024792
990.990244	2611.143772
991.286271	2611.095882
991.582262	2611.141252
991.878217	2610.609410
992.174136	2611.481530
992.470019	2611.506736
992.765865	2609.868361
993.061676	2609.258381
993.357450	2610.443052
993.653188	2606.939450
993.948890	2611.882302
994.244556	2610.745521
994.540186	2611.630244
994.835780	2612.882971
995.131337	2611.403392
995.426859	2615.302724
995.722345	2613.588732
996.017795	2613.818105
996.313208	2617.793054
996.608586	2615.393465
996.903928	2618.450925
997.199234	2615.388424
997.494504	2617.586367
997.789738	2616.396655
998.084936	2614.987652
998.380099	2615.169134
998.675225	2616.048815
998.970316	2613.881119
999.265371	2612.290635
999.560390	2615.673249
999.855373	2612.038577
1000.150320	2612.865327
1000.445232	2609.923813
1000.740108	2613.742487
1001.034948	2612.444390
1001.329752	2612.812394
1001.624521	2614.939761
1001.919254	2611.910028
1002.213951	2612.124277
1002.508613	2608.595469
1002.803239	2609.921293
1003.097829	2608.620675
1003.392384	2610.788371
1003.686903	2609.391972
1003.981386	2609.452465
1004.275834	2610.019595
1004.570246	2612.338526
1004.864623	2607.463730
1005.158964	2610.682507
1005.453270	2606.828545
1005.747540	2608.192177
1006.041775	2608.552619
1006.335974	2608.834924
1006.630138	2612.608228
1006.924266	2607.786364
1007.218359	2609.649070
1007.512416	2605.603544
1007.806438	2605.207814
1008.100425	2606.611775
1008.394376	2605.429625
1008.688292	2608.920624
1008.982172	2608.320726
1009.276017	2611.204266
1009.569827	2610.052363
1009.863602	2609.694441
1010.157341	2608.096395
1010.451045	2608.318206
1010.744714	2609.152517
1011.038347	2609.424739
1011.331945	2609.404574
1011.625508	2608.996241
1011.919036	2609.165120
1012.212528	2610.609410
1012.505986	2606.405088
1012.799408	2610.506067
1013.092795	2606.548761
1013.386147	2609.467589
1013.679464	2608.371138
1013.972745	2608.613113
1014.265992	2608.502208
1014.559204	2609.021447
1014.852380	2608.996241
1015.145521	2607.020109
1015.438628	2608.842486
1015.731699	2607.131014
1016.024736	2609.364245
1016.317737	2608.507249
1016.610703	2609.258381
1016.903635	2607.662856
1017.196531	2608.749224
1017.489393	2608.144286
1017.782219	2605.396857
1018.075011	2607.199070
1018.367768	2609.707044
1018.660490	2610.006992
1018.953177	2610.006992
1019.245829	2610.006992
