Dividing Wavelength (nm)	Counts (n)	Blue Motor Position (mm): 12.200000	Red Motor Position (mm): 0.000000	
326.493990	2163.088539
326.888308	2163.088539
327.282561	2163.088539
327.676750	2124.279216
328.070874	2120.699997
328.464933	2120.914246
328.858929	2125.300050
329.252859	2128.596965
329.646726	2136.438479
330.040528	2148.244862
330.434265	2160.988899
330.827938	2180.835921
331.221547	2198.343849
331.615091	2214.558720
332.008571	2233.100084
332.401986	2251.439802
332.795338	2269.431680
333.188625	2288.875410
333.581847	2309.579429
333.975006	2326.550473
334.368100	2344.375993
334.761129	2359.605319
335.154095	2378.363453
335.546996	2402.129972
335.939833	2423.128899
336.332606	2438.988369
336.725315	2449.786520
337.117960	2467.042390
337.510540	2476.308031
337.903056	2486.183651
338.295508	2496.548263
338.687896	2506.686024
339.080220	2511.137362
339.472480	2519.281347
339.864676	2525.577748
340.256807	2530.147554
340.648875	2533.741896
341.040879	2534.815662
341.432818	2537.817669
341.824694	2540.010571
342.216506	2544.653474
342.608253	2543.466282
342.999937	2545.200439
343.391557	2543.708257
343.783113	2544.779503
344.174605	2542.523586
344.566033	2542.122815
344.957397	2539.637526
345.348697	2541.636343
345.739934	2539.350180
346.131106	2533.961187
346.522215	2533.446989
346.913260	2531.934643
347.304241	2529.167049
347.695159	2526.344003
348.086012	2525.514733
348.476802	2524.738396
348.867528	2518.620955
349.258191	2518.235307
349.648789	2517.398476
350.039324	2511.344050
350.429796	2518.351254
350.820203	2512.780779
351.210548	2514.716582
351.600828	2512.745491
351.991045	2511.278515
352.381198	2510.945799
352.771288	2510.907990
353.161314	2511.147445
353.551276	2509.592249
353.941175	2508.558812
354.331010	2509.617455
354.720782	2507.061590
355.110490	2509.690551
355.500135	2505.720643
355.889717	2511.538134
356.279235	2508.437825
356.668689	2507.618637
357.058080	2506.943122
357.447408	2508.982269
357.836672	2509.370438
358.225873	2510.519821
358.615010	2510.189626
359.004084	2512.909328
359.393095	2510.015706
359.782043	2512.979904
360.170927	2510.681138
360.559748	2512.889163
360.948505	2512.314472
361.337199	2516.904442
361.725830	2513.146262
362.114398	2514.293125
362.502903	2513.821777
362.891344	2515.911335
363.279722	2515.687004
363.668037	2518.477282
364.056289	2515.792868
364.444478	2516.811181
364.832603	2517.509381
365.220665	2518.991480
365.608665	2516.541479
365.996601	2521.262520
366.384474	2519.213291
366.772284	2519.571213
367.160031	2520.256810
367.547715	2522.452232
367.935336	2520.476100
368.322893	2517.348064
368.710388	2516.715399
369.097820	2520.985257
369.485189	2515.475275
369.872495	2521.275123
370.259738	2521.065915
370.646918	2524.098169
371.034035	2522.243024
371.421090	2522.323683
371.808081	2524.193951
372.195010	2523.578930
372.581875	2523.891482
372.968678	2522.880730
373.355418	2524.549352
373.742096	2526.316277
374.128710	2523.664630
374.515262	2525.091276
374.901751	2527.407687
375.288177	2524.685463
375.674540	2525.882738
376.060841	2527.521113
376.447079	2525.091276
376.833254	2526.747295
377.219367	2527.110258
377.605417	2526.298633
377.991404	2528.277286
378.377329	2527.611853
378.763191	2529.267872
379.148991	2525.741585
379.534727	2529.560259
379.920402	2529.275434
380.306013	2529.172090
380.691563	2531.329704
381.077049	2528.657893
381.462474	2528.857018
381.847835	2527.813499
382.233134	2528.491535
382.618371	2529.441792
383.003545	2530.026566
383.388657	2528.715866
383.773706	2532.320291
384.158693	2532.710980
384.543618	2528.937677
384.928480	2532.859694
385.313280	2530.268541
385.698017	2534.230888
386.082692	2531.821217
386.467305	2533.731814
386.851856	2531.574200
387.236344	2533.149561
387.620770	2529.686288
388.005133	2527.344672
388.389435	2527.742923
388.773674	2527.566483
389.157851	2534.702236
389.541965	2531.952287
389.926018	2532.451361
390.310008	2535.677699
390.693936	2533.457071
391.077802	2533.981351
391.461606	2533.754499
391.845348	2533.827596
392.229027	2536.496887
392.612645	2531.644776
392.996200	2536.007895
393.379694	2534.621578
393.763125	2535.062679
394.146494	2534.092257
394.529801	2537.792463
394.913047	2535.841537
395.296230	2537.747093
395.679351	2535.425642
396.062410	2537.613503
396.445408	2535.327339
396.828343	2536.388502
397.211217	2537.805066
397.594028	2537.981507
397.976778	2536.809438
398.359466	2535.962525
398.742092	2536.459078
399.124656	2536.650642
399.507158	2538.571322
399.889598	2539.009902
400.271977	2537.981507
400.654294	2538.462937
401.036549	2537.341280
401.418742	2539.347659
401.800874	2538.765406
402.182944	2536.985879
402.564952	2540.681045
402.946898	2540.187012
403.328783	2540.567619
403.710606	2541.225489
404.092367	2540.244985
404.474067	2540.668442
404.855705	2541.013761
405.237282	2540.292876
405.618797	2538.745242
406.000250	2540.512166
406.381642	2541.001158
406.762972	2538.364634
407.144240	2537.837834
407.525447	2537.416897
407.906593	2535.602082
408.287677	2544.280428
408.668700	2544.340922
409.049661	2541.974101
409.430560	2544.628268
409.811399	2543.609955
410.192176	2540.272711
410.572891	2544.222455
410.953545	2542.155582
411.334138	2545.213042
411.714669	2544.837476
412.095139	2542.516025
412.475547	2544.101468
412.855894	2544.522404
413.236180	2545.263453
413.616405	2545.679349
413.996568	2541.636343
414.376670	2544.595501
414.756711	2543.693134
415.136691	2543.839327
415.516609	2544.328319
415.896466	2547.869730
416.276262	2544.522404
416.655997	2547.229503
417.035670	2544.161961
417.415283	2545.339071
417.794834	2547.184133
418.174324	2546.191026
418.553753	2548.920811
418.933121	2548.305790
419.312428	2546.511139
419.691674	2547.027857
420.070859	2546.422919
420.449983	2547.116077
420.829045	2545.573484
421.208047	2548.547765
421.586988	2547.063145
421.965867	2547.748742
422.344686	2547.519370
422.723444	2548.391489
423.102141	2547.673125
423.480777	2546.962322
423.859352	2547.446273
424.237866	2548.436860
424.616319	2548.411654
424.994712	2549.828218
425.373044	2548.053732
425.751314	2545.969215
426.129524	2544.824873
426.507673	2547.721016
426.885762	2544.434184
427.263789	2548.845193
427.641756	2546.657332
428.019662	2550.468445
428.397508	2551.189330
428.775292	2551.801830
429.153016	2550.191181
429.530679	2551.809392
429.908282	2549.888712
430.285824	2552.137067
430.663305	2550.138249
431.040726	2550.765873
431.418086	2549.770245
431.795385	2551.002807
432.172624	2549.248486
432.549802	2548.109185
432.926920	2553.140256
433.303977	2548.376366
433.680974	2551.489278
434.057910	2549.490461
434.434786	2550.276881
434.811601	2551.479196
435.188355	2551.194371
435.565050	2549.359391
435.941683	2553.672098
436.318257	2550.370142
436.694770	2553.324258
437.071222	2551.098589
437.447614	2552.210163
437.823946	2553.137736
438.200218	2550.967519
438.576429	2552.361398
438.952580	2552.253013
439.328670	2552.305945
439.704700	2551.733774
440.080670	2552.429454
440.456580	2553.041954
440.832429	2550.513815
441.208218	2553.813250
441.583947	2553.571275
441.959616	2553.851059
442.335224	2552.810061
442.710773	2552.169834
443.086261	2552.976419
443.461689	2551.630431
443.837057	2550.823846
444.212365	2552.976419
444.587612	2550.140770
444.962800	2549.112374
445.337927	2552.479865
445.712995	2547.874771
446.088002	2553.440205
446.462949	2554.609753
446.837837	2553.903991
447.212664	2556.890875
447.587431	2553.861141
447.962139	2553.926676
448.336786	2555.547407
448.711374	2558.567058
449.085901	2556.212840
449.460369	2552.595812
449.834776	2554.710576
450.209124	2555.794424
450.583412	2555.774259
450.957640	2555.698642
451.331808	2555.852397
451.705917	2554.962633
452.079965	2556.716955
452.453954	2555.350802
452.827883	2553.225956
453.201752	2556.658982
453.575562	2557.228632
453.949311	2554.375339
454.323001	2555.358364
454.696632	2554.783672
455.070202	2558.914898
455.443713	2556.104455
455.817164	2554.355174
456.190556	2558.438509
456.563888	2556.613611
456.937160	2557.127809
457.310373	2555.570093
457.683526	2557.057233
458.056619	2559.111503
458.429653	2553.682180
458.802628	2558.599826
459.175542	2555.759136
459.548398	2559.426575
459.921194	2558.824157
460.293930	2557.952038
460.666607	2557.026986
461.039224	2557.657130
461.411782	2558.433468
461.784280	2559.008159
462.156719	2562.569735
462.529099	2558.299877
462.901419	2558.229301
463.273680	2555.277706
463.645882	2552.991542
464.018024	2554.735782
464.390106	2553.462890
464.762130	2558.264589
465.134094	2559.454302
465.505999	2563.593089
465.877845	2558.420865
466.249631	2560.782646
466.621358	2561.841288
466.993026	2561.914385
467.364634	2565.463357
467.736184	2560.490259
468.107674	2563.434292
468.479105	2561.158212
468.850477	2561.001936
469.221790	2558.796431
469.593043	2561.816082
469.964238	2563.507389
470.335373	2561.760629
470.706449	2560.707028
471.077467	2562.179045
471.448425	2561.493448
471.819324	2561.143088
472.190164	2566.330435
472.560945	2563.507389
472.931667	2561.430434
473.302330	2561.990002
473.672934	2560.812892
474.043479	2565.458316
474.413965	2563.409087
474.784393	2561.977399
475.154761	2564.087122
475.525070	2565.092832
475.895321	2561.581668
476.265513	2563.343552
476.635645	2562.978068
477.005719	2566.479149
477.375734	2563.951011
477.745691	2565.072667
478.115588	2564.268603
478.485427	2565.508727
478.855207	2565.695250
479.224928	2565.475960
479.594591	2566.642987
479.964194	2564.805486
480.333739	2568.939233
480.703226	2566.393450
481.072653	2568.634243
481.442022	2568.558625
481.811333	2566.040569
482.180584	2563.764488
482.549777	2564.780281
482.918912	2562.453788
483.287988	2567.898234
483.657005	2567.701629
484.025964	2568.152812
484.394864	2570.532237
484.763706	2567.270611
485.132489	2568.445199
485.501213	2569.821434
485.869879	2568.394788
486.238487	2570.209603
486.607036	2571.810170
486.975527	2566.776577
487.343959	2568.732545
487.712333	2571.790005
488.080648	2569.655076
488.448905	2569.551733
488.817104	2569.302196
489.185244	2571.742114
489.553326	2568.183059
489.921350	2571.548030
490.289315	2569.602144
490.657222	2572.715057
491.025070	2572.785633
491.392861	2572.883935
491.760593	2570.935529
492.128267	2571.207752
492.495883	2572.140365
492.863440	2571.646332
493.230939	2570.882597
493.598380	2573.327557
493.965763	2570.393605
494.333088	2571.790005
494.700354	2570.683472
495.067563	2573.095664
495.434713	2568.856053
495.801805	2570.055848
496.168839	2570.000395
496.535815	2570.381002
496.902733	2572.326888
497.269593	2573.816549
497.636395	2570.628019
498.003139	2573.032649
498.369825	2571.938719
498.736453	2570.398647
499.103023	2569.932340
499.469535	2574.602969
499.835989	2571.139696
500.202385	2570.302865
500.568723	2567.472257
500.935003	2570.065930
501.301226	2566.821948
501.667390	2574.706312
502.033497	2571.999213
502.399546	2572.707495
502.765537	2573.546847
503.131470	2572.289079
503.497345	2572.989800
503.863163	2571.772361
504.228923	2571.053997
504.594625	2572.951991
504.960269	2573.556929
505.325856	2572.273956
505.691385	2574.285376
506.056856	2575.394430
506.422270	2573.798905
506.787625	2575.538103
507.152924	2576.584142
507.518164	2575.759914
507.883347	2573.040211
508.248472	2575.386868
508.613540	2577.882239
508.978550	2575.908628
509.343503	2575.724626
509.708398	2573.962742
510.073236	2578.149421
510.438016	2575.976683
510.802738	2577.340315
511.167403	2578.467013
511.532010	2578.605645
511.896561	2579.704617
512.261053	2579.029102
512.625488	2581.259812
512.989866	2578.242682
513.354186	2581.408527
513.718449	2581.153948
514.082655	2581.476582
514.446803	2579.046746
514.810894	2580.801068
515.174927	2583.455235
515.538904	2585.385997
515.902822	2585.186871
516.266684	2583.195616
516.630488	2583.540935
516.994235	2587.709969
517.357925	2585.335585
517.721558	2588.695514
518.085133	2589.078642
518.448651	2586.076635
518.812112	2582.270564
519.175516	2587.588981
519.538863	2585.998497
519.902152	2590.719538
520.265385	2593.010742
520.628560	2594.109714
520.991678	2595.987543
521.354739	2592.579723
521.717743	2590.412027
522.080690	2596.675661
522.443580	2596.620208
522.806413	2595.967379
523.169189	2597.265476
523.531908	2599.901999
523.894569	2600.126331
524.257174	2599.826382
524.619722	2599.349993
524.982213	2598.092225
525.344647	2602.956939
525.707025	2601.021136
526.069345	2602.775457
526.431608	2604.365941
526.793815	2603.415684
527.155964	2606.248812
527.518057	2604.328132
527.880093	2602.848554
528.242072	2607.383072
528.603995	2608.534975
528.965860	2611.468927
529.327669	2609.621344
529.689421	2612.424226
530.051117	2613.462703
530.412755	2613.886160
530.774337	2610.788371
531.135862	2613.404730
531.497331	2616.484875
531.858743	2615.083434
532.220098	2614.705348
532.581396	2617.349433
532.942638	2616.058898
533.303824	2618.718106
533.664953	2617.808178
534.026025	2617.089813
534.387040	2622.123406
534.747999	2622.216667
535.108902	2623.925618
535.469748	2621.548714
535.830537	2623.534929
536.191270	2626.995681
536.551947	2620.479989
536.912567	2620.956378
537.273131	2624.661627
537.633638	2621.241204
537.994089	2629.322173
538.354483	2629.496093
538.714821	2629.468367
539.075103	2628.692029
539.435328	2630.985754
539.795497	2631.008439
540.155609	2631.628501
540.515665	2632.341824
540.875665	2632.871146
541.235609	2631.542802
541.595496	2631.119345
541.955328	2631.590692
542.315102	2635.356434
542.674821	2635.588327
543.034483	2633.690333
543.394090	2637.940026
543.753640	2639.449851
544.113134	2643.414719
544.472571	2640.269039
544.831953	2642.545120
545.191278	2642.451858
545.550548	2643.505460
545.909761	2643.392034
546.268918	2644.261633
546.628019	2646.484782
546.987064	2647.306490
547.346053	2646.356232
547.704986	2646.013434
548.063863	2646.134421
548.422684	2647.442601
548.781449	2648.866727
549.140158	2649.242293
549.498811	2648.206336
549.857408	2645.990748
550.215949	2649.325472
550.574434	2650.706748
550.932864	2651.377221
551.291237	2652.516522
551.649555	2652.957623
552.007817	2653.376039
552.366022	2654.575833
552.724173	2655.241266
553.082267	2657.706390
553.440305	2656.864517
553.798288	2657.277892
554.156215	2658.911226
554.514086	2660.337872
554.871902	2658.086997
555.229661	2658.177738
555.587365	2655.284116
555.945014	2663.022287
556.302606	2662.992040
556.660143	2665.036228
557.017625	2665.189983
557.375050	2667.246774
557.732421	2668.063441
558.089735	2668.532268
558.446994	2669.144768
558.804197	2670.266425
559.161345	2672.255160
559.518437	2671.637619
559.875474	2672.736590
560.232455	2672.509738
560.589381	2672.330777
560.946251	2675.017712
561.303065	2676.111643
561.659825	2678.793537
562.016528	2677.634071
562.373177	2676.474606
562.729770	2677.979390
563.086307	2681.936696
563.442789	2684.220339
563.799216	2683.799402
564.155587	2687.131605
564.511904	2690.597398
564.868164	2685.503312
565.224370	2688.563293
565.580520	2690.007583
565.936615	2696.125023
566.292654	2691.822399
566.648638	2697.410518
567.004567	2696.979499
567.360441	2698.184335
567.716260	2698.408666
568.072023	2703.936291
568.427732	2703.558205
568.783385	2704.047197
569.138982	2708.962322
569.494525	2709.806715
569.850013	2713.164123
570.205445	2711.006510
570.560823	2712.551623
570.916145	2717.139073
571.271412	2719.826008
571.626625	2723.979919
571.981782	2728.159036
572.336884	2722.253324
572.691931	2726.417317
573.046923	2727.007132
573.401860	2729.346227
573.756743	2737.361662
574.111570	2740.908114
574.466342	2743.963053
574.821059	2745.616551
575.175722	2745.729977
575.530330	2753.609301
575.884882	2753.281626
576.239380	2761.735641
576.593823	2763.159767
576.948211	2765.844181
577.302544	2767.595982
577.656823	2768.291661
578.011047	2772.712753
578.365216	2773.267280
578.719330	2781.988476
579.073389	2785.013169
579.427394	2795.844088
579.781344	2790.339148
580.135239	2797.419448
580.489080	2801.865746
580.842866	2802.551343
581.196597	2822.214363
581.550273	2818.272181
581.903895	2830.086125
582.257463	2834.794563
582.610975	2840.173474
582.964434	2849.786954
583.317837	2855.347347
583.671186	2864.829757
584.024481	2877.828373
584.377721	2874.604555
584.730906	2884.155021
585.084037	2892.314128
585.437113	2898.098852
585.790135	2908.546644
586.143103	2910.152251
586.496016	2915.284146
586.848874	2932.585386
587.201679	2935.935233
587.554428	2944.711881
587.907124	2960.447843
588.259765	2967.109728
588.612352	2986.402224
588.964884	2984.899960
589.317362	2995.904799
589.669786	3011.539937
590.022155	3020.596370
590.374470	3040.337529
590.726731	3045.492108
591.078937	3048.980587
591.431090	3063.932649
591.783188	3067.877352
592.135232	3081.294383
592.487222	3100.352465
592.839157	3113.943416
593.191038	3123.612349
593.542866	3130.034779
593.894639	3139.708753
594.246358	3165.456447
594.598022	3171.957014
594.949633	3178.923889
595.301190	3185.850434
595.652692	3209.838765
596.004141	3225.284860
596.355535	3221.927452
596.706876	3238.878332
597.058162	3250.959457
597.409395	3265.364554
597.760573	3287.926238
598.111698	3296.405459
598.462768	3314.946823
598.813785	3327.400993
599.164748	3334.327539
599.515657	3353.120960
599.866511	3363.261241
600.217312	3396.490007
600.568060	3389.394583
600.918753	3431.102569
601.269392	3446.727625
601.619978	3449.913635
601.970510	3491.167917
602.320988	3504.237108
602.671412	3539.867984
603.021783	3544.165568
603.372100	3555.896333
603.722363	3587.317844
604.072572	3613.879684
604.422728	3633.893065
604.772830	3653.082217
605.122878	3657.062208
605.472872	3694.034030
605.822813	3719.161662
606.172701	3743.649066
606.522534	3779.204324
606.872314	3804.299188
607.222041	3812.385199
607.571714	3852.921117
607.921333	3879.530848
608.270899	3909.346752
608.620411	3958.094710
608.969870	3952.186477
609.319276	3989.160820
609.668627	4031.693035
610.017926	4072.299530
610.367171	4110.793780
610.716362	4157.807581
611.065500	4165.271009
611.414585	4214.754976
611.763616	4237.926639
612.112594	4271.989716
612.461518	4289.762304
612.810389	4347.370089
613.159207	4362.211246
613.507971	4384.548599
613.856682	4470.555725
614.205340	4497.102441
614.553945	4565.785641
614.902496	4552.096388
615.250994	4635.204850
615.599439	4661.002955
615.947830	4694.967729
616.296169	4727.997369
616.644454	4778.174494
616.992686	4798.550838
617.340864	4879.844485
617.688990	4897.090272
618.037063	4981.396008
618.385082	4999.574409
618.733048	5071.998146
619.080961	5103.429740
619.428821	5164.672198
619.776628	5199.705696
620.124382	5213.636925
620.472083	5273.233446
620.819731	5321.739428
621.167326	5300.483403
621.514868	5337.593857
621.862357	5347.726576
622.209793	5382.200507
622.557176	5386.377103
622.904506	5378.154981
623.251783	5396.756838
623.599007	5414.970527
623.946179	5437.040699
624.293297	5463.027847
624.640363	5452.983348
624.987376	5483.673892
625.334336	5478.146267
625.681243	5486.365869
626.028097	5514.399725
626.374899	5571.326955
626.721647	5554.048400
627.068343	5559.838165
627.414987	5590.755562
627.761577	5646.160363
628.108115	5701.272778
628.454600	5658.123021
628.801032	5708.534560
629.147412	5744.838429
629.493739	5788.817455
629.840014	5799.464372
630.186236	5853.187949
630.532405	5840.413665
630.878521	5933.778355
631.224585	5942.754129
631.570597	5960.519155
631.916556	5988.109390
632.262462	6018.812538
632.608316	6067.600825
632.954117	6086.386685
633.299866	6128.409743
633.645562	6150.933618
633.991206	6115.080932
634.336797	6097.346153
634.682336	6150.295912
635.027823	6135.714375
635.373257	6163.541544
635.718639	6146.870448
636.063968	6169.361556
636.409245	6149.350696
636.754470	6177.319018
637.099642	6179.267424
637.444762	6132.430063
637.789829	6198.391041
638.134845	6188.369227
638.479808	6225.998920
638.824719	6245.016673
639.169577	6233.154838
639.514383	6282.086797
639.859137	6256.528147
640.203839	6322.360576
640.548489	6290.533251
640.893086	6345.640624
641.237632	6306.107896
641.582125	6418.422283
641.926566	6391.043776
642.270955	6431.073058
642.615292	6451.648528
642.959576	6484.688250
643.303809	6549.459515
643.647990	6542.603546
643.992118	6620.915350
644.336195	6546.770060
644.680219	6657.075547
645.024192	6692.058634
645.368112	6798.263143
645.711981	6868.872064
646.055797	6969.112888
646.399562	7006.215780
646.743274	7127.077443
647.086935	7299.177395
647.430544	7323.614388
647.774101	7366.741459
648.117606	7493.123186
648.461059	7479.832184
648.804460	7552.046713
649.147810	7475.592573
649.491108	7437.700741
649.834354	7505.315217
650.177548	7409.165289
650.520690	7363.764658
650.863781	7362.176694
651.206820	7412.026144
651.549807	7369.567026
651.892742	7331.392888
652.235626	7327.702764
652.578458	7357.853905
652.921238	7253.877586
653.263967	7372.150617
653.606644	7329.673855
653.949269	7338.473189
654.291843	7314.454611
654.634365	7393.754482
654.976836	7372.135494
655.319255	7411.310300
655.661622	7431.399298
656.003938	7419.950838
656.346203	7411.259889
656.688416	7474.546534
657.030577	7493.007239
657.372687	7495.444637
657.714746	7509.897625
658.056753	7617.942155
658.398708	7589.694050
658.740612	7609.014272
659.082465	7694.938218
659.424266	7683.824995
659.766016	7742.032678
660.107715	7729.089515
660.449362	7789.779966
660.790958	7815.956158
661.132503	7819.182496
661.473996	7865.475412
661.815438	7913.200015
662.156829	7940.792771
662.498168	7976.600087
662.839456	7995.779157
663.180693	8031.100001
663.521879	8122.473435
663.863013	8142.073441
664.204097	8161.370978
664.545129	8261.447964
664.886110	8256.575689
665.227040	8335.777257
665.567918	8377.142445
665.908746	8433.215199
666.249522	8432.406094
666.590248	8493.600661
666.930922	8590.688242
667.271545	8609.869833
667.612118	8683.788272
667.952639	8667.568359
668.293109	8690.167852
668.633528	8707.874905
668.973896	8711.529741
669.314213	8824.086104
669.654480	8676.271911
669.994695	8730.408862
670.334859	8784.376935
670.674973	8782.184033
671.015035	8844.333898
671.355047	8835.141354
671.695008	8833.939039
672.034918	8865.988175
672.374777	8911.028364
672.714585	8885.706648
673.054342	8930.777084
673.394049	8930.517464
673.733705	9011.223817
674.073310	8992.906784
674.412864	9036.870687
674.752368	8985.660126
675.091820	8997.653031
675.431223	9041.992499
675.770574	8969.541036
676.109875	8951.652502
676.449125	8961.157598
676.788324	8941.096326
677.127473	8866.043627
677.466571	8879.125422
677.805619	8849.453190
678.144616	8810.316192
678.483562	8818.984456
678.822458	8755.249148
679.161303	8763.352803
679.500098	8790.912791
679.838842	8776.777396
680.177535	8812.299886
680.516179	8868.866673
680.854771	8859.031382
681.193314	9040.525524
681.531805	9129.995922
681.870247	9436.142675
682.208638	9717.580212
682.546978	9969.963058
682.885268	10051.778465
683.223508	9863.982881
683.561697	9781.416343
683.899836	9730.969516
684.237925	9610.433007
684.575963	9586.263195
684.913951	9556.522908
685.251889	9505.660186
685.589776	9618.594635
685.927614	9582.956198
686.265401	9547.950426
686.603137	9604.144168
686.940824	9737.661648
687.278460	9815.129059
687.616046	9878.385457
687.953582	10015.595583
688.291068	9954.375811
688.628504	10120.048291
688.965889	10146.126179
689.303224	10161.176544
689.640510	10124.156831
689.977745	9927.514022
690.314930	9779.339387
690.652065	9756.853321
690.989150	9563.555317
691.326185	9415.665508
691.663170	9288.376373
692.000105	9117.940003
692.336990	9077.769568
692.673825	8897.165191
693.010610	8826.105086
693.347345	8681.091254
693.684030	8537.007516
694.020665	8513.140173
694.357251	8381.187971
694.693786	8373.570788
695.030272	8230.941422
695.366707	8156.949886
695.703093	8111.786189
696.039429	8127.595247
696.375716	8098.124662
696.711952	7980.572516
697.048139	8029.277624
697.384276	8003.600507
697.720363	8017.501488
698.056400	7981.386662
698.392388	7955.089483
698.728326	7931.706091
699.064214	7896.591934
699.400053	7954.640821
699.735842	7805.886453
700.071581	7786.488093
700.407270	7745.785817
700.742910	7692.952004
701.078501	7634.078889
701.414042	7540.966257
701.749533	7495.691654
702.084974	7391.473360
702.420366	7491.966241
702.755709	7416.961434
703.091002	7317.620456
703.426246	7346.430650
703.761440	7314.391597
704.096584	7286.939994
704.431679	7246.774600
704.766725	7243.172696
705.101721	7202.833383
705.436668	7252.944973
705.771565	7170.804412
706.106413	7246.154538
706.441212	7303.969011
706.775961	7263.450737
707.110661	7289.294212
707.445311	7435.585977
707.779913	7348.706731
708.114465	7472.514949
708.448967	7514.888368
708.783421	7622.338041
709.117825	7795.615102
709.452180	7834.492480
709.786485	7909.071310
710.120742	8149.662898
710.454949	8146.812126
710.789107	8226.454795
711.123216	8398.721104
711.457275	8537.400726
711.791286	8683.258951
712.125247	8670.691354
712.459159	8672.740583
712.793023	8908.631295
713.126837	8547.082262
713.460602	8690.719858
713.794318	8540.679996
714.127985	8592.036751
714.461602	8355.286523
714.795171	8313.313876
715.128691	8128.421997
715.462162	7909.766990
715.795584	7887.485090
716.128957	7770.411853
716.462281	7618.607588
716.795556	7686.867331
717.128782	7516.186465
717.461960	7269.638754
717.795088	7342.773293
718.128167	7269.986593
718.461198	7137.149669
718.794180	7078.919301
719.127113	7089.208296
719.459997	6968.432332
719.792833	6747.276913
720.125619	6808.922663
720.458357	6686.319280
720.791046	6680.766449
721.123686	6692.991248
721.456278	6556.617954
721.788821	6571.113792
722.121315	6471.162834
722.453761	6530.139293
722.786158	6493.301061
723.118506	6507.749008
723.450805	6484.504248
723.783056	6553.068981
724.115259	6451.527540
724.447412	6454.678261
724.779518	6499.242061
725.111574	6508.028792
725.443582	6586.393529
725.775542	6563.599952
726.107453	6739.634523
726.439315	6667.825808
726.771129	6704.840480
727.102895	6858.444437
727.434612	6970.920141
727.766281	6985.047975
728.097901	7069.323464
728.429473	7057.176804
728.760996	7031.434152
729.092471	7028.354007
729.423897	6993.363358
729.755276	7015.615011
730.086606	6957.520754
730.417887	7051.568521
730.749120	7207.224228
731.080305	7395.166005
731.411442	7527.962600
731.742530	7529.011160
732.073570	7638.454610
732.404562	7728.053558
732.735506	7571.288797
733.066401	7710.250723
733.397249	7661.666603
733.728048	7451.649613
734.058798	7151.287585
734.389501	6955.451361
734.720156	6790.434231
735.050762	6564.277987
735.381320	6474.729451
735.711831	6434.622031
736.042293	6331.011196
736.372707	6361.084199
736.703073	6226.195525
737.033391	6265.009889
737.363661	6271.417195
737.693883	6290.961749
738.024056	6368.277925
738.354182	6420.683240
738.684260	6453.372602
739.014290	6550.712242
739.344272	6652.243601
739.674207	6674.293608
740.004093	6732.090437
740.333931	6757.812924
740.663722	6766.639985
740.993464	6848.470514
741.323159	6850.171904
741.652806	6617.280678
741.982405	6604.150993
742.311956	6681.724269
742.641460	6547.705194
742.970915	6361.989086
743.300323	6358.803077
743.629683	6303.284849
743.958996	6183.317991
744.288260	6101.684066
744.617477	6048.925870
744.946647	6063.572943
745.275768	5905.832718
745.604842	5864.039033
745.933869	5841.689077
746.262847	5802.242048
746.591778	5794.725688
746.920662	5756.687661
747.249498	5744.326752
747.578286	5790.478516
747.907027	5869.579261
748.235720	5922.347538
748.564365	5891.954422
748.892963	5912.789511
749.221514	6070.013017
749.550017	5931.923210
749.878473	5797.954547
750.206881	5846.205951
750.535242	5797.992355
750.863555	5730.985338
751.191821	5755.165233
751.520039	5756.488536
751.848210	5670.176420
752.176334	5684.594120
752.504411	5736.810392
752.832440	5666.279608
753.160421	5592.814873
753.488356	5638.575947
753.816243	5682.340724
754.144082	5537.720103
754.471875	5500.561758
754.799620	5551.915992
755.127318	5554.630653
755.454969	5510.709601
755.782572	5475.446729
756.110129	5521.175036
756.437638	5517.184963
756.765100	5458.674811
757.092515	5442.830464
757.419882	5490.522300
757.747203	5476.954034
758.074477	5543.134302
758.401703	5534.503847
758.728882	5481.604499
759.056014	5525.722157
759.383099	5658.332229
759.710138	5666.788765
760.037129	5651.052803
760.364073	5653.704450
760.690970	5742.456484
761.017820	5727.648095
761.344623	5673.722872
761.671379	5767.692500
761.998088	5883.913782
762.324751	6100.479230
762.651366	6651.570607
762.977935	7872.714509
763.304456	9436.286347
763.630931	10356.594352
763.957359	10040.657679
764.283740	9153.792689
764.610074	8376.275367
764.936362	7413.450270
765.262602	6822.168294
765.588796	6294.054497
765.914943	5950.091529
766.241044	5796.253157
766.567097	5613.090394
766.893104	5357.458524
767.219064	5181.512172
767.544978	5121.000682
767.870845	5052.214138
768.196665	4945.472746
768.522438	4870.188155
768.848165	4846.096480
769.173846	4782.295637
769.499479	4743.813989
769.825066	4689.248540
770.150607	4628.258140
770.476101	4604.226960
770.801548	4602.691929
771.126949	4536.856980
771.452303	4484.491994
771.777611	4438.027679
772.102872	4451.227941
772.428087	4418.112601
772.753256	4381.077764
773.078378	4341.872711
773.403453	4272.564407
773.728482	4260.974795
774.053465	4212.262125
774.378401	4199.555897
774.703291	4208.393039
775.028135	4137.383346
775.352932	4087.753187
775.677683	4073.524530
776.002388	4095.645113
776.327046	4109.039459
776.651658	4034.821071
776.976224	3972.850167
777.300743	3978.478615
777.625216	3997.304804
777.949643	3996.228518
778.274024	3956.181592
778.598359	3903.312491
778.922647	3922.244544
779.246889	3919.643309
779.571086	3919.545006
779.895236	3908.265425
780.219339	3889.625758
780.543397	3875.926423
780.867409	3932.117644
781.191374	3944.700364
781.515294	3888.436046
781.839167	3880.123183
782.162995	3894.571130
782.486776	3884.072927
782.810511	3888.657857
783.134201	3892.826891
783.457844	3855.976056
783.781441	3796.934063
784.104993	3801.037562
784.428498	3817.917865
784.751958	3818.038853
785.075372	3799.439516
785.398739	3757.998711
785.722061	3772.315588
786.045337	3809.363027
786.368568	3850.282073
786.691752	3763.266717
787.014891	3803.671565
787.337983	3919.852517
787.661030	4072.458326
787.984031	4230.236359
788.306987	4406.039038
788.629897	4484.431501
788.952760	4436.820323
789.275579	4371.784397
789.598351	4321.007375
789.921078	4188.170451
790.243759	3993.380266
790.566395	3963.317345
790.888984	3965.295998
791.211529	3857.909339
791.534027	3800.775422
791.856480	3793.984988
792.178888	3732.732448
792.501249	3678.353521
792.823566	3687.483051
793.145836	3722.657702
793.468062	3674.683561
793.790241	3626.016262
794.112375	3654.690345
794.434464	3713.639077
794.756507	3740.604209
795.078505	3727.688773
795.400457	3748.780961
795.722364	3876.894324
796.044226	3979.917865
796.366042	4055.769586
796.687812	4045.621743
797.009538	4049.674831
797.331218	4006.648583
797.652852	3977.435097
797.974442	3960.335503
798.295986	3964.141574
798.617484	3883.326837
798.938938	3796.833239
799.260346	3833.258097
799.581709	3833.729444
799.903026	3765.759567
800.224299	3727.441757
800.545526	3722.730798
800.866708	3686.363915
801.187845	3619.677011
801.508936	3657.042043
801.829983	3662.612518
802.150984	3580.729056
802.471940	3568.925195
802.792851	3585.387082
803.113717	3577.424580
803.434538	3586.410437
803.755314	3534.438661
804.076045	3501.194772
804.396731	3519.093389
804.717372	3546.154303
805.037967	3532.371788
805.358518	3523.085983
805.679024	3550.555230
805.999485	3555.331723
806.319901	3561.252558
806.640272	3578.526072
806.960598	3594.377980
807.280879	3567.894279
807.601115	3575.214034
807.921306	3593.120212
808.241453	3633.764515
808.561554	3612.095116
808.881611	3549.972977
809.201623	3579.325095
809.521590	3593.281529
809.841513	3567.967375
810.161390	3591.844801
810.481223	3578.359714
810.801011	3522.372659
811.120755	3507.581914
811.440453	3548.586659
811.760107	3554.905746
812.079716	3513.958974
812.399281	3475.154692
812.718801	3496.514061
813.038276	3477.501349
813.357707	3472.568580
813.677093	3490.956189
813.996434	3443.367696
814.315731	3446.614199
814.634983	3448.300465
814.954191	3459.055767
815.273354	3491.298987
815.592473	3489.340499
815.911547	3491.704800
816.230577	3525.682177
816.549562	3575.796287
816.868502	3618.436887
817.187399	3645.764982
817.506250	3644.325733
817.825058	3611.107049
818.143821	3692.685522
818.462539	3795.167138
818.781213	3846.912062
819.099843	3895.062643
819.418429	4116.134883
819.736970	4350.072148
820.055466	4580.760389
820.373919	4934.039409
820.692327	5336.300801
821.010691	5720.343463
821.329011	6973.183619
821.647286	9504.362089
821.965517	13794.164722
822.283704	17729.168427
822.601847	20048.512570
822.919945	18387.081853
823.237999	15956.363498
823.556010	13548.297567
823.873976	11547.571990
824.191897	9519.541003
824.509775	8177.235489
824.827609	7067.097795
825.145398	6514.882241
825.463144	6399.976701
825.780845	6517.833837
826.098502	6670.505181
826.416116	7448.645086
826.733685	8706.075213
827.051210	9829.120782
827.368692	9959.638775
827.686129	8800.894276
828.003522	7321.550035
828.320872	6321.785884
828.638177	5642.412265
828.955439	5106.542653
829.272656	4614.478146
829.589830	4330.192358
829.906960	4160.955782
830.224046	3983.713854
830.541088	3856.250799
830.858086	3812.085250
831.175041	3742.386257
831.491952	3722.151066
831.808819	3731.212540
832.125642	3792.066828
832.442421	3925.617076
832.759157	4180.628885
833.075849	4692.847924
833.392497	5511.168346
833.709101	6260.697182
834.025662	6624.202183
834.342179	6319.711449
834.658653	5681.854253
834.975083	5059.266712
835.291469	4501.962113
835.607811	4090.006582
835.924110	3953.867702
836.240366	3766.120010
836.556578	3565.802200
836.872746	3453.812967
837.188871	3424.188627
837.504952	3360.476004
837.820990	3276.031636
838.136984	3228.407855
838.452935	3249.734457
838.768842	3250.291504
839.084706	3269.425203
839.400526	3412.750248
839.716303	3721.841035
840.032037	4202.988923
840.347727	4493.727388
840.663373	4259.575874
840.978977	3888.224317
841.294537	3597.667333
841.610054	3365.053371
841.925527	3258.133019
842.240957	3189.442257
842.556344	3139.355872
842.871687	3084.994590
843.186987	3036.221427
843.502244	3001.765140
843.817458	2965.965386
844.132629	2929.243101
844.447756	2942.692899
844.762840	2931.950200
845.077881	2901.201683
845.392879	2881.762993
845.707833	2876.537837
846.022745	2873.626571
846.337613	2876.593290
846.652438	2864.393698
846.967221	2862.657020
847.281960	2850.039012
847.596656	2845.116325
847.911309	2843.946778
848.225919	2842.530213
848.540485	2832.568893
848.855009	2836.271621
849.169490	2829.178717
849.483928	2816.971563
849.798323	2814.350163
850.112675	2808.351190
850.426984	2822.564724
850.741251	2821.581699
851.055474	2810.927220
851.369654	2804.988741
851.683792	2811.317909
851.997887	2816.520380
852.311938	2817.599187
852.625947	2811.532158
852.939914	2813.568785
853.253837	2818.138591
853.567718	2804.308185
853.881555	2799.907258
854.195350	2815.083651
854.509103	2812.414360
854.822812	2805.349183
855.136479	2801.996816
855.450103	2804.837506
855.763685	2795.211423
856.077224	2790.281174
856.390720	2806.768268
856.704173	2814.882005
857.017584	2807.375727
857.330953	2804.230047
857.644278	2810.188691
857.957561	2821.795948
858.270802	2824.616473
858.584000	2824.820640
858.897155	2813.919145
859.210268	2810.264308
859.523339	2809.467806
859.836367	2809.992086
860.149352	2804.686272
860.462295	2798.344500
860.775195	2807.131231
861.088054	2808.981335
861.400869	2792.456432
861.713642	2787.271606
862.026373	2803.481436
862.339062	2806.667445
862.651708	2810.029895
862.964312	2816.195226
863.276873	2806.551498
863.589392	2815.489464
863.901869	2826.327945
864.214303	2844.836541
864.526696	2860.587627
864.839045	2857.883047
865.151353	2855.995135
865.463619	2858.185517
865.775842	2857.565455
866.088023	2874.228989
866.400162	2882.378014
866.712258	2855.596884
867.024313	2842.179853
867.336325	2852.317614
867.648296	2870.622043
867.960224	2864.796990
868.272110	2850.717047
868.583954	2857.494879
868.895755	2873.160264
869.207515	2860.542256
869.519233	2858.326669
869.830909	2868.910572
870.142542	2879.849875
870.454134	2880.323744
870.765684	2883.933210
871.077191	2882.695607
871.388657	2890.658109
871.700081	2900.581621
872.011463	2912.075451
872.322803	2912.635019
872.634101	2914.669125
872.945357	2928.915426
873.256571	2949.508539
873.567744	2950.211780
873.878874	2938.788526
874.189963	2962.242494
874.501010	2967.381950
874.812015	2952.243365
875.122979	2953.594394
875.433900	2949.009465
875.744780	2957.498768
876.055618	2960.800724
876.366415	2959.333748
876.677169	2970.212558
876.987882	2969.708443
877.298554	2959.154787
877.609183	2979.004330
877.919771	3001.394615
878.230317	3022.842204
878.540822	3077.536203
878.851285	3111.289248
879.161707	3147.164620
879.472087	3237.829772
879.782425	3442.107408
880.092722	3839.370496
880.402977	4339.493286
880.713191	4924.746042
881.023363	5992.127190
881.333494	7227.154430
881.643583	7791.340203
881.953631	7524.176694
882.263637	6954.924560
882.573602	6415.541263
882.883526	5857.697261
883.193408	5299.628927
883.503248	4841.463660
883.813048	4556.638468
884.122806	4279.831231
884.432522	3983.076148
884.742197	3758.520470
885.051831	3567.324628
885.361424	3434.969134
885.670975	3363.359544
885.980485	3285.821556
886.289954	3215.757080
886.599382	3173.050945
886.908768	3136.313536
887.218113	3091.109510
887.527417	3039.084802
887.836680	2989.920949
888.145901	2985.136894
888.455082	2979.974753
888.764221	2929.583379
889.073319	2900.329563
889.382376	2901.660428
889.691392	2903.200500
890.000366	2902.724111
890.309300	2890.706000
890.618193	2902.149419
890.927044	2917.343457
891.235855	2918.424785
891.544625	2902.819893
891.853353	2911.412540
892.162041	2932.396343
892.470687	2966.754327
892.779293	3016.293745
893.087858	3059.312432
893.396381	3124.592853
893.704864	3235.283989
894.013306	3452.101495
894.321707	3733.808734
894.630068	3943.248512
894.938387	3946.459727
895.246665	3897.721851
895.554903	3794.501706
895.863100	3607.726956
896.171256	3444.005402
896.479371	3316.381031
896.787446	3200.734441
897.095480	3099.044286
897.403473	3033.778988
897.711425	3002.249091
898.019336	2993.399345
898.327207	2968.160808
898.635038	2935.552105
898.942827	2921.840166
899.250576	2909.343146
899.558284	2879.507077
899.865952	2860.658203
900.173579	2844.103053
900.481165	2835.419666
900.788711	2822.620176
901.096216	2800.580252
901.403681	2789.416617
901.711105	2795.216464
902.018489	2794.850980
902.325832	2790.477779
902.633135	2800.106383
902.940397	2827.671412
903.247619	2902.547671
903.554800	3072.109401
903.861941	3386.067421
904.169041	3788.417033
904.476101	4087.473403
904.783121	4071.530754
905.090100	3843.423583
905.397039	3583.733584
905.703938	3347.563088
906.010796	3165.539626
906.317614	3058.374777
906.624391	2971.198104
906.931129	2902.401477
907.237826	2844.755883
907.544483	2796.506999
907.851099	2771.896086
908.157675	2749.896491
908.464211	2734.296640
908.770707	2719.715103
909.077163	2708.695141
909.383578	2694.411031
909.689954	2684.457273
909.996289	2681.319155
910.302584	2683.680935
910.608839	2685.374763
910.915054	2680.409226
911.221229	2672.330777
911.527363	2671.652742
911.833458	2677.349246
912.139513	2683.096161
912.445527	2688.732171
912.751502	2693.543953
913.057436	2704.437886
913.363331	2715.510781
913.669186	2732.108780
913.975000	2764.780498
914.280775	2816.038950
914.586510	2885.959754
914.892205	2957.246710
915.197859	3070.876839
915.503475	3248.731267
915.809050	3446.485650
916.114585	3585.102257
916.420081	3614.794653
916.725536	3565.676171
917.030952	3455.894964
917.336328	3333.488187
917.641665	3210.415977
917.946961	3109.698764
918.252218	3048.007644
918.557435	2979.115236
918.862612	2924.441402
919.167750	2874.244112
919.472848	2840.531396
919.777906	2813.480564
920.082925	2789.633386
920.387904	2762.506937
920.692843	2746.531521
920.997743	2734.253791
921.302603	2722.510423
921.607423	2712.836448
921.912204	2700.699871
922.216946	2691.845084
922.521647	2684.706810
922.826310	2675.690706
923.130932	2667.743327
923.435516	2659.770742
923.740059	2655.616832
924.044564	2649.993425
924.349028	2641.247023
924.653454	2636.039511
924.957840	2629.496093
925.262186	2626.811679
925.566493	2622.962758
925.870761	2619.333127
926.174989	2613.750049
926.479178	2609.981787
926.783328	2605.268308
927.087438	2604.489449
927.391509	2602.674634
927.695541	2598.450147
927.999533	2596.421083
928.303486	2593.401432
928.607400	2596.400918
928.911275	2593.834971
929.215110	2590.875813
929.518906	2591.153077
929.822663	2589.857500
930.126381	2589.628128
930.430060	2591.788262
930.733699	2592.292378
931.037299	2594.896134
931.340861	2591.574013
931.644383	2594.455033
931.947866	2593.182141
932.251309	2593.456884
932.554714	2594.087028
932.858080	2589.005545
933.161407	2588.410689
933.464694	2585.905236
933.767943	2581.716037
934.071153	2584.607139
934.374323	2585.827098
934.677455	2587.052098
934.980548	2581.264854
935.283602	2585.272571
935.586617	2578.615727
935.889593	2583.278795
936.192530	2583.737540
936.495428	2586.177458
936.798287	2584.934814
937.101108	2589.217274
937.403890	2591.339600
937.706632	2593.124168
938.009336	2600.537185
938.312002	2608.575305
938.614628	2619.867489
938.917216	2623.434106
939.219765	2627.182203
939.522275	2623.519805
939.824747	2620.865638
940.127179	2619.912860
940.429573	2616.958743
940.731929	2616.013527
941.034246	2617.077211
941.336524	2612.081427
941.638763	2607.093205
941.940964	2604.547423
942.243126	2602.261259
942.545250	2602.619181
942.847335	2600.411156
943.149381	2597.333532
943.451389	2593.867738
943.753359	2592.544435
944.055290	2590.543097
944.357182	2590.475042
944.659036	2589.260124
944.960851	2587.079825
945.262628	2584.342478
945.564367	2586.157293
945.866067	2582.396593
946.167729	2591.165680
946.469352	2587.132757
946.770937	2587.962027
947.072484	2584.617221
947.373992	2586.860534
947.675462	2586.134608
947.976893	2578.693865
948.278286	2574.373596
948.579641	2577.065573
948.880958	2575.465006
949.182236	2578.638413
949.483476	2580.377611
949.784678	2578.199832
950.085841	2578.746797
950.386967	2578.482137
950.688054	2579.109760
950.989103	2579.835687
951.290114	2580.614545
951.591087	2584.700400
951.892021	2585.791810
952.192917	2588.181317
952.493776	2587.473035
952.794596	2590.742223
953.095378	2589.728951
953.396122	2591.052254
953.696828	2588.788776
953.997496	2585.028075
954.298126	2586.341296
954.598718	2583.530852
954.899272	2582.099165
955.199788	2576.664801
955.500266	2572.704974
955.800706	2573.357804
956.101108	2569.491239
956.401472	2567.941084
956.701798	2567.351269
957.002087	2564.712225
957.302337	2566.252297
957.602550	2562.297512
957.902724	2564.419838
958.202861	2560.946483
958.502960	2561.196020
958.803022	2560.739796
959.103045	2556.338868
959.403031	2560.497820
959.702979	2559.116544
960.002889	2556.863148
960.302762	2556.734599
960.602596	2557.294167
960.902393	2555.585216
961.202153	2556.832902
961.501875	2555.567572
961.801559	2553.982129
962.101205	2555.328117
962.400814	2554.866852
962.700385	2555.557490
962.999918	2552.003476
963.299414	2550.503733
963.598873	2552.341233
963.898293	2548.318393
964.197677	2554.576985
964.497022	2550.959957
964.796331	2555.030689
965.095601	2555.968344
965.394835	2553.752757
965.694030	2553.384752
965.993189	2549.646737
966.292309	2555.108827
966.591393	2555.290308
966.890439	2552.570606
967.189447	2554.239228
967.488419	2552.374001
967.787353	2553.956923
968.086249	2553.387273
968.385108	2550.319731
968.683930	2553.941800
968.982714	2553.379711
969.281462	2551.033054
969.580172	2551.824515
969.878844	2551.350647
970.177480	2553.621687
970.476078	2550.854093
970.774639	2553.878785
971.073162	2555.224773
971.371649	2551.829556
971.670098	2553.929197
971.968510	2552.043805
972.266885	2554.072870
972.565223	2555.320555
972.863524	2554.529094
973.161788	2553.016748
973.460014	2554.277037
973.758204	2553.452808
974.056356	2553.992211
974.354471	2554.135884
974.652550	2554.035061
974.950591	2554.138405
975.248595	2555.179403
975.546563	2554.980277
975.844493	2552.232849
976.142386	2552.003476
976.440243	2553.155380
976.738062	2553.467931
977.035845	2552.535318
977.333590	2553.341902
977.631299	2550.985163
977.928971	2548.779658
978.226606	2551.075904
978.524204	2549.271171
978.821765	2546.251520
979.119290	2551.338044
979.416777	2549.825698
979.714228	2550.730585
980.011642	2551.121274
980.309020	2551.648075
980.606360	2553.472973
980.903664	2550.571788
981.200931	2550.513815
981.498162	2553.929197
981.795356	2554.196378
982.092513	2555.943138
982.389633	2555.643189
982.686717	2561.475804
982.983764	2562.993192
983.280775	2568.286403
983.577749	2571.147258
983.874686	2567.056362
984.171587	2567.991496
984.468451	2562.584858
984.765279	2560.273489
985.062070	2559.635783
985.358824	2557.117727
985.655543	2556.893395
985.952224	2556.530432
986.248869	2558.337686
986.545478	2554.201419
986.842050	2553.926676
987.138586	2554.095555
987.435086	2552.956254
987.731549	2550.390307
988.027975	2552.021120
988.324366	2549.805533
988.620719	2548.479710
988.917037	2550.612118
989.213318	2548.106664
989.509563	2548.739329
989.805772	2548.005841
990.101944	2547.932744
990.398080	2547.920142
990.694180	2549.485420
990.990244	2547.962991
991.286271	2546.869061
991.582262	2547.715975
991.878217	2548.663712
992.174136	2550.231511
992.470019	2549.825698
992.765865	2547.098433
993.061676	2545.389482
993.357450	2544.358566
993.653188	2543.178936
993.948890	2551.559855
994.244556	2547.620193
994.540186	2549.722354
994.835780	2548.988866
995.131337	2548.797302
995.426859	2548.658671
995.722345	2551.761501
996.017795	2552.126984
996.313208	2553.304094
996.608586	2555.711245
996.903928	2552.570606
997.199234	2552.182437
997.494504	2554.584547
997.789738	2556.830381
998.084936	2553.788045
998.380099	2551.106151
998.675225	2553.077242
998.970316	2553.921635
999.265371	2550.836449
999.560390	2552.857952
999.855373	2552.525236
1000.150320	2550.085317
1000.445232	2549.679504
1000.740108	2549.452652
1001.034948	2548.973743
1001.329752	2549.855945
1001.624521	2548.199926
1001.919254	2545.303783
1002.213951	2550.082797
1002.508613	2549.747560
1002.803239	2548.260419
1003.097829	2546.788402
1003.392384	2547.466438
1003.686903	2549.752601
1003.981386	2550.977601
1004.275834	2548.187323
1004.570246	2549.888712
1004.864623	2547.688248
1005.158964	2549.056922
1005.453270	2547.287477
1005.747540	2546.329658
1006.041775	2544.776982
1006.335974	2548.005841
1006.630138	2546.059956
1006.924266	2549.535831
1007.218359	2547.353012
1007.512416	2545.724719
1007.806438	2543.579708
1008.100425	2546.037271
1008.394376	2544.008206
1008.688292	2549.356870
1008.982172	2544.653474
1009.276017	2549.621531
1009.569827	2548.114226
1009.863602	2547.489123
1010.157341	2545.238248
1010.451045	2546.574153
1010.744714	2545.959133
1011.038347	2547.572302
1011.331945	2550.181099
1011.625508	2546.667415
1011.919036	2545.520552
1012.212528	2544.590459
1012.505986	2543.685572
1012.799408	2548.305790
1013.092795	2547.393341
1013.386147	2546.806047
1013.679464	2545.830583
1013.972745	2547.332847
1014.265992	2548.688918
1014.559204	2546.352343
1014.852380	2545.946530
1015.145521	2544.734132
1015.438628	2547.584905
1015.731699	2548.507436
1016.024736	2546.425439
1016.317737	2548.421736
1016.610703	2545.069369
1016.903635	2549.349309
1017.196531	2548.129349
1017.489393	2547.799154
1017.782219	2547.216901
1018.075011	2545.749925
1018.367768	2544.678680
1018.660490	2546.271684
1018.953177	2546.271684
1019.245829	2546.271684
