Dividing Wavelength (nm)	Counts (n)	Blue Motor Position (mm): 28.200000	Red Motor Position (mm): 0.000000	
326.493990	2208.383307
326.888308	2208.383307
327.282561	2208.383307
327.676750	2166.692964
328.070874	2165.077274
328.464933	2168.164981
328.858929	2164.958807
329.252859	2174.363080
329.646726	2182.915397
330.040528	2195.364527
330.434265	2206.505477
330.827938	2222.891747
331.221547	2241.483523
331.615091	2257.451378
332.008571	2275.738163
332.401986	2294.939918
332.795338	2313.491364
333.188625	2334.550784
333.581847	2352.472086
333.975006	2372.866074
334.368100	2389.905174
334.761129	2408.590211
335.154095	2427.933118
335.546996	2452.042437
335.939833	2489.684732
336.332606	2505.967659
336.725315	2516.728002
337.117960	2527.863911
337.510540	2540.716333
337.903056	2551.227138
338.295508	2560.447409
338.687896	2571.399316
339.080220	2576.306879
339.472480	2583.051943
339.864676	2590.878334
340.256807	2595.080136
340.648875	2597.671289
341.040879	2600.201948
341.432818	2603.718153
341.824694	2607.297372
342.216506	2606.939450
342.608253	2607.395675
342.999937	2607.378031
343.391557	2609.744852
343.783113	2609.727208
344.174605	2606.563884
344.566033	2605.906014
344.957397	2606.566405
345.348697	2605.805191
345.739934	2600.980806
346.131106	2602.384768
346.522215	2598.676999
346.913260	2596.282451
347.304241	2593.983685
347.695159	2593.240115
348.086012	2593.724065
348.476802	2590.472521
348.867528	2587.362129
349.258191	2583.268712
349.648789	2583.417426
350.039324	2578.088927
350.429796	2582.802406
350.820203	2580.286870
351.210548	2582.681418
351.600828	2578.570357
351.991045	2577.151272
352.381198	2574.766806
352.771288	2573.642629
353.161314	2575.235634
353.551276	2575.132290
353.941175	2572.417629
354.331010	2575.681776
354.720782	2575.911148
355.110490	2573.277145
355.500135	2574.093812
355.889717	2572.503328
356.279235	2574.842424
356.668689	2575.180181
357.058080	2573.042732
357.447408	2573.463668
357.836672	2575.459965
358.225873	2574.272773
358.615010	2575.890984
359.004084	2576.924420
359.393095	2576.740418
359.782043	2577.637743
360.170927	2577.615058
360.559748	2577.763772
360.948505	2578.212435
361.337199	2581.431212
361.725830	2581.166551
362.114398	2578.804771
362.502903	2578.051118
362.891344	2582.268043
363.279722	2581.285018
363.668037	2582.283167
364.056289	2582.729309
364.444478	2583.450194
364.832603	2584.476069
365.220665	2584.758373
365.608665	2584.942375
365.996601	2585.126378
366.384474	2585.711151
366.772284	2586.293405
367.160031	2586.779876
367.547715	2587.152921
367.935336	2587.687284
368.322893	2584.350040
368.710388	2583.016655
369.097820	2582.532704
369.485189	2582.653692
369.872495	2588.193920
370.259738	2590.059147
370.646918	2589.345823
371.034035	2588.977819
371.421090	2589.038313
371.808081	2588.314907
372.195010	2590.565782
372.581875	2591.563931
372.968678	2592.068046
373.355418	2591.425299
373.742096	2591.442943
374.128710	2590.578385
374.515262	2592.932604
374.901751	2591.803386
375.288177	2592.821699
375.674540	2592.625094
376.060841	2594.661720
376.447079	2591.841194
376.833254	2595.372523
377.219367	2595.007039
377.605417	2592.400762
377.991404	2594.830599
378.377329	2594.918819
378.763191	2592.856987
379.148991	2596.100969
379.534727	2596.842019
379.920402	2598.455188
380.306013	2596.307657
380.691563	2598.160281
381.077049	2598.044334
381.462474	2596.448809
381.847835	2596.816813
382.233134	2599.279417
382.618371	2597.199941
383.003545	2598.301433
383.388657	2601.242946
383.773706	2598.997112
384.158693	2600.212030
384.543618	2600.171701
384.928480	2599.533995
385.313280	2600.983327
385.698017	2601.207658
386.082692	2597.898141
386.467305	2600.325456
386.851856	2601.888214
387.236344	2602.372165
387.620770	2597.444437
388.005133	2597.421752
388.389435	2599.065168
388.773674	2596.753799
389.157851	2602.256218
389.541965	2604.625561
389.926018	2604.890221
390.310008	2602.180601
390.693936	2602.868718
391.077802	2603.735797
391.461606	2601.757144
391.845348	2605.411981
392.229027	2605.785026
392.612645	2605.606065
392.996200	2606.274018
393.379694	2606.279059
393.763125	2608.887856
394.146494	2607.988010
394.529801	2608.587907
394.913047	2606.546240
395.296230	2607.279728
395.679351	2608.275356
396.062410	2606.989862
396.445408	2609.618823
396.828343	2608.333329
397.211217	2611.060593
397.594028	2607.844337
397.976778	2608.822321
398.359466	2610.647219
398.742092	2610.823659
399.124656	2610.246447
399.507158	2610.102774
399.889598	2611.312651
400.271977	2612.257867
400.654294	2612.363732
401.036549	2608.527414
401.418742	2611.826849
401.800874	2614.564195
402.182944	2611.847013
402.564952	2613.949175
402.946898	2615.269957
403.328783	2615.373301
403.710606	2614.758280
404.092367	2615.905142
404.474067	2614.044957
404.855705	2614.886829
405.237282	2616.346243
405.618797	2615.196860
406.000250	2618.576954
406.381642	2618.869341
406.762972	2616.510081
407.144240	2614.533948
407.525447	2615.847169
407.906593	2612.779627
408.287677	2618.521501
408.668700	2618.677777
409.049661	2618.352622
409.430560	2620.933693
409.811399	2622.385546
410.192176	2619.204577
410.572891	2621.972171
410.953545	2622.181379
411.334138	2622.488889
411.714669	2621.841101
412.095139	2622.803961
412.475547	2621.894033
412.855894	2621.715072
413.236180	2621.750360
413.616405	2622.693056
413.996568	2625.763119
414.376670	2622.645165
414.756711	2623.822274
415.136691	2625.637090
415.516609	2624.490227
415.896466	2623.792028
416.276262	2625.029631
416.655997	2626.274796
417.035670	2627.925774
417.415283	2629.191103
417.794834	2629.236474
418.174324	2630.789149
418.553753	2629.143212
418.933121	2630.237143
419.312428	2628.868469
419.691674	2631.373923
420.070859	2630.499283
420.449983	2632.941722
420.829045	2633.735703
421.208047	2634.133955
421.586988	2633.770992
421.965867	2636.823410
422.344686	2637.496404
422.723444	2638.965901
423.102141	2636.049593
423.480777	2637.919861
423.859352	2636.483132
424.237866	2639.018833
424.616319	2639.838020
424.994712	2638.257618
425.373044	2639.517907
425.751314	2640.125366
426.129524	2639.722074
426.507673	2640.460603
426.885762	2639.636374
427.263789	2645.423619
427.641756	2642.572846
428.019662	2649.471665
428.397508	2647.795482
428.775292	2647.185502
429.153016	2650.086686
429.530679	2652.307314
429.908282	2654.114568
430.285824	2654.946358
430.663305	2655.931904
431.040726	2661.101607
431.418086	2660.602533
431.795385	2664.527071
432.172624	2668.547391
432.549802	2673.459996
432.926920	2678.226407
433.303977	2681.843435
433.680974	2689.027079
434.057910	2697.183666
434.434786	2706.224975
434.811601	2713.259905
435.188355	2730.510734
435.565050	2739.937692
435.941683	2751.895308
436.318257	2775.553443
436.694770	2799.032617
437.071222	2817.440391
437.447614	2841.058197
437.823946	2864.711290
438.200218	2896.710014
438.576429	2917.154414
438.952580	2964.354737
439.328670	3007.033146
439.704700	3035.525747
440.080670	3082.468972
440.456580	3161.690705
440.832429	3199.859801
441.208218	3227.818040
441.583947	3307.438024
441.959616	3379.251781
442.335224	3425.980757
442.710773	3511.100639
443.086261	3609.531689
443.461689	3596.202878
443.837057	3752.294645
444.212365	3867.810165
444.587612	3904.298037
444.962800	4026.064587
445.337927	4081.418977
445.712995	4093.099330
446.088002	4384.954412
446.462949	4420.933127
446.837837	4511.389071
447.212664	4625.016678
447.587431	4843.447354
447.962139	5136.477024
448.336786	5835.478375
448.711374	6181.518299
449.085901	5707.964909
449.460369	5698.593404
449.834776	5666.632489
450.209124	6072.319345
450.583412	6346.611046
450.957640	6839.393917
451.331808	6705.490788
451.705917	6460.387368
452.079965	6320.084495
452.453954	6831.086095
452.827883	6804.856972
453.201752	7073.767242
453.575562	6991.253635
453.949311	7311.669374
454.323001	7432.334432
454.696632	7688.941766
455.070202	7973.492215
455.443713	8235.549036
455.817164	8637.623905
456.190556	8784.462635
456.563888	9139.037232
456.937160	9399.732941
457.310373	9156.013317
457.683526	9341.139610
458.056619	9222.707783
458.429653	9431.953476
458.802628	9257.280016
459.175542	9603.839178
459.548398	10341.365027
459.921194	10712.041069
460.293930	10862.325427
460.666607	11616.658483
461.039224	12453.855505
461.411782	13131.036222
461.784280	13253.344696
462.156719	13470.346205
462.529099	13400.803487
462.901419	12733.563926
463.273680	12723.463974
463.645882	12744.231007
464.018024	12648.267603
464.390106	12959.057258
464.762130	13685.726982
465.134094	14355.141801
465.505999	15985.924824
465.877845	18774.887736
466.249631	21354.771314
466.621358	21403.617574
466.993026	20397.078112
467.364634	20099.554253
467.736184	18992.383278
468.107674	18378.337972
468.479105	18586.933356
468.850477	18210.792703
469.221790	17914.229184
469.593043	17386.480870
469.964238	16979.417780
470.335373	16753.092657
470.706449	17174.364240
471.077467	16810.934856
471.448425	18565.334533
471.819324	22371.226726
472.190164	24496.529296
472.560945	21285.309255
472.931667	19028.092291
473.302330	18438.055480
473.672934	17958.921534
474.043479	18391.691988
474.413965	18243.787055
474.784393	17927.487419
475.154761	18599.727805
475.525070	18677.888375
475.895321	18332.972628
476.265513	18930.031767
476.635645	19513.885602
477.005719	19341.284056
477.375734	19558.305729
477.745691	20053.364681
478.115588	20566.690254
478.485427	21074.793191
478.855207	22125.926700
479.224928	23845.764226
479.594591	26052.907408
479.964194	26178.084299
480.333739	26415.225217
480.703226	25991.770815
481.072653	25665.847616
481.442022	26219.388993
481.811333	27127.157128
482.180584	27088.710768
482.549777	26152.298798
482.918912	25787.435206
483.287988	25897.312195
483.657005	25632.278573
484.025964	25340.191598
484.394864	25285.931139
484.763706	25000.218703
485.132489	24423.961887
485.501213	24587.910292
485.869879	24516.819940
486.238487	24304.776407
486.607036	24466.007630
486.975527	24142.421006
487.343959	24488.700384
487.712333	24447.851915
488.080648	24120.048365
488.448905	24592.971610
488.817104	24339.454504
489.185244	24986.141281
489.553326	24973.324148
489.921350	25925.149446
490.289315	28166.511981
490.657222	29992.911937
491.025070	30497.125625
491.392861	30287.184252
491.760593	29451.449165
492.128267	28572.047603
492.495883	27543.100212
492.863440	26662.733268
493.230939	25781.433712
493.598380	25628.906041
493.965763	25225.311264
494.333088	24792.129955
494.700354	24711.864703
495.067563	24600.697179
495.434713	24350.343396
495.801805	24486.036134
496.168839	24317.951462
496.535815	24139.141735
496.902733	24359.503173
497.269593	24019.517675
497.636395	24210.582447
498.003139	24197.210787
498.369825	23952.677016
498.736453	24127.733604
499.103023	24011.512323
499.469535	24044.554566
499.835989	24244.211984
500.202385	24266.599749
500.568723	23763.653912
500.935003	24037.355798
501.301226	23628.898828
501.667390	24462.720798
502.033497	24712.202461
502.399546	24432.221817
502.765537	24023.109497
503.131470	24398.423401
503.497345	24526.347721
503.863163	23738.455704
504.228923	24371.410378
504.594625	24547.316401
504.960269	24070.617331
505.325856	24569.401696
505.691385	23980.736079
506.056856	24589.319294
506.422270	24552.763367
506.787625	24139.305573
507.152924	24539.512694
507.518164	24573.827829
507.883347	24375.786100
508.248472	24071.761673
508.613540	24848.646331
508.978550	24634.225893
509.343503	24614.613284
509.708398	24893.051334
510.073236	25040.431988
510.438016	25256.926860
510.802738	24937.103457
511.167403	25187.406828
511.532010	24884.115889
511.896561	25661.741596
512.261053	25631.517358
512.625488	25472.100950
512.989866	25369.596648
513.354186	25214.999583
513.718449	25311.572968
514.082655	25685.296387
514.446803	25432.210300
514.810894	25887.469342
515.174927	25375.293152
515.538904	25391.573559
515.902822	25904.992393
516.266684	25643.091847
516.630488	25541.439501
516.994235	25545.074173
517.357925	25837.340108
517.721558	26024.681988
518.085133	26104.359945
518.448651	26036.984924
518.812112	25743.607414
519.175516	25939.917507
519.538863	26113.547448
519.902152	25887.613015
520.265385	26185.492275
520.628560	25965.985313
520.991678	25976.959905
521.354739	26062.011732
521.717743	26117.877799
522.080690	25903.598514
522.443580	26237.585038
522.806413	26232.127989
523.169189	26327.705746
523.531908	26386.261268
523.894569	25983.962068
524.257174	26051.132922
524.619722	26264.353565
524.982213	25938.117815
525.344647	26018.088159
525.707025	26133.061754
526.069345	26123.657482
526.431608	26073.150162
526.793815	26266.478412
527.155964	25712.390069
527.518057	25889.553859
527.880093	25814.554093
528.242072	26047.667129
528.603995	25753.089824
528.965860	25545.343874
529.327669	25593.864980
529.689421	25584.649751
530.051117	25415.503916
530.412755	25600.622647
530.774337	25417.848053
531.135862	25270.739622
531.497331	25475.559182
531.858743	25025.381623
532.220098	25515.659040
532.581396	25180.429871
532.942638	25133.806760
533.303824	25213.406579
533.664953	25238.062862
534.026025	24900.814711
534.387040	25135.130063
534.747999	25204.098088
535.108902	25368.548088
535.469748	24850.118347
535.830537	25040.772265
536.191270	25163.559650
536.551947	25043.096237
536.912567	24707.862027
537.273131	25019.793504
537.633638	24746.908284
537.994089	24945.887668
538.354483	24496.466282
538.714821	25005.201884
539.075103	25037.094744
539.435328	24830.896428
539.795497	24379.783735
540.155609	24773.974239
540.515665	25067.429887
540.875665	24309.522653
541.235609	24592.447330
541.595496	24557.610437
541.955328	24925.218937
542.315102	24838.629558
542.674821	24400.628906
543.034483	24276.301449
543.394090	24433.595532
543.753640	24227.263625
544.113134	24868.289187
544.472571	24457.679644
544.831953	24747.006587
545.191278	24355.041752
545.550548	24284.236225
545.909761	24496.925027
546.268918	24723.718977
546.628019	24688.435941
546.987064	24384.572831
547.346053	24158.277955
547.704986	24271.182158
548.063863	24432.473875
548.422684	24426.142186
548.781449	23986.936698
549.140158	24384.691298
549.498811	23958.449138
549.857408	23699.658984
550.215949	24138.756087
550.574434	23808.008504
550.932864	24039.543659
551.291237	24185.694271
551.649555	24054.611668
552.007817	24105.179482
552.366022	23970.058915
552.724173	24011.514843
553.082267	23952.036790
553.440305	24430.780047
553.798288	23687.454351
554.156215	24211.600760
554.514086	24299.047135
554.871902	23672.325848
555.229661	23956.702378
555.587365	23822.237161
555.945014	23678.561755
556.302606	23935.305200
556.660143	23873.886302
557.017625	24126.722853
557.375050	23654.293641
557.732421	24052.017994
558.089735	23853.194886
558.446994	23923.816411
558.804197	23939.360808
559.161345	23895.931268
559.518437	23644.009687
559.875474	23853.741852
560.232455	24029.385734
560.589381	23845.892775
560.946251	23829.148583
561.303065	24151.180011
561.659825	24239.485903
562.016528	23838.411703
562.373177	23588.730914
562.729770	23938.100520
563.086307	23799.309993
563.442789	23977.116530
563.799216	23797.568274
564.155587	23817.644669
564.511904	23787.785915
564.868164	23718.596079
565.224370	23716.645152
565.580520	23609.177834
565.936615	23743.577517
566.292654	23431.850207
566.648638	23734.531166
567.004567	23552.580800
567.360441	23512.422969
567.716260	23232.162541
568.072023	23559.151944
568.427732	23318.719153
568.783385	23110.254838
569.138982	23327.047139
569.494525	23377.594788
569.850013	23117.161219
570.205445	23219.390778
570.560823	23027.975646
570.916145	22790.106281
571.271412	22960.882929
571.626625	22725.496333
571.981782	22830.755625
572.336884	22625.111836
572.691931	22774.619856
573.046923	22502.884020
573.401860	22375.423486
573.756743	22390.942678
574.111570	22297.774593
574.466342	22232.284964
574.821059	22316.116832
575.175722	22028.576978
575.530330	22015.457375
575.884882	22030.510261
576.239380	21946.938012
576.593823	21833.219664
576.948211	21815.527734
577.302544	21654.911532
577.656823	21533.616329
578.011047	21616.354266
578.365216	21492.233497
578.719330	21370.126668
579.073389	21279.726177
579.427394	21416.601066
579.781344	21193.734175
580.135239	21074.316802
580.489080	21045.468799
580.842866	20811.521452
581.196597	21005.061430
581.550273	20986.746918
581.903895	20879.758510
582.257463	21191.639575
582.610975	20715.865558
582.964434	21026.551869
583.317837	20737.434134
583.671186	20820.958492
584.024481	20796.783639
584.377721	20567.534647
584.730906	20625.137391
585.084037	20653.645116
585.437113	20556.401259
585.790135	20760.507496
586.143103	20215.878878
586.496016	20234.884028
586.848874	20480.806636
587.201679	20408.763507
587.554428	20082.401727
587.907124	20418.399672
588.259765	20195.444561
588.612352	20262.960734
588.964884	19844.512198
589.317362	20010.746766
589.669786	20068.263811
590.022155	20117.223497
590.374470	20297.701846
590.726731	20099.130796
591.078937	19853.523260
591.431090	19953.759043
591.783188	19700.231854
592.135232	19670.433594
592.487222	19772.542165
592.839157	19795.139137
593.191038	19674.658081
593.542866	19560.806142
593.894639	19269.082130
594.246358	19507.866464
594.598022	19395.231964
594.949633	19163.805194
595.301190	19124.219533
595.652692	19295.830492
596.004141	19522.989926
596.355535	18855.266414
596.706876	18874.354743
597.058162	18764.621427
597.409395	18987.175766
597.760573	19070.735412
598.111698	18846.930866
598.462768	18785.764026
598.813785	18746.042254
599.164748	18556.951094
599.515657	18599.984904
599.866511	18391.318943
600.217312	18751.879910
600.568060	18271.987270
600.918753	18589.632894
601.269392	18491.317791
601.619978	18262.257843
601.970510	18478.419999
602.320988	18415.972706
602.671412	18631.915572
603.021783	18541.620945
603.372100	18272.831663
603.722363	18402.729595
604.072572	18341.449329
604.422728	18485.921236
604.772830	18244.240759
605.122878	18185.445782
605.472872	18185.818827
605.822813	18172.464811
606.172701	18138.986508
606.522534	18340.607456
606.872314	18369.911683
607.222041	18194.676134
607.571714	18409.419206
607.921333	18233.704747
608.270899	18307.106468
608.620411	18500.182660
608.969870	18259.381865
609.319276	18267.276312
609.668627	18298.329819
610.017926	18431.683462
610.367171	18551.955310
610.716362	18581.022603
611.065500	18413.744516
611.414585	18545.477428
611.763616	18527.185601
612.112594	18465.338205
612.461518	18433.866282
612.810389	18628.061610
613.159207	18488.862749
613.507971	18385.990443
613.856682	18673.542900
614.205340	18597.229913
614.553945	18758.012474
614.902496	18499.285335
615.250994	18724.110714
615.599439	18668.673145
615.947830	18654.903234
616.296169	18702.290080
616.644454	18672.053239
616.992686	18635.008320
617.340864	18840.495833
617.688990	18623.327967
618.037063	18776.306821
618.385082	18630.335170
618.733048	18911.729858
619.080961	18776.397562
619.428821	18827.532506
619.776628	18715.755002
620.124382	18626.836610
620.472083	18668.519390
620.819731	18695.756744
621.167326	18384.125217
621.514868	18424.585517
621.862357	18193.380558
622.209793	18205.774235
622.557176	18033.074386
622.904506	17866.287811
623.251783	17777.034182
623.599007	17538.060805
623.946179	17485.511817
624.293297	17413.100683
624.640363	17187.130962
624.987376	17194.077672
625.334336	16988.106208
625.681243	16836.274216
626.028097	16833.824215
626.374899	16767.530522
626.721647	16641.589896
627.068343	16473.535471
627.414987	16400.315232
627.761577	16370.068308
628.108115	16416.935916
628.454600	16141.653628
628.801032	16234.506640
629.147412	16168.616239
629.493739	16184.352201
629.840014	15994.215001
630.186236	16091.090855
630.532405	15867.245980
630.878521	16055.263374
631.224585	15943.755572
631.570597	15774.992864
631.916556	15799.200485
632.262462	15781.624502
632.608316	15699.176431
632.954117	15645.417567
633.299866	15636.794673
633.645562	15551.291663
633.991206	15309.439786
634.336797	15177.149827
634.682336	15150.777031
635.027823	15039.407860
635.373257	14924.184727
635.718639	14821.811495
636.063968	14769.567497
636.409245	14525.752092
636.754470	14545.853692
637.099642	14395.342483
637.444762	14161.977389
637.789829	14210.768196
638.134845	14045.458679
638.479808	14078.455552
638.824719	14030.123489
639.169577	13875.518863
639.514383	13924.143312
639.859137	13734.570722
640.203839	13833.624354
640.548489	13663.409794
640.893086	13655.853104
641.237632	13523.280841
641.582125	13678.510570
641.926566	13503.085978
642.270955	13509.727698
642.615292	13482.699552
642.959576	13486.513185
643.303809	13521.161035
643.647990	13452.009008
643.992118	13516.634079
644.336195	13280.879478
644.680219	13487.823885
645.024192	13403.752562
645.368112	13648.243483
645.711981	13706.602400
646.055797	13889.150143
646.399562	13851.074308
646.743274	14127.508499
647.086935	14396.766609
647.430544	14368.508421
647.774101	14392.476587
648.117606	14549.294280
648.461059	14509.998486
648.804460	14507.004040
649.147810	14235.464809
649.491108	14139.060303
649.834354	14148.595646
650.177548	13849.498947
650.520690	13651.638700
650.863781	13579.850148
651.206820	13628.749341
651.549807	13448.744860
651.892742	13256.913833
652.235626	13195.308413
652.578458	13192.951673
652.921238	12888.849108
653.263967	13079.069487
653.606644	12909.119588
653.949269	12886.136968
654.291843	12693.786702
654.634365	12848.245135
654.976836	12698.837938
655.319255	12706.087117
655.661622	12661.903924
656.003938	12574.749936
656.346203	12510.810461
656.688416	12582.399887
657.030577	12534.037577
657.372687	12451.158488
657.714746	12430.063779
658.056753	12615.994136
658.398708	12432.864140
658.740612	12439.463011
659.082465	12532.714274
659.424266	12507.657219
659.766016	12528.857792
660.107715	12430.663677
660.449362	12510.823064
660.790958	12474.824184
661.132503	12412.686922
661.473996	12484.427582
661.815438	12494.300682
662.156829	12515.201306
662.498168	12492.679951
662.839456	12488.873880
663.180693	12511.886747
663.521879	12601.624327
663.863013	12577.046181
664.204097	12548.566183
664.545129	12663.333091
664.886110	12640.748722
665.227040	12732.071744
665.567918	12736.457548
665.908746	12773.452056
666.249522	12746.817119
666.590248	12796.293524
666.930922	12918.876741
667.271545	12897.827403
667.612118	12984.804951
667.952639	12892.529151
668.293109	12895.536199
668.633528	12854.029859
668.973896	12819.744972
669.314213	12911.970361
669.654480	12646.336841
669.994695	12725.167884
670.334859	12739.678846
670.674973	12680.893951
671.015035	12717.636400
671.355047	12662.009788
671.695008	12634.921148
672.034918	12638.787713
672.374777	12681.090556
672.714585	12600.996703
673.054342	12632.957619
673.394049	12578.853435
673.733705	12672.013958
674.073310	12583.423241
674.412864	12604.948968
674.752368	12468.459728
675.091820	12487.918581
675.431223	12474.378042
675.770574	12344.129750
676.109875	12266.964808
676.449125	12226.391082
676.788324	12171.089624
677.127473	12002.243737
677.466571	11986.341418
677.805619	11891.930688
678.144616	11811.025210
678.483562	11788.350100
678.822458	11648.468163
679.161303	11634.849486
679.500098	11620.368772
679.838842	11573.748181
680.177535	11595.896491
680.516179	11657.191880
680.854771	11605.101638
681.193314	11815.529481
681.531805	11973.995632
681.870247	12382.417314
682.208638	12799.164461
682.546978	13120.147329
682.885268	13162.246005
683.223508	12858.319881
683.561697	12697.975900
683.899836	12594.796084
684.237925	12404.336251
684.575963	12310.961478
684.913951	12238.822567
685.251889	12184.161336
685.589776	12276.008638
685.927614	12208.797455
686.265401	12174.739419
686.603137	12218.806666
686.940824	12373.265099
687.278460	12501.391065
687.616046	12541.317003
687.953582	12715.098179
688.291068	12632.065334
688.628504	12861.198380
688.965889	12883.659241
689.303224	12846.629445
689.640510	12736.661715
689.977745	12427.049169
690.314930	12203.340406
690.652065	12114.283382
690.989150	11826.451141
691.326185	11609.830240
691.663170	11399.059597
692.000105	11153.477267
692.336990	11046.093129
692.673825	10794.484099
693.010610	10666.010293
693.347345	10468.853287
693.684030	10262.221432
694.020665	10206.577176
694.357251	10014.620120
694.693786	9954.075862
695.030272	9787.548906
695.366707	9669.807717
695.703093	9610.478377
696.039429	9603.428324
696.375716	9524.413278
696.711952	9391.818329
697.048139	9430.925080
697.384276	9379.482626
697.720363	9400.549608
698.056400	9347.441052
698.392388	9289.152711
698.728326	9252.574098
699.064214	9190.784676
699.400053	9238.116069
699.735842	9045.609527
700.071581	9009.706430
700.407270	8935.528371
700.742910	8855.081638
701.078501	8761.018749
701.414042	8639.678176
701.749533	8572.572856
702.084974	8437.379192
702.420366	8549.098723
702.755709	8431.211341
703.091002	8296.405846
703.426246	8328.180238
703.761440	8274.512114
704.096584	8233.343532
704.431679	8168.650404
704.766725	8155.792941
705.101721	8101.441741
705.436668	8148.316910
705.771565	8039.886732
706.106413	8119.965461
706.441212	8163.515989
706.775961	8121.016542
707.110661	8154.091552
707.445311	8299.160836
707.779913	8201.002009
708.114465	8326.304929
708.448967	8363.412863
708.783421	8505.026436
709.117825	8687.186009
709.452180	8727.237977
709.786485	8807.551119
710.120742	9094.601981
710.454949	9093.185417
710.789107	9193.890027
711.123216	9409.555629
711.457275	9574.529909
711.791286	9728.058250
712.125247	9725.020955
712.459159	9716.945026
712.793023	9966.353592
713.126837	9541.553202
713.460602	9697.009783
713.794318	9523.460500
714.127985	9552.535355
714.461602	9230.002332
714.795171	9179.535341
715.128691	8935.175491
715.462162	8684.035288
715.795584	8628.764077
716.128957	8482.121953
716.462281	8309.293555
716.795556	8360.945218
717.128782	8156.319742
717.461960	7889.506592
717.795088	7957.783980
718.128167	7867.053293
718.461198	7699.573559
718.794180	7639.475444
719.127113	7635.843292
719.459997	7481.667164
719.792833	7253.476814
720.125619	7315.339334
720.458357	7171.641243
720.791046	7160.472567
721.123686	7161.334604
721.456278	7000.269739
721.788821	7021.500558
722.121315	6910.068373
722.453761	6976.644372
722.786158	6929.267608
723.118506	6931.878925
723.450805	6902.882208
723.783056	6965.899152
724.115259	6878.132664
724.447412	6872.567230
724.779518	6914.285298
725.111574	6916.463077
725.443582	7001.199832
725.775542	6979.928683
726.107453	7174.560072
726.439315	7083.000115
726.771129	7138.311655
727.102895	7310.638458
727.434612	7425.763288
727.766281	7456.607588
728.097901	7532.411418
728.429473	7522.830706
728.760996	7506.809919
729.092471	7475.085938
729.423897	7420.926301
729.755276	7440.206194
730.086606	7365.211469
730.417887	7464.620502
730.749120	7656.595202
731.080305	7849.971343
731.411442	7974.084551
731.742530	7967.873849
732.073570	8075.794871
732.404562	8160.859301
732.735506	8009.201229
733.066401	8153.211871
733.397249	8087.276099
733.728048	7848.469079
734.058798	7514.248141
734.389501	7288.180117
734.720156	7106.922910
735.050762	6880.481841
735.381320	6780.873683
735.711831	6733.963225
736.042293	6618.397294
736.372707	6641.420244
736.703073	6507.396128
737.033391	6545.267796
737.363661	6555.438324
737.693883	6583.900678
738.024056	6664.155848
738.354182	6711.063784
738.684260	6742.271047
739.014290	6856.243974
739.344272	6965.548792
739.674207	6994.847978
740.004093	7068.015285
740.333931	7078.954589
740.663722	7092.048986
740.993464	7162.975500
741.323159	7156.444685
741.652806	6903.761890
741.982405	6918.824858
742.311956	6974.413661
742.641460	6813.356357
742.970915	6617.421831
743.300323	6613.262879
743.629683	6562.236320
743.958996	6427.256905
744.288260	6336.380024
744.617477	6282.512775
744.946647	6289.414115
745.275768	6121.687364
745.604842	6075.654068
745.933869	6060.029012
746.262847	6021.174318
746.591778	6007.958934
746.920662	5963.977387
747.249498	5956.604699
747.578286	6005.576988
747.907027	6085.875008
748.235720	6143.669316
748.564365	6108.756805
748.892963	6136.848635
749.221514	6287.168281
749.550017	6129.957377
749.878473	6007.827864
750.206881	6057.775616
750.535242	6004.273850
750.863555	5930.942706
751.191821	5946.890396
751.520039	5948.397701
751.848210	5854.604513
752.176334	5870.995825
752.504411	5927.983548
752.832440	5856.938567
753.160421	5779.589623
753.488356	5828.957643
753.816243	5860.192632
754.144082	5713.908430
754.471875	5685.814079
754.799620	5727.655656
755.127318	5741.770887
755.454969	5693.748856
755.782572	5661.183002
756.110129	5700.872006
756.437638	5689.625192
756.765100	5628.707889
757.092515	5625.073217
757.419882	5672.215567
757.747203	5659.075799
758.074477	5721.873453
758.401703	5707.473397
758.728882	5656.794677
759.056014	5711.975147
759.383099	5842.057081
759.710138	5857.616603
760.037129	5839.400393
760.364073	5840.060784
760.690970	5928.454896
761.017820	5908.169293
761.344623	5860.502663
761.671379	5967.375125
761.998088	6081.945428
762.324751	6318.294885
762.651366	6912.566265
762.977935	8215.770069
763.304456	9849.466878
763.630931	10753.537327
763.957359	10367.329490
764.283740	9430.708311
764.610074	8599.167463
764.936362	7600.935823
765.262602	7012.048395
765.588796	6473.290201
765.914943	6132.838397
766.241044	5969.852852
766.567097	5771.112923
766.893104	5515.281927
767.219064	5335.385832
767.544978	5269.240852
767.870845	5194.117577
768.196665	5086.143624
768.522438	5016.895814
768.848165	4983.737624
769.173846	4919.049538
769.499479	4873.414493
769.825066	4819.297707
770.150607	4758.491309
770.476101	4733.794696
770.801548	4729.797061
771.126949	4651.618847
771.452303	4601.378708
771.777611	4557.256009
772.102872	4576.692178
772.428087	4539.004512
772.753256	4500.437164
773.078378	4453.498981
773.403453	4387.525400
773.728482	4370.836660
774.053465	4326.398889
774.378401	4313.637208
774.703291	4316.059483
775.028135	4244.331425
775.352932	4194.837377
775.677683	4182.176519
776.002388	4202.903223
776.327046	4213.905541
776.651658	4139.019201
776.976224	4075.150302
777.300743	4080.236826
777.625216	4101.815485
777.949643	4094.551183
778.274024	4056.157755
778.598359	4003.926360
778.922647	4031.181358
779.246889	4024.726161
779.571086	4016.403216
779.895236	4005.610105
780.219339	3988.250892
780.543397	3981.500787
780.867409	4034.921894
781.191374	4050.302455
781.515294	3985.929441
781.839167	3981.800736
782.162995	4000.334538
782.486776	3986.700737
782.810511	3996.147860
783.134201	3988.424812
783.457844	3950.301086
783.781441	3891.150707
784.104993	3895.723034
784.428498	3915.789347
784.751958	3914.007299
785.075372	3891.793454
785.398739	3855.446735
785.722061	3867.532902
786.045337	3908.736772
786.368568	3944.244140
786.691752	3854.350284
787.014891	3904.991195
787.337983	4033.712017
787.661030	4189.256819
787.984031	4354.435266
788.306987	4518.204711
788.629897	4602.923822
788.952760	4558.944796
789.275579	4489.944002
789.598351	4426.848921
789.921078	4289.290956
790.243759	4087.501129
790.566395	4070.542687
790.888984	4062.529773
791.211529	3957.643527
791.534027	3897.552973
791.856480	3886.049060
792.178888	3823.899194
792.501249	3775.335239
792.823566	3788.023823
793.145836	3816.581960
793.468062	3765.774691
793.790241	3719.771641
794.112375	3749.620313
794.434464	3813.312771
794.756507	3835.418231
795.078505	3817.237310
795.400457	3850.667721
795.722364	3989.942199
796.044226	4089.116819
796.366042	4163.317562
796.687812	4146.417094
797.009538	4150.127383
797.331218	4111.799491
797.652852	4084.768824
797.974442	4061.955082
798.295986	4061.846697
798.617484	3982.236796
798.938938	3897.679002
799.260346	3935.061678
799.581709	3930.990946
799.903026	3857.712734
800.224299	3822.860717
800.545526	3814.991476
800.866708	3776.892955
801.187845	3717.215776
801.508936	3752.408071
801.829983	3750.580653
802.150984	3671.321112
802.471940	3661.500944
802.792851	3669.423117
803.113717	3670.383457
803.434538	3673.556863
803.755314	3615.991927
804.076045	3591.249944
804.396731	3611.580918
804.717372	3633.794762
805.037967	3621.476703
805.358518	3610.640743
805.679024	3640.277686
805.999485	3654.478617
806.319901	3655.985922
806.640272	3667.482273
806.960598	3684.312165
807.280879	3657.074811
807.601115	3668.329187
807.921306	3686.963812
808.241453	3726.050398
808.561554	3701.610884
808.881611	3636.524547
809.201623	3675.233047
809.521590	3686.419367
809.841513	3661.274092
810.161390	3688.400541
810.481223	3668.611491
810.801011	3612.208542
811.120755	3602.466512
811.440453	3638.372130
811.760107	3639.211482
812.079716	3598.052982
812.399281	3568.025349
812.718801	3588.096703
813.038276	3565.998805
813.357707	3559.437743
813.677093	3581.651587
813.996434	3528.157383
814.315731	3535.275493
814.634983	3541.995351
814.954191	3552.057494
815.273354	3580.325764
815.592473	3576.330650
815.911547	3583.557144
816.230577	3623.110037
816.549562	3678.048531
816.868502	3716.401630
817.187399	3739.240577
817.506250	3738.018098
817.825058	3711.831824
818.143821	3800.891368
818.462539	3906.281731
818.781213	3952.912404
819.099843	4005.844519
819.418429	4247.971138
819.736970	4493.389631
820.055466	4736.837032
820.373919	5096.488071
820.692327	5507.826061
821.010691	5948.044820
821.329011	7315.677091
821.647286	10038.759685
821.965517	14575.296552
822.283704	18591.435107
822.601847	20777.750762
822.919945	18975.495412
823.237999	16403.894451
823.556010	13926.673971
823.873976	11842.552587
824.191897	9754.050439
824.509775	8401.022391
824.827609	7274.947089
825.145398	6735.523463
825.463144	6616.216995
825.780845	6726.010805
826.098502	6916.730258
826.416116	7785.174872
826.733685	9106.305020
827.051210	10209.576662
827.368692	10265.765363
827.686129	9012.907562
828.003522	7503.520566
828.320872	6493.049004
828.638177	5791.393485
828.955439	5231.429678
829.272656	4736.620263
829.589830	4450.610399
829.906960	4275.808390
830.224046	4090.883743
830.541088	3962.641831
830.858086	3920.109616
831.175041	3840.968541
831.491952	3827.397755
831.808819	3833.951255
832.125642	3908.648552
832.442421	4054.065676
832.759157	4324.447963
833.075849	4871.264441
833.392497	5738.385752
833.709101	6511.565162
834.025662	6847.706780
834.342179	6486.649259
834.658653	5828.345143
834.975083	5184.206669
835.291469	4610.576293
835.607811	4199.684446
835.924110	4060.213363
836.240366	3862.794217
836.556578	3656.321158
836.872746	3550.061197
837.188871	3509.570649
837.504952	3442.064558
837.820990	3358.774614
838.136984	3314.220897
838.452935	3338.115966
838.768842	3334.204030
839.084706	3353.660364
839.400526	3512.522245
839.716303	3849.276363
840.032037	4371.348338
840.347727	4636.792814
840.663373	4363.877348
840.978977	3980.689161
841.294537	3675.958973
841.610054	3449.018830
841.925527	3337.485822
842.240957	3269.069802
842.556344	3215.404199
842.871687	3154.479334
843.186987	3106.744648
843.502244	3072.127045
843.817458	3038.285779
844.132629	3006.871829
844.447756	3014.667973
844.762840	3002.924605
845.077881	2971.528299
845.392879	2951.741770
845.707833	2949.513580
846.022745	2947.454269
846.337613	2947.338323
846.652438	2936.081426
846.967221	2932.303081
847.281960	2920.156421
847.596656	2913.943199
847.911309	2913.817170
848.225919	2908.186201
848.540485	2903.407187
848.855009	2903.520613
849.169490	2892.621639
849.483928	2885.826163
849.798323	2883.678632
850.112675	2881.241234
850.426984	2891.668861
850.741251	2890.053171
851.055474	2879.282746
851.369654	2872.217568
851.683792	2878.834083
851.997887	2888.722306
852.311938	2885.498488
852.625947	2876.805018
852.939914	2881.485730
853.253837	2886.098386
853.567718	2867.153729
853.881555	2866.034593
854.195350	2881.271481
854.509103	2880.215359
854.822812	2869.722197
855.136479	2865.706918
855.450103	2868.053575
855.763685	2864.653317
856.077224	2860.413707
856.390720	2874.715460
856.704173	2881.725185
857.017584	2874.418032
857.330953	2870.473329
857.644278	2881.037067
857.957561	2889.995198
858.270802	2893.917215
858.584000	2891.048799
858.897155	2879.449104
859.210268	2879.282746
859.523339	2879.338198
859.836367	2875.839638
860.149352	2871.390819
860.462295	2865.137268
860.775195	2874.959956
861.088054	2875.108670
861.400869	2857.527646
861.713642	2854.812985
862.026373	2870.672455
862.339062	2873.460213
862.651708	2877.382231
862.964312	2879.592777
863.276873	2873.167826
863.589392	2881.284084
863.901869	2894.343193
864.214303	2918.376894
864.526696	2934.896755
864.839045	2927.922318
865.151353	2929.805189
865.463619	2926.122627
865.775842	2929.288471
866.088023	2946.246913
866.400162	2952.235803
866.712258	2922.074580
867.024313	2914.228024
867.336325	2922.760177
867.648296	2944.303548
867.960224	2935.874739
868.272110	2922.530804
868.583954	2931.594799
868.895755	2941.977055
869.207515	2928.131526
869.519233	2933.139913
869.830909	2941.878753
870.142542	2954.796710
870.454134	2955.094138
870.765684	2955.688994
871.077191	2956.127574
871.388657	2962.343317
871.700081	2977.426449
872.011463	2987.866679
872.322803	2988.771566
872.634101	2989.252996
872.945357	3004.505007
873.256571	3027.817823
873.567744	3024.077287
873.878874	3015.771986
874.189963	3038.953732
874.501010	3040.196376
874.812015	3029.804038
875.122979	3030.109028
875.433900	3026.658358
875.744780	3032.407794
876.055618	3040.677807
876.366415	3036.773433
876.677169	3049.719116
876.987882	3046.422201
877.298554	3040.748383
877.609183	3059.609860
877.919771	3080.618868
878.230317	3108.849330
878.540822	3161.539470
878.851285	3200.124462
879.161707	3243.254053
879.472087	3344.876153
879.782425	3570.828230
880.092722	4002.048530
880.402977	4527.601422
880.713191	5157.634747
881.023363	6300.923069
881.333494	7583.914367
881.643583	8142.317937
881.953631	7842.243254
882.263637	7222.710652
882.573602	6634.050077
882.883526	6056.590945
883.193408	5486.068441
883.503248	5027.265467
883.813048	4720.533941
884.122806	4419.990431
884.432522	4106.292030
884.742197	3870.479456
885.051831	3678.177081
885.361424	3541.881925
885.670975	3469.811069
885.980485	3384.718913
886.289954	3308.594969
886.599382	3262.501179
886.908768	3224.059860
887.218113	3181.966225
887.527417	3123.395579
887.836680	3073.594021
888.145901	3067.126220
888.455082	3057.472411
888.764221	3006.365193
889.073319	2979.972232
889.382376	2976.014926
889.691392	2981.635813
890.000366	2980.390648
890.309300	2965.168884
890.618193	2978.535503
890.927044	2997.928822
891.235855	2996.829850
891.544625	2982.603714
891.853353	2993.656444
892.162041	3012.888446
892.470687	3053.005948
892.779293	3103.084771
893.087858	3147.940957
893.396381	3220.266392
893.704864	3340.825586
894.013306	3577.999272
894.321707	3882.585787
894.630068	4086.281170
894.938387	4081.577773
895.246665	4037.888613
895.554903	3920.046601
895.863100	3718.055128
896.171256	3554.005900
896.479371	3413.881988
896.787446	3292.851445
897.095480	3188.184489
897.403473	3123.413223
897.711425	3086.128850
898.019336	3076.331367
898.327207	3049.958571
898.635038	3013.730319
898.942827	3000.547701
899.250576	2988.378356
899.558284	2955.628500
899.865952	2936.204934
900.173579	2915.168199
900.481165	2906.714184
900.788711	2895.046434
901.096216	2873.666900
901.403681	2862.069726
901.711105	2868.232536
902.018489	2864.252545
902.325832	2866.125334
902.633135	2876.038763
902.940397	2905.970614
903.247619	2990.364571
903.554800	3180.537058
903.861941	3525.621683
904.169041	3946.283286
904.476101	4249.486005
904.783121	4203.208213
905.090100	3961.565544
905.397039	3686.310982
905.703938	3436.746141
906.010796	3254.016917
906.317614	3140.908548
906.624391	3048.267264
906.931129	2978.104484
907.237826	2914.971594
907.544483	2871.136241
907.851099	2839.291272
908.157675	2820.651606
908.464211	2800.124027
908.770707	2786.258334
909.077163	2772.521189
909.383578	2759.595671
909.689954	2746.478589
909.996289	2746.163517
910.302584	2747.451531
910.608839	2746.685276
910.915054	2740.719070
911.221229	2734.641959
911.527363	2736.343349
911.833458	2743.695872
912.139513	2747.970770
912.445527	2752.066708
912.751502	2759.782194
913.057436	2768.268976
913.363331	2779.931686
913.669186	2801.258287
913.975000	2836.095181
914.280775	2898.391239
914.586510	2967.903710
914.892205	3045.502191
915.197859	3173.736542
915.503475	3364.753423
915.809050	3577.548088
916.114585	3725.213567
916.420081	3744.508583
916.725536	3686.069007
917.030952	3567.725400
917.336328	3440.627829
917.641665	3312.154023
917.946961	3209.243909
918.252218	3139.179432
918.557435	3060.648338
918.862612	3003.287568
919.167750	2953.783438
919.472848	2914.527973
919.777906	2887.393962
920.082925	2860.262472
920.387904	2832.712566
920.692843	2815.527273
920.997743	2803.791467
921.302603	2789.214970
921.607423	2780.345060
921.912204	2767.490118
922.216946	2756.074425
922.521647	2745.611510
922.826310	2739.322671
923.130932	2733.485015
923.435516	2725.998901
923.740059	2716.892057
924.044564	2707.608772
924.349028	2705.977959
924.653454	2696.810620
924.957840	2688.984229
925.262186	2686.110771
925.566493	2684.288394
925.870761	2678.286901
926.174989	2673.699451
926.479178	2670.654594
926.783328	2663.546567
927.087438	2665.699139
927.391509	2661.487255
927.695541	2657.716472
927.999533	2654.129691
928.303486	2652.624907
928.607400	2651.606594
928.911275	2652.856800
929.215110	2651.031902
929.518906	2649.718682
929.822663	2648.481078
930.126381	2650.127015
930.430060	2652.511481
930.733699	2649.176758
931.037299	2651.256234
931.340861	2651.452839
931.644383	2654.139774
931.947866	2652.534166
932.251309	2650.563075
932.554714	2651.238590
932.858080	2647.084679
933.161407	2647.868578
933.464694	2646.101654
933.767943	2643.192908
934.071153	2640.810963
934.374323	2643.598721
934.677455	2644.196098
934.980548	2641.504122
935.283602	2640.097640
935.586617	2641.718371
935.889593	2640.082516
936.192530	2639.464975
936.495428	2642.698875
936.798287	2643.618886
937.101108	2647.805564
937.403890	2651.067190
937.706632	2655.024496
938.009336	2661.114210
938.312002	2670.463030
938.614628	2681.281346
938.917216	2687.093796
939.219765	2687.239990
939.522275	2683.779238
939.824747	2684.351409
940.127179	2679.595080
940.429573	2677.533248
940.731929	2672.955880
941.034246	2672.091323
941.336524	2669.714418
941.638763	2665.023625
941.940964	2663.334838
942.243126	2664.499345
942.545250	2663.125630
942.847335	2659.503561
943.149381	2655.274033
943.451389	2651.760349
943.753359	2648.977632
944.055290	2646.525111
944.357182	2647.309010
944.659036	2644.614513
944.960851	2643.003865
945.262628	2643.099647
945.564367	2641.869605
945.866067	2643.752476
946.167729	2642.948412
946.469352	2642.804739
946.770937	2643.341622
947.072484	2642.436735
947.373992	2644.324647
947.675462	2639.076806
947.976893	2635.726959
948.278286	2632.755199
948.579641	2638.131590
948.880958	2631.575569
949.182236	2635.820221
949.483476	2636.175622
949.784678	2634.607823
950.085841	2635.074130
950.386967	2634.718728
950.688054	2635.210241
950.989103	2636.508338
951.290114	2638.844913
951.591087	2640.498411
951.892021	2644.059987
952.192917	2644.652322
952.493776	2647.409833
952.794596	2647.578712
953.095378	2646.850265
953.396122	2646.416726
953.696828	2643.397075
953.997496	2642.010757
954.298126	2638.313071
954.598718	2640.994965
954.899272	2635.716877
955.199788	2634.181846
955.500266	2631.041207
955.800706	2630.252266
956.101108	2628.760085
956.401472	2628.122379
956.701798	2623.839918
957.002087	2618.592077
957.302337	2620.031327
957.602550	2623.877727
957.902724	2619.118878
958.202861	2616.051336
958.502960	2615.522015
958.803022	2613.868516
959.103045	2613.808022
959.403031	2614.281891
959.702979	2613.329113
960.002889	2613.319030
960.302762	2611.980604
960.602596	2610.848865
960.902393	2612.242744
961.202153	2610.886674
961.501875	2608.799636
961.801559	2609.752414
962.101205	2609.661673
962.400814	2609.134873
962.700385	2609.379369
962.999918	2604.209665
963.299414	2604.522217
963.598873	2609.371807
963.898293	2600.937957
964.197677	2609.515480
964.497022	2605.850561
964.796331	2609.102105
965.095601	2611.602517
965.394835	2607.458689
965.694030	2607.662856
965.993189	2606.901642
966.292309	2607.330140
966.591393	2608.323247
966.890439	2606.722681
967.189447	2606.609255
967.488419	2608.633278
967.787353	2603.438369
968.086249	2606.137907
968.385108	2605.984152
968.683930	2606.740325
968.982714	2608.245109
969.281462	2606.221086
969.580172	2606.601693
969.878844	2607.970366
970.177480	2607.181426
970.476078	2606.694954
970.774639	2607.957763
971.073162	2605.936261
971.371649	2606.016919
971.670098	2608.560181
971.968510	2606.316868
972.266885	2606.793257
972.565223	2607.483895
972.863524	2603.773606
973.161788	2606.886518
973.460014	2608.708895
973.758204	2609.749893
974.056356	2605.008688
974.354471	2607.957763
974.652550	2606.647063
974.950591	2607.599841
975.248595	2608.585387
975.546563	2607.471292
975.844493	2604.945674
976.142386	2604.741507
976.440243	2604.887701
976.738062	2604.862495
977.035845	2606.788216
977.333590	2608.456837
977.631299	2605.303596
977.928971	2602.034407
978.226606	2601.011053
978.524204	2601.071547
978.821765	2602.067175
979.119290	2604.192021
979.416777	2602.125148
979.714228	2605.185129
980.011642	2605.338884
980.309020	2600.925354
980.606360	2603.425766
980.903664	2604.189501
981.200931	2605.638832
981.498162	2606.508432
981.795356	2605.658997
982.092513	2609.026488
982.389633	2610.009513
982.686717	2614.087806
982.983764	2615.574947
983.280775	2622.627521
983.577749	2620.941255
983.874686	2624.898561
984.171587	2618.922273
984.468451	2617.619135
984.765279	2613.606376
985.062070	2612.661160
985.358824	2610.538834
985.655543	2609.512959
985.952224	2605.787547
986.248869	2606.405088
986.545478	2607.302413
986.842050	2604.925509
987.138586	2602.409973
987.435086	2605.621188
987.731549	2603.055241
988.027975	2602.941815
988.324366	2600.874942
988.620719	2604.789398
988.917037	2598.833275
989.213318	2603.952567
989.509563	2602.651949
989.805772	2601.290837
990.101944	2599.856629
990.398080	2602.120107
990.694180	2602.243615
990.990244	2602.530961
991.286271	2598.619026
991.582262	2602.057093
991.878217	2599.876794
992.174136	2602.314192
992.470019	2601.656321
992.765865	2597.509972
993.061676	2595.385126
993.357450	2599.163470
993.653188	2596.690784
993.948890	2602.140272
994.244556	2602.117587
994.540186	2603.461054
994.835780	2598.989551
995.131337	2602.415015
995.426859	2602.117587
995.722345	2601.399222
996.017795	2603.292175
996.313208	2604.025663
996.608586	2605.472474
996.903928	2608.613113
997.199234	2607.259563
997.494504	2606.233689
997.789738	2605.472474
998.084936	2606.493308
998.380099	2602.498194
998.675225	2601.981475
998.970316	2602.946856
999.265371	2603.607247
999.560390	2601.263111
999.855373	2603.289655
1000.150320	2601.091712
1000.445232	2603.549274
1000.740108	2599.970055
1001.034948	2599.128182
1001.329752	2597.812441
1001.624521	2596.158943
1001.919254	2599.977617
1002.213951	2600.201948
1002.508613	2600.706063
1002.803239	2598.762699
1003.097829	2598.976948
1003.392384	2600.154057
1003.686903	2596.186669
1003.981386	2599.990220
1004.275834	2597.958635
1004.570246	2596.804210
1004.864623	2599.823862
1005.158964	2599.564242
1005.453270	2600.501897
1005.747540	2598.099787
1006.041775	2598.364447
1006.335974	2596.763881
1006.630138	2597.605754
1006.924266	2598.409818
1007.218359	2598.268666
1007.512416	2597.976279
1007.806438	2594.964189
1008.100425	2598.492997
1008.394376	2594.336566
1008.688292	2598.427462
1008.982172	2597.998964
1009.276017	2595.790938
1009.569827	2597.061309
1009.863602	2598.339242
1010.157341	2597.066350
1010.451045	2598.392174
1010.744714	2597.825044
1011.038347	2598.424941
1011.331945	2596.446288
1011.625508	2597.709097
1011.919036	2595.506113
1012.212528	2596.466453
1012.505986	2599.158429
1012.799408	2598.969386
1013.092795	2598.563573
1013.386147	2596.214395
1013.679464	2599.105497
1013.972745	2598.460229
1014.265992	2598.974427
1014.559204	2598.369489
1014.852380	2599.385281
1015.145521	2596.103490
1015.438628	2593.880341
1015.731699	2596.655496
1016.024736	2597.293202
1016.317737	2597.951073
1016.610703	2595.488469
1016.903635	2598.271186
1017.196531	2595.740527
1017.489393	2597.820003
1017.782219	2598.245980
1018.075011	2597.051227
1018.367768	2594.545773
1018.660490	2599.707915
1018.953177	2599.707915
1019.245829	2599.707915
