Dividing Wavelength (nm)	Counts (n)	Blue Motor Position (mm): 37.000000	Red Motor Position (mm): 0.000000	
326.493990	2239.575446
326.888308	2239.575446
327.282561	2239.575446
327.676750	2194.694053
328.070874	2195.321677
328.464933	2195.382171
328.858929	2199.029446
329.252859	2204.138655
329.646726	2212.869933
330.040528	2224.588096
330.434265	2238.171485
330.827938	2254.020872
331.221547	2272.448810
331.615091	2288.434309
332.008571	2307.857875
332.401986	2326.149702
332.795338	2347.433453
333.188625	2363.749148
333.581847	2386.308311
333.975006	2403.604510
334.368100	2422.808785
334.761129	2440.777978
335.154095	2456.093004
335.546996	2486.654999
335.939833	2524.725793
336.332606	2535.135775
336.725315	2551.287632
337.117960	2565.536454
337.510540	2576.735377
337.903056	2587.866245
338.295508	2596.658017
338.687896	2603.524068
339.080220	2612.028495
339.472480	2618.708024
339.864676	2624.162552
340.256807	2628.061885
340.648875	2631.010960
341.040879	2636.964562
341.432818	2639.994296
341.824694	2641.337763
342.216506	2643.855820
342.608253	2643.709626
342.999937	2642.958494
343.391557	2643.606283
343.783113	2643.127373
344.174605	2641.342805
344.566033	2639.540592
344.957397	2640.826086
345.348697	2638.716363
345.739934	2637.841723
346.131106	2635.510190
346.522215	2633.125724
346.913260	2631.333594
347.304241	2630.862246
347.695159	2630.111114
348.086012	2630.277472
348.476802	2622.488889
348.867528	2622.163735
349.258191	2617.540997
349.648789	2617.752725
350.039324	2615.310286
350.429796	2617.167951
350.820203	2617.230966
351.210548	2613.026643
351.600828	2614.410440
351.991045	2613.714761
352.381198	2611.501694
352.771288	2612.751901
353.161314	2611.370624
353.551276	2610.538834
353.941175	2608.590428
354.331010	2608.580346
354.720782	2608.048504
355.110490	2609.563371
355.500135	2607.677979
355.889717	2607.763679
356.279235	2609.260902
356.668689	2612.212497
357.058080	2610.264091
357.447408	2609.601179
357.836672	2609.505398
358.225873	2610.851386
358.615010	2611.617641
359.004084	2611.352980
359.393095	2608.986159
359.782043	2612.719133
360.170927	2614.176027
360.559748	2614.481016
360.948505	2613.795419
361.337199	2615.703496
361.725830	2615.643002
362.114398	2616.661315
362.502903	2616.200050
362.891344	2616.507560
363.279722	2616.963785
363.668037	2616.494957
364.056289	2617.800616
364.444478	2619.517129
364.832603	2620.976543
365.220665	2621.145422
365.608665	2620.447222
365.996601	2621.029475
366.384474	2622.307408
366.772284	2623.136677
367.160031	2620.729527
367.547715	2622.889661
367.935336	2620.694238
368.322893	2620.847994
368.710388	2620.613580
369.097820	2621.314300
369.485189	2622.456122
369.872495	2623.880248
370.259738	2624.729682
370.646918	2623.146760
371.034035	2628.853346
371.421090	2625.067439
371.808081	2626.587347
372.195010	2626.932666
372.581875	2627.295629
372.968678	2629.075157
373.355418	2628.810496
373.742096	2629.029786
374.128710	2628.434930
374.515262	2627.875362
374.901751	2631.918367
375.288177	2630.370733
375.674540	2629.715383
376.060841	2631.656227
376.447079	2632.145219
376.833254	2634.847278
377.219367	2632.472894
377.605417	2633.332411
377.991404	2635.283338
378.377329	2634.985910
378.763191	2634.499438
379.148991	2633.544140
379.534727	2635.396764
379.920402	2636.029428
380.306013	2638.124028
380.691563	2638.726446
381.077049	2640.279121
381.462474	2637.856847
381.847835	2639.898514
382.233134	2638.297948
382.618371	2638.812145
383.003545	2639.147382
383.388657	2642.865233
383.773706	2640.828607
384.158693	2642.219965
384.543618	2642.320788
384.928480	2646.157107
385.313280	2641.584780
385.698017	2648.405461
386.082692	2645.816829
386.467305	2645.731129
386.851856	2649.048208
387.236344	2647.742549
387.620770	2644.740542
388.005133	2644.964874
388.389435	2644.203659
388.773674	2646.048722
389.157851	2651.286481
389.541965	2651.273878
389.926018	2653.542397
390.310008	2653.247489
390.693936	2652.967705
391.077802	2653.328148
391.461606	2655.770587
391.845348	2655.528612
392.229027	2655.533653
392.612645	2656.438540
392.996200	2656.536842
393.379694	2659.233860
393.763125	2657.277892
394.146494	2661.663696
394.529801	2660.380722
394.913047	2662.498007
395.296230	2663.733089
395.679351	2664.970693
396.062410	2669.359017
396.445408	2669.190138
396.828343	2674.780778
397.211217	2685.778055
397.594028	2688.578416
397.976778	2697.614684
398.359466	2708.992569
398.742092	2722.606205
399.124656	2736.439131
399.507158	2754.791451
399.889598	2782.059052
400.271977	2810.922179
400.654294	2843.354442
401.036549	2878.455996
401.418742	2909.617889
401.800874	2971.800522
402.182944	3029.877134
402.564952	3096.836260
402.946898	3163.477794
403.328783	3199.300233
403.710606	3263.534615
404.092367	3392.734347
404.474067	3471.862818
404.855705	3520.557844
405.237282	3573.366451
405.618797	3719.580077
406.000250	3792.349133
406.381642	3937.778860
406.762972	4026.561141
407.144240	4131.119713
407.525447	4207.722566
407.906593	4311.124193
408.287677	4468.158656
408.668700	4511.101725
409.049661	4657.390968
409.430560	4756.479888
409.811399	4758.541720
410.192176	4997.268081
410.572891	5083.907872
410.953545	5300.838804
411.334138	5213.876380
411.714669	5405.956944
412.095139	5348.404611
412.475547	5590.881591
412.855894	5711.997832
413.236180	5918.385192
413.616405	5762.928610
413.996568	5996.775134
414.376670	6079.054326
414.756711	6067.857924
415.136691	6202.529828
415.516609	6425.666421
415.896466	6483.518702
416.276262	6694.526279
416.655997	6732.614717
417.035670	6956.658717
417.415283	7299.152189
417.794834	7384.340127
418.174324	7312.153325
418.553753	7283.733820
418.933121	7625.123279
419.312428	7747.532577
419.691674	7573.854744
420.070859	8057.492962
420.449983	7786.215871
420.829045	8160.813931
421.208047	7977.139490
421.586988	8278.313144
421.965867	8319.151532
422.344686	8447.781613
422.723444	8490.263417
423.102141	7903.032008
423.480777	8637.054255
423.859352	8183.680604
424.237866	8802.623391
424.616319	8687.364970
424.994712	9095.176672
425.373044	8684.458745
425.751314	9138.845668
426.129524	9006.187704
426.507673	9151.370414
426.885762	9310.307913
427.263789	9216.063542
427.641756	9135.881469
428.019662	9244.082275
428.397508	9480.837545
428.775292	9182.277729
429.153016	9557.712620
429.530679	9390.976457
429.908282	9444.853788
430.285824	9155.310076
430.663305	9837.635290
431.040726	9288.265468
431.418086	9285.550806
431.795385	9604.020659
432.172624	9688.840593
432.549802	9606.631977
432.926920	9691.739257
433.303977	9571.200227
433.680974	9775.906362
434.057910	9854.452580
434.434786	9926.251213
434.811601	9765.425803
435.188355	10334.695580
435.565050	10059.055370
435.941683	9987.566768
436.318257	10487.863478
436.694770	10607.709349
437.071222	10679.928919
437.447614	10525.047029
437.823946	10418.560216
438.200218	10561.360981
438.576429	10381.275842
438.952580	10607.956366
439.328670	10667.363843
439.704700	10449.775040
440.080670	10444.819586
440.456580	11008.196255
440.832429	10754.878274
441.208218	10355.858344
441.583947	10694.727226
441.959616	10835.201499
442.335224	10635.246652
442.710773	10778.614547
443.086261	10986.690692
443.461689	10268.167473
443.837057	10915.171843
444.212365	11192.684841
444.587612	10839.068064
444.962800	11069.042982
445.337927	10842.276758
445.712995	10426.225290
446.088002	11511.026145
446.462949	11168.827581
446.837837	11140.922274
447.212664	11122.822011
447.587431	11642.784263
447.962139	12353.559228
448.336786	14620.913953
448.711374	15171.004660
449.085901	13026.641487
449.460369	12635.440387
449.834776	12087.265318
450.209124	12964.151344
450.583412	13364.570194
450.957640	14320.579651
451.331808	13464.637098
451.705917	12453.759723
452.079965	11754.465985
452.453954	12648.721307
452.827883	12285.211265
453.201752	12583.703025
453.575562	12093.715474
453.949311	12516.199454
454.323001	12485.738282
454.696632	12707.866644
455.070202	12986.201351
455.443713	13222.684398
455.817164	13689.689329
456.190556	13682.752701
456.563888	14045.128484
456.937160	14214.231469
457.310373	13558.977251
457.683526	13640.717040
458.056619	13189.997557
458.429653	13335.278570
458.802628	12767.122887
459.175542	13139.840597
459.548398	14092.802676
459.921194	14425.881793
460.293930	14490.262368
460.666607	15368.567480
461.039224	16411.388126
461.411782	17109.139271
461.784280	16972.249259
462.156719	17039.047068
462.529099	16722.656691
462.901419	15659.434495
463.273680	15439.199086
463.645882	15309.288552
464.018024	15049.172575
464.390106	15256.880716
464.762130	15995.999570
465.134094	16743.446409
465.505999	18744.517305
465.877845	22005.569152
466.249631	24825.018442
466.621358	24514.357337
466.993026	23061.516963
467.364634	22511.320391
467.736184	21039.910927
468.107674	20245.069679
468.479105	20376.941223
468.850477	19841.149748
469.221790	19426.779505
469.593043	18750.750692
469.964238	18193.816618
470.335373	17844.792331
470.706449	18286.218447
471.077467	17846.539091
471.448425	19679.452218
471.819324	23727.269384
472.190164	25722.225360
472.560945	22162.016320
472.931667	19805.786054
473.302330	19170.779630
473.672934	18713.811637
474.043479	19031.323671
474.413965	18829.392692
474.784393	18459.765209
475.154761	19150.549480
475.525070	19139.834507
475.895321	18815.504313
476.265513	19392.023270
476.635645	19979.312652
477.005719	19761.877604
477.375734	19950.946079
477.745691	20433.308885
478.115588	20956.822629
478.485427	21484.739822
478.855207	22542.809958
479.224928	24323.247194
479.594591	26545.695320
479.964194	26562.285757
480.333739	26768.398374
480.703226	26328.981157
481.072653	26015.489444
481.442022	26595.088546
481.811333	27507.267690
482.180584	27433.445033
482.549777	26480.782903
482.918912	26129.986651
483.287988	26241.784319
483.657005	25929.701608
484.025964	25672.534707
484.394864	25574.043163
484.763706	25254.270172
485.132489	24705.180133
485.501213	24880.156063
485.869879	24783.179386
486.238487	24607.832932
486.607036	24742.807306
486.975527	24460.616116
487.343959	24774.007007
487.712333	24706.518560
488.080648	24389.452668
488.448905	24866.998651
488.817104	24617.738799
489.185244	25301.180629
489.553326	25256.589103
489.921350	26265.356755
490.289315	28557.546723
490.657222	30324.761013
491.025070	30808.827729
491.392861	30600.456676
491.760593	29748.799104
492.128267	28855.960346
492.495883	27795.677143
492.863440	26932.835771
493.230939	26052.549486
493.598380	25895.930919
493.965763	25506.731157
494.333088	25041.394848
494.700354	24982.640200
495.067563	24853.271589
495.434713	24605.088024
495.801805	24767.519042
496.168839	24566.659308
496.535815	24407.888167
496.902733	24630.094667
497.269593	24305.499812
497.636395	24484.758202
498.003139	24444.244969
498.369825	24184.192007
498.736453	24391.242278
499.103023	24258.889304
499.469535	24275.512509
499.835989	24483.755012
500.202385	24515.625187
500.568723	24022.265104
500.935003	24249.265741
501.301226	23886.045565
501.667390	24723.897938
502.033497	24943.480517
502.399546	24690.099522
502.765537	24246.810699
503.131470	24626.863288
503.497345	24770.536172
503.863163	23995.065558
504.228923	24576.177006
504.594625	24798.060872
504.960269	24326.438245
505.325856	24810.469673
505.691385	24235.722681
506.056856	24820.894779
506.422270	24801.335102
506.787625	24357.249777
507.152924	24769.278404
507.518164	24811.137625
507.883347	24617.590085
508.248472	24292.549088
508.613540	25086.379584
508.978550	24862.834658
509.343503	24867.250709
509.708398	25110.758604
510.073236	25280.985767
510.438016	25495.151626
510.802738	25155.521530
511.167403	25408.511836
511.532010	25118.063236
511.896561	25896.835806
512.261053	25855.410124
512.625488	25684.724217
512.989866	25588.299546
513.354186	25434.481340
513.718449	25534.782657
514.082655	25921.330772
514.446803	25658.560628
514.810894	26123.662523
515.174927	25600.622647
515.538904	25631.769416
515.902822	26123.586906
516.266684	25880.378959
516.630488	25795.236391
516.994235	25759.229950
517.357925	26079.794402
517.721558	26254.046926
518.085133	26357.090631
518.448651	26244.604845
518.812112	25991.133109
519.175516	26203.852157
519.538863	26369.907765
519.902152	26140.910831
520.265385	26418.141525
520.628560	26210.672838
520.991678	26214.289866
521.354739	26289.181248
521.717743	26353.082914
522.080690	26138.319678
522.443580	26457.664171
522.806413	26450.896422
523.169189	26558.356178
523.531908	26605.266635
523.894569	26221.642389
524.257174	26294.408924
524.619722	26467.123896
524.982213	26166.419069
525.344647	26214.456224
525.707025	26356.735230
526.069345	26333.243453
526.431608	26287.832739
526.793815	26471.877704
527.155964	25943.262312
527.518057	26117.598015
527.880093	26042.752004
528.242072	26269.447651
528.603995	25987.218653
528.965860	25781.055625
529.327669	25826.005074
529.689421	25807.932537
530.051117	25640.457845
530.412755	25827.885424
530.774337	25612.933145
531.135862	25495.970814
531.497331	25694.874580
531.858743	25253.632466
532.220098	25734.427473
532.581396	25413.298411
532.942638	25337.290414
533.303824	25447.749657
533.664953	25447.913494
534.026025	25120.540963
534.387040	25348.254924
534.747999	25410.684573
535.108902	25578.373514
535.469748	25078.686783
535.830537	25246.075776
536.191270	25368.626226
536.551947	25247.691466
536.912567	24871.732295
537.273131	25248.954275
537.633638	24944.453459
537.994089	25160.645863
538.354483	24671.129660
538.714821	25186.726272
539.075103	25228.840071
539.435328	25009.859910
539.795497	24570.949330
540.155609	24958.374606
540.515665	25261.143785
540.875665	24478.018179
541.235609	24807.807943
541.595496	24746.562965
541.955328	25107.466731
542.315102	25033.329002
542.674821	24569.066459
543.034483	24449.757471
543.394090	24606.348312
543.753640	24407.714248
544.113134	25041.175558
544.472571	24638.009279
544.831953	24938.237717
545.191278	24564.766355
545.550548	24474.244876
545.909761	24675.923797
546.268918	24917.987402
546.628019	24874.721699
546.987064	24569.542848
547.346053	24332.117105
547.704986	24433.787095
548.063863	24595.000675
548.422684	24618.074036
548.781449	24113.867911
549.140158	24542.401276
549.498811	24112.211892
549.857408	23867.665518
550.215949	24272.475213
550.574434	23967.906342
550.932864	24167.891436
551.291237	24341.720503
551.649555	24184.043293
552.007817	24252.179528
552.366022	24103.856179
552.724173	24152.311750
553.082267	24093.705816
553.440305	24581.928963
553.798288	23823.855371
554.156215	24341.440719
554.514086	24449.326452
554.871902	23830.192101
555.229661	24112.804227
555.587365	23963.124808
555.945014	23832.563964
556.302606	24081.463374
556.660143	24047.702766
557.017625	24298.033863
557.375050	23814.907323
557.732421	24199.633061
558.089735	24016.976934
558.446994	24067.726229
558.804197	24095.702113
559.161345	24032.390262
559.518437	23794.727584
559.875474	23983.228929
560.232455	24169.950747
560.589381	23991.211596
560.946251	23963.754952
561.303065	24289.237050
561.659825	24373.298290
562.016528	23981.633404
562.373177	23716.541808
562.729770	24078.965482
563.086307	23940.217805
563.442789	24117.552994
563.799216	23939.847280
564.155587	23942.445995
564.511904	23931.126084
564.868164	23868.048646
565.224370	23843.372198
565.580520	23754.673096
565.936615	23893.418253
566.292654	23586.727056
566.648638	23843.460418
567.004567	23675.947917
567.360441	23625.080154
567.716260	23347.201672
568.072023	23668.492051
568.427732	23453.131438
568.783385	23230.725812
569.138982	23459.324495
569.494525	23509.282330
569.850013	23249.577207
570.205445	23343.229243
570.560823	23172.248428
570.916145	22925.355398
571.271412	23109.473459
571.626625	22858.550027
571.981782	22969.730154
572.336884	22780.465074
572.691931	22908.391915
573.046923	22652.691989
573.401860	22537.357951
573.756743	22548.201472
574.111570	22448.293365
574.466342	22368.358309
574.821059	22452.890897
575.175722	22169.527640
575.530330	22138.511941
575.884882	22161.996156
576.239380	22066.068039
576.593823	21956.554013
576.948211	21947.021191
577.302544	21789.507819
577.656823	21651.475985
578.011047	21752.999782
578.365216	21618.653033
578.719330	21495.399342
579.073389	21391.881768
579.427394	21540.646218
579.781344	21303.722069
580.135239	21201.089218
580.489080	21144.711474
580.842866	20929.358423
581.196597	21134.334259
581.550273	21100.359403
581.903895	20978.670990
582.257463	21297.377777
582.610975	20826.748257
582.964434	21142.810959
583.317837	20838.894917
583.671186	20939.808735
584.024481	20900.805328
584.377721	20672.040287
584.730906	20748.648181
585.084037	20746.130125
585.437113	20667.145326
585.790135	20868.030266
586.143103	20324.566155
586.496016	20332.589151
586.848874	20582.083417
587.201679	20512.938951
587.554428	20190.257214
587.907124	20528.405211
588.259765	20284.688107
588.612352	20374.410564
588.964884	19939.558112
589.317362	20109.520614
589.669786	20167.100673
590.022155	20181.485606
590.374470	20410.595966
590.726731	20181.281439
591.078937	19954.580751
591.431090	20039.405726
591.783188	19796.490166
592.135232	19771.397823
592.487222	19870.438852
592.839157	19881.557117
593.191038	19769.046125
593.542866	19662.060237
593.894639	19375.304283
594.246358	19586.500903
594.598022	19483.028699
594.949633	19233.932685
595.301190	19214.620025
595.652692	19373.244972
596.004141	19611.467217
596.355535	18939.302448
596.706876	18962.703485
597.058162	18854.694243
597.409395	19084.107072
597.760573	19143.466659
598.111698	18923.974820
598.462768	18863.312095
598.813785	18831.893104
599.164748	18631.615623
599.515657	18690.667700
599.866511	18482.147933
600.217312	18838.381069
600.568060	18353.885855
600.918753	18661.991096
601.269392	18571.315862
601.619978	18356.449282
601.970510	18553.755002
602.320988	18506.025358
602.671412	18701.574236
603.021783	18631.701323
603.372100	18341.318259
603.722363	18493.435076
604.072572	18433.730170
604.422728	18578.391121
604.772830	18326.736721
605.122878	18285.663920
605.472872	18277.371222
605.822813	18260.869005
606.172701	18240.469976
606.522534	18419.498993
606.872314	18449.960165
607.222041	18275.604298
607.571714	18499.285335
607.921333	18317.574424
608.270899	18396.317247
608.620411	18574.857272
608.969870	18347.718003
609.319276	18351.652624
609.668627	18375.865286
610.017926	18515.979116
610.367171	18618.813613
610.716362	18676.567592
611.065500	18493.979521
611.414585	18635.971180
611.763616	18624.986506
612.112594	18555.451351
612.461518	18515.490124
612.810389	18714.177121
613.159207	18575.938600
613.507971	18491.678234
613.856682	18751.403521
614.205340	18674.241100
614.553945	18826.554522
614.902496	18576.004135
615.250994	18789.393657
615.599439	18749.497965
615.947830	18724.894614
616.296169	18793.572773
616.644454	18756.618595
616.992686	18719.709787
617.340864	18945.460218
617.688990	18691.834727
618.037063	18864.542137
618.385082	18713.920022
618.733048	18995.909565
619.080961	18869.086737
619.428821	18911.485362
619.776628	18788.098080
620.124382	18712.316935
620.472083	18769.826418
620.819731	18777.340258
621.167326	18474.177868
621.514868	18508.992077
621.862357	18292.391340
622.209793	18292.096433
622.557176	18122.834651
622.904506	17946.394266
623.251783	17871.679325
623.599007	17631.052449
623.946179	17572.262513
624.293297	17497.842479
624.640363	17250.780571
624.987376	17264.971419
625.334336	17065.979432
625.681243	16912.360351
626.028097	16928.456755
626.374899	16851.571597
626.721647	16714.805094
627.068343	16544.076336
627.414987	16486.161040
627.761577	16448.226358
628.108115	16483.511914
628.454600	16211.821448
628.801032	16316.037222
629.147412	16254.378869
629.493739	16259.631751
629.840014	16071.379943
630.186236	16168.669171
630.532405	15935.745178
630.878521	16139.228833
631.224585	16034.329983
631.570597	15852.621592
631.916556	15886.621655
632.262462	15858.459249
632.608316	15782.720953
632.954117	15727.883282
633.299866	15712.553133
633.645562	15635.816689
633.991206	15391.860131
634.336797	15263.779535
634.682336	15233.472118
635.027823	15106.177943
635.373257	14988.724099
635.718639	14898.878135
636.063968	14847.256719
636.409245	14595.067957
636.754470	14620.563593
637.099642	14465.086846
637.444762	14239.182660
637.789829	14277.787816
638.134845	14119.533394
638.479808	14151.068332
638.824719	14070.684613
639.169577	13935.019602
639.514383	13983.112209
639.859137	13811.032423
640.203839	13889.371953
640.548489	13741.643461
640.893086	13725.660482
641.237632	13598.830093
641.582125	13753.457405
641.926566	13573.508377
642.270955	13586.091097
642.615292	13546.770097
642.959576	13556.958269
643.303809	13595.570987
643.647990	13522.827137
643.992118	13582.428699
644.336195	13346.961444
644.680219	13571.713726
645.024192	13478.865755
645.368112	13720.531108
645.711981	13769.763017
646.055797	13955.411069
646.399562	13932.017594
646.743274	14204.083626
647.086935	14475.895080
647.430544	14435.180201
647.774101	14474.095388
648.117606	14615.386327
648.461059	14593.485035
648.804460	14571.762703
649.147810	14306.091374
649.491108	14210.438001
649.834354	14224.643972
650.177548	13908.054470
650.520690	13725.156367
650.863781	13639.348367
651.206820	13689.588506
651.549807	13520.069626
651.892742	13313.505826
652.235626	13252.293616
652.578458	13259.406684
652.921238	12946.807254
653.263967	13152.630004
653.606644	12972.880102
653.949269	12957.802011
654.291843	12751.921288
654.634365	12912.930700
654.976836	12769.237651
655.319255	12763.195828
655.661622	12724.691495
656.003938	12647.410607
656.346203	12565.958163
656.688416	12653.699446
657.030577	12609.992642
657.372687	12516.201975
657.714746	12499.200684
658.056753	12695.228472
658.398708	12490.998726
658.740612	12504.030109
659.082465	12614.748971
659.424266	12576.416037
659.766016	12598.135848
660.107715	12509.703928
660.449362	12594.581835
660.790958	12540.152497
661.132503	12480.654279
661.473996	12559.439952
661.815438	12564.730643
662.156829	12592.414139
662.498168	12570.797671
662.839456	12568.451014
663.180693	12571.400089
663.521879	12677.597036
663.863013	12645.469763
664.204097	12620.773150
664.545129	12751.696956
664.886110	12726.281979
665.227040	12813.602326
665.567918	12815.863283
665.908746	12841.792458
666.249522	12828.884583
666.590248	12886.709139
666.930922	13002.663239
667.271545	12974.107623
667.612118	13065.065162
667.952639	12959.256384
668.293109	12982.186072
668.633528	12920.242894
668.973896	12909.230493
669.314213	12978.206081
669.654480	12704.249616
669.994695	12799.424080
670.334859	12829.802073
670.674973	12768.115994
671.015035	12791.466619
671.355047	12737.226324
671.695008	12718.871483
672.034918	12721.785270
672.374777	12766.044080
672.714585	12677.322293
673.054342	12719.181514
673.394049	12667.282835
673.733705	12758.789860
674.073310	12664.328719
674.412864	12680.732634
674.752368	12538.667877
675.091820	12570.172568
675.431223	12553.231771
675.770574	12419.787387
676.109875	12338.965088
676.449125	12290.965742
676.788324	12243.503278
677.127473	12079.824575
677.466571	12074.314593
677.805619	11963.930968
678.144616	11885.881304
678.483562	11859.009433
678.822458	11732.211811
679.161303	11709.337576
679.500098	11696.704444
679.838842	11649.569656
680.177535	11676.154180
680.516179	11742.170611
680.854771	11679.355313
681.193314	11901.632389
681.531805	12062.084754
681.870247	12494.761948
682.208638	12907.576995
682.546978	13211.833315
682.885268	13249.296650
683.223508	12946.958489
683.561697	12792.633646
683.899836	12693.917772
684.237925	12487.563180
684.575963	12409.747929
684.913951	12322.225937
685.251889	12279.121551
685.589776	12377.706355
685.927614	12297.524283
686.265401	12265.507915
686.603137	12322.437665
686.940824	12469.994759
687.278460	12591.312647
687.616046	12637.035912
687.953582	12796.918627
688.291068	12729.047052
688.628504	12965.789719
688.965889	12977.540649
689.303224	12941.982870
689.640510	12823.024242
689.977745	12505.940706
690.314930	12284.727314
690.652065	12196.108870
690.989150	11904.883933
691.326185	11675.317349
691.663170	11474.109775
692.000105	11232.830070
692.336990	11117.238933
692.673825	10856.114725
693.010610	10745.259752
693.347345	10536.500530
693.684030	10341.203710
694.020665	10280.719946
694.357251	10079.966076
694.693786	10011.726497
695.030272	9862.694866
695.366707	9739.967976
695.703093	9679.529582
696.039429	9672.900465
696.375716	9586.905942
696.711952	9455.553637
697.048139	9507.984158
697.384276	9458.595974
697.720363	9481.326537
698.056400	9413.843131
698.392388	9362.849339
698.728326	9322.504985
699.064214	9268.060523
699.400053	9308.780443
699.735842	9117.272050
700.071581	9077.454496
700.407270	9008.400771
700.742910	8925.516640
701.078501	8827.627514
701.414042	8703.841982
701.749533	8639.642888
702.084974	8500.839758
702.420366	8619.790824
702.755709	8500.340683
703.091002	8366.016618
703.426246	8394.342862
703.761440	8349.398455
704.096584	8306.654511
704.431679	8235.949808
704.766725	8222.058909
705.101721	8177.691714
705.436668	8220.526398
705.771565	8108.701003
706.106413	8196.659055
706.441212	8232.478974
706.775961	8189.966923
707.110661	8239.506342
707.445311	8375.675469
707.779913	8269.445755
708.114465	8395.567862
708.448967	8437.316178
708.783421	8587.582892
709.117825	8765.528061
709.452180	8804.052558
709.786485	8890.291577
710.120742	9179.139610
710.454949	9179.847893
710.789107	9281.527966
711.123216	9503.190021
711.457275	9669.293519
711.791286	9824.245986
712.125247	9815.973452
712.459159	9808.068923
712.793023	10046.528103
713.126837	9618.982804
713.460602	9782.089337
713.794318	9606.231205
714.127985	9634.806986
714.461602	9306.905134
714.795171	9252.324561
715.128691	8994.391404
715.462162	8762.420189
715.795584	8700.908030
716.128957	8541.035398
716.462281	8373.815283
716.795556	8422.011235
717.128782	8216.503557
717.461960	7959.271120
717.795088	8027.944239
718.128167	7934.077954
718.461198	7769.632995
718.794180	7708.665280
719.127113	7701.413581
719.459997	7539.438787
719.792833	7311.440001
720.125619	7378.996504
720.458357	7239.623724
720.791046	7231.719194
721.123686	7224.550674
721.456278	7058.462298
721.788821	7087.015394
722.121315	6975.920966
722.453761	7046.280350
722.786158	6983.656617
723.118506	6994.626167
723.450805	6959.035621
723.783056	7019.582399
724.115259	6938.508043
724.447412	6938.611386
724.779518	6984.760629
725.111574	6988.450754
725.443582	7061.265180
725.775542	7042.794392
726.107453	7243.696976
726.439315	7151.380846
726.771129	7216.215126
727.102895	7394.714822
727.434612	7502.466965
727.766281	7538.256636
728.097901	7609.702389
728.429473	7612.918645
728.760996	7597.777540
729.092471	7570.232675
729.423897	7506.499888
729.755276	7510.691607
730.086606	7429.415604
730.417887	7535.549537
730.749120	7746.768842
731.080305	7934.687934
731.411442	8052.749236
731.742530	8033.912965
732.073570	8149.567116
732.404562	8235.601968
732.735506	8090.318435
733.066401	8219.898774
733.397249	8147.298597
733.728048	7905.320692
734.058798	7573.637975
734.389501	7343.978129
734.720156	7171.242992
735.050762	6946.611698
735.381320	6853.219281
735.711831	6792.304499
736.042293	6683.380288
736.372707	6706.955244
736.703073	6565.543317
737.033391	6609.240038
737.363661	6620.852336
737.693883	6655.207799
738.024056	6735.273925
738.354182	6772.001252
738.684260	6808.463918
739.014290	6931.329440
739.344272	7044.503343
739.674207	7073.913435
740.004093	7143.930021
740.333931	7158.350241
740.663722	7168.130080
740.993464	7238.489464
741.323159	7219.673357
741.652806	6973.995245
741.982405	7001.290573
742.311956	7049.869652
742.641460	6872.652929
742.970915	6683.244177
743.300323	6672.569533
743.629683	6627.352904
743.958996	6496.207287
744.288260	6402.759418
744.617477	6352.297468
744.946647	6347.233629
745.275768	6184.729514
745.604842	6141.088245
745.933869	6119.023115
746.262847	6078.280509
746.591778	6064.172840
746.920662	6029.010792
747.249498	6023.800760
747.578286	6066.219549
747.907027	6147.745089
748.235720	6204.301794
748.564365	6177.472773
748.892963	6213.464091
749.221514	6357.820052
749.550017	6181.878741
749.878473	6065.082768
750.206881	6125.934537
750.535242	6067.522687
750.863555	5998.658005
751.191821	6013.012690
751.520039	6012.027145
751.848210	5914.110293
752.176334	5946.391322
752.504411	5992.495194
752.832440	5917.770171
753.160421	5848.986147
753.488356	5894.686727
753.816243	5924.694196
754.144082	5775.350013
754.471875	5748.952011
754.799620	5789.235871
755.127318	5804.560979
755.454969	5761.224700
755.782572	5724.179781
756.110129	5767.016986
756.437638	5750.902937
756.765100	5692.168454
757.092515	5693.897570
757.419882	5746.524695
757.747203	5722.785902
758.074477	5782.755468
758.401703	5771.838849
758.728882	5726.909566
759.056014	5790.160923
759.383099	5911.859418
759.710138	5923.005409
760.037129	5907.889509
760.364073	5908.897740
760.690970	5991.915462
761.017820	5973.245548
761.344623	5930.872130
761.671379	6036.469179
761.998088	6156.612478
762.324751	6411.462970
762.651366	7028.696806
762.977935	8371.703040
763.304456	10019.925934
763.630931	10897.661395
763.957359	10473.128185
764.283740	9521.128967
764.610074	8661.667689
764.936362	7670.334867
765.262602	7073.210194
765.588796	6540.476179
765.914943	6204.062339
766.241044	6035.965064
766.567097	5831.115257
766.893104	5571.730247
767.219064	5393.361621
767.544978	5330.437939
767.870845	5249.295527
768.196665	5144.086646
768.522438	5075.010235
768.848165	5041.637797
769.173846	4970.859997
769.499479	4923.889046
769.825066	4876.855081
770.150607	4813.185307
770.476101	4790.921052
770.801548	4784.165905
771.126949	4707.923495
771.452303	4655.687058
771.777611	4611.738279
772.102872	4630.725785
772.428087	4595.409982
772.753256	4553.608734
773.078378	4507.736755
773.403453	4435.234880
773.728482	4422.649640
774.053465	4376.845716
774.378401	4366.251731
774.703291	4362.962378
775.028135	4292.096358
775.352932	4241.747834
775.677683	4228.824836
776.002388	4246.317640
776.327046	4259.132253
776.651658	4183.711550
776.976224	4123.343733
777.300743	4128.339516
777.625216	4148.615037
777.949643	4139.394767
778.274024	4102.947224
778.598359	4060.079773
778.922647	4080.713215
779.246889	4075.573759
779.571086	4064.102613
779.895236	4050.234399
780.219339	4039.894993
780.543397	4031.594733
780.867409	4085.482147
781.191374	4096.272737
781.515294	4036.315773
781.839167	4025.759597
782.162995	4049.349677
782.486776	4036.555228
782.810511	4045.553688
783.134201	4040.540260
783.457844	3989.309534
783.781441	3939.258438
784.104993	3949.013071
784.428498	3964.933035
784.751958	3958.324082
785.075372	3937.252059
785.398739	3901.772418
785.722061	3911.595107
786.045337	3955.972384
786.368568	3985.974811
786.691752	3896.978281
787.014891	3956.509267
787.337983	4082.586004
787.661030	4243.731528
787.984031	4405.968462
788.306987	4572.722269
788.629897	4657.116226
788.952760	4614.979741
789.275579	4546.959452
789.598351	4480.302796
789.921078	4333.126309
790.243759	4134.136843
790.566395	4121.208804
790.888984	4111.093729
791.211529	4006.280579
791.534027	3944.004685
791.856480	3929.755863
792.178888	3871.727142
792.501249	3826.306345
792.823566	3833.946214
793.145836	3859.721634
793.468062	3806.040907
793.790241	3768.189403
794.112375	3796.611429
794.434464	3858.582333
794.756507	3885.360942
795.078505	3862.098538
795.400457	3901.485073
795.722364	4041.079664
796.044226	4149.353566
796.366042	4223.294690
796.687812	4193.317469
797.009538	4198.708983
797.331218	4163.007531
797.652852	4134.449395
797.974442	4115.391313
798.295986	4109.495683
798.617484	4027.491234
798.938938	3943.465281
799.260346	3984.326354
799.581709	3983.355932
799.903026	3904.678644
800.224299	3865.634907
800.545526	3862.088455
800.866708	3823.170748
801.187845	3763.735544
801.508936	3800.750216
801.829983	3796.195533
802.150984	3713.709654
802.471940	3710.286710
802.792851	3717.596383
803.113717	3716.706620
803.434538	3716.537741
803.755314	3657.604132
804.076045	3639.534116
804.396731	3654.539110
804.717372	3682.751928
805.037967	3667.452026
805.358518	3655.224707
805.679024	3684.226465
805.999485	3698.313970
806.319901	3702.795556
806.640272	3715.844582
806.960598	3727.661047
807.280879	3705.164898
807.601115	3717.949264
807.921306	3732.014083
808.241453	3774.233747
808.561554	3745.111001
808.881611	3679.573480
809.201623	3720.434553
809.521590	3729.334710
809.841513	3704.373437
810.161390	3731.525091
810.481223	3709.230588
810.801011	3656.053977
811.120755	3650.175992
811.440453	3682.419212
811.760107	3686.084131
812.079716	3638.291472
812.399281	3612.652163
812.718801	3636.030514
813.038276	3608.110083
813.357707	3605.425669
813.677093	3623.495685
813.996434	3567.450657
814.315731	3580.413984
814.634983	3585.145107
814.954191	3599.900564
815.273354	3628.874596
815.592473	3622.547948
815.911547	3630.742344
816.230577	3670.509486
816.549562	3720.122001
816.868502	3766.798045
817.187399	3785.951909
817.506250	3782.977628
817.825058	3762.026593
818.143821	3853.014378
818.462539	3951.884008
818.781213	4000.110207
819.099843	4063.545566
819.418429	4317.488650
819.736970	4561.740115
820.055466	4810.238753
820.373919	5177.489331
820.692327	5589.991827
821.010691	6060.729732
821.329011	7492.644276
821.647286	10319.688065
821.965517	14979.108098
822.283704	19019.784470
822.601847	21100.266141
822.919945	19209.452842
823.237999	16581.574959
823.556010	14074.505808
823.873976	11947.257352
824.191897	9832.135392
824.509775	8488.327614
824.827609	7362.728701
825.145398	6819.486400
825.463144	6709.430450
825.780845	6820.126627
826.098502	7026.519027
826.416116	7942.499202
826.733685	9292.605901
827.051210	10402.761239
827.368692	10385.492767
827.686129	9090.846321
828.003522	7577.688542
828.320872	6559.347738
828.638177	5849.855746
828.955439	5284.588645
829.272656	4780.044762
829.589830	4507.562835
829.906960	4330.809899
830.224046	4141.590189
830.541088	4015.389944
830.858086	3966.490752
831.175041	3886.810274
831.491952	3874.666134
831.808819	3882.855489
832.125642	3962.412458
832.442421	4114.690592
832.759157	4401.297832
833.075849	4961.314572
833.392497	5849.616291
833.709101	6634.334902
834.025662	6956.832637
834.342179	6566.274284
834.658653	5891.432663
834.975083	5234.245162
835.291469	4655.198067
835.607811	4249.801077
835.924110	4108.555508
836.240366	3908.499838
836.556578	3702.772870
836.872746	3593.755398
837.188871	3551.928944
837.504952	3482.620641
837.820990	3400.883372
838.136984	3356.203626
838.452935	3382.720095
838.768842	3374.182901
839.084706	3404.124834
839.400526	3563.369843
839.716303	3918.831683
840.032037	4455.903611
840.347727	4705.163463
840.663373	4406.243204
840.978977	4019.969832
841.294537	3713.921382
841.610054	3488.047443
841.925527	3378.969477
842.240957	3312.612768
842.556344	3253.112030
842.871687	3194.518698
843.186987	3143.600524
843.502244	3107.495780
843.817458	3072.999164
844.132629	3044.529248
844.447756	3052.821946
844.762840	3033.612629
845.077881	3001.772702
845.392879	2985.562872
845.707833	2984.042964
846.022745	2983.546410
846.337613	2985.421719
846.652438	2969.796663
846.967221	2968.047383
847.281960	2955.404169
847.596656	2951.497274
847.911309	2953.425516
848.225919	2943.731377
848.540485	2938.866663
848.855009	2937.462702
849.169490	2927.269489
849.483928	2917.610638
849.798323	2918.908735
850.112675	2913.970925
850.426984	2927.456012
850.741251	2921.028541
851.055474	2912.040163
851.369654	2907.185532
851.683792	2912.022519
851.997887	2921.119281
852.311938	2923.980136
852.625947	2909.486819
852.939914	2915.291708
853.253837	2918.646595
853.567718	2903.175294
853.881555	2904.120511
854.195350	2919.617018
854.509103	2914.895977
854.822812	2905.320305
855.136479	2903.228226
855.450103	2906.257960
855.763685	2901.297464
856.077224	2895.938718
856.390720	2908.017323
856.704173	2916.763724
857.017584	2910.464803
857.330953	2908.221489
857.644278	2915.442942
857.957561	2929.071702
858.270802	2928.910385
858.584000	2928.701177
858.897155	2914.956471
859.210268	2914.127201
859.523339	2912.965215
859.836367	2913.252561
860.149352	2904.783422
860.462295	2905.882394
860.775195	2909.017992
861.088054	2910.905904
861.400869	2894.958213
861.713642	2893.193810
862.026373	2907.682086
862.339062	2907.603948
862.651708	2911.236099
862.964312	2915.662232
863.276873	2910.313568
863.589392	2920.663057
863.901869	2931.872063
864.214303	2955.893161
864.526696	2970.399081
864.839045	2964.374902
865.151353	2964.450519
865.463619	2963.769963
865.775842	2964.263997
866.088023	2985.898108
866.400162	2990.374653
866.712258	2960.715024
867.024313	2950.720937
867.336325	2959.797534
867.648296	2980.007520
867.960224	2974.666418
868.272110	2960.029427
868.583954	2965.867083
868.895755	2979.188333
869.207515	2965.627629
869.519233	2973.070892
869.830909	2984.534476
870.142542	2991.947493
870.454134	2988.673263
870.765684	2995.274654
871.077191	2996.565190
871.388657	3002.102897
871.700081	3014.562109
872.011463	3025.879499
872.322803	3024.954448
872.634101	3027.041485
872.945357	3045.726522
873.256571	3070.140830
873.567744	3063.171435
873.878874	3057.011145
874.189963	3079.240113
874.501010	3077.064855
874.812015	3070.324832
875.122979	3068.787280
875.433900	3067.093453
875.744780	3076.147365
876.055618	3080.752459
876.366415	3077.427818
876.677169	3089.892071
876.987882	3083.366297
877.298554	3081.526276
877.609183	3102.545367
877.919771	3126.100158
878.230317	3152.551093
878.540822	3206.496480
878.851285	3243.059969
879.161707	3288.737864
879.472087	3397.987229
879.782425	3637.862973
880.092722	4090.672015
880.402977	4622.062562
880.713191	5274.173621
881.023363	6470.482278
881.333494	7773.534848
881.643583	8308.799522
881.953631	7997.672110
882.263637	7339.511667
882.573602	6728.503656
882.883526	6138.751670
883.193408	5563.896294
883.503248	5109.554742
883.813048	4790.243016
884.122806	4479.927230
884.432522	4158.291532
884.742197	3919.270263
885.051831	3722.982856
885.361424	3596.119699
885.670975	3520.494830
885.980485	3430.444698
886.289954	3350.086186
886.599382	3305.146820
886.908768	3268.943773
887.218113	3223.820405
887.527417	3164.012156
887.836680	3115.233951
888.145901	3109.938219
888.455082	3097.927670
888.764221	3046.250802
889.073319	3020.109899
889.382376	3015.048580
889.691392	3019.792306
890.000366	3019.938500
890.309300	3005.987106
890.618193	3017.881709
890.927044	3033.292516
891.235855	3034.101621
891.544625	3022.133922
891.853353	3035.828217
892.162041	3053.303376
892.470687	3094.305601
892.779293	3145.806029
893.087858	3196.898123
893.396381	3268.916047
893.704864	3394.639903
894.013306	3641.820279
894.321707	3949.736477
894.630068	4153.290707
894.938387	4145.802073
895.246665	4102.758181
895.554903	3975.534582
895.863100	3772.613016
896.171256	3602.547170
896.479371	3460.336220
896.787446	3336.200327
897.095480	3228.312073
897.403473	3164.221364
897.711425	3127.184007
898.019336	3121.023717
898.327207	3087.527770
898.635038	3054.606515
898.942827	3035.707229
899.250576	3024.805734
899.558284	2995.498986
899.865952	2975.896459
900.173579	2952.956688
900.481165	2946.113322
900.788711	2933.926333
901.096216	2908.612179
901.403681	2897.718245
901.711105	2904.876684
902.018489	2904.574214
902.325832	2902.328380
902.633135	2913.920514
902.940397	2947.711368
903.247619	3036.657486
903.554800	3236.077971
903.861941	3593.919235
904.169041	4033.107079
904.476101	4329.292512
904.783121	4271.679685
905.090100	4017.071169
905.397039	3736.079774
905.703938	3482.469406
906.010796	3298.709266
906.317614	3184.859848
906.624391	3087.724375
906.931129	3013.836183
907.237826	2952.893674
907.544483	2904.503638
907.851099	2876.419370
908.157675	2852.844414
908.464211	2834.799604
908.770707	2820.510453
909.077163	2805.127372
909.383578	2791.967440
909.689954	2782.187602
909.996289	2778.590739
910.302584	2780.390431
910.608839	2782.865637
910.915054	2773.199225
911.221229	2766.928029
911.527363	2768.286620
911.833458	2776.349946
912.139513	2781.799433
912.445527	2784.554424
912.751502	2794.223357
913.057436	2804.414049
913.363331	2818.012562
913.669186	2839.689523
913.975000	2873.490460
914.280775	2938.004626
914.586510	3008.031294
914.892205	3091.096907
915.197859	3223.873337
915.503475	3427.866148
915.809050	3649.445024
916.114585	3790.617497
916.420081	3808.148109
916.725536	3747.392123
917.030952	3623.755304
917.336328	3492.040037
917.641665	3356.715303
917.946961	3254.808378
918.252218	3183.065197
918.557435	3104.503855
918.862612	3042.618651
919.167750	2994.193327
919.472848	2953.246555
919.777906	2925.729417
920.082925	2897.982906
920.387904	2870.014584
920.692843	2848.360308
920.997743	2837.884790
921.302603	2827.600836
921.607423	2815.328147
921.912204	2801.530509
922.216946	2788.173972
922.521647	2782.243055
922.826310	2772.949687
923.130932	2766.224788
923.435516	2755.174579
923.740059	2748.895822
924.044564	2742.128073
924.349028	2734.964593
924.653454	2730.273800
924.957840	2722.084445
925.262186	2716.448435
925.566493	2716.125801
925.870761	2707.633978
926.174989	2707.702033
926.479178	2702.244984
926.783328	2696.034283
927.087438	2696.757688
927.391509	2694.811803
927.695541	2691.192254
927.999533	2687.376101
928.303486	2682.339988
928.607400	2686.151101
928.911275	2683.537262
929.215110	2683.164217
929.518906	2681.810667
929.822663	2679.186747
930.126381	2680.182374
930.430060	2681.775379
930.733699	2683.355781
931.037299	2683.723785
931.340861	2683.895184
931.644383	2684.737057
931.947866	2684.132118
932.251309	2683.257478
932.554714	2684.568178
932.858080	2677.850841
933.161407	2677.772703
933.464694	2677.815553
933.767943	2671.181394
934.071153	2674.374965
934.374323	2674.788340
934.677455	2676.746828
934.980548	2671.841785
935.283602	2672.169460
935.586617	2673.754903
935.889593	2673.049142
936.192530	2671.383040
936.495428	2672.981086
936.798287	2677.843279
937.101108	2676.600635
937.403890	2681.808147
937.706632	2686.725792
938.009336	2689.715196
938.312002	2704.291693
938.614628	2711.203115
938.917216	2717.244938
939.219765	2719.049671
939.522275	2717.368446
939.824747	2715.150338
940.127179	2710.026005
940.429573	2709.670604
940.731929	2706.620706
941.034246	2702.988554
941.336524	2701.836651
941.638763	2697.801207
941.940964	2695.129396
942.243126	2693.843901
942.545250	2693.485979
942.847335	2690.236956
943.149381	2685.662109
943.451389	2683.567509
943.753359	2681.435101
944.055290	2680.068948
944.357182	2677.901252
944.659036	2677.046777
944.960851	2673.969152
945.262628	2674.894204
945.564367	2674.155675
945.866067	2675.242044
946.167729	2674.064934
946.469352	2676.678772
946.770937	2675.592404
947.072484	2676.736746
947.373992	2675.194153
947.675462	2670.571415
947.976893	2668.015550
948.278286	2664.131341
948.579641	2668.852381
948.880958	2666.314160
949.182236	2665.726866
949.483476	2666.046979
949.784678	2667.087977
950.085841	2668.134017
950.386967	2667.864315
950.688054	2666.883811
950.989103	2669.870694
951.290114	2667.549243
951.591087	2670.909172
951.892021	2674.072496
952.192917	2676.784637
952.493776	2675.020233
952.794596	2682.113136
953.095378	2675.907476
953.396122	2677.218176
953.696828	2674.397650
953.997496	2675.478978
954.298126	2670.687361
954.598718	2673.696930
954.899272	2664.726197
955.199788	2665.827689
955.500266	2662.271155
955.800706	2664.297699
956.101108	2658.903664
956.401472	2656.292346
956.701798	2654.976605
957.002087	2653.842346
957.302337	2650.429484
957.602550	2649.259937
957.902724	2648.952426
958.202861	2645.433701
958.502960	2645.307672
958.803022	2646.867909
959.103045	2643.941519
959.403031	2643.944040
959.702979	2642.981180
960.002889	2643.172743
960.302762	2643.301293
960.602596	2641.887249
960.902393	2641.723412
961.202153	2639.119656
961.501875	2642.270377
961.801559	2640.495891
962.101205	2638.239974
962.400814	2640.390027
962.700385	2639.999337
962.999918	2637.566980
963.299414	2633.987761
963.598873	2637.965232
963.898293	2635.011115
964.197677	2637.017495
964.497022	2637.965232
964.796331	2635.560601
965.095601	2637.521610
965.394835	2637.574542
965.694030	2638.302989
965.993189	2638.834831
966.292309	2635.671507
966.591393	2637.821559
966.890439	2637.997999
967.189447	2637.632515
967.488419	2635.275776
967.787353	2637.357772
968.086249	2638.247536
968.385108	2637.892135
968.683930	2639.686786
968.982714	2639.144862
969.281462	2636.672176
969.580172	2638.537402
969.878844	2638.131590
970.177480	2637.211579
970.476078	2637.284676
970.774639	2639.074285
971.073162	2640.314409
971.371649	2638.116466
971.670098	2637.854326
971.968510	2637.181332
972.266885	2637.819038
972.565223	2638.517238
972.863524	2638.134110
973.161788	2637.272073
973.460014	2637.657721
973.758204	2635.621095
974.056356	2636.493215
974.354471	2635.525313
974.652550	2637.819038
974.950591	2637.975314
975.248595	2638.267701
975.546563	2636.089922
975.844493	2635.686630
976.142386	2636.931795
976.440243	2637.430869
976.738062	2637.521610
977.035845	2637.640077
977.333590	2635.948770
977.631299	2633.607154
977.928971	2634.446506
978.226606	2629.455764
978.524204	2635.064047
978.821765	2630.287554
979.119290	2634.449027
979.416777	2636.800725
979.714228	2634.111269
980.011642	2635.376599
980.309020	2634.968266
980.606360	2634.796866
980.903664	2636.054634
981.200931	2635.646301
981.498162	2638.171919
981.795356	2637.309882
982.092513	2641.115953
982.389633	2640.747948
982.686717	2646.620893
982.983764	2652.473672
983.280775	2651.707417
983.577749	2652.153559
983.874686	2652.982829
984.171587	2651.256234
984.468451	2650.192550
984.765279	2641.977990
985.062070	2642.134266
985.358824	2642.834986
985.655543	2640.558905
985.952224	2638.794501
986.248869	2638.728966
986.545478	2635.928605
986.842050	2634.932977
987.138586	2635.278297
987.435086	2633.879376
987.731549	2635.003554
988.027975	2634.539767
988.324366	2634.204531
988.620719	2630.978192
988.917037	2632.309057
989.213318	2632.520785
989.509563	2633.418111
989.805772	2632.369551
990.101944	2630.426186
990.398080	2631.376443
990.694180	2631.308388
990.990244	2632.944242
991.286271	2631.981382
991.582262	2631.454581
991.878217	2630.895013
992.174136	2632.669499
992.470019	2635.684109
992.765865	2627.598099
993.061676	2630.073305
993.357450	2629.178500
993.653188	2628.021556
993.948890	2631.217647
994.244556	2630.443830
994.540186	2632.699746
994.835780	2633.077833
995.131337	2632.528347
995.426859	2635.149747
995.722345	2636.352062
996.017795	2637.204017
996.313208	2637.536733
996.608586	2637.040180
996.903928	2637.435910
997.199234	2634.620426
997.494504	2636.747793
997.789738	2635.666465
998.084936	2639.462454
998.380099	2635.331229
998.675225	2636.863739
998.970316	2633.287041
999.265371	2632.974489
999.560390	2633.947432
999.855373	2634.257463
1000.150320	2631.633542
1000.445232	2633.100518
1000.740108	2630.433748
1001.034948	2630.443830
1001.329752	2631.371402
1001.624521	2630.436268
1001.919254	2630.821917
1002.213951	2634.045734
1002.508613	2630.249746
1002.803239	2631.484828
1003.097829	2631.484828
1003.392384	2630.932822
1003.686903	2630.118676
1003.981386	2629.531381
1004.275834	2628.387039
1004.570246	2631.031124
1004.864623	2632.737555
1005.158964	2630.199334
1005.453270	2630.111114
1005.747540	2628.172790
1006.041775	2631.222688
1006.335974	2629.780918
1006.630138	2626.834364
1006.924266	2630.040538
1007.218359	2629.765795
1007.512416	2627.136833
1007.806438	2625.069960
1008.100425	2628.702111
1008.394376	2625.831174
1008.688292	2628.334107
1008.982172	2629.097842
1009.276017	2630.864766
1009.569827	2630.227060
1009.863602	2628.298819
1010.157341	2627.620784
1010.451045	2627.794704
1010.744714	2629.218830
1011.038347	2627.167080
1011.331945	2630.060702
1011.625508	2630.834519
1011.919036	2628.445012
1012.212528	2630.229581
1012.505986	2628.870990
1012.799408	2625.717748
1013.092795	2626.922584
1013.386147	2627.754374
1013.679464	2628.175311
1013.972745	2628.886113
1014.265992	2628.845784
1014.559204	2628.175311
1014.852380	2626.315125
1015.145521	2627.910650
1015.438628	2628.571041
1015.731699	2627.386370
1016.024736	2631.328552
1016.317737	2628.591206
1016.610703	2632.482977
1016.903635	2630.804272
1017.196531	2627.653551
1017.489393	2628.946607
1017.782219	2627.950979
1018.075011	2628.445012
1018.367768	2627.270424
1018.660490	2626.786473
1018.953177	2626.786473
1019.245829	2626.786473
