Dividing Wavelength (nm)	Counts (n)	Blue Motor Position (mm): 43.500000	Red Motor Position (mm): 0.000000	
326.493990	2259.762747
326.888308	2259.762747
327.282561	2259.762747
327.676750	2220.618187
328.070874	2218.354709
328.464933	2219.463763
328.858929	2223.002653
329.252859	2225.114896
329.646726	2234.322564
330.040528	2245.599625
330.434265	2258.593199
330.827938	2278.341919
331.221547	2296.031328
331.615091	2313.355253
332.008571	2333.376196
332.401986	2351.158866
332.795338	2371.015971
333.188625	2391.934239
333.581847	2411.534245
333.975006	2428.669127
334.368100	2450.709051
334.761129	2469.310909
335.154095	2484.126860
335.546996	2512.523680
335.939833	2549.833259
336.332606	2564.566032
336.725315	2574.963411
337.117960	2590.744743
337.510540	2601.028697
337.903056	2612.754421
338.295508	2622.345216
338.687896	2631.343676
339.080220	2637.501445
339.472480	2644.785913
339.864676	2649.993425
340.256807	2653.431492
340.648875	2657.817295
341.040879	2661.066319
341.432818	2665.348779
341.824694	2665.676454
342.216506	2667.322391
342.608253	2666.697288
342.999937	2666.936743
343.391557	2667.682833
343.783113	2667.506393
344.174605	2665.626043
344.566033	2666.477998
344.957397	2665.225271
345.348697	2662.329128
345.739934	2662.079591
346.131106	2664.864828
346.522215	2661.096566
346.913260	2657.829898
347.304241	2655.309321
347.695159	2655.447953
348.086012	2653.923004
348.476802	2650.802530
348.867528	2646.101654
349.258191	2643.954122
349.648789	2641.960346
350.039324	2639.628812
350.429796	2642.819863
350.820203	2642.199801
351.210548	2642.383803
351.600828	2641.473875
351.991045	2639.112094
352.381198	2637.302320
352.771288	2638.832310
353.161314	2639.220479
353.551276	2636.999851
353.941175	2636.699902
354.331010	2635.553039
354.720782	2634.822072
355.110490	2637.282155
355.500135	2638.963380
355.889717	2636.082361
356.279235	2636.495735
356.668689	2638.575211
357.058080	2637.516569
357.447408	2638.555047
357.836672	2635.895838
358.225873	2638.534882
358.615010	2639.548154
359.004084	2642.653505
359.393095	2638.668472
359.782043	2640.624440
360.170927	2641.751138
360.559748	2642.484626
360.948505	2642.910603
361.337199	2641.035294
361.725830	2643.825573
362.114398	2642.033443
362.502903	2647.437560
362.891344	2645.605100
363.279722	2646.726757
363.668037	2645.912611
364.056289	2648.241624
364.444478	2646.298259
364.832603	2650.588281
365.220665	2649.131387
365.608665	2650.676501
365.996601	2652.037612
366.384474	2652.279588
366.772284	2651.450318
367.160031	2649.781696
367.547715	2651.982160
367.935336	2651.775472
368.322893	2650.762201
368.710388	2649.680873
369.097820	2652.130874
369.485189	2653.670946
369.872495	2656.143632
370.259738	2655.115237
370.646918	2658.034065
371.034035	2656.683036
371.421090	2658.296205
371.808081	2659.188489
372.195010	2658.429796
372.581875	2658.593633
372.968678	2659.233860
373.355418	2660.153870
373.742096	2662.185455
374.128710	2664.096052
374.515262	2661.696463
374.901751	2664.196876
375.288177	2663.995229
375.674540	2663.521361
376.060841	2664.637977
376.447079	2665.996567
376.833254	2667.055210
377.219367	2666.929181
377.605417	2671.163750
377.991404	2670.944460
378.377329	2676.575429
378.763191	2680.482323
379.148991	2683.983404
379.534727	2695.520085
379.920402	2704.589121
380.306013	2714.464741
380.691563	2734.042062
381.077049	2748.714340
381.462474	2770.295520
381.847835	2800.028245
382.233134	2828.694767
382.618371	2858.457739
383.003545	2897.519120
383.388657	2930.493307
383.773706	2978.081799
384.158693	3019.812471
384.543618	3058.299160
384.928480	3114.848303
385.313280	3167.659431
385.698017	3209.190977
386.082692	3287.911115
386.467305	3318.750373
386.851856	3370.860781
387.236344	3454.785910
387.620770	3501.769464
388.005133	3569.913261
388.389435	3630.795276
388.773674	3672.856143
389.157851	3760.204216
389.541965	3843.572297
389.926018	3848.860468
390.310008	3957.666212
390.693936	4032.371071
391.077802	4090.369546
391.461606	4116.596148
391.845348	4200.589333
392.229027	4274.260756
392.612645	4301.465342
392.996200	4414.782919
393.379694	4492.288139
393.763125	4607.176035
394.146494	4650.252695
394.529801	4726.762287
394.913047	4816.371317
395.296230	4784.276811
395.679351	4904.112599
396.062410	4968.788083
396.445408	4953.470537
396.828343	5024.616341
397.211217	5086.705712
397.594028	4977.703363
397.976778	5099.636272
398.359466	5149.294158
398.742092	5178.081667
399.124656	5093.291980
399.507158	5217.077513
399.889598	5283.555208
400.271977	5412.137399
400.654294	5403.925359
401.036549	5449.401608
401.418742	5367.104772
401.800874	5575.291822
402.182944	5635.768025
402.564952	5741.266772
402.946898	5805.675074
403.328783	5640.519312
403.710606	5656.265356
404.092367	5979.536908
404.474067	6003.542883
404.855705	5906.788017
405.237282	5841.215208
405.618797	6091.160657
406.000250	6068.414971
406.381642	6272.634634
406.762972	6298.389889
407.144240	6352.481470
407.525447	6338.411609
407.906593	6361.053952
408.287677	6517.110431
408.668700	6427.851761
409.049661	6550.291306
409.430560	6574.388021
409.811399	6438.027330
410.192176	6704.691766
410.572891	6711.530091
410.953545	6909.135760
411.334138	6635.229707
411.714669	6814.659496
412.095139	6610.049143
412.475547	6851.293561
412.855894	6920.405259
413.236180	7104.273784
413.616405	6776.780266
413.996568	6991.654407
414.376670	7031.953391
414.756711	6925.544716
415.136691	7024.850405
415.516609	7230.559729
415.896466	7218.004735
416.276262	7421.327073
416.655997	7402.732777
417.035670	7589.240346
417.415283	7928.910771
417.794834	7979.249213
418.174324	7843.992535
418.553753	7764.692664
418.933121	8070.471413
419.312428	8174.092330
419.691674	7953.226777
420.070859	8424.824199
420.449983	8107.707895
420.829045	8469.057803
421.208047	8243.811488
421.586988	8546.121922
421.965867	8569.744769
422.344686	8666.799583
422.723444	8722.199343
423.102141	8079.820232
423.480777	8835.161519
423.859352	8359.770629
424.237866	8980.500505
424.616319	8843.292900
424.994712	9261.610367
425.373044	8819.155855
425.751314	9286.480899
426.129524	9166.859360
426.507673	9265.391232
426.885762	9424.878216
427.263789	9335.589299
427.641756	9270.122355
428.019662	9360.263227
428.397508	9619.116395
428.775292	9292.578175
429.153016	9677.351804
429.530679	9507.485084
429.908282	9534.848467
430.285824	9258.603318
430.663305	9942.818965
431.040726	9388.367660
431.418086	9374.862408
431.795385	9706.739210
432.172624	9798.626842
432.549802	9704.228716
432.926920	9785.529924
433.303977	9659.402776
433.680974	9859.370225
434.057910	9953.223907
434.434786	10019.149596
434.811601	9848.229275
435.188355	10417.612479
435.565050	10158.603035
435.941683	10087.532848
436.318257	10570.026724
436.694770	10719.194466
437.071222	10776.829978
437.447614	10612.758065
437.823946	10534.070694
438.200218	10639.851746
438.576429	10468.913781
438.952580	10717.296472
439.328670	10748.939795
439.704700	10541.975223
440.080670	10535.116734
440.456580	11072.672612
440.832429	10849.508293
441.208218	10446.982241
441.583947	10754.094374
441.959616	10926.106105
442.335224	10736.720038
442.710773	10855.761845
443.086261	11076.766029
443.461689	10338.758750
443.837057	11020.048007
444.212365	11269.600246
444.587612	10908.547767
444.962800	11124.783020
445.337927	10884.677903
445.712995	10520.809939
446.088002	11583.979203
446.462949	11261.877198
446.837837	11233.661860
447.212664	11177.543736
447.587431	11735.924621
447.962139	12481.523878
448.336786	14765.249749
448.711374	15278.875270
449.085901	13098.820728
449.460369	12740.558527
449.834776	12191.564270
450.209124	13111.892440
450.583412	13518.884954
450.957640	14452.380618
451.331808	13524.775543
451.705917	12572.418402
452.079965	11835.676453
452.453954	12751.003798
452.827883	12394.737894
453.201752	12690.131865
453.575562	12221.985113
453.949311	12639.188485
454.323001	12621.473870
454.696632	12846.432840
455.070202	13122.211682
455.443713	13336.702696
455.817164	13822.443074
456.190556	13796.811328
456.563888	14165.785981
456.937160	14312.619669
457.310373	13669.590249
457.683526	13767.907872
458.056619	13302.548878
458.429653	13486.261127
458.802628	12870.486706
459.175542	13270.736677
459.548398	14228.533222
459.921194	14576.773610
460.293930	14654.172965
460.666607	15505.817934
461.039224	16558.103347
461.411782	17282.421373
461.784280	17082.549705
462.156719	17176.874735
462.529099	16852.957915
462.901419	15798.532532
463.273680	15571.196658
463.645882	15472.682430
464.018024	15186.428071
464.390106	15412.251598
464.762130	16132.483769
465.134094	16919.312102
465.505999	18959.036045
465.877845	22221.194425
466.249631	25036.341091
466.621358	24665.728063
466.993026	23247.719542
467.364634	22670.041120
467.736184	21198.886234
468.107674	20401.012732
468.479105	20537.491891
468.850477	19998.108594
469.221790	19590.417879
469.593043	18909.607532
469.964238	18339.717692
470.335373	17985.006984
470.706449	18471.006983
471.077467	18047.850008
471.448425	19907.773637
471.819324	24029.988152
472.190164	25913.070842
472.560945	22254.665166
472.931667	19948.107909
473.302330	19327.614968
473.672934	18935.612324
474.043479	19171.361883
474.413965	18998.682200
474.784393	18597.633205
475.154761	19345.609366
475.525070	19280.510426
475.895321	18990.520572
476.265513	19598.229147
476.635645	20186.826708
477.005719	19951.132602
477.375734	20124.838160
477.745691	20618.440218
478.115588	21158.476345
478.485427	21712.516797
478.855207	22794.313124
479.224928	24579.335289
479.594591	26809.849261
479.964194	26755.626610
480.333739	26987.139080
480.703226	26562.628556
481.072653	26253.691525
481.442022	26868.674485
481.811333	27794.953737
482.180584	27685.870730
482.549777	26739.013488
482.918912	26396.192341
483.287988	26543.615844
483.657005	26167.250860
484.025964	25962.955580
484.394864	25829.438099
484.763706	25492.815051
485.132489	24963.693023
485.501213	25129.103363
485.869879	25048.843153
486.238487	24894.566201
486.607036	25005.673232
486.975527	24759.304482
487.343959	25040.835280
487.712333	24963.778723
488.080648	24630.220696
488.448905	25127.528003
488.817104	24894.818259
489.185244	25593.441523
489.553326	25542.510746
489.921350	26582.221000
490.289315	28913.520241
490.657222	30652.456178
491.025070	31159.540802
491.392861	30921.792425
491.760593	30052.999971
492.128267	29136.886206
492.495883	28073.129647
492.863440	27206.159571
493.230939	26353.266916
493.598380	26181.900453
493.965763	25791.664734
494.333088	25310.426105
494.700354	25282.246055
495.067563	25112.376815
495.434713	24862.446489
495.801805	25049.818616
496.168839	24811.596370
496.535815	24685.073491
496.902733	24895.100563
497.269593	24594.718370
497.636395	24765.893270
498.003139	24693.141858
498.369825	24444.197078
498.736453	24661.264122
499.103023	24520.663820
499.469535	24529.440469
499.835989	24749.350723
500.202385	24768.451655
500.568723	24302.144924
500.935003	24489.204500
501.301226	24171.405120
501.667390	25016.695715
502.033497	25228.653549
502.399546	24952.912516
502.765537	24502.124977
503.131470	24880.975250
503.497345	25032.819845
503.863163	24262.246712
504.228923	24811.394724
504.594625	25053.163422
504.960269	24617.027997
505.325856	25083.720376
505.691385	24477.141018
506.056856	25085.114255
506.422270	25067.134979
506.787625	24612.385094
507.152924	25032.121645
507.518164	25074.898356
507.883347	24896.098712
508.248472	24555.732607
508.613540	25340.972977
508.978550	25134.958663
509.343503	25163.103425
509.708398	25359.854619
510.073236	25534.943974
510.438016	25740.507104
510.802738	25396.990278
511.167403	25666.349211
511.532010	25403.226186
511.896561	26151.393910
512.261053	26115.064835
512.625488	25941.623937
512.989866	25848.607087
513.354186	25676.030747
513.718449	25796.380733
514.082655	26174.316037
514.446803	25897.203810
514.810894	26388.872586
515.174927	25869.114501
515.538904	25892.641566
515.902822	26396.164615
516.266684	26148.792675
516.630488	26064.441568
516.994235	26005.744893
517.357925	26331.380747
517.721558	26505.623188
518.085133	26617.625024
518.448651	26497.877455
518.812112	26273.649453
519.175516	26490.222463
519.538863	26637.010781
519.902152	26421.458604
520.265385	26689.020365
520.628560	26498.172363
520.991678	26472.096995
521.354739	26528.240325
521.717743	26628.803783
522.080690	26408.805308
522.443580	26742.512049
522.806413	26697.184514
523.169189	26825.965830
523.531908	26865.750616
523.894569	26486.018141
524.257174	26576.050628
524.619722	26722.599491
524.982213	26432.440758
525.344647	26446.490454
525.707025	26625.045602
526.069345	26587.272237
526.431608	26562.119399
526.793815	26730.914874
527.155964	26222.370836
527.518057	26391.879634
527.880093	26308.821583
528.242072	26535.338270
528.603995	26251.667502
528.965860	26035.386878
529.327669	26088.755053
529.689421	26062.437710
530.051117	25915.276347
530.412755	26096.094973
530.774337	25873.129780
531.135862	25745.097075
531.497331	25951.030730
531.858743	25529.181935
532.220098	25988.181513
532.581396	25681.944020
532.942638	25574.509470
533.303824	25700.061927
533.664953	25693.382398
534.026025	25355.599885
534.387040	25597.965959
534.747999	25651.876058
535.108902	25817.878734
535.469748	25312.944162
535.830537	25482.717620
536.191270	25633.044828
536.551947	25451.603619
536.912567	25076.924900
537.273131	25500.684292
537.633638	25165.681975
537.994089	25393.668158
538.354483	24891.533947
538.714821	25413.502578
539.075103	25445.294615
539.435328	25224.028290
539.795497	24820.408307
540.155609	25167.451420
540.515665	25482.790717
540.875665	24695.092784
541.235609	25031.685586
541.595496	24966.047242
541.955328	25335.470558
542.315102	25238.645116
542.674821	24762.639205
543.034483	24644.245186
543.394090	24823.533823
543.753640	24635.052642
544.113134	25260.228816
544.472571	24840.217521
544.831953	25155.579503
545.191278	24797.758403
545.550548	24680.241545
545.909761	24885.552618
546.268918	25119.401663
546.628019	25094.296716
546.987064	24772.819815
547.346053	24513.528067
547.704986	24615.145126
548.063863	24787.308091
548.422684	24810.820033
548.781449	24307.060049
549.140158	24720.590941
549.498811	24298.795078
549.857408	24053.492532
550.215949	24448.421565
550.574434	24161.390868
550.932864	24345.171172
551.291237	24534.723598
551.649555	24375.632345
552.007817	24437.351191
552.366022	24282.756647
552.724173	24310.084742
553.082267	24279.305977
553.440305	24760.983186
553.798288	24000.139480
554.156215	24488.612164
554.514086	24631.173474
554.871902	24008.875799
555.229661	24278.945534
555.587365	24121.870742
555.945014	24029.239540
556.302606	24250.248766
556.660143	24233.965839
557.017625	24467.671211
557.375050	23978.122240
557.732421	24361.570046
558.089735	24196.275653
558.446994	24249.792542
558.804197	24294.805004
559.161345	24192.151989
559.518437	23976.803979
559.875474	24140.938907
560.232455	24338.393341
560.589381	24144.266068
560.946251	24145.347396
561.303065	24447.541884
561.659825	24546.401431
562.016528	24150.486852
562.373177	23879.487024
562.729770	24240.327775
563.086307	24091.094498
563.442789	24257.155147
563.799216	24099.687145
564.155587	24098.744449
564.511904	24075.603032
564.868164	24031.767679
565.224370	23995.211752
565.580520	23926.664662
565.936615	24040.153638
566.292654	23747.063474
566.648638	23994.732842
567.004567	23832.306865
567.360441	23774.676395
567.716260	23499.318489
568.072023	23823.820083
568.427732	23604.023255
568.783385	23361.526111
569.138982	23614.758392
569.494525	23642.031034
569.850013	23411.993102
570.205445	23498.826977
570.560823	23320.962466
570.916145	23081.298451
571.271412	23259.641871
571.626625	23020.068596
571.981782	23120.589204
572.336884	22932.395369
572.691931	23058.015882
573.046923	22806.308549
573.401860	22678.686699
573.756743	22711.237429
574.111570	22596.006734
574.466342	22520.893542
574.821059	22596.967074
575.175722	22304.617960
575.530330	22273.380450
575.884882	22281.902521
576.239380	22208.833516
576.593823	22094.129622
576.948211	22077.929874
577.302544	21921.228127
577.656823	21780.854678
578.011047	21894.396586
578.365216	21764.186103
578.719330	21637.121300
579.073389	21522.583764
579.427394	21680.018998
579.781344	21425.755801
580.135239	21318.837969
580.489080	21262.167838
580.842866	21049.917617
581.196597	21254.717013
581.550273	21210.606917
581.903895	21098.342941
582.257463	21412.452196
582.610975	20945.477513
582.964434	21272.272831
583.317837	20938.188004
583.671186	21035.814989
584.024481	21016.456959
584.377721	20780.626741
584.730906	20868.186542
585.084037	20853.975529
585.437113	20782.502050
585.790135	20986.262968
586.143103	20431.882238
586.496016	20465.758792
586.848874	20692.119202
587.201679	20613.857810
587.554428	20303.126128
587.907124	20634.786160
588.259765	20392.243645
588.612352	20474.737087
588.964884	20044.875378
589.317362	20213.343178
589.669786	20284.559558
590.022155	20279.107550
590.374470	20512.737305
590.726731	20271.810480
591.078937	20065.413039
591.431090	20143.311468
591.783188	19917.182951
592.135232	19879.533093
592.487222	19969.442072
592.839157	19973.041456
593.191038	19871.961280
593.542866	19758.633621
593.894639	19456.270255
594.246358	19678.842238
594.598022	19569.005578
594.949633	19321.714297
595.301190	19311.858841
595.652692	19481.881837
596.004141	19693.312870
596.355535	19020.631383
596.706876	19051.468122
597.058162	18935.839176
597.409395	19179.498306
597.760573	19230.620647
598.111698	19005.669239
598.462768	18946.934755
598.813785	18909.836904
599.164748	18722.784891
599.515657	18776.233724
599.866511	18572.087158
600.217312	18926.508000
600.568060	18433.339481
600.918753	18749.734899
601.269392	18646.716400
601.619978	18439.267878
601.970510	18621.152709
602.320988	18576.455318
602.671412	18774.202139
603.021783	18711.475062
603.372100	18423.287420
603.722363	18580.175690
604.072572	18516.606740
604.422728	18664.146189
604.772830	18418.243746
605.122878	18382.018014
605.472872	18346.498044
605.822813	18339.626952
606.172701	18330.658739
606.522534	18509.261778
606.872314	18536.862096
607.222041	18366.246764
607.571714	18579.774918
607.921333	18406.477693
608.270899	18486.168253
608.620411	18637.113002
608.969870	18437.664791
609.319276	18435.953319
609.668627	18463.238564
610.017926	18587.255990
610.367171	18719.130054
610.716362	18766.607641
611.065500	18564.722033
611.414585	18715.729796
611.763616	18700.359318
612.112594	18634.320203
612.461518	18611.904712
612.810389	18794.520510
613.159207	18652.299478
613.507971	18572.145132
613.856682	18817.992122
614.205340	18750.627183
614.553945	18897.566736
614.902496	18651.954159
615.250994	18860.552064
615.599439	18810.450556
615.947830	18793.721487
616.296169	18880.653665
616.644454	18827.391354
616.992686	18806.463003
617.340864	19021.100211
617.688990	18770.711140
618.037063	18947.595147
618.385082	18791.120252
618.733048	19060.083453
619.080961	18948.721844
619.428821	18987.357248
619.776628	18866.997179
620.124382	18796.660480
620.472083	18849.859776
620.819731	18861.666159
621.167326	18546.183189
621.514868	18593.191949
621.862357	18369.364718
622.209793	18366.072845
622.557176	18202.852886
622.904506	18041.525881
623.251783	17960.275083
623.599007	17708.918112
623.946179	17647.040469
624.293297	17581.102176
624.640363	17312.690981
624.987376	17341.115527
625.334336	17137.147922
625.681243	16996.668608
626.028097	17002.770925
626.374899	16923.607165
626.721647	16782.578366
627.068343	16625.261598
627.414987	16559.514870
627.761577	16524.872061
628.108115	16556.812812
628.454600	16289.366997
628.801032	16391.899025
629.147412	16324.362687
629.493739	16340.277610
629.840014	16147.455996
630.186236	16249.627581
630.532405	16007.067423
630.878521	16210.490583
631.224585	16109.271776
631.570597	15928.211174
631.916556	15946.931499
632.262462	15929.574806
632.608316	15849.334760
632.954117	15795.028930
633.299866	15778.365396
633.645562	15690.256109
633.991206	15452.822804
634.336797	15335.106821
634.682336	15302.838395
635.027823	15163.205995
635.373257	15038.686975
635.718639	14957.058091
636.063968	14900.352672
636.409245	14641.015554
636.754470	14677.639536
637.099642	14525.873079
637.444762	14304.523576
637.789829	14344.467158
638.134845	14171.212783
638.479808	14199.029870
638.824719	14130.228202
639.169577	14000.436134
639.514383	14033.606927
639.859137	13863.435217
640.203839	13961.115134
640.548489	13805.540086
640.893086	13795.631698
641.237632	13669.597810
641.582125	13825.558507
641.926566	13637.122697
642.270955	13654.318073
642.615292	13610.523049
642.959576	13615.990180
643.303809	13647.010921
643.647990	13583.875510
643.992118	13641.422802
644.336195	13413.832349
644.680219	13651.396724
645.024192	13552.617835
645.368112	13785.819092
645.711981	13826.881810
646.055797	14017.918856
646.399562	13996.688037
646.743274	14262.566052
647.086935	14531.138564
647.430544	14499.376775
647.774101	14538.642322
648.117606	14673.089895
648.461059	14656.343182
648.804460	14634.804852
649.147810	14358.567265
649.491108	14269.056538
649.834354	14281.755204
650.177548	13958.153457
650.520690	13773.440538
650.863781	13690.072457
651.206820	13747.755860
651.549807	13576.467534
651.892742	13363.337632
652.235626	13305.752532
652.578458	13308.767142
652.921238	13008.339578
653.263967	13207.916338
653.606644	13032.958053
653.949269	13021.711239
654.291843	12808.470431
654.634365	12976.363539
654.976836	12820.556597
655.319255	12814.136688
655.661622	12779.635031
656.003938	12706.394627
656.346203	12618.247532
656.688416	12705.603166
657.030577	12664.694203
657.372687	12570.220459
657.714746	12551.943756
658.056753	12747.459867
658.398708	12549.713045
658.740612	12557.302502
659.082465	12671.343485
659.424266	12636.219245
659.766016	12667.149245
660.107715	12583.259403
660.449362	12656.830003
660.790958	12603.134153
661.132503	12546.900081
661.473996	12619.522944
661.815438	12635.445428
662.156829	12660.739418
662.498168	12616.720062
662.839456	12635.168165
663.180693	12645.036223
663.521879	12752.480856
663.863013	12715.125906
664.204097	12689.105990
664.545129	12812.621821
664.886110	12792.583235
665.227040	12889.055796
665.567918	12884.569169
665.908746	12910.410123
666.249522	12900.766396
666.590248	12955.301598
666.930922	13062.537023
667.271545	13036.191953
667.612118	13124.326446
667.952639	13023.405066
668.293109	13048.580589
668.633528	12989.795694
668.973896	12970.367087
669.314213	13040.464331
669.654480	12785.586113
669.994695	12870.922765
670.334859	12884.987585
670.674973	12827.916682
671.015035	12857.551105
671.355047	12803.784678
671.695008	12780.711317
672.034918	12793.848564
672.374777	12841.245493
672.714585	12749.251997
673.054342	12789.901341
673.394049	12732.825397
673.733705	12836.229545
674.073310	12737.236407
674.412864	12747.565731
674.752368	12605.425357
675.091820	12645.936069
675.431223	12625.027884
675.770574	12493.151299
676.109875	12404.774831
676.449125	12362.577853
676.788324	12314.223105
677.127473	12139.247176
677.466571	12137.951599
677.805619	12020.159998
678.144616	11953.634412
678.483562	11934.162955
678.822458	11799.929631
679.161303	11775.177565
679.500098	11766.494178
679.838842	11714.149357
680.177535	11754.390367
680.516179	11820.870584
680.854771	11756.348856
681.193314	11976.281795
681.531805	12145.223463
681.870247	12582.972058
682.208638	12994.950273
682.546978	13291.475984
682.885268	13310.891988
683.223508	13024.292309
683.561697	12869.004606
683.899836	12778.026903
684.237925	12573.351016
684.575963	12483.953714
684.913951	12398.871640
685.251889	12353.274403
685.589776	12456.572687
685.927614	12369.655633
686.265401	12342.430881
686.603137	12408.618711
686.940824	12557.090774
687.278460	12682.928056
687.616046	12709.673898
687.953582	12872.523332
688.291068	12812.667192
688.628504	13045.850804
688.965889	13053.039489
689.303224	13003.984021
689.640510	12900.224472
689.977745	12571.432857
690.314930	12360.805887
690.652065	12269.066969
690.989150	11972.848769
691.326185	11743.191444
691.663170	11534.744774
692.000105	11304.658951
692.336990	11173.667088
692.673825	10916.769888
693.010610	10808.372478
693.347345	10598.962947
693.684030	10412.231047
694.020665	10347.137148
694.357251	10147.308330
694.693786	10078.564636
695.030272	9926.210884
695.366707	9809.049428
695.703093	9746.934850
696.039429	9736.179549
696.375716	9648.982711
696.711952	9520.254327
697.048139	9565.662520
697.384276	9521.267598
697.720363	9541.832986
698.056400	9469.187438
698.392388	9425.987270
698.728326	9381.478923
699.064214	9324.145880
699.400053	9368.223209
699.735842	9183.994242
700.071581	9142.177870
700.407270	9066.389163
700.742910	8987.079211
701.078501	8891.713183
701.414042	8758.435157
701.749533	8703.126138
702.084974	8565.366527
702.420366	8685.051081
702.755709	8557.709014
703.091002	8425.232532
703.426246	8459.424158
703.761440	8410.151920
704.096584	8366.994602
704.431679	8296.867111
704.766725	8285.002756
705.101721	8241.658915
705.436668	8293.673540
705.771565	8187.516922
706.106413	8263.298068
706.441212	8290.537943
706.775961	8263.950897
707.110661	8307.370355
707.445311	8443.461344
707.779913	8334.595107
708.114465	8463.973799
708.448967	8499.007298
708.783421	8664.321856
709.117825	8835.121190
709.452180	8869.403556
709.786485	8958.876475
710.120742	9242.325433
710.454949	9248.596628
710.789107	9349.727215
711.123216	9578.144417
711.457275	9753.455583
711.791286	9891.353826
712.125247	9894.552438
712.459159	9881.858813
712.793023	10109.577814
713.126837	9689.415285
713.460602	9853.996355
713.794318	9683.572588
714.127985	9704.321977
714.461602	9361.979740
714.795171	9317.337802
715.128691	9070.207838
715.462162	8825.548038
715.795584	8765.364223
716.128957	8607.598793
716.462281	8436.192001
716.795556	8481.864854
717.128782	8274.701158
717.461960	8019.437292
717.795088	8091.392201
718.128167	7995.370823
718.461198	7832.695309
718.794180	7777.691279
719.127113	7769.421267
719.459997	7596.706295
719.792833	7379.553552
720.125619	7444.707944
720.458357	7295.005840
720.791046	7292.190355
721.123686	7278.944724
721.456278	7116.228880
721.788821	7137.542879
722.121315	7036.971860
722.453761	7112.722758
722.786158	7048.851339
723.118506	7052.980044
723.450805	7020.883017
723.783056	7077.686739
724.115259	7001.114132
724.447412	7002.253433
724.779518	7054.079015
725.111574	7042.466717
725.443582	7126.694316
725.775542	7105.660101
726.107453	7301.617313
726.439315	7210.296811
726.771129	7282.942359
727.102895	7464.176881
727.434612	7562.509628
727.766281	7607.360773
728.097901	7683.640993
728.429473	7689.680295
728.760996	7672.507604
729.092471	7639.324209
729.423897	7574.784837
729.755276	7580.254489
730.086606	7497.357755
730.417887	7600.323323
730.749120	7823.013773
731.080305	8009.390272
731.411442	8112.343236
731.742530	8102.195394
732.073570	8217.741160
732.404562	8298.949108
732.735506	8161.290320
733.066401	8291.049620
733.397249	8214.570275
733.728048	7968.980383
734.058798	7642.248078
734.389501	7405.391986
734.720156	7228.371868
735.050762	7006.220821
735.381320	6925.156547
735.711831	6854.671134
736.042293	6750.846050
736.372707	6762.002123
736.703073	6634.402958
737.033391	6669.088617
737.363661	6679.430544
737.693883	6720.442851
738.024056	6800.710623
738.354182	6834.849317
738.684260	6876.859772
739.014290	6998.918710
739.344272	7107.462314
739.674207	7140.933055
740.004093	7212.608180
740.333931	7221.483132
740.663722	7226.685602
740.993464	7306.648385
741.323159	7283.791793
741.652806	7037.312137
741.982405	7070.119967
742.311956	7110.582788
742.641460	6929.121414
742.970915	6740.970429
743.300323	6734.028760
743.629683	6685.737027
743.958996	6553.479835
744.288260	6462.945753
744.617477	6408.372742
744.946647	6406.502474
745.275768	6249.808289
745.604842	6197.251740
745.933869	6178.589388
746.262847	6141.471373
746.591778	6127.172140
746.920662	6084.307209
747.249498	6079.681950
747.578286	6134.449045
747.907027	6205.728440
748.235720	6264.720022
748.564365	6236.184571
748.892963	6282.101921
749.221514	6418.666779
749.550017	6233.285908
749.878473	6121.294154
750.206881	6186.032652
750.535242	6129.826307
750.863555	6061.259053
751.191821	6067.275670
751.520039	6064.523200
751.848210	5974.226053
752.176334	6007.641341
752.504411	6043.312546
752.832440	5970.326720
753.160421	5903.385238
753.488356	5949.602537
753.816243	5980.887938
754.144082	5828.982849
754.471875	5807.772194
754.799620	5849.394481
755.127318	5857.664493
755.454969	5818.955994
755.782572	5781.447288
756.110129	5833.376214
756.437638	5801.934538
756.765100	5747.853039
757.092515	5752.783288
757.419882	5812.057175
757.747203	5783.085663
758.074477	5845.414490
758.401703	5825.620399
758.728882	5784.809738
759.056014	5854.375141
759.383099	5967.977543
759.710138	5980.706456
760.037129	5967.796061
760.364073	5974.538604
760.690970	6055.998609
761.017820	6034.669487
761.344623	5995.116594
761.671379	6097.918324
761.998088	6230.311627
762.324751	6491.012377
762.651366	7129.923175
762.977935	8501.031321
763.304456	10157.889712
763.630931	11017.661021
763.957359	10560.506505
764.283740	9599.637376
764.610074	8733.652845
764.936362	7720.975778
765.262602	7131.770758
765.588796	6596.281752
765.914943	6270.933245
766.241044	6099.763386
766.567097	5884.291868
766.893104	5626.036077
767.219064	5446.069405
767.544978	5385.053800
767.870845	5301.098424
768.196665	5200.693763
768.522438	5121.706443
768.848165	5091.209983
769.173846	5025.027195
769.499479	4976.574145
769.825066	4925.116567
770.150607	4867.357547
770.476101	4843.956511
770.801548	4836.084749
771.126949	4755.080968
771.452303	4697.684911
771.777611	4658.074045
772.102872	4681.023898
772.428087	4641.511334
772.753256	4600.967854
773.078378	4549.101943
773.403453	4481.553002
773.728482	4469.161846
774.053465	4424.058642
774.378401	4410.472733
774.703291	4407.871497
775.028135	4330.058767
775.352932	4283.339874
775.677683	4275.697484
776.002388	4288.686017
776.327046	4301.563645
776.651658	4228.708889
776.976224	4162.488293
777.300743	4168.330990
777.625216	4194.471893
777.949643	4181.294317
778.274024	4141.847288
778.598359	4103.723562
778.922647	4127.931183
779.246889	4113.205973
779.571086	4107.577524
779.895236	4094.541100
780.219339	4081.605500
780.543397	4078.739604
780.867409	4132.415289
781.191374	4141.133965
781.515294	4080.032660
781.839167	4069.748706
782.162995	4095.118312
782.486776	4080.017536
782.810511	4088.799226
783.134201	4079.972166
783.457844	4032.812172
783.781441	3982.365345
784.104993	3986.673011
784.428498	4005.625229
784.751958	3998.983509
785.075372	3980.069099
785.398739	3943.550981
785.722061	3956.295018
786.045337	4001.993077
786.368568	4026.800596
786.691752	3938.963531
787.014891	3996.578878
787.337983	4132.926966
787.661030	4295.257161
787.984031	4455.800267
788.306987	4624.333602
788.629897	4706.680850
788.952760	4661.444056
789.275579	4597.517184
789.598351	4528.433212
789.921078	4370.191393
790.243759	4171.930374
790.566395	4164.769415
790.888984	4160.373528
791.211529	4046.657701
791.534027	3988.097137
791.856480	3971.156339
792.178888	3907.988161
792.501249	3868.699929
792.823566	3875.775188
793.145836	3903.294847
793.468062	3849.309130
793.790241	3807.497800
794.112375	3835.692974
794.434464	3902.962131
794.756507	3923.852672
795.078505	3899.526584
795.400457	3944.178605
795.722364	4089.172272
796.044226	4192.399979
796.366042	4264.138119
796.687812	4237.258686
797.009538	4243.678596
797.331218	4205.937998
797.652852	4180.094522
797.974442	4156.214577
798.295986	4151.178464
798.617484	4072.072678
798.938938	3984.449862
799.260346	4030.510885
799.581709	4020.100902
799.903026	3944.372689
800.224299	3911.290117
800.545526	3903.221750
800.866708	3860.480327
801.187845	3805.350269
801.508936	3839.851926
801.829983	3828.035461
802.150984	3753.933020
802.471940	3750.351280
802.792851	3755.331940
803.113717	3755.878906
803.434538	3756.030140
803.755314	3697.043599
804.076045	3673.014939
804.396731	3696.421017
804.717372	3721.357084
805.037967	3699.954865
805.358518	3694.402034
805.679024	3723.970922
805.999485	3737.030031
806.319901	3745.973038
806.640272	3752.869337
806.960598	3767.218981
807.280879	3742.267790
807.601115	3756.289760
807.921306	3773.689302
808.241453	3814.394099
808.561554	3783.393523
808.881611	3720.507650
809.201623	3763.012138
809.521590	3766.548508
809.841513	3742.965990
810.161390	3770.001698
810.481223	3744.420363
810.801011	3690.928679
811.120755	3688.171168
811.440453	3722.698031
811.760107	3720.588308
812.079716	3677.471319
812.399281	3651.466527
812.718801	3672.437727
813.038276	3644.398829
813.357707	3642.768016
813.677093	3661.644617
813.996434	3605.859208
814.315731	3619.266157
814.634983	3623.503247
814.954191	3639.090494
815.273354	3667.850277
815.592473	3656.764780
815.911547	3668.853467
816.230577	3713.628995
816.549562	3767.912140
816.868502	3805.269610
817.187399	3830.825740
817.506250	3825.149401
817.825058	3803.870690
818.143821	3903.867018
818.462539	4000.815968
818.781213	4044.162329
819.099843	4114.446096
819.418429	4372.858163
819.736970	4620.542654
820.055466	4877.500348
820.373919	5251.896762
820.692327	5667.078631
821.010691	6164.403582
821.329011	7644.385528
821.647286	10549.022757
821.965517	15291.180727
822.283704	19318.137598
822.601847	21343.337977
822.919945	19398.944774
823.237999	16737.865852
823.556010	14217.288929
823.873976	12047.881303
824.191897	9921.857848
824.509775	8584.928724
824.827609	7448.861855
825.145398	6914.612973
825.463144	6800.473689
825.780845	6907.273053
826.098502	7136.338043
826.416116	8085.123526
826.733685	9462.175193
827.051210	10552.294465
827.368692	10497.928142
827.686129	9165.556221
828.003522	7648.315107
828.320872	6628.388861
828.638177	5904.022944
828.955439	5331.519267
829.272656	4823.096216
829.589830	4551.496491
829.906960	4374.713308
830.224046	4184.503011
830.541088	4060.588929
830.858086	4009.569932
831.175041	3932.891461
831.491952	3918.922424
831.808819	3930.829629
832.125642	4012.471116
832.442421	4165.886030
832.759157	4462.562975
833.075849	5048.927305
833.392497	5943.628769
833.709101	6735.344502
834.025662	7049.110958
834.342179	6628.328367
834.658653	5949.965500
834.975083	5284.175270
835.291469	4699.494685
835.607811	4296.623314
835.924110	4149.199811
836.240366	3948.766055
836.556578	3746.005806
836.872746	3634.167808
837.188871	3589.714913
837.504952	3522.642361
837.820990	3436.496604
838.136984	3394.483628
838.452935	3418.013213
838.768842	3414.386103
839.084706	3439.327212
839.400526	3607.477419
839.716303	3976.847802
840.032037	4526.310886
840.347727	4759.504581
840.663373	4451.603507
840.978977	4057.755801
841.294537	3745.844489
841.610054	3521.424923
841.925527	3416.740322
842.240957	3344.545958
842.556344	3288.576547
842.871687	3226.177145
843.186987	3176.022705
843.502244	3142.788898
843.817458	3105.091150
844.132629	3072.689133
844.447756	3084.036771
844.762840	3063.874676
845.077881	3033.693288
845.392879	3015.955988
845.707833	3012.109588
846.022745	3009.601614
846.337613	3013.800895
846.652438	3000.943432
846.967221	2995.146105
847.281960	2983.296873
847.596656	2977.497025
847.911309	2980.602376
848.225919	2972.234061
848.540485	2968.180973
848.855009	2970.018474
849.169490	2956.220836
849.483928	2946.834207
849.798323	2948.402006
850.112675	2944.646346
850.426984	2958.020528
850.741251	2951.824949
851.055474	2941.719957
851.369654	2934.508586
851.683792	2942.052673
851.997887	2951.204888
852.311938	2954.398458
852.625947	2939.549740
852.939914	2944.250616
853.253837	2951.381328
853.567718	2934.924481
853.881555	2932.925664
854.195350	2949.619445
854.509103	2942.854216
854.822812	2935.645366
855.136479	2932.098914
855.450103	2935.005140
855.763685	2928.650765
856.077224	2925.399221
856.390720	2938.556633
856.704173	2946.887139
857.017584	2942.037549
857.330953	2940.041252
857.644278	2947.905452
857.957561	2958.469190
858.270802	2959.752164
858.584000	2959.326186
858.897155	2945.654577
859.210268	2942.332457
859.523339	2942.493774
859.836367	2941.777930
860.149352	2934.528751
860.462295	2931.589758
860.775195	2938.687703
861.088054	2937.659307
861.400869	2923.118099
861.713642	2920.973088
862.026373	2936.489759
862.339062	2939.295162
862.651708	2942.418156
862.964312	2947.280349
863.276873	2938.914554
863.589392	2953.397789
863.901869	2964.831126
864.214303	2986.528252
864.526696	2999.320180
864.839045	2994.614263
865.151353	2995.751043
865.463619	2995.859428
865.775842	2998.327073
866.088023	3017.717871
866.400162	3021.566792
866.712258	2990.457832
867.024313	2980.315030
867.336325	2990.064622
867.648296	3013.788292
867.960224	3005.465347
868.272110	2989.734426
868.583954	2997.696929
868.895755	3008.056500
869.207515	2996.839933
869.519233	3002.359996
869.830909	3015.741739
870.142542	3021.957482
870.454134	3021.097965
870.765684	3023.333717
871.077191	3022.696011
871.388657	3034.620860
871.700081	3047.271636
872.011463	3057.749674
872.322803	3056.650702
872.634101	3058.793193
872.945357	3075.928075
873.256571	3103.614092
873.567744	3092.546238
873.878874	3088.415013
874.189963	3112.201697
874.501010	3111.450565
874.812015	3101.055706
875.122979	3101.305243
875.433900	3100.702825
875.744780	3108.400667
876.055618	3114.583642
876.366415	3109.166923
876.677169	3120.875002
876.987882	3117.557923
877.298554	3112.781430
877.609183	3140.003661
877.919771	3161.179027
878.230317	3187.458562
878.540822	3242.311357
878.851285	3280.109929
879.161707	3325.724810
879.472087	3445.726956
879.782425	3693.779452
880.092722	4152.121160
880.402977	4699.598029
880.713191	5363.575964
881.023363	6589.874446
881.333494	7897.401039
881.643583	8423.236235
881.953631	8095.470494
882.263637	7416.036382
882.573602	6794.860364
882.883526	6208.070056
883.193408	5627.253516
883.503248	5173.516902
883.813048	4854.187532
884.122806	4529.975805
884.432522	4201.370712
884.742197	3959.584371
885.051831	3766.455246
885.361424	3640.375989
885.670975	3557.653175
885.980485	3465.281592
886.289954	3388.593039
886.599382	3342.045545
886.908768	3306.492808
887.218113	3260.951024
887.527417	3199.690922
887.836680	3153.012358
888.145901	3146.554640
888.455082	3129.066877
888.764221	3077.367324
889.073319	3052.564847
889.382376	3052.642985
889.691392	3055.072821
890.000366	3048.748694
890.309300	3036.733104
890.618193	3051.632234
890.927044	3068.570511
891.235855	3063.307546
891.544625	3054.964437
891.853353	3068.623443
892.162041	3086.325455
892.470687	3128.666106
892.779293	3178.644105
893.087858	3231.488000
893.396381	3306.318888
893.704864	3438.629012
894.013306	3694.152497
894.321707	4009.247298
894.630068	4205.943039
894.938387	4196.732851
895.246665	4154.074607
895.554903	4020.574771
895.863100	3814.270591
896.171256	3640.418838
896.479371	3495.599091
896.787446	3368.821634
897.095480	3265.130140
897.403473	3198.912064
897.711425	3162.744306
898.019336	3153.622338
898.327207	3120.610342
898.635038	3084.119950
898.942827	3071.181828
899.250576	3059.395611
899.558284	3028.586599
899.865952	3007.262518
900.173579	2984.673108
900.481165	2978.018785
900.788711	2964.609316
901.096216	2937.505552
901.403681	2928.033224
901.711105	2935.476488
902.018489	2932.474480
902.325832	2932.837443
902.633135	2944.064093
902.940397	2981.492140
903.247619	3074.357755
903.554800	3277.302006
903.861941	3651.075838
904.169041	4099.819188
904.476101	4393.194178
904.783121	4323.744722
905.090100	4061.650092
905.397039	3773.895989
905.703938	3518.102802
906.010796	3331.597754
906.317614	3218.217163
906.624391	3118.026751
906.931129	3045.696275
907.237826	2983.445587
907.544483	2933.941456
907.851099	2906.197466
908.157675	2882.771224
908.464211	2862.982175
908.770707	2847.858713
909.077163	2832.331959
909.383578	2819.051039
909.689954	2808.273052
909.996289	2806.793474
910.302584	2810.324802
910.608839	2808.741880
910.915054	2799.256949
911.221229	2793.522636
911.527363	2795.700415
911.833458	2808.767086
912.139513	2811.005358
912.445527	2812.056438
912.751502	2820.936431
913.057436	2831.931187
913.363331	2845.963239
913.669186	2871.080788
913.975000	2906.749472
914.280775	2974.242961
914.586510	3041.171840
914.892205	3127.161321
915.197859	3266.556787
915.503475	3474.012871
915.809050	3699.791028
916.114585	3847.612782
916.420081	3859.141901
916.725536	3792.147487
917.030952	3668.543436
917.336328	3530.229298
917.641665	3394.632342
917.946961	3291.697021
918.252218	3216.755228
918.557435	3137.939308
918.862612	3075.164340
919.167750	3023.777338
919.472848	2984.700834
919.777906	2955.159673
920.082925	2928.794438
920.387904	2896.415107
920.692843	2879.413816
920.997743	2868.701364
921.302603	2855.301977
921.607423	2843.964422
921.912204	2828.488079
922.216946	2818.551965
922.521647	2805.684420
922.826310	2800.050931
923.130932	2792.189251
923.435516	2782.477468
923.740059	2773.978083
924.044564	2766.865015
924.349028	2758.519385
924.653454	2753.594177
924.957840	2749.465472
925.262186	2743.766448
925.566493	2738.415263
925.870761	2734.233626
926.174989	2731.466032
926.479178	2726.306412
926.783328	2719.276522
927.087438	2722.288612
927.391509	2718.757284
927.695541	2716.907180
927.999533	2711.659339
928.303486	2707.845706
928.607400	2710.235213
928.911275	2709.957950
929.215110	2707.218082
929.518906	2705.375541
929.822663	2705.352856
930.126381	2706.845037
930.430060	2708.163299
930.733699	2708.473330
931.037299	2708.367466
931.340861	2711.185471
931.644383	2709.264791
931.947866	2709.330326
932.251309	2706.328319
932.554714	2707.878474
932.858080	2703.787577
933.161407	2704.352187
933.464694	2700.727597
933.767943	2696.631659
934.071153	2701.960159
934.374323	2698.519572
934.677455	2698.597709
934.980548	2697.665096
935.283602	2698.391022
935.586617	2697.649972
935.889593	2697.841536
936.192530	2696.477904
936.495428	2699.353882
936.798287	2700.631815
937.101108	2704.362269
937.403890	2707.548278
937.706632	2713.390975
938.009336	2718.394321
938.312002	2725.777090
938.614628	2739.499111
938.917216	2745.823239
939.219765	2742.841396
939.522275	2744.895666
939.824747	2741.460120
940.127179	2735.751013
940.429573	2737.575911
940.731929	2731.455950
941.034246	2728.267420
941.336524	2726.271123
941.638763	2723.372460
941.940964	2720.259547
942.243126	2721.038406
942.545250	2719.026985
942.847335	2713.464072
943.149381	2711.581201
943.451389	2708.221272
943.753359	2703.308668
944.055290	2703.608616
944.357182	2700.979655
944.659036	2703.880839
944.960851	2701.337577
945.262628	2697.904551
945.564367	2701.030066
945.866067	2702.587783
946.167729	2699.852957
946.469352	2702.222299
946.770937	2702.413863
947.072484	2699.840354
947.373992	2699.182483
947.675462	2694.413552
947.976893	2693.606967
948.278286	2692.321473
948.579641	2689.881554
948.880958	2687.529856
949.182236	2691.058664
949.483476	2692.868438
949.784678	2690.564631
950.085841	2687.723941
950.386967	2690.365505
950.688054	2692.669312
950.989103	2692.679395
951.290114	2693.904395
951.591087	2694.201823
951.892021	2697.571835
952.192917	2701.728266
952.493776	2703.031404
952.794596	2701.939994
953.095378	2703.754810
953.396122	2701.869418
953.696828	2698.955631
953.997496	2700.021835
954.298126	2696.356917
954.598718	2695.729293
954.899272	2692.379446
955.199788	2689.677388
955.500266	2686.388035
955.800706	2684.371573
956.101108	2683.529701
956.401472	2679.932837
956.701798	2681.276305
957.002087	2675.085768
957.302337	2674.894204
957.602550	2674.942095
957.902724	2672.129131
958.202861	2670.863802
958.502960	2669.701816
958.803022	2672.542506
959.103045	2669.555622
959.403031	2665.951197
959.702979	2666.694767
960.002889	2667.876918
960.302762	2667.254335
960.602596	2666.430107
960.902393	2665.321053
961.202153	2666.810714
961.501875	2664.471618
961.801559	2664.401042
962.101205	2666.614109
962.400814	2663.657472
962.700385	2663.475991
962.999918	2661.494817
963.299414	2660.186638
963.598873	2661.391473
963.898293	2658.152532
964.197677	2664.418686
964.497022	2661.726710
964.796331	2664.670744
965.095601	2661.227636
965.394835	2663.155877
965.694030	2662.966834
965.993189	2660.751247
966.292309	2662.500527
966.591393	2661.583037
966.890439	2662.724859
967.189447	2663.062616
967.488419	2660.811741
967.787353	2662.208140
968.086249	2660.794097
968.385108	2662.271155
968.683930	2660.423572
968.982714	2661.439364
969.281462	2661.560352
969.580172	2662.271155
969.878844	2659.266627
970.177480	2663.339879
970.476078	2661.119251
970.774639	2661.837616
971.073162	2662.200579
971.371649	2661.305774
971.670098	2661.779642
971.968510	2664.600168
972.266885	2662.490445
972.565223	2664.927843
972.863524	2660.539518
973.161788	2661.832574
973.460014	2661.847698
973.758204	2660.189158
974.056356	2663.211330
974.354471	2663.889365
974.652550	2664.159067
974.950591	2662.936587
975.248595	2665.631084
975.546563	2662.051865
975.844493	2661.835095
976.142386	2660.970537
976.440243	2663.060095
976.738062	2660.544560
977.035845	2661.429282
977.333590	2662.354334
977.631299	2661.008346
977.928971	2658.114723
978.226606	2656.040289
978.524204	2658.270999
978.821765	2655.417706
979.119290	2657.154384
979.416777	2657.839981
979.714228	2662.049344
980.011642	2658.240752
980.309020	2657.789569
980.606360	2659.730413
980.903664	2661.472132
981.200931	2658.485248
981.498162	2660.799138
981.795356	2663.788542
982.092513	2662.152688
982.389633	2666.803152
982.686717	2668.895231
982.983764	2673.621313
983.280775	2676.928310
983.577749	2677.739935
983.874686	2678.249092
984.171587	2672.920592
984.468451	2670.402536
984.765279	2670.296672
985.062070	2665.555467
985.358824	2665.318532
985.655543	2665.580672
985.952224	2663.531443
986.248869	2663.924653
986.545478	2662.422389
986.842050	2660.010197
987.138586	2657.671102
987.435086	2662.268634
987.731549	2658.528098
988.027975	2657.570279
988.324366	2655.571461
988.620719	2658.535660
988.917037	2657.550114
989.213318	2658.210505
989.509563	2656.315032
989.805772	2656.418375
990.101944	2654.785041
990.398080	2656.551966
990.694180	2655.528612
990.990244	2656.443581
991.286271	2656.786379
991.582262	2654.706903
991.878217	2654.497696
992.174136	2656.443581
992.470019	2656.105824
992.765865	2653.267654
993.061676	2652.244300
993.357450	2652.168682
993.653188	2652.335041
993.948890	2655.430309
994.244556	2657.882830
994.540186	2657.464415
994.835780	2656.327634
995.131337	2658.863335
995.426859	2658.351658
995.722345	2658.828047
996.017795	2660.325269
996.313208	2660.733603
996.608586	2661.318377
996.903928	2662.419869
997.199234	2663.662513
997.494504	2661.285609
997.789738	2661.242759
998.084936	2658.417193
998.380099	2659.112872
998.675225	2658.245793
998.970316	2658.233191
999.265371	2659.677481
999.560390	2657.161945
999.855373	2658.502892
1000.150320	2654.792603
1000.445232	2656.894764
1000.740108	2657.557676
1001.034948	2655.667243
1001.329752	2655.861328
1001.624521	2656.025165
1001.919254	2655.700011
1002.213951	2653.078611
1002.508613	2656.138591
1002.803239	2651.256234
1003.097829	2654.061636
1003.392384	2651.830925
1003.686903	2652.660195
1003.981386	2654.865700
1004.275834	2652.864362
1004.570246	2653.348312
1004.864623	2655.216060
1005.158964	2655.117758
1005.453270	2655.213539
1005.747540	2654.429640
1006.041775	2654.666574
1006.335974	2654.795124
1006.630138	2654.283447
1006.924266	2654.757315
1007.218359	2653.902839
1007.512416	2652.239259
1007.806438	2650.447128
1008.100425	2651.092396
1008.394376	2647.924031
1008.688292	2652.952582
1008.982172	2654.689259
1009.276017	2653.590288
1009.569827	2652.423261
1009.863602	2655.389980
1010.157341	2653.469300
1010.451045	2653.761687
1010.744714	2655.700011
1011.038347	2655.389980
1011.331945	2651.548621
1011.625508	2654.021307
1011.919036	2656.708242
1012.212528	2653.895278
1012.505986	2650.963847
1012.799408	2652.650113
1013.092795	2655.170690
1013.386147	2653.794455
1013.679464	2652.856800
1013.972745	2653.101296
1014.265992	2653.789413
1014.559204	2651.891419
1014.852380	2653.239928
1015.145521	2654.444763
1015.438628	2651.120122
1015.731699	2654.021307
1016.024736	2654.157418
1016.317737	2653.562562
1016.610703	2655.629435
1016.903635	2655.742861
1017.196531	2654.038951
1017.489393	2652.937458
1017.782219	2653.456697
1018.075011	2655.901657
1018.367768	2651.573826
1018.660490	2653.499547
1018.953177	2653.499547
1019.245829	2653.499547
