Dividing Wavelength (nm)	Counts (n)	Blue Motor Position (mm): 38.100000	Red Motor Position (mm): 0.000000	
326.493990	2242.627865
326.888308	2242.627865
327.282561	2242.627865
327.676750	2200.183870
328.070874	2197.343180
328.464933	2200.007429
328.858929	2201.376103
329.252859	2209.416743
329.646726	2215.710624
330.040528	2227.572459
330.434265	2238.816752
330.827938	2259.868611
331.221547	2276.275046
331.615091	2294.249280
332.008571	2313.932465
332.401986	2330.792604
332.795338	2351.650378
333.188625	2371.888090
333.581847	2390.086656
333.975006	2409.205232
334.368100	2427.917995
334.761129	2445.627568
335.154095	2460.360340
335.546996	2490.892089
335.939833	2527.962213
336.332606	2542.165664
336.725315	2558.035217
337.117960	2571.164902
337.510540	2581.516911
337.903056	2594.097111
338.295508	2601.421907
338.687896	2606.742845
339.080220	2617.220883
339.472480	2623.534929
339.864676	2629.531381
340.256807	2635.560601
340.648875	2637.735859
341.040879	2640.871457
341.432818	2643.699544
341.824694	2648.493681
342.216506	2647.261119
342.608253	2649.464103
342.999937	2649.053249
343.391557	2648.004689
343.783113	2649.164155
344.174605	2643.923875
344.566033	2646.567961
344.957397	2644.813639
345.348697	2643.152579
345.739934	2641.589821
346.131106	2641.499080
346.522215	2637.569501
346.913260	2635.933647
347.304241	2635.490025
347.695159	2633.080353
348.086012	2631.515075
348.476802	2631.167236
348.867528	2626.743623
349.258191	2623.915536
349.648789	2623.620628
350.039324	2618.438322
350.429796	2622.433437
350.820203	2621.352109
351.210548	2618.478651
351.600828	2618.138373
351.991045	2618.508898
352.381198	2617.268774
352.771288	2618.856738
353.161314	2616.736933
353.551276	2613.843310
353.941175	2616.323558
354.331010	2612.842641
354.720782	2617.651902
355.110490	2612.111674
355.500135	2616.005965
355.889717	2616.923455
356.279235	2613.659308
356.668689	2611.415995
357.058080	2615.554782
357.447408	2613.762652
357.836672	2614.758280
358.225873	2614.428084
358.615010	2615.035543
359.004084	2617.452777
359.393095	2617.074690
359.782043	2617.800616
360.170927	2619.035699
360.559748	2617.609052
360.948505	2617.694752
361.337199	2620.701800
361.725830	2622.118364
362.114398	2622.652727
362.502903	2620.888323
362.891344	2620.157356
363.279722	2619.063425
363.668037	2623.630711
364.056289	2623.792027
364.444478	2623.484517
364.832603	2625.790845
365.220665	2627.824951
365.608665	2628.530712
365.996601	2626.408386
366.384474	2624.147429
366.772284	2627.472070
367.160031	2627.557769
367.547715	2630.879890
367.935336	2630.176649
368.322893	2628.560959
368.710388	2626.456277
369.097820	2625.453088
369.485189	2626.678088
369.872495	2630.456433
370.259738	2627.567852
370.646918	2632.866104
371.034035	2631.230250
371.421090	2630.998357
371.808081	2634.431383
372.195010	2635.873153
372.581875	2632.142699
372.968678	2633.292082
373.355418	2633.783594
373.742096	2635.575725
374.128710	2634.396095
374.515262	2635.749644
374.901751	2637.156126
375.288177	2637.698050
375.674540	2640.006899
376.060841	2638.456744
376.447079	2637.292237
376.833254	2639.170067
377.219367	2639.091929
377.605417	2642.406488
377.991404	2639.419604
378.377329	2642.000675
378.763191	2640.236271
379.148991	2641.173926
379.534727	2644.692651
379.920402	2644.697692
380.306013	2644.470841
380.691563	2646.278094
381.077049	2644.296921
381.462474	2645.658032
381.847835	2644.899339
382.233134	2647.487971
382.618371	2646.958650
383.003545	2650.069042
383.388657	2646.890594
383.773706	2649.529638
384.158693	2651.442756
384.543618	2649.438898
384.928480	2648.468476
385.313280	2650.255565
385.698017	2652.821512
386.082692	2652.904691
386.467305	2652.481234
386.851856	2651.420071
387.236344	2653.318066
387.620770	2651.157931
388.005133	2651.586429
388.389435	2655.110196
388.773674	2652.917294
389.157851	2657.230001
389.541965	2660.945331
389.926018	2659.458191
390.310008	2660.975578
390.693936	2658.991884
391.077802	2658.855773
391.461606	2662.508089
391.845348	2662.382060
392.229027	2666.367092
392.612645	2670.493277
392.996200	2673.225582
393.379694	2677.540810
393.763125	2682.662622
394.146494	2686.965247
394.529801	2699.663913
394.913047	2712.032384
395.296230	2722.586040
395.679351	2741.354256
396.062410	2762.171701
396.445408	2782.343878
396.828343	2809.049390
397.211217	2837.922599
397.594028	2869.931405
397.976778	2916.466296
398.359466	2966.494707
398.742092	3016.772655
399.124656	3053.746998
399.507158	3127.882206
399.889598	3199.796787
400.271977	3286.849952
400.654294	3349.161134
401.036549	3425.726178
401.418742	3465.848722
401.800874	3595.030810
402.182944	3683.525745
402.564952	3800.462870
402.946898	3894.767735
403.328783	3911.345570
403.710606	3989.468331
404.092367	4216.778999
404.474067	4309.974810
404.855705	4336.960107
405.237282	4378.763875
405.618797	4594.021144
406.000250	4665.731557
406.381642	4857.630640
406.762972	4950.592038
407.144240	5063.261826
407.525447	5129.237927
407.906593	5228.836004
408.287677	5412.071864
408.668700	5422.199542
409.049661	5579.228964
409.430560	5665.354557
409.811399	5612.762719
410.192176	5895.964660
410.572891	5954.787363
410.953545	6188.472571
411.334138	6019.460326
411.714669	6222.074382
412.095139	6092.821717
412.475547	6351.644638
412.855894	6455.353776
413.236180	6649.236553
413.616405	6414.785090
413.996568	6645.901829
414.376670	6697.372010
414.756711	6636.807588
415.136691	6748.350678
415.516609	6965.095088
415.896466	6988.712894
416.276262	7188.612288
416.655997	7191.500869
417.035670	7399.526603
417.415283	7742.035198
417.794834	7802.062738
418.174324	7677.573964
418.553753	7613.306814
418.933121	7935.612985
419.312428	8046.311683
419.691674	7839.667225
420.070859	8310.014440
420.449983	7999.050865
420.829045	8368.302782
421.208047	8159.016759
421.586988	8453.009290
421.965867	8466.265004
422.344686	8590.421061
422.723444	8612.274463
423.102141	8000.714446
423.480777	8752.035412
423.859352	8271.063965
424.237866	8888.363336
424.616319	8760.902802
424.994712	9166.730810
425.373044	8741.144000
425.751314	9193.688380
426.129524	9065.892610
426.507673	9195.898926
426.885762	9343.725722
427.263789	9257.539635
427.641756	9178.411164
428.019662	9278.871278
428.397508	9515.429942
428.775292	9216.116474
429.153016	9585.673380
429.530679	9419.375797
429.908282	9463.226274
430.285824	9182.479375
430.663305	9868.429179
431.040726	9313.330085
431.418086	9304.608888
431.795385	9628.503023
432.172624	9711.112411
432.549802	9628.324062
432.926920	9710.053769
433.303977	9585.496940
433.680974	9790.850862
434.057910	9874.382781
434.434786	9942.617319
434.811601	9790.624010
435.188355	10350.262663
435.565050	10075.509696
435.941683	10009.105097
436.318257	10493.922945
436.694770	10624.841710
437.071222	10696.489109
437.447614	10542.648217
437.823946	10433.655951
438.200218	10578.737838
438.576429	10393.601463
438.952580	10631.029727
439.328670	10687.258757
439.704700	10468.064346
440.080670	10459.907759
440.456580	11014.134734
440.832429	10771.718248
441.208218	10371.044820
441.583947	10698.573627
441.959616	10843.153919
442.335224	10652.656277
442.710773	10798.307814
443.086261	10996.198308
443.461689	10282.280183
443.837057	10931.089286
444.212365	11209.033303
444.587612	10859.938441
444.962800	11080.120917
445.337927	10848.464774
445.712995	10440.574934
446.088002	11519.727177
446.462949	11185.034890
446.837837	11155.544140
447.212664	11140.962603
447.587431	11660.551809
447.962139	12384.970658
448.336786	14638.870543
448.711374	15192.427044
449.085901	13042.080021
449.460369	12656.701453
449.834776	12106.260385
450.209124	12975.035195
450.583412	13392.896437
450.957640	14338.115304
451.331808	13472.680259
451.705917	12472.895943
452.079965	11770.416196
452.453954	12673.312055
452.827883	12306.311014
453.201752	12591.965476
453.575562	12118.525513
453.949311	12536.285932
454.323001	12499.654388
454.696632	12726.385323
455.070202	13013.993232
455.443713	13246.541659
455.817164	13713.924676
456.190556	13704.558212
456.563888	14062.926278
456.937160	14223.976019
457.310373	13570.856730
457.683526	13659.694464
458.056619	13208.773334
458.429653	13367.282335
458.802628	12778.089917
459.175542	13159.478412
459.548398	14111.996869
459.921194	14448.753508
460.293930	14517.779507
460.666607	15387.968360
461.039224	16432.991991
461.411782	17138.377963
461.784280	16986.689644
462.156719	17055.531641
462.529099	16746.826503
462.901419	15672.329766
463.273680	15455.681139
463.645882	15337.307285
464.018024	15067.345934
464.390106	15287.251148
464.762130	16008.718401
465.134094	16777.512006
465.505999	18773.261964
465.877845	22031.929345
466.249631	24861.846592
466.621358	24533.750656
466.993026	23102.486420
467.364634	22536.027086
467.736184	21069.638611
468.107674	20269.562125
468.479105	20406.527755
468.850477	19873.040087
469.221790	19452.738927
469.593043	18772.430174
469.964238	18216.406028
470.335373	17862.141462
470.706449	18326.066248
471.077467	17886.008805
471.448425	19716.487055
471.819324	23768.558954
472.190164	25748.162097
472.560945	22180.436697
472.931667	19815.777621
473.302330	19185.784625
473.672934	18741.464886
474.043479	19042.772131
474.413965	18860.582311
474.784393	18475.725503
475.154761	19182.137350
475.525070	19156.230860
475.895321	18836.026850
476.265513	19425.564587
476.635645	20015.810605
477.005719	19783.277302
477.375734	19979.710903
477.745691	20457.322421
478.115588	20989.746405
478.485427	21509.265035
478.855207	22591.290735
479.224928	24356.425548
479.594591	26587.451198
479.964194	26582.722595
480.333739	26788.263040
480.703226	26367.891303
481.072653	26075.395996
481.442022	26641.378941
481.811333	27560.756853
482.180584	27473.759140
482.549777	26528.066405
482.918912	26179.377355
483.287988	26307.016850
483.657005	25963.641177
484.025964	25707.348915
484.394864	25623.166687
484.763706	25296.653673
485.132489	24743.548355
485.501213	24916.318780
485.869879	24828.244781
486.238487	24648.726772
486.607036	24792.230778
486.975527	24513.817933
487.343959	24822.833102
487.712333	24761.825058
488.080648	24418.363685
488.448905	24910.161010
488.817104	24660.777650
489.185244	25341.517422
489.553326	25304.021319
489.921350	26313.938354
490.289315	28596.532487
490.657222	30384.705373
491.025070	30874.685363
491.392861	30646.784879
491.760593	29797.663008
492.128267	28894.729340
492.495883	27853.844496
492.863440	26981.286301
493.230939	26102.361128
493.598380	25946.836490
493.965763	25551.405862
494.333088	25086.150212
494.700354	25020.027917
495.067563	24899.751028
495.434713	24650.768439
495.801805	24819.916795
496.168839	24621.045796
496.535815	24463.298010
496.902733	24667.689072
497.269593	24364.806467
497.636395	24523.040724
498.003139	24488.367668
498.369825	24234.003648
498.736453	24441.195071
499.103023	24309.638600
499.469535	24320.552698
499.835989	24528.328895
500.202385	24562.853237
500.568723	24082.176697
500.935003	24301.532424
501.301226	23921.552932
501.667390	24770.863847
502.033497	24998.978579
502.399546	24736.785647
502.765537	24276.414875
503.131470	24670.181923
503.497345	24812.158459
503.863163	24040.861921
504.228923	24627.316992
504.594625	24830.954401
504.960269	24376.373394
505.325856	24859.439441
505.691385	24254.710187
506.056856	24867.984197
506.422270	24850.267062
506.787625	24398.809049
507.152924	24819.168183
507.518164	24855.532547
507.883347	24654.400591
508.248472	24340.699669
508.613540	25120.603978
508.978550	24919.219964
509.343503	24921.357413
509.708398	25163.584855
510.073236	25305.757997
510.438016	25543.710541
510.802738	25189.750964
511.167403	25440.286228
511.532010	25160.633260
511.896561	25934.765447
512.261053	25896.210703
512.625488	25732.889921
512.989866	25631.532482
513.354186	25463.097449
513.718449	25588.286943
514.082655	25965.105632
514.446803	25694.824168
514.810894	26165.521744
515.174927	25646.832384
515.538904	25692.056575
515.902822	26179.039598
516.266684	25937.601096
516.630488	25838.628123
516.994235	25805.200232
517.357925	26108.748269
517.721558	26284.435002
518.085133	26390.211012
518.448651	26293.466229
518.812112	26039.150099
519.175516	26254.480465
519.538863	26396.782156
519.902152	26191.518974
520.265385	26459.360519
520.628560	26256.844767
520.991678	26265.639059
521.354739	26322.503275
521.717743	26392.358544
522.080690	26176.024988
522.443580	26510.581163
522.806413	26493.625242
523.169189	26597.031910
523.531908	26641.938509
523.894569	26254.835867
524.257174	26348.074528
524.619722	26506.669228
524.982213	26215.721554
525.344647	26250.412254
525.707025	26401.795584
526.069345	26374.495215
526.431608	26329.008884
526.793815	26514.369590
527.155964	25989.590516
527.518057	26165.995613
527.880093	26087.794713
528.242072	26307.284031
528.603995	26028.359510
528.965860	25821.107593
529.327669	25852.055236
529.689421	25846.920821
530.051117	25683.350502
530.412755	25863.173501
530.774337	25661.393757
531.135862	25533.877770
531.497331	25739.496353
531.858743	25297.316585
532.220098	25770.625478
532.581396	25455.397087
532.942638	25376.200560
533.303824	25486.843805
533.664953	25504.213100
534.026025	25154.175542
534.387040	25400.887090
534.747999	25453.441119
535.108902	25611.856858
535.469748	25109.621824
535.830537	25285.537929
536.191270	25409.441928
536.551947	25262.797284
536.912567	24902.251440
537.273131	25285.663957
537.633638	24981.354706
537.994089	25202.681524
538.354483	24715.726227
538.714821	25222.352106
539.075103	25254.277734
539.435328	25044.873244
539.795497	24624.715756
540.155609	24996.304247
540.515665	25290.490862
540.875665	24516.855228
541.235609	24833.379196
541.595496	24785.848677
541.955328	25142.238089
542.315102	25064.576594
542.674821	24595.484626
543.034483	24472.719927
543.394090	24638.848631
543.753640	24449.628921
544.113134	25070.799898
544.472571	24664.717312
544.831953	24966.614372
545.191278	24595.303144
545.550548	24505.512632
545.909761	24707.322624
546.268918	24945.963285
546.628019	24924.810603
546.987064	24595.663587
547.346053	24346.146636
547.704986	24461.268946
548.063863	24622.313646
548.422684	24632.738753
548.781449	24145.433095
549.140158	24565.709050
549.498811	24128.804849
549.857408	23888.951791
550.215949	24302.485202
550.574434	23991.466175
550.932864	24196.179871
551.291237	24372.700914
551.649555	24222.396391
552.007817	24281.062819
552.366022	24131.098574
552.724173	24170.023844
553.082267	24127.602534
553.440305	24619.583862
553.798288	23856.479198
554.156215	24361.267577
554.514086	24475.094310
554.871902	23846.409493
555.229661	24131.786692
555.587365	23985.096677
555.945014	23867.542010
556.302606	24107.253917
556.660143	24071.270161
557.017625	24303.536283
557.375050	23825.622295
557.732421	24217.226688
558.089735	24036.574419
558.446994	24086.247429
558.804197	24120.948211
559.161345	24046.084556
559.518437	23820.087108
559.875474	24007.471838
560.232455	24191.136196
560.589381	23995.468851
560.946251	23998.980014
561.303065	24308.895029
561.659825	24406.942951
562.016528	24003.396065
562.373177	23742.201282
562.729770	24107.022024
563.086307	23961.594818
563.442789	24127.489108
563.799216	23964.284273
564.155587	23960.314364
564.511904	23947.169556
564.868164	23890.995978
565.224370	23852.030380
565.580520	23781.582775
565.936615	23904.806219
566.292654	23600.486885
566.648638	23867.693245
567.004567	23698.517163
567.360441	23649.048320
567.716260	23367.557851
568.072023	23689.175905
568.427732	23469.464776
568.783385	23238.874837
569.138982	23485.397343
569.494525	23524.030225
569.850013	23269.613273
570.205445	23366.526935
570.560823	23181.158667
570.916145	22951.844140
571.271412	23133.343323
571.626625	22887.415674
571.981782	22988.417712
572.336884	22795.696921
572.691931	22929.693310
573.046923	22675.926667
573.401860	22539.573538
573.756743	22571.728537
574.111570	22466.486889
574.466342	22388.396896
574.821059	22476.236481
575.175722	22177.341428
575.530330	22147.167602
575.884882	22169.789780
576.239380	22092.455959
576.593823	21976.201910
576.948211	21958.948561
577.302544	21807.482053
577.656823	21674.967762
578.011047	21775.843771
578.365216	21645.149337
578.719330	21516.642764
579.073389	21409.205693
579.427394	21559.795041
579.781344	21323.803506
580.135239	21208.335877
580.489080	21163.406593
580.842866	20939.465937
581.196597	21148.862864
581.550273	21110.817276
581.903895	20991.621714
582.257463	21302.330711
582.610975	20836.452478
582.964434	21157.137918
583.317837	20845.670228
583.671186	20940.489291
584.024481	20920.816188
584.377721	20682.684683
584.730906	20756.956003
585.084037	20751.166237
585.437113	20674.563384
585.790135	20884.169520
586.143103	20332.846250
586.496016	20356.474138
586.848874	20598.129410
587.201679	20514.514311
587.554428	20202.106446
587.907124	20537.963238
588.259765	20298.102618
588.612352	20376.243023
588.964884	19947.858372
589.317362	20112.615883
589.669786	20179.239772
590.022155	20196.283913
590.374470	20403.152702
590.726731	20179.048208
591.078937	19969.363934
591.431090	20060.613860
591.783188	19814.913063
592.135232	19775.150962
592.487222	19880.848835
592.839157	19889.696060
593.191038	19777.227917
593.542866	19666.483850
593.894639	19376.768738
594.246358	19589.860832
594.598022	19486.403752
594.949633	19251.909440
595.301190	19219.250324
595.652692	19385.767198
596.004141	19610.950499
596.355535	18945.830743
596.706876	18950.264438
597.058162	18856.539305
597.409395	19097.272045
597.760573	19148.301125
598.111698	18924.602444
598.462768	18874.216111
598.813785	18842.605556
599.164748	18641.211460
599.515657	18694.642649
599.866511	18494.755858
600.217312	18845.131174
600.568060	18362.284417
600.918753	18665.174585
601.269392	18568.444925
601.619978	18368.653915
601.970510	18551.630156
602.320988	18508.324124
602.671412	18704.979535
603.021783	18635.462024
603.372100	18349.865535
603.722363	18498.428339
604.072572	18443.623435
604.422728	18582.895392
604.772830	18331.971959
605.122878	18298.052556
605.472872	18272.337630
605.822813	18261.567205
606.172701	18243.603053
606.522534	18422.604344
606.872314	18455.737328
607.222041	18296.361249
607.571714	18503.353546
607.921333	18333.209563
608.270899	18413.999094
608.620411	18565.896621
608.969870	18359.753758
609.319276	18357.505404
609.668627	18389.315084
610.017926	18514.922994
610.367171	18630.390623
610.716362	18678.757974
611.065500	18499.466817
611.414585	18638.189288
611.763616	18621.359396
612.112594	18566.834276
612.461518	18539.324699
612.810389	18731.574143
613.159207	18573.750739
613.507971	18487.700763
613.856682	18757.145395
614.205340	18677.979115
614.553945	18831.099122
614.902496	18576.412468
615.250994	18801.925965
615.599439	18741.969002
615.947830	18735.234020
616.296169	18795.732908
616.644454	18751.022914
616.992686	18727.243791
617.340864	18949.263768
617.688990	18697.435449
618.037063	18868.754021
618.385082	18726.701867
618.733048	18990.359255
619.080961	18883.955620
619.428821	18908.995032
619.776628	18789.849881
620.124382	18713.834322
620.472083	18777.652809
620.819731	18781.035423
621.167326	18470.487744
621.514868	18515.142284
621.862357	18287.428324
622.209793	18293.318912
622.557176	18128.047204
622.904506	17952.975493
623.251783	17871.593626
623.599007	17630.351729
623.946179	17574.931804
624.293297	17506.339344
624.640363	17249.285868
624.987376	17276.409797
625.334336	17072.870690
625.681243	16925.764779
626.028097	16933.271057
626.374899	16860.554934
626.721647	16710.782253
627.068343	16557.296762
627.414987	16486.203890
627.761577	16455.835979
628.108115	16490.602297
628.454600	16213.341356
628.801032	16319.303889
629.147412	16250.439207
629.493739	16267.619459
629.840014	16077.250367
630.186236	16167.272772
630.532405	15936.808862
630.878521	16144.564894
631.224585	16048.929164
631.570597	15848.477764
631.916556	15889.064094
632.262462	15865.252203
632.608316	15781.286745
632.954117	15721.191150
633.299866	15716.548247
633.645562	15624.645492
633.991206	15393.004473
634.336797	15262.569658
634.682336	15238.445217
635.027823	15111.161123
635.373257	14987.501619
635.718639	14895.853442
636.063968	14845.134393
636.409245	14592.096197
636.754470	14625.065343
637.099642	14476.767200
637.444762	14241.378082
637.789829	14283.738898
638.134845	14121.693528
638.479808	14156.185103
638.824719	14085.142643
639.169577	13945.495119
639.514383	13975.978977
639.859137	13815.768587
640.203839	13902.945260
640.548489	13748.680911
640.893086	13728.170977
641.237632	13602.598355
641.582125	13755.284823
641.926566	13574.171289
642.270955	13590.812137
642.615292	13548.511816
642.959576	13562.374989
643.303809	13590.784411
643.647990	13516.235828
643.992118	13585.594543
644.336195	13362.871325
644.680219	13576.205394
645.024192	13491.186335
645.368112	13719.974061
645.711981	13772.598666
646.055797	13958.942397
646.399562	13939.743163
646.743274	14203.526579
647.086935	14476.091685
647.430544	14437.289924
647.774101	14473.543382
648.117606	14620.472852
648.461059	14595.680457
648.804460	14577.484412
649.147810	14306.870233
649.491108	14221.878899
649.834354	14224.114651
650.177548	13907.101692
650.520690	13722.781983
650.863781	13649.647444
651.206820	13690.838712
651.549807	13521.675233
651.892742	13318.423472
652.235626	13253.460643
652.578458	13260.258639
652.921238	12957.078605
653.263967	13151.987257
653.606644	12979.975526
653.949269	12960.035242
654.291843	12753.615115
654.634365	12925.294130
654.976836	12765.003082
655.319255	12772.017848
655.661622	12730.171229
656.003938	12653.737255
656.346203	12580.942993
656.688416	12650.001760
657.030577	12608.626490
657.372687	12523.098273
657.714746	12507.203515
658.056753	12687.785208
658.398708	12508.869617
658.740612	12512.342972
659.082465	12611.469700
659.424266	12577.845204
659.766016	12601.843617
660.107715	12514.979495
660.449362	12601.105088
660.790958	12550.577603
661.132503	12491.752379
661.473996	12563.959346
661.815438	12578.893764
662.156829	12593.114859
662.498168	12570.222980
662.839456	12570.543093
663.180693	12586.037079
663.521879	12689.781505
663.863013	12655.594920
664.204097	12623.669293
664.545129	12761.819593
664.886110	12731.592835
665.227040	12819.676916
665.567918	12824.334942
665.908746	12852.182276
666.249522	12831.266529
666.590248	12889.486814
666.930922	13008.689938
667.271545	12979.680618
667.612118	13066.375862
667.952639	12959.677320
668.293109	12984.326042
668.633528	12934.751335
668.973896	12902.931572
669.314213	12989.037000
669.654480	12726.050086
669.994695	12806.660657
670.334859	12831.231241
670.674973	12772.736212
671.015035	12801.125470
671.355047	12755.750044
671.695008	12720.575393
672.034918	12727.401115
672.374777	12773.857869
672.714585	12692.907020
673.054342	12726.211403
673.394049	12670.607476
673.733705	12770.492898
674.073310	12670.839369
674.412864	12691.820652
674.752368	12545.296994
675.091820	12578.566089
675.431223	12562.154613
675.770574	12423.502717
676.109875	12350.368178
676.449125	12306.588278
676.788324	12249.139288
677.127473	12085.417735
677.466571	12082.319946
677.805619	11967.515229
678.144616	11896.750032
678.483562	11871.393028
678.822458	11738.306566
679.161303	11719.135058
679.500098	11706.070908
679.838842	11658.192549
680.177535	11693.750328
680.516179	11752.976324
680.854771	11697.657222
681.193314	11910.151939
681.531805	12073.618914
681.870247	12505.882733
682.208638	12917.026638
682.546978	13226.450140
682.885268	13248.190116
683.223508	12953.305302
683.561697	12795.184470
683.899836	12702.583515
684.237925	12495.850837
684.575963	12418.461564
684.913951	12332.404026
685.251889	12284.974330
685.589776	12394.385013
685.927614	12304.932258
686.265401	12279.860080
686.603137	12333.056856
686.940824	12480.603867
687.278460	12604.195315
687.616046	12653.081905
687.953582	12807.114361
688.291068	12743.963826
688.628504	12985.321670
688.965889	12981.757574
689.303224	12940.634361
689.640510	12831.213597
689.977745	12511.059998
690.314930	12303.583750
690.652065	12205.462731
690.989150	11917.141499
691.326185	11685.991992
691.663170	11482.573873
692.000105	11239.698642
692.336990	11126.817125
692.673825	10862.779131
693.010610	10754.469940
693.347345	10543.091839
693.684030	10354.003199
694.020665	10290.041039
694.357251	10093.249517
694.693786	10023.878199
695.030272	9870.879179
695.366707	9752.369214
695.703093	9690.990646
696.039429	9680.303399
696.375716	9592.269730
696.711952	9465.512437
697.048139	9512.364921
697.384276	9466.394639
697.720363	9491.207198
698.056400	9427.156818
698.392388	9369.307057
698.728326	9332.985543
699.064214	9276.522100
699.400053	9314.038367
699.735842	9129.297722
700.071581	9094.337320
700.407270	9018.898974
700.742910	8944.408364
701.078501	8844.777520
701.414042	8712.870688
701.749533	8655.998911
702.084974	8514.554217
702.420366	8631.982854
702.755709	8510.982559
703.091002	8377.071869
703.426246	8406.860047
703.761440	8362.414714
704.096584	8311.141138
704.431679	8249.326510
704.766725	8236.375786
705.101721	8186.596912
705.436668	8232.337821
705.771565	8127.877552
706.106413	8205.062658
706.441212	8245.296107
706.775961	8207.374027
707.110661	8246.450532
707.445311	8384.484886
707.779913	8281.995707
708.114465	8411.492867
708.448967	8445.175337
708.783421	8600.213503
709.117825	8778.312427
709.452180	8815.160741
709.786485	8899.353051
710.120742	9187.470117
710.454949	9188.324593
710.789107	9291.249831
711.123216	9512.667390
711.457275	9685.384882
711.791286	9832.465587
712.125247	9829.115740
712.459159	9822.221962
712.793023	10055.256861
713.126837	9632.946800
713.460602	9789.325913
713.794318	9609.288665
714.127985	9647.304006
714.461602	9310.824631
714.795171	9264.962734
715.128691	9013.520063
715.462162	8768.885469
715.795584	8711.738949
716.128957	8547.634268
716.462281	8387.698621
716.795556	8436.698637
717.128782	8226.137202
717.461960	7966.830331
717.795088	8038.081999
718.128167	7943.152031
718.461198	7777.378728
718.794180	7722.803196
719.127113	7718.266158
719.459997	7547.171917
719.792833	7327.029770
720.125619	7395.380254
720.458357	7248.334837
720.791046	7242.028354
721.123686	7229.556539
721.456278	7069.073927
721.788821	7089.893893
722.121315	6992.040055
722.453761	7056.314767
722.786158	6998.311251
723.118506	7003.990111
723.450805	6971.419216
723.783056	7033.175871
724.115259	6948.842408
724.447412	6947.750998
724.779518	6997.502146
725.111574	6998.318812
725.443582	7078.153045
725.775542	7049.247069
726.107453	7250.626042
726.439315	7157.334449
726.771129	7231.220120
727.102895	7403.965339
727.434612	7508.844024
727.766281	7546.191413
728.097901	7626.839792
728.429473	7624.326777
728.760996	7608.621062
729.092471	7577.607883
729.423897	7520.577310
729.755276	7521.784666
730.086606	7443.601411
730.417887	7548.757360
730.749120	7760.137982
731.080305	7950.907846
731.411442	8058.659989
731.742530	8047.214049
732.073570	8158.152201
732.404562	8249.326510
732.735506	8099.125331
733.066401	8237.666321
733.397249	8155.011562
733.728048	7922.692508
734.058798	7584.690704
734.389501	7355.348451
734.720156	7177.080648
735.050762	6957.669468
735.381320	6859.881166
735.711831	6804.746067
736.042293	6695.413522
736.372707	6719.303550
736.703073	6580.487817
737.033391	6621.578262
737.363661	6629.744931
737.693883	6671.715058
738.024056	6751.816472
738.354182	6784.031965
738.684260	6820.282903
739.014290	6939.614576
739.344272	7050.681278
739.674207	7081.233190
740.004093	7154.236660
740.333931	7172.478075
740.663722	7178.547624
740.993464	7253.209633
741.323159	7236.621717
741.652806	6984.589230
741.982405	7012.305494
742.311956	7059.604120
742.641460	6884.802110
742.970915	6693.956628
743.300323	6684.247366
743.629683	6641.579040
743.958996	6502.037381
744.288260	6412.269554
744.617477	6363.279621
744.946647	6353.666141
745.275768	6194.408529
745.604842	6145.658051
745.933869	6133.788654
746.262847	6087.858702
746.591778	6080.657413
746.920662	6035.632348
747.249498	6033.510022
747.578286	6082.230253
747.907027	6157.587942
748.235720	6211.714810
748.564365	6186.433424
748.892963	6226.339198
749.221514	6370.881681
749.550017	6188.654052
749.878473	6076.513585
750.206881	6134.282687
750.535242	6080.445685
750.863555	6007.081773
751.191821	6020.234143
751.520039	6018.036200
751.848210	5927.360966
752.176334	5957.514628
752.504411	5997.548951
752.832440	5920.033649
753.160421	5855.726170
753.488356	5904.854735
753.816243	5931.235093
754.144082	5788.726715
754.471875	5761.630513
754.799620	5799.338343
755.127318	5812.268903
755.454969	5768.113437
755.782572	5739.300722
756.110129	5781.003667
756.437638	5763.110091
756.765100	5699.037026
757.092515	5702.833015
757.419882	5757.106077
757.747203	5734.090689
758.074477	5791.151510
758.401703	5777.139623
758.728882	5733.732767
759.056014	5796.162417
759.383099	5917.873514
759.710138	5929.238796
760.037129	5917.530716
760.364073	5921.639256
760.690970	6003.295866
761.017820	5982.029759
761.344623	5941.970230
761.671379	6046.163318
761.998088	6172.439181
762.324751	6427.103150
762.651366	7049.257152
762.977935	8396.543326
763.304456	10038.217761
763.630931	10913.863663
763.957359	10486.517490
764.283740	9530.515595
764.610074	8673.209410
764.936362	7673.480547
765.262602	7080.393838
765.588796	6547.057405
765.914943	6209.199275
766.241044	6041.989243
766.567097	5838.805537
766.893104	5578.082101
767.219064	5405.737654
767.544978	5338.697870
767.870845	5257.487402
768.196665	5154.940250
768.522438	5083.186987
768.848165	5046.772212
769.173846	4977.937777
769.499479	4933.593267
769.825066	4886.849168
770.150607	4824.220393
770.476101	4802.087207
770.801548	4795.778203
771.126949	4716.702664
771.452303	4659.132687
771.777611	4624.883088
772.102872	4641.927229
772.428087	4602.346610
772.753256	4563.580137
773.078378	4512.878732
773.403453	4445.070171
773.728482	4429.102317
774.053465	4386.403743
774.378401	4373.516034
774.703291	4369.450343
775.028135	4294.939569
775.352932	4250.211931
775.677683	4238.476125
776.002388	4255.555554
776.327046	4266.053757
776.651658	4189.897046
776.976224	4129.403200
777.300743	4134.540136
777.625216	4157.099299
777.949643	4150.475223
778.274024	4106.886886
778.598359	4065.602357
778.922647	4091.960030
779.246889	4081.585335
779.571086	4073.516968
779.895236	4056.649267
780.219339	4047.255077
780.543397	4043.350704
780.867409	4091.465997
781.191374	4105.099797
781.515294	4038.720404
781.839167	4036.144374
782.162995	4060.178075
782.486776	4045.825910
782.810511	4054.297569
783.134201	4047.192063
783.457844	3997.072911
783.781441	3944.967545
784.104993	3951.389975
784.428498	3971.541988
784.751958	3967.700628
785.075372	3946.205148
785.398739	3910.042431
785.722061	3921.362342
786.045337	3965.812716
786.368568	3994.438908
786.691752	3907.363058
787.014891	3959.153352
787.337983	4093.588322
787.661030	4257.990432
787.984031	4416.058331
788.306987	4582.875153
788.629897	4671.115510
788.952760	4625.661946
789.275579	4552.837438
789.598351	4485.817818
789.921078	4336.203933
790.243759	4139.714880
790.566395	4124.208291
790.888984	4119.083958
791.211529	4013.096219
791.534027	3951.077424
791.856480	3937.370526
792.178888	3875.979355
792.501249	3828.214422
792.823566	3845.573635
793.145836	3870.701267
793.468062	3816.947443
793.790241	3772.431534
794.112375	3802.698622
794.434464	3870.093808
794.756507	3890.848238
795.078505	3866.590206
795.400457	3906.337183
795.722364	4050.998134
796.044226	4152.829442
796.366042	4231.385742
796.687812	4202.104200
797.009538	4205.940518
797.331218	4170.163449
797.652852	4143.024398
797.974442	4123.056387
798.295986	4120.003968
798.617484	4036.499776
798.938938	3947.813277
799.260346	3993.292046
799.581709	3986.010099
799.903026	3911.227102
800.224299	3875.155126
800.545526	3868.515927
800.866708	3829.230215
801.187845	3771.859363
801.508936	3806.315650
801.829983	3799.966317
802.150984	3721.304152
802.471940	3716.845251
802.792851	3723.534863
803.113717	3724.064184
803.434538	3726.330182
803.755314	3668.732479
804.076045	3643.244405
804.396731	3660.762415
804.717372	3686.542876
805.037967	3672.770443
805.358518	3662.241993
805.679024	3690.850542
805.999485	3703.173642
806.319901	3712.046073
806.640272	3723.020665
806.960598	3735.784866
807.280879	3710.256463
807.601115	3718.581929
807.921306	3741.617481
808.241453	3782.546609
808.561554	3753.963267
808.881611	3685.012885
809.201623	3728.555852
809.521590	3734.587592
809.841513	3710.639591
810.161390	3743.059251
810.481223	3713.628995
810.801011	3664.127385
811.120755	3657.936848
811.440453	3691.095038
811.760107	3691.183258
812.079716	3646.629540
812.399281	3619.223307
812.718801	3645.316319
813.038276	3613.942698
813.357707	3610.880197
813.677093	3629.653454
813.996434	3574.082295
814.315731	3589.145263
814.634983	3589.273812
814.954191	3604.329218
815.273354	3634.732417
815.592473	3627.420223
815.911547	3634.165287
816.230577	3683.339222
816.549562	3732.291347
816.868502	3772.207203
817.187399	3795.903147
817.506250	3792.810399
817.825058	3769.409363
818.143821	3865.735730
818.462539	3966.082418
818.781213	4007.717308
819.099843	4070.157039
819.418429	4327.321420
819.736970	4568.608688
820.055466	4822.670238
820.373919	5193.205128
820.692327	5608.197954
821.010691	6070.683490
821.329011	7516.695621
821.647286	10357.050577
821.965517	15023.843297
822.283704	19053.156908
822.601847	21104.704877
822.919945	19218.872238
823.237999	16604.829802
823.556010	14091.053395
823.873976	11954.587190
824.191897	9845.570067
824.509775	8504.023246
824.827609	7373.226903
825.145398	6840.465162
825.463144	6723.777574
825.780845	6832.812691
826.098502	7046.103910
826.416116	7966.444682
826.733685	9313.448552
827.051210	10424.334857
827.368692	10405.712835
827.686129	9102.214123
828.003522	7589.270593
828.320872	6565.455096
828.638177	5855.985789
828.955439	5290.943019
829.272656	4790.419457
829.589830	4515.880739
829.906960	4336.221578
830.224046	4145.713853
830.541088	4024.363198
830.858086	3979.519614
831.175041	3894.815626
831.491952	3878.915827
831.808819	3894.487951
832.125642	3971.171463
832.442421	4124.523363
832.759157	4413.008433
833.075849	4979.510617
833.392497	5860.767324
833.709101	6650.305277
834.025662	6969.987528
834.342179	6576.023875
834.658653	5896.420884
834.975083	5239.205657
835.291469	4656.904497
835.607811	4260.150566
835.924110	4116.651601
836.240366	3912.343718
836.556578	3712.088923
836.872746	3600.581120
837.188871	3558.537897
837.504952	3492.823936
837.820990	3406.564753
838.136984	3366.190152
838.452935	3388.376270
838.768842	3382.047101
839.084706	3407.333529
839.400526	3573.762182
839.716303	3926.264864
840.032037	4467.372236
840.347727	4714.209813
840.663373	4416.930451
840.978977	4030.949465
841.294537	3722.622414
841.610054	3492.037516
841.925527	3387.189078
842.240957	3315.095537
842.556344	3260.348606
842.871687	3200.638659
843.186987	3150.174189
843.502244	3115.148252
843.817458	3080.893611
844.132629	3048.630227
844.447756	3058.115158
844.762840	3039.263763
845.077881	3009.495749
845.392879	2991.430775
845.707833	2988.479179
846.022745	2987.304590
846.337613	2986.009014
846.652438	2976.115749
846.967221	2973.862353
847.281960	2958.630507
847.596656	2954.474076
847.911309	2954.509364
848.225919	2950.040381
848.540485	2945.215997
848.855009	2944.447221
849.169490	2931.501538
849.483928	2923.695311
849.798323	2925.343768
850.112675	2921.081473
850.426984	2931.814089
850.741251	2928.837288
851.055474	2917.603077
851.369654	2914.701893
851.683792	2917.456883
851.997887	2928.708738
852.311938	2931.148657
852.625947	2917.164496
852.939914	2921.731782
853.253837	2923.050043
853.567718	2908.309709
853.881555	2910.023702
854.195350	2927.453491
854.509103	2920.073242
854.822812	2911.382293
855.136479	2908.841551
855.450103	2909.948084
855.763685	2906.265522
856.077224	2900.637073
856.390720	2914.094433
856.704173	2922.424940
857.017584	2914.351532
857.330953	2914.893456
857.644278	2922.629107
857.957561	2932.928184
858.270802	2936.656118
858.584000	2934.251487
858.897155	2919.508633
859.210268	2919.561565
859.523339	2916.438570
859.836367	2918.344126
860.149352	2911.818353
860.462295	2908.597055
860.775195	2918.518046
861.088054	2916.793971
861.400869	2896.977196
861.713642	2893.937380
862.026373	2911.649474
862.339062	2914.273394
862.651708	2920.642892
862.964312	2923.191196
863.276873	2914.989238
863.589392	2926.866197
863.901869	2942.070317
864.214303	2961.781228
864.526696	2975.150368
864.839045	2973.196921
865.151353	2968.483442
865.463619	2971.868577
865.775842	2970.691468
866.088023	2992.882627
866.400162	2996.907988
866.712258	2964.551342
867.024313	2958.748974
867.336325	2965.471353
867.648296	2988.625373
867.960224	2982.351657
868.272110	2965.287351
868.583954	2968.710294
868.895755	2985.101606
869.207515	2972.198773
869.519233	2977.645739
869.830909	2987.425578
870.142542	2996.275323
870.454134	2996.066116
870.765684	2999.799090
871.077191	2998.246415
871.388657	3009.533558
871.700081	3023.177441
872.011463	3030.487114
872.322803	3032.344779
872.634101	3032.435520
872.945357	3048.995710
873.256571	3073.389854
873.567744	3067.184193
873.878874	3063.947773
874.189963	3085.075248
874.501010	3087.225301
874.812015	3075.315575
875.122979	3074.365317
875.433900	3073.437745
875.744780	3080.540731
876.055618	3088.024323
876.366415	3083.232707
876.677169	3093.902309
876.987882	3090.005497
877.298554	3086.491813
877.609183	3111.841255
877.919771	3131.912609
878.230317	3162.111641
878.540822	3211.242726
878.851285	3250.785537
879.161707	3294.525108
879.472087	3404.001326
879.782425	3645.946464
880.092722	4095.947582
880.402977	4637.362464
880.713191	5284.656700
881.023363	6478.210367
881.333494	7782.424923
881.643583	8312.172054
881.953631	7995.519537
882.263637	7344.008376
882.573602	6730.094140
882.883526	6143.142515
883.193408	5572.138581
883.503248	5115.669662
883.813048	4803.675171
884.122806	4487.723374
884.432522	4161.364115
884.742197	3925.183537
885.051831	3732.397211
885.361424	3602.141357
885.670975	3527.877599
885.980485	3438.054320
886.289954	3356.339737
886.599382	3315.007317
886.908768	3277.052469
887.218113	3232.652507
887.527417	3174.603620
887.836680	3120.670836
888.145901	3115.385186
888.455082	3102.109307
888.764221	3054.724982
889.073319	3025.566948
889.382376	3023.333717
889.691392	3026.285312
890.000366	3024.475538
890.309300	3013.042201
890.618193	3026.600384
890.927044	3042.797612
891.235855	3039.362065
891.544625	3028.024510
891.853353	3037.365768
892.162041	3057.966444
892.470687	3102.227774
892.779293	3153.453459
893.087858	3200.079091
893.396381	3273.798404
893.704864	3401.652148
894.013306	3653.135149
894.321707	3958.684525
894.630068	4160.711286
894.938387	4152.937827
895.246665	4106.133234
895.554903	3981.732680
895.863100	3780.134417
896.171256	3609.745938
896.479371	3465.644555
896.787446	3339.182170
897.095480	3235.309195
897.403473	3172.178825
897.711425	3134.496200
898.019336	3126.962196
898.327207	3095.034048
898.635038	3057.094324
898.942827	3042.792571
899.250576	3033.925181
899.558284	3001.175325
899.865952	2978.790081
900.173579	2957.942390
900.481165	2951.265381
900.788711	2940.053855
901.096216	2913.055956
901.403681	2903.918864
901.711105	2910.759710
902.018489	2909.592683
902.325832	2907.694689
902.633135	2916.141142
902.940397	2956.535908
903.247619	3042.502704
903.554800	3241.272880
903.861941	3605.917182
904.169041	4042.173594
904.476101	4341.527392
904.783121	4276.378040
905.090100	4024.544679
905.397039	3741.982965
905.703938	3489.927793
906.010796	3302.853095
906.317614	3191.007535
906.624391	3093.095724
906.931129	3019.885568
907.237826	2959.462298
907.544483	2912.793816
907.851099	2882.587222
908.157675	2858.480424
908.464211	2837.615088
908.770707	2824.135043
909.077163	2811.048208
909.383578	2796.799386
909.689954	2784.083076
909.996289	2783.677263
910.302584	2786.485186
910.608839	2785.454270
910.915054	2780.886984
911.221229	2770.746703
911.527363	2775.283742
911.833458	2782.948816
912.139513	2786.855710
912.445527	2790.127419
912.751502	2798.016825
913.057436	2807.481591
913.363331	2823.517502
913.669186	2844.786130
913.975000	2879.844834
914.280775	2944.492591
914.586510	3014.965401
914.892205	3097.574789
915.197859	3233.325501
915.503475	3434.477622
915.809050	3653.092299
916.114585	3800.155360
916.420081	3814.696568
916.725536	3750.187443
917.030952	3625.229842
917.336328	3495.742764
917.641665	3362.472301
917.946961	3259.751229
918.252218	3189.742205
918.557435	3107.941922
918.862612	3048.095864
919.167750	2997.149964
919.472848	2958.007925
919.777906	2932.361054
920.082925	2904.342321
920.387904	2872.270501
920.692843	2857.711648
920.997743	2844.292097
921.302603	2827.724345
921.607423	2818.955257
921.912204	2806.964873
922.216946	2794.732513
922.521647	2785.275309
922.826310	2777.592590
923.130932	2770.668565
923.435516	2760.603902
923.740059	2756.999477
924.044564	2745.679566
924.349028	2742.175964
924.653454	2734.105077
924.957840	2725.830022
925.262186	2721.166955
925.566493	2719.231152
925.870761	2715.195708
926.174989	2709.312682
926.479178	2704.352187
926.783328	2699.371527
927.087438	2698.794314
927.391509	2697.733152
927.695541	2692.974302
927.999533	2690.995649
928.303486	2689.511030
928.607400	2688.162521
928.911275	2687.214784
929.215110	2685.044567
929.518906	2684.497602
929.822663	2684.870647
930.126381	2686.874506
930.430060	2685.281502
930.733699	2688.240659
931.037299	2688.953982
931.340861	2691.066226
931.644383	2689.942048
931.947866	2688.893488
932.251309	2685.606656
932.554714	2686.539269
932.858080	2682.753363
933.161407	2679.910152
933.464694	2681.878723
933.767943	2676.598114
934.071153	2677.876047
934.374323	2679.635409
934.677455	2677.437466
934.980548	2678.934689
935.283602	2678.670028
935.586617	2675.410922
935.889593	2679.282528
936.192530	2679.650533
936.495428	2676.545182
936.798287	2680.880574
937.101108	2682.612211
937.403890	2687.668488
937.706632	2691.116637
938.009336	2696.137626
938.312002	2708.574153
938.614628	2716.501367
938.917216	2721.759291
939.219765	2724.078222
939.522275	2723.826164
939.824747	2718.669063
940.127179	2719.195864
940.429573	2715.800647
940.731929	2712.773434
941.034246	2710.381407
941.336524	2704.430324
941.638763	2702.537371
941.940964	2700.099973
942.243126	2697.718028
942.545250	2699.694160
942.847335	2694.211906
943.149381	2693.301977
943.451389	2685.372242
943.753359	2683.620441
944.055290	2684.880730
944.357182	2681.039371
944.659036	2682.791172
944.960851	2679.917714
945.262628	2679.577436
945.564367	2682.143383
945.866067	2679.179185
946.167729	2681.092303
946.469352	2679.635409
946.770937	2680.867971
947.072484	2680.406706
947.373992	2677.586180
947.675462	2677.606345
947.976893	2669.263235
948.278286	2671.178874
948.579641	2673.210459
948.880958	2670.074861
949.182236	2672.108967
949.483476	2669.326250
949.784678	2671.872032
950.085841	2672.794563
950.386967	2672.940757
950.688054	2672.509738
950.989103	2673.049142
951.290114	2675.030315
951.591087	2677.056859
951.892021	2677.573577
952.192917	2681.175482
952.493776	2682.970132
952.794596	2684.280832
953.095378	2681.795544
953.396122	2681.137673
953.696828	2678.985100
953.997496	2681.044412
954.298126	2675.173988
954.598718	2673.543175
954.899272	2673.485202
955.199788	2668.837258
955.500266	2667.511434
955.800706	2667.070333
956.101108	2663.017246
956.401472	2660.617656
956.701798	2659.506082
957.002087	2655.649599
957.302337	2655.087511
957.602550	2655.127840
957.902724	2652.960144
958.202861	2651.949392
958.502960	2651.805719
958.803022	2653.053405
959.103045	2650.361429
959.403031	2648.055101
959.702979	2649.166675
960.002889	2648.075266
960.302762	2648.362611
960.602596	2644.911942
960.902393	2646.641057
961.202153	2645.932775
961.501875	2645.060656
961.801559	2645.688279
962.101205	2645.090902
962.400814	2645.277425
962.700385	2643.306334
962.999918	2641.839358
963.299414	2643.886067
963.598873	2642.595531
963.898293	2637.728297
964.197677	2646.446973
964.497022	2643.951602
964.796331	2642.363638
965.095601	2642.527476
965.394835	2643.361787
965.694030	2642.819863
965.993189	2642.043525
966.292309	2641.589821
966.591393	2639.490181
966.890439	2645.012765
967.189447	2642.477064
967.488419	2641.405819
967.787353	2641.786426
968.086249	2639.747279
968.385108	2642.381282
968.683930	2642.315747
968.982714	2640.677372
969.281462	2641.108391
969.580172	2643.238278
969.878844	2640.894142
970.177480	2641.120994
970.476078	2639.843061
970.774639	2641.393216
971.073162	2643.208032
971.371649	2643.815491
971.670098	2643.260964
971.968510	2642.557723
972.266885	2641.607465
972.565223	2643.959163
972.863524	2640.962197
973.161788	2642.222486
973.460014	2642.759369
973.758204	2642.824904
974.056356	2640.279121
974.354471	2643.722229
974.652550	2640.498411
974.950591	2642.756848
975.248595	2644.952271
975.546563	2643.870943
975.844493	2642.913124
976.142386	2640.788278
976.440243	2639.749800
976.738062	2641.289872
977.035845	2641.052938
977.333590	2643.268525
977.631299	2640.863895
977.928971	2637.844244
978.226606	2636.178142
978.524204	2639.815335
978.821765	2637.788791
979.119290	2638.713843
979.416777	2639.364152
979.714228	2639.023874
980.011642	2639.044038
980.309020	2639.591004
980.606360	2641.264667
980.903664	2640.425315
981.200931	2637.826600
981.498162	2640.604276
981.795356	2643.334060
982.092513	2643.439925
982.389633	2645.471510
982.686717	2648.234062
982.983764	2651.951913
983.280775	2659.133037
983.577749	2658.434837
983.874686	2658.739827
984.171587	2656.463746
984.468451	2653.993580
984.765279	2648.654998
985.062070	2648.334885
985.358824	2647.760193
985.655543	2646.172230
985.952224	2646.996459
986.248869	2641.655356
986.545478	2643.714667
986.842050	2641.000006
987.138586	2638.512197
987.435086	2641.483957
987.731549	2637.526651
988.027975	2639.341467
988.324366	2637.667803
988.620719	2636.652011
988.917037	2637.816517
989.213318	2635.348873
989.509563	2635.663945
989.805772	2636.488173
990.101944	2637.060344
990.398080	2637.478760
990.694180	2635.643780
990.990244	2636.220992
991.286271	2636.586476
991.582262	2637.151085
991.878217	2638.537402
992.174136	2639.827938
992.470019	2635.795015
992.765865	2633.327370
993.061676	2635.719397
993.357450	2635.003554
993.653188	2633.617236
993.948890	2637.478760
994.244556	2637.037659
994.540186	2637.756024
994.835780	2635.878194
995.131337	2638.502114
995.426859	2640.135448
995.722345	2639.225520
996.017795	2639.608648
996.313208	2641.844399
996.608586	2640.211066
996.903928	2641.448669
997.199234	2643.220634
997.494504	2641.405819
997.789738	2642.356077
998.084936	2640.425315
998.380099	2639.303658
998.675225	2640.904224
998.970316	2639.643936
999.265371	2638.103863
999.560390	2636.488173
999.855373	2635.439613
1000.150320	2636.873822
1000.445232	2635.333749
1000.740108	2635.880714
1001.034948	2636.588997
1001.329752	2634.539767
1001.624521	2636.989768
1001.919254	2634.118831
1002.213951	2635.545478
1002.508613	2632.785446
1002.803239	2636.427680
1003.097829	2633.667648
1003.392384	2636.790643
1003.686903	2633.765950
1003.981386	2636.468009
1004.275834	2635.071609
1004.570246	2636.152937
1004.864623	2634.491877
1005.158964	2635.051445
1005.453270	2633.529016
1005.747540	2633.786115
1006.041775	2633.715539
1006.335974	2635.681589
1006.630138	2632.908954
1006.924266	2635.323667
1007.218359	2637.327526
1007.512416	2631.192441
1007.806438	2629.715383
1008.100425	2629.894344
1008.394376	2629.717904
1008.688292	2635.492546
1008.982172	2631.930970
1009.276017	2632.853502
1009.569827	2636.692340
1009.863602	2631.933491
1010.157341	2635.762247
1010.451045	2633.758389
1010.744714	2633.423152
1011.038347	2635.613533
1011.331945	2633.725621
1011.625508	2634.824593
1011.919036	2636.062196
1012.212528	2632.883748
1012.505986	2633.609675
1012.799408	2636.165540
1013.092795	2630.574900
1013.386147	2636.825931
1013.679464	2636.067237
1013.972745	2632.104890
1014.265992	2632.457771
1014.559204	2634.731331
1014.852380	2633.203862
1015.145521	2636.291568
1015.438628	2630.902575
1015.731699	2631.134468
1016.024736	2632.843419
1016.317737	2632.014149
1016.610703	2632.833337
1016.903635	2633.554222
1017.196531	2631.081536
1017.489393	2632.750158
1017.782219	2632.765281
1018.075011	2632.384674
1018.367768	2633.498769
1018.660490	2630.640435
1018.953177	2630.640435
1019.245829	2630.640435
