Dividing Wavelength (nm)	Counts (n)	Blue Motor Position (mm): 13.200000	Red Motor Position (mm): 0.000000	
326.493990	2167.348314
326.888308	2167.348314
327.282561	2167.348314
327.676750	2127.182921
328.070874	2123.066819
328.464933	2125.184103
328.858929	2125.312653
329.252859	2132.327418
329.646726	2143.087761
330.040528	2154.180820
330.434265	2164.028714
330.827938	2186.895388
331.221547	2202.149920
331.615091	2215.569471
332.008571	2236.797770
332.401986	2255.966758
332.795338	2274.044335
333.188625	2293.135185
333.581847	2312.200829
333.975006	2327.561225
334.368100	2346.662157
334.761129	2367.419108
335.154095	2382.000645
335.546996	2406.011661
335.939833	2428.543098
336.332606	2443.021292
336.725315	2456.060236
337.117960	2470.286372
337.510540	2481.034112
337.903056	2490.924856
338.295508	2500.293841
338.687896	2510.981087
339.080220	2519.359484
339.472480	2524.382994
339.864676	2531.438089
340.256807	2536.184335
340.648875	2540.549975
341.040879	2544.217414
341.432818	2544.348484
341.824694	2548.351160
342.216506	2546.876623
342.608253	2547.612631
342.999937	2550.440718
343.391557	2550.039947
343.783113	2548.676315
344.174605	2546.982487
344.566033	2545.676828
344.957397	2546.496016
345.348697	2545.167672
345.739934	2544.676159
346.131106	2539.766075
346.522215	2538.886394
346.913260	2535.602082
347.304241	2534.341794
347.695159	2533.464633
348.086012	2533.091588
348.476802	2529.025897
348.867528	2526.996833
349.258191	2520.450894
349.648789	2520.763446
350.039324	2519.490554
350.429796	2524.067922
350.820203	2521.955679
351.210548	2519.354443
351.600828	2517.408558
351.991045	2516.410409
352.381198	2516.584329
352.771288	2515.616428
353.161314	2514.656088
353.551276	2516.808661
353.941175	2512.047291
354.331010	2513.355470
354.720782	2513.927641
355.110490	2512.339678
355.500135	2513.085768
355.889717	2510.393792
356.279235	2513.668022
356.668689	2514.482168
357.058080	2517.509381
357.447408	2516.135667
357.836672	2515.074504
358.225873	2514.804802
358.615010	2517.743795
359.004084	2515.835718
359.393095	2517.373270
359.782043	2518.016017
360.170927	2517.567354
360.559748	2518.852848
360.948505	2518.013496
361.337199	2517.312776
361.725830	2518.464680
362.114398	2520.075328
362.502903	2520.894516
362.891344	2521.953158
363.279722	2521.960720
363.668037	2522.477438
364.056289	2521.436440
364.444478	2525.895340
364.832603	2522.021214
365.220665	2522.497603
365.608665	2524.471214
365.996601	2522.716893
366.384474	2526.699404
366.772284	2525.484486
367.160031	2525.623118
367.547715	2527.286699
367.935336	2526.280989
368.322893	2525.113962
368.710388	2522.439629
369.097820	2526.230577
369.485189	2521.275123
369.872495	2528.418438
370.259738	2526.575896
370.646918	2527.589168
371.034035	2528.746113
371.421090	2528.007584
371.808081	2526.782583
372.195010	2529.993798
372.581875	2529.093952
372.968678	2529.139323
373.355418	2529.769467
373.742096	2531.987575
374.128710	2529.376257
374.515262	2531.612009
374.901751	2529.789632
375.288177	2530.089580
375.674540	2529.346010
376.060841	2531.977492
376.447079	2529.797193
376.833254	2532.917668
377.219367	2532.733666
377.605417	2534.792977
377.991404	2533.091587
378.377329	2532.428676
378.763191	2533.474715
379.148991	2533.550332
379.534727	2531.370033
379.920402	2533.799870
380.306013	2532.504293
380.691563	2535.103008
381.077049	2534.377082
381.462474	2534.346835
381.847835	2534.901362
382.233134	2534.787936
382.618371	2535.382792
383.003545	2536.121321
383.388657	2533.688964
383.773706	2535.097967
384.158693	2534.351876
384.543618	2534.157792
384.928480	2535.670138
385.313280	2536.166691
385.698017	2535.695343
386.082692	2537.363965
386.467305	2536.227185
386.851856	2537.134593
387.236344	2536.217103
387.620770	2535.912113
388.005133	2533.114273
388.389435	2534.820703
388.773674	2536.353214
389.157851	2536.605272
389.541965	2538.430169
389.926018	2539.806404
390.310008	2539.360262
390.693936	2540.502084
391.077802	2539.519059
391.461606	2541.023843
391.845348	2539.314892
392.229027	2540.557536
392.612645	2538.493184
392.996200	2540.731456
393.379694	2540.476878
393.763125	2541.462423
394.146494	2543.660367
394.529801	2542.601724
394.913047	2541.215407
395.296230	2542.382434
395.679351	2543.320089
396.062410	2543.078113
396.445408	2541.202804
396.828343	2542.899152
397.211217	2543.662887
397.594028	2542.049718
397.976778	2545.656663
398.359466	2540.736497
398.742092	2544.585418
399.124656	2545.182795
399.507158	2543.856972
399.889598	2545.313865
400.271977	2544.227496
400.654294	2542.006868
401.036549	2542.798329
401.418742	2546.543907
401.800874	2545.334030
402.182944	2544.078782
402.564952	2544.194729
402.946898	2547.524411
403.328783	2544.719009
403.710606	2545.528114
404.092367	2545.437373
404.474067	2543.506611
404.855705	2545.172713
405.237282	2545.770089
405.618797	2546.564071
406.000250	2546.332178
406.381642	2547.189174
406.762972	2544.938299
407.144240	2544.235058
407.525447	2546.397713
407.906593	2543.131045
408.287677	2547.635316
408.668700	2547.680687
409.049661	2548.656150
409.430560	2545.974256
409.811399	2549.818136
410.192176	2546.352343
410.572891	2546.105326
410.953545	2546.921993
411.334138	2550.302087
411.714669	2548.595656
412.095139	2551.149001
412.475547	2548.152035
412.855894	2551.058260
413.236180	2548.628424
413.616405	2549.634134
413.996568	2549.187992
414.376670	2551.519525
414.756711	2549.258568
415.136691	2551.703528
415.516609	2548.404092
415.896466	2552.275698
416.276262	2549.767724
416.655997	2549.404761
417.035670	2551.285112
417.415283	2550.002138
417.794834	2552.212684
418.174324	2553.354505
418.553753	2551.549772
418.933121	2553.813250
419.312428	2552.676470
419.691674	2556.835422
420.070859	2551.902653
420.449983	2551.779145
420.829045	2549.989535
421.208047	2552.379042
421.586988	2552.366439
421.965867	2552.618497
422.344686	2551.257385
422.723444	2555.383570
423.102141	2552.636141
423.480777	2553.803168
423.859352	2553.893909
424.237866	2554.455998
424.616319	2552.452139
424.994712	2553.079762
425.373044	2555.519681
425.751314	2552.545400
426.129524	2550.939793
426.507673	2551.940462
426.885762	2550.692776
427.263789	2557.213509
427.641756	2554.072870
428.019662	2554.687891
428.397508	2554.539177
428.775292	2555.401214
429.153016	2555.033210
429.530679	2557.425237
429.908282	2555.282747
430.285824	2555.444064
430.663305	2553.397355
431.040726	2555.423899
431.418086	2555.590257
431.795385	2555.844835
432.172624	2556.341389
432.549802	2555.159238
432.926920	2559.988664
433.303977	2555.761656
433.680974	2556.560679
434.057910	2558.045299
434.434786	2557.389949
434.811601	2557.820968
435.188355	2557.616801
435.565050	2557.954558
435.941683	2557.644527
436.318257	2554.098076
436.694770	2555.872562
437.071222	2558.040258
437.447614	2558.478838
437.823946	2559.224929
438.200218	2560.071843
438.576429	2555.151677
438.952580	2557.140412
439.328670	2559.655948
439.704700	2557.084959
440.080670	2558.776266
440.456580	2556.641338
440.832429	2559.542522
441.208218	2556.404403
441.583947	2556.681667
441.959616	2554.917263
442.335224	2558.952707
442.710773	2557.901626
443.086261	2558.657799
443.461689	2560.074363
443.837057	2560.749878
444.212365	2558.647717
444.587612	2554.403065
444.962800	2555.794424
445.337927	2559.522357
445.712995	2553.924156
446.088002	2560.124775
446.462949	2559.787018
446.837837	2559.726524
447.212664	2560.933880
447.587431	2559.542522
447.962139	2560.843139
448.336786	2562.158881
448.711374	2563.295661
449.085901	2563.429251
449.460369	2561.498489
449.834776	2559.429096
450.209124	2560.127296
450.583412	2559.754250
450.957640	2561.344734
451.331808	2561.813562
451.705917	2560.444888
452.079965	2559.071174
452.453954	2562.710887
452.827883	2559.771894
453.201752	2562.589899
453.575562	2561.972358
453.949311	2559.978582
454.323001	2562.922615
454.696632	2561.049827
455.070202	2561.299364
455.443713	2562.501679
455.817164	2561.221226
456.190556	2564.699622
456.563888	2561.511092
456.937160	2563.464539
457.310373	2564.152657
457.683526	2559.575289
458.056619	2564.208110
458.429653	2563.688871
458.802628	2565.750703
459.175542	2563.769529
459.548398	2566.418656
459.921194	2565.327246
460.293930	2564.772719
460.666607	2565.755744
461.039224	2566.141392
461.411782	2566.295147
461.784280	2563.887996
462.156719	2564.813048
462.529099	2566.935374
462.901419	2567.116855
463.273680	2562.322718
463.645882	2560.666699
464.018024	2562.605023
464.390106	2563.570404
464.762130	2566.373285
465.134094	2565.100394
465.505999	2566.524520
465.877845	2568.125086
466.249631	2569.624829
466.621358	2568.311609
466.993026	2568.568708
467.364634	2573.015005
467.736184	2569.660117
468.107674	2568.856053
468.479105	2568.125086
468.850477	2570.794377
469.221790	2569.256825
469.593043	2567.414283
469.964238	2569.397977
470.335373	2571.298493
470.706449	2569.345045
471.077467	2569.413101
471.448425	2570.050807
471.819324	2569.997875
472.190164	2571.573235
472.560945	2569.861764
472.931667	2572.001733
473.302330	2572.208421
473.672934	2571.734552
474.043479	2570.234809
474.413965	2569.594582
474.784393	2569.433266
475.154761	2570.685992
475.525070	2570.139027
475.895321	2569.942422
476.265513	2570.549881
476.635645	2572.969635
477.005719	2574.093812
477.375734	2574.590366
477.745691	2574.713874
478.115588	2572.682289
478.485427	2575.152455
478.855207	2575.192784
479.224928	2574.078689
479.594591	2577.882239
479.964194	2574.514749
480.333739	2576.511046
480.703226	2575.598597
481.072653	2576.879050
481.442022	2574.204718
481.811333	2571.742114
482.180584	2572.684810
482.549777	2575.528021
482.918912	2570.093657
483.287988	2577.993145
483.657005	2575.283525
484.025964	2580.410378
484.394864	2573.836713
484.763706	2574.464337
485.132489	2576.233782
485.501213	2578.058680
485.869879	2576.579101
486.238487	2579.291242
486.607036	2576.238823
486.975527	2576.816035
487.343959	2577.073134
487.712333	2578.285532
488.080648	2575.840572
488.448905	2578.653536
488.817104	2576.155644
489.185244	2577.385686
489.553326	2580.574216
489.921350	2579.543300
490.289315	2580.541448
490.657222	2582.615883
491.025070	2579.951633
491.392861	2580.586818
491.760593	2578.663618
492.128267	2581.063208
492.495883	2579.692014
492.863440	2582.817529
493.230939	2579.495409
493.598380	2580.428022
493.965763	2576.727815
494.333088	2578.608166
494.700354	2579.669328
495.067563	2577.410892
495.434713	2576.044739
495.801805	2582.804926
496.168839	2579.172775
496.535815	2577.826787
496.902733	2579.893660
497.269593	2579.001376
497.636395	2580.233938
498.003139	2579.346695
498.369825	2579.729822
498.736453	2579.860892
499.103023	2581.847107
499.469535	2581.600090
499.835989	2580.228897
500.202385	2577.690676
500.568723	2576.793350
500.935003	2577.552044
501.301226	2576.891653
501.667390	2580.722930
502.033497	2582.401634
502.399546	2580.455748
502.765537	2578.366190
503.131470	2581.940368
503.497345	2582.545307
503.863163	2579.820563
504.228923	2582.000862
504.594625	2582.671336
504.960269	2584.556727
505.325856	2583.233424
505.691385	2581.935327
506.056856	2582.913311
506.422270	2582.257961
506.787625	2584.619742
507.152924	2585.764083
507.518164	2588.324990
507.883347	2584.992787
508.248472	2586.759711
508.613540	2585.312900
508.978550	2586.363981
509.343503	2588.564444
509.708398	2588.448498
510.073236	2588.647623
510.438016	2590.774990
510.802738	2591.321956
511.167403	2589.270206
511.532010	2590.086873
511.896561	2590.903540
512.261053	2593.139292
512.625488	2591.984867
512.989866	2593.832450
513.354186	2593.998808
513.718449	2593.300608
514.082655	2595.564087
514.446803	2595.133068
514.810894	2597.935949
515.174927	2599.755806
515.538904	2598.666917
515.902822	2598.518203
516.266684	2599.090374
516.630488	2598.137596
516.994235	2596.355548
517.357925	2598.891248
517.721558	2604.930550
518.085133	2601.976434
518.448651	2601.177411
518.812112	2600.136413
519.175516	2600.012905
519.538863	2601.973914
519.902152	2607.430963
520.265385	2607.075561
520.628560	2605.064141
520.991678	2605.485077
521.354739	2606.863833
521.717743	2608.091354
522.080690	2612.096551
522.443580	2612.865327
522.806413	2611.431118
523.169189	2613.351798
523.531908	2615.522015
523.894569	2614.783486
524.257174	2617.246089
524.619722	2616.923455
524.982213	2617.019237
525.344647	2618.352622
525.707025	2622.617439
526.069345	2620.270782
526.431608	2621.881430
526.793815	2618.652571
527.155964	2621.901595
527.518057	2621.379835
527.880093	2623.416462
528.242072	2622.907305
528.603995	2625.659775
528.965860	2625.684981
529.327669	2626.108438
529.689421	2628.954169
530.051117	2629.584313
530.412755	2630.138840
530.774337	2627.497276
531.135862	2628.810496
531.497331	2634.194448
531.858743	2634.794346
532.220098	2635.739562
532.581396	2635.237967
532.942638	2633.556742
533.303824	2638.492032
533.664953	2639.787609
534.026025	2635.812659
534.387040	2638.187042
534.747999	2640.271559
535.108902	2638.290386
535.469748	2640.231230
535.830537	2642.386323
536.191270	2646.033598
536.551947	2638.570170
536.912567	2639.785088
537.273131	2646.177271
537.633638	2641.819194
537.994089	2648.150883
538.354483	2646.986376
538.714821	2651.712458
539.075103	2650.051398
539.435328	2652.350164
539.795497	2652.425781
540.155609	2655.032058
540.515665	2653.728920
540.875665	2654.709424
541.235609	2657.005670
541.595496	2660.491627
541.955328	2658.908705
542.315102	2665.003460
542.674821	2661.275527
543.034483	2662.644200
543.394090	2664.877431
543.753640	2666.299037
544.113134	2671.095695
544.472571	2667.403049
544.831953	2669.235509
545.191278	2671.108297
545.550548	2670.871363
545.909761	2676.391427
546.268918	2676.356139
546.628019	2679.552230
546.987064	2679.973167
547.346053	2679.191788
547.704986	2679.758917
548.063863	2683.139011
548.422684	2685.218487
548.781449	2686.677901
549.140158	2686.554393
549.498811	2687.522294
549.857408	2686.385514
550.215949	2689.190916
550.574434	2689.947089
550.932864	2693.609488
551.291237	2693.790969
551.649555	2698.970755
552.007817	2702.771785
552.366022	2699.694160
552.724173	2704.163143
553.082267	2706.189687
553.440305	2709.499205
553.798288	2710.646067
554.156215	2712.009699
554.514086	2717.065977
554.871902	2711.971891
555.229661	2716.342571
555.587365	2715.558672
555.945014	2723.342213
556.302606	2725.456977
556.660143	2729.333624
557.017625	2736.497104
557.375050	2737.154975
557.732421	2739.620099
558.089735	2741.359297
558.446994	2744.252919
558.804197	2751.592839
559.161345	2757.301946
559.518437	2753.442943
559.875474	2761.924684
560.232455	2763.978954
560.589381	2769.035232
560.946251	2771.707043
561.303065	2778.966305
561.659825	2784.874537
562.016528	2783.289094
562.373177	2787.037192
562.729770	2792.753860
563.086307	2799.017494
563.442789	2807.332877
563.799216	2811.706078
564.155587	2818.640185
564.511904	2825.765856
564.868164	2827.454643
565.224370	2834.890345
565.580520	2833.922443
565.936615	2846.490040
566.292654	2847.697396
566.648638	2859.902030
567.004567	2863.367823
567.360441	2872.293186
567.716260	2875.653115
568.072023	2891.779766
568.427732	2896.097514
568.783385	2900.783267
569.138982	2909.779206
569.494525	2926.354520
569.850013	2935.073195
570.205445	2943.207097
570.560823	2941.951850
570.916145	2959.500106
571.271412	2963.875828
571.626625	2982.026502
571.981782	2991.564365
572.336884	2996.308091
572.691931	3008.525327
573.046923	3008.290914
573.401860	3021.198788
573.756743	3045.597973
574.111570	3055.667678
574.466342	3064.545149
574.821059	3080.679362
575.175722	3081.843869
575.530330	3103.104935
575.884882	3119.234107
576.239380	3133.092239
576.593823	3146.168992
576.948211	3155.331289
577.302544	3166.298319
577.656823	3179.455731
578.011047	3199.595140
578.365216	3212.777758
578.719330	3235.163001
579.073389	3243.362438
579.427394	3277.160854
579.781344	3276.097171
580.135239	3298.187507
580.489080	3309.303251
580.842866	3317.664005
581.196597	3369.716439
581.550273	3369.910523
581.903895	3402.768764
582.257463	3428.723144
582.610975	3441.701595
582.964434	3473.387768
583.317837	3493.812002
583.671186	3518.801002
584.024481	3553.998338
584.377721	3556.269378
584.730906	3586.249120
585.084037	3613.347842
585.437113	3636.703508
585.790135	3667.593178
586.143103	3674.481915
586.496016	3688.206456
586.848874	3743.253336
587.201679	3760.950306
587.554428	3770.304167
587.907124	3824.816684
588.259765	3846.022298
588.612352	3895.342427
588.964884	3895.642375
589.317362	3933.090587
589.669786	3969.006287
590.022155	3999.807737
590.374470	4055.043660
590.726731	4077.232299
591.078937	4087.203701
591.431090	4125.100575
591.783188	4135.165239
592.135232	4159.125843
592.487222	4218.218248
592.839157	4245.059872
593.191038	4279.634626
593.542866	4284.562353
593.894639	4316.548475
594.246358	4374.342783
594.598022	4387.565729
594.949633	4406.596085
595.301190	4427.884878
595.652692	4489.679342
596.004141	4544.930388
596.355535	4513.725646
596.706876	4556.545206
597.058162	4585.047890
597.409395	4631.572699
597.760573	4690.339950
598.111698	4701.543914
598.462768	4736.106065
598.813785	4768.218215
599.164748	4779.976707
599.515657	4822.352646
599.866511	4834.108617
600.217312	4918.928551
600.568060	4894.483996
600.918753	4989.073686
601.269392	5032.097413
601.619978	5026.226990
601.970510	5120.178974
602.320988	5141.283764
602.671412	5211.628025
603.021783	5242.457202
603.372100	5249.514817
603.722363	5320.176670
604.072572	5359.674111
604.422728	5410.660341
604.772830	5442.273417
605.122878	5448.796670
605.472872	5517.868039
605.822813	5567.268826
606.172701	5603.766780
606.522534	5688.390109
606.872314	5737.818622
607.222041	5739.825002
607.571714	5838.404765
607.921333	5866.695721
608.270899	5930.305000
608.620411	6032.547162
608.969870	6007.432133
609.319276	6069.153500
609.668627	6143.593698
610.017926	6220.930040
610.367171	6300.981042
610.716362	6388.150154
611.065500	6377.283947
611.414585	6466.744263
611.763616	6521.392891
612.112594	6568.305869
612.461518	6590.512152
612.810389	6703.761673
613.159207	6698.823863
613.507971	6740.557055
613.856682	6907.968733
614.205340	6932.786333
614.553945	7059.296609
614.902496	7009.474886
615.250994	7166.423649
615.599439	7198.283742
615.947830	7245.685711
616.296169	7293.433000
616.644454	7368.253805
616.992686	7386.863225
617.340864	7530.163064
617.688990	7529.835389
618.037063	7664.308168
618.385082	7678.529263
618.733048	7812.102196
619.080961	7827.787746
619.428821	7916.622959
619.776628	7963.145247
620.124382	7977.789799
620.472083	8054.720327
620.819731	8134.620095
621.167326	8072.535765
621.514868	8129.848643
621.862357	8121.129967
622.209793	8175.282042
622.557176	8170.810539
622.904506	8140.339284
623.251783	8163.742841
623.599007	8164.050351
623.946179	8196.434724
624.293297	8225.149136
624.640363	8199.966052
624.987376	8241.351404
625.334336	8201.712812
625.681243	8207.507618
626.028097	8241.379131
626.374899	8316.600708
626.721647	8267.754448
627.068343	8258.095597
627.414987	8286.129453
627.761577	8352.191254
628.108115	8429.247811
628.454600	8341.768668
628.801032	8413.451356
629.147412	8443.050490
629.493739	8503.241867
629.840014	8482.242941
630.186236	8568.718894
630.532405	8518.377932
630.878521	8657.062595
631.224585	8651.829877
631.570597	8646.287128
631.916556	8674.348711
632.262462	8710.299700
632.608316	8751.145649
632.954117	8761.822813
633.299866	8808.816449
633.645562	8826.599119
633.991206	8741.658197
634.336797	8702.271662
634.682336	8763.632587
635.027823	8743.021829
635.373257	8753.310824
635.718639	8717.924445
636.063968	8746.316223
636.409245	8678.860544
636.754470	8726.983398
637.099642	8702.579173
637.444762	8611.722457
637.789829	8697.217906
638.134845	8649.236203
638.479808	8709.266263
638.824719	8721.687666
639.169577	8672.846447
639.514383	8740.130728
639.859137	8690.316566
640.203839	8776.968959
640.548489	8709.016726
640.893086	8774.004761
641.237632	8705.621509
641.582125	8852.901339
641.926566	8800.317063
642.270955	8830.127927
642.615292	8850.942851
642.959576	8891.735868
643.303809	8965.813103
643.647990	8944.274773
643.992118	9033.392291
644.336195	8912.548272
644.680219	9068.113238
645.024192	9086.634437
645.368112	9241.002130
645.711981	9332.841871
646.055797	9457.111354
646.399562	9483.116146
646.743274	9659.362446
647.086935	9884.177743
647.430544	9898.950845
647.774101	9927.062839
648.117606	10088.805740
648.461059	10076.197814
648.804460	10150.378393
649.147810	10017.922075
649.491108	9966.020876
649.834354	10039.019304
650.177548	9876.172391
650.520690	9799.975351
650.863781	9785.613103
651.206820	9839.339200
651.549807	9761.917160
651.892742	9685.881436
652.235626	9669.711935
652.578458	9706.179642
652.921238	9527.627014
653.263967	9692.200522
653.606644	9610.100291
653.949269	9607.362944
654.291843	9542.722749
654.634365	9646.898193
654.976836	9589.267723
655.319255	9628.719793
655.661622	9629.443198
656.003938	9603.085525
656.346203	9578.366227
656.688416	9651.899018
657.030577	9658.278598
657.372687	9640.954673
657.714746	9646.336105
658.056753	9794.306573
658.398708	9712.864212
658.740612	9734.072346
659.082465	9835.076905
659.424266	9814.125869
659.766016	9869.513027
660.107715	9831.966513
660.449362	9902.235156
660.790958	9913.817207
661.132503	9898.008149
661.473996	9950.471437
661.815438	10007.141568
662.156829	10024.064721
662.498168	10053.056397
662.839456	10067.446371
663.180693	10104.496331
663.521879	10202.393018
663.863013	10223.603673
664.204097	10224.027130
664.545129	10328.857924
664.886110	10323.983128
665.227040	10416.231202
665.567918	10448.378641
665.908746	10508.428865
666.249522	10501.661116
666.590248	10556.506349
666.930922	10664.465180
667.271545	10680.980000
667.612118	10767.269430
667.952639	10729.707793
668.293109	10740.493341
668.633528	10743.785215
668.973896	10742.111552
669.314213	10856.444921
669.654480	10664.634058
669.994695	10728.853317
670.334859	10774.112796
670.674973	10755.367266
671.015035	10813.227109
671.355047	10792.573502
671.695008	10776.772005
672.034918	10809.365585
672.374777	10851.406288
672.714585	10805.148660
673.054342	10842.337252
673.394049	10829.648668
673.733705	10918.577142
674.073310	10877.201872
674.412864	10917.614282
674.752368	10835.148567
675.091820	10842.773312
675.431223	10868.611746
675.770574	10781.886256
676.109875	10738.184493
676.449125	10729.851466
676.788324	10692.050373
677.127473	10581.417211
677.466571	10578.180790
677.805619	10526.594663
678.144616	10472.167846
678.483562	10454.153282
678.822458	10367.657165
679.161303	10360.660043
679.500098	10377.668896
679.838842	10346.391057
680.177535	10379.090502
680.516179	10442.712384
680.854771	10419.797819
681.193314	10623.286514
681.531805	10747.114897
681.870247	11103.597571
682.208638	11440.034096
682.546978	11735.430588
682.885268	11826.095740
683.223508	11578.983419
683.561697	11454.020777
683.899836	11380.976979
684.237925	11225.991745
684.575963	11168.174751
684.913951	11119.078954
685.251889	11064.122815
685.589776	11174.677840
685.927614	11119.152051
686.265401	11083.077554
686.603137	11130.507250
686.940824	11279.687595
687.278460	11377.317101
687.616046	11433.886409
687.953582	11587.659245
688.291068	11514.759119
688.628504	11712.100128
688.965889	11728.630071
689.303224	11732.673077
689.640510	11659.442755
689.977745	11408.239539
690.314930	11213.577903
690.652065	11166.916983
690.989150	10922.620147
691.326185	10733.045037
691.663170	10565.663605
692.000105	10354.925731
692.336990	10288.092633
692.673825	10057.825329
693.010610	9964.989960
693.347345	9774.164643
693.684030	9596.516902
694.020665	9555.512157
694.357251	9393.706242
694.693786	9364.797745
695.030272	9200.672899
695.366707	9103.282848
695.703093	9042.973004
696.039429	9050.587667
696.375716	8996.841405
696.711952	8864.601857
697.048139	8902.745748
697.384276	8873.202066
697.720363	8884.925269
698.056400	8838.402981
698.392388	8801.612640
698.728326	8765.880942
699.064214	8704.903145
699.400053	8766.259028
699.735842	8595.736958
700.071581	8561.026093
700.407270	8500.698605
700.742910	8440.391282
701.078501	8355.079835
701.414042	8248.749298
701.749533	8181.306221
702.084974	8067.769354
702.420366	8168.557143
702.755709	8071.822442
703.091002	7953.113351
703.426246	7975.821228
703.761440	7933.009229
704.096584	7891.729741
704.431679	7833.872418
704.766725	7825.584762
705.101721	7782.974409
705.436668	7822.723907
705.771565	7729.933908
706.106413	7809.889129
706.441212	7859.743620
706.775961	7814.766445
707.110661	7843.632092
707.445311	7994.743199
707.779913	7900.781133
708.114465	8024.304526
708.448967	8070.877225
708.783421	8191.605298
709.117825	8374.243782
709.452180	8415.424967
709.786485	8500.809511
710.120742	8761.721990
710.454949	8757.719313
710.789107	8854.562399
711.123216	9052.732678
711.457275	9200.975368
711.791286	9359.078556
712.125247	9352.930869
712.459159	9352.043626
712.793023	9594.896171
713.126837	9189.090848
713.460602	9331.815996
713.794318	9167.355913
714.127985	9210.127583
714.461602	8926.907998
714.795171	8873.991006
715.128691	8649.755442
715.462162	8396.200527
715.795584	8353.930452
716.128957	8233.928305
716.462281	8065.838592
716.795556	8119.705842
717.128782	7927.244670
717.461960	7653.479769
717.795088	7728.860143
718.128167	7639.989642
718.461198	7477.407389
718.794180	7428.198166
719.127113	7419.270282
719.459997	7283.995960
719.792833	7053.098511
720.125619	7112.838704
720.458357	6984.904302
720.791046	6967.547609
721.123686	6971.325954
721.456278	6818.659651
721.788821	6839.093968
722.121315	6734.139666
722.453761	6789.897348
722.786158	6742.770121
723.118506	6759.542040
723.450805	6729.242185
723.783056	6798.631147
724.115259	6696.323450
724.447412	6693.371855
724.779518	6744.043013
725.111574	6744.635348
725.443582	6824.038562
725.775542	6799.367155
726.107453	6983.144939
726.439315	6904.351705
726.771129	6950.014476
727.102895	7112.415248
727.434612	7230.133752
727.766281	7250.051350
728.097901	7336.519742
728.429473	7322.621281
728.760996	7298.101108
729.092471	7281.518233
729.423897	7237.423260
729.755276	7254.565704
730.086606	7187.871238
730.417887	7284.432020
730.749120	7449.171886
731.080305	7643.614231
731.411442	7778.603728
731.742530	7781.315869
732.073570	7883.545428
732.404562	7965.781771
732.735506	7813.354922
733.066401	7953.037734
733.397249	7895.583703
733.728048	7667.703385
734.058798	7339.095771
734.389501	7132.511807
734.720156	6952.398942
735.050762	6722.744138
735.381320	6614.961748
735.711831	6578.219298
736.042293	6465.332740
736.372707	6493.114539
736.703073	6355.012129
737.033391	6394.577625
737.363661	6400.735394
737.693883	6418.271048
738.024056	6498.982442
738.354182	6557.283386
738.684260	6591.613644
739.014290	6688.681061
739.344272	6798.694161
739.674207	6831.459141
740.004093	6887.025259
740.333931	6908.563589
740.663722	6919.482728
740.993464	6991.346897
741.323159	6993.799418
741.652806	6748.867397
741.982405	6739.468165
742.311956	6806.112219
742.641460	6670.560633
742.970915	6468.107895
743.300323	6461.488860
743.629683	6405.287556
743.958996	6281.247445
744.288260	6196.518252
744.617477	6135.905939
744.946647	6151.873794
745.275768	5989.972097
745.604842	5945.103307
745.933869	5924.346356
746.262847	5876.462956
746.591778	5871.547831
746.920662	5833.761863
747.249498	5815.908616
747.578286	5865.470720
747.907027	5944.130364
748.235720	5998.418550
748.564365	5968.055680
748.892963	5981.452547
749.221514	6145.960520
749.550017	6003.056412
749.878473	5868.732347
750.206881	5915.547022
750.535242	5859.887642
750.863555	5790.357528
751.191821	5811.522812
751.520039	5815.986754
751.848210	5724.469647
752.176334	5738.388273
752.504411	5796.691738
752.832440	5721.039142
753.160421	5644.312780
753.488356	5694.389082
753.816243	5735.688735
754.144082	5587.040232
754.471875	5552.069747
754.799620	5601.455411
755.127318	5605.730309
755.454969	5559.495367
755.782572	5523.650242
756.110129	5569.449125
756.437638	5563.903856
756.765100	5501.214587
757.092515	5494.918186
757.419882	5537.578951
757.747203	5522.906672
758.074477	5590.553916
758.401703	5582.382205
758.728882	5531.947982
759.056014	5568.463580
759.383099	5711.221495
759.710138	5718.919337
760.037129	5698.517787
760.364073	5704.521801
760.690970	5788.109173
761.017820	5776.557369
761.344623	5723.121138
761.671379	5819.974307
761.998088	5927.335760
762.324751	6152.342621
762.651366	6709.816098
762.977935	7953.947662
763.304456	9541.825424
763.630931	10472.233381
763.957359	10145.143154
764.283740	9232.502744
764.610074	8432.096063
764.936362	7462.621685
765.262602	6868.592280
765.588796	6331.913562
765.914943	5985.666951
766.241044	5837.782183
766.567097	5651.947608
766.893104	5391.357763
767.219064	5210.105597
767.544978	5150.572090
767.870845	5078.629784
768.196665	4973.730934
768.522438	4896.223194
768.848165	4869.069018
769.173846	4808.759174
769.499479	4769.080252
769.825066	4707.321077
770.150607	4647.452334
770.476101	4625.135146
770.801548	4622.130618
771.126949	4552.381213
771.452303	4502.498996
771.777611	4454.008137
772.102872	4473.088904
772.428087	4434.393008
772.753256	4397.678284
773.078378	4361.165207
773.403453	4289.986635
773.728482	4276.224285
774.053465	4230.851380
774.378401	4214.114749
774.703291	4220.355698
775.028135	4154.117457
775.352932	4101.412193
775.677683	4086.472734
776.002388	4107.159108
776.327046	4124.152838
776.651658	4049.241292
776.976224	3983.638236
777.300743	3989.291890
777.625216	4010.545395
777.949643	4011.795601
778.274024	3965.860607
778.598359	3913.488060
778.922647	3937.357923
779.246889	3931.172428
779.571086	3933.219136
779.895236	3918.892177
780.219339	3901.091863
780.543397	3889.837487
780.867409	3940.995116
781.191374	3956.252168
781.515294	3901.482552
781.839167	3893.411665
782.162995	3905.535640
782.486776	3896.340575
782.810511	3901.873242
783.134201	3904.812234
783.457844	3868.268910
783.781441	3807.626350
784.104993	3807.757420
784.428498	3828.348013
784.751958	3832.239783
785.075372	3809.567194
785.398739	3770.596554
785.722061	3776.787091
786.045337	3817.862413
786.368568	3856.215511
786.691752	3772.003036
787.014891	3811.147596
787.337983	3931.484979
787.661030	4082.097012
787.984031	4246.282352
788.306987	4418.969597
788.629897	4496.991535
788.952760	4454.550061
789.275579	4381.158423
789.598351	4324.856296
789.921078	4198.280485
790.243759	4001.408304
790.566395	3971.846977
790.888984	3974.856546
791.211529	3868.967110
791.534027	3810.078871
791.856480	3805.579641
792.178888	3740.939446
792.501249	3687.417516
792.823566	3696.899926
793.145836	3728.752457
793.468062	3683.268646
793.790241	3633.446923
794.112375	3661.682425
794.434464	3723.048391
794.756507	3749.491764
795.078505	3732.956779
795.400457	3756.914863
795.722364	3888.068042
796.044226	3994.068384
796.366042	4061.917273
796.687812	4055.552817
797.009538	4064.326945
797.331218	4015.314327
797.652852	3987.827435
797.974442	3966.994867
798.295986	3972.963593
798.617484	3894.556007
798.938938	3806.751710
799.260346	3841.220599
799.581709	3841.480218
799.903026	3772.807100
800.224299	3737.307295
800.545526	3726.839339
800.866708	3692.619987
801.187845	3629.245121
801.508936	3663.572858
801.829983	3671.369002
802.150984	3593.019389
802.471940	3575.700505
802.792851	3590.324893
803.113717	3587.627875
803.434538	3591.754060
803.755314	3540.863612
804.076045	3508.406143
804.396731	3525.856097
804.717372	3551.208059
805.037967	3541.019887
805.358518	3530.400697
805.679024	3557.945562
805.999485	3567.014597
806.319901	3567.637180
806.640272	3585.659305
806.960598	3603.530195
807.280879	3575.362748
807.601115	3583.095878
807.921306	3601.256635
808.241453	3641.694250
808.561554	3618.893112
808.881611	3557.832136
809.201623	3588.666353
809.521590	3602.600102
809.841513	3571.266811
810.161390	3602.310236
810.481223	3586.027309
810.801011	3531.512271
811.120755	3518.175899
811.440453	3552.657391
811.760107	3561.040830
812.079716	3521.833256
812.399281	3485.330261
812.718801	3506.750124
813.038276	3480.500836
813.357707	3477.052686
813.677093	3494.232939
813.996434	3450.556382
814.315731	3453.893626
814.634983	3455.587453
814.954191	3464.568269
815.273354	3501.469515
815.592473	3499.145543
815.911547	3497.582785
816.230577	3535.875390
816.549562	3583.237030
816.868502	3628.773773
817.187399	3651.582474
817.506250	3651.431239
817.825058	3617.955457
818.143821	3700.153991
818.462539	3806.945794
818.781213	3851.776775
819.099843	3902.974734
819.418429	4125.546717
819.736970	4361.634034
820.055466	4590.731791
820.373919	4946.672541
820.692327	5345.442933
821.010691	5734.665381
821.329011	6992.932340
821.647286	9543.675527
821.965517	13858.124361
822.283704	17823.017067
822.601847	20122.801534
822.919945	18436.714533
823.237999	15991.659136
823.556010	13580.782762
823.873976	11564.477499
824.191897	9529.719093
824.509775	8185.510543
824.827609	7080.300577
825.145398	6531.087030
825.463144	6412.877013
825.780845	6530.575353
826.098502	6685.512696
826.416116	7469.124773
826.733685	8733.163853
827.051210	9852.731026
827.368692	9982.374379
827.686129	8812.070514
828.003522	7330.629153
828.320872	6330.852399
828.638177	5650.462988
828.955439	5113.859888
829.272656	4628.018686
829.589830	4338.293492
829.906960	4168.487266
830.224046	3989.395234
830.541088	3863.996532
830.858086	3818.910973
831.175041	3749.915221
831.491952	3728.369329
831.808819	3736.886358
832.125642	3801.148467
832.442421	3940.869087
832.759157	4192.740257
833.075849	4700.875962
833.392497	5526.259040
833.709101	6276.753257
834.025662	6641.954606
834.342179	6339.969326
834.658653	5687.845664
834.975083	5063.206374
835.291469	4505.049820
835.607811	4096.403807
835.924110	3958.180409
836.240366	3772.308026
836.556578	3570.243456
836.872746	3460.489975
837.188871	3425.690890
837.504952	3365.076057
837.820990	3282.534724
838.136984	3232.665110
838.452935	3256.716455
838.768842	3256.287957
839.084706	3277.833848
839.400526	3413.718150
839.716303	3728.097107
840.032037	4220.990883
840.347727	4503.482021
840.663373	4264.851442
840.978977	3897.212695
841.294537	3593.720110
841.610054	3372.128631
841.925527	3263.300202
842.240957	3195.970551
842.556344	3146.320227
842.871687	3089.899633
843.186987	3041.786860
843.502244	3003.348062
843.817458	2969.952939
844.132629	2938.455809
844.447756	2948.538117
844.762840	2936.469595
845.077881	2905.600089
845.392879	2888.762635
845.707833	2886.446225
846.022745	2880.691748
846.337613	2881.039588
846.652438	2870.112887
846.967221	2868.716487
847.281960	2857.172245
847.596656	2853.794672
847.911309	2850.812829
848.225919	2842.681448
848.540485	2839.838237
848.855009	2841.595079
849.169490	2833.383040
849.483928	2821.155721
849.798323	2818.393169
850.112675	2817.127839
850.426984	2827.885662
850.741251	2823.900629
851.055474	2816.843014
851.369654	2809.855975
851.683792	2813.125163
851.997887	2825.816268
852.311938	2824.737461
852.625947	2816.356543
852.939914	2818.080617
853.253837	2824.346772
853.567718	2809.288845
853.881555	2802.904224
854.195350	2821.047336
854.509103	2820.359219
854.822812	2811.665749
855.136479	2807.859678
855.450103	2810.168526
855.763685	2801.775005
856.077224	2799.128399
856.390720	2810.952426
856.704173	2822.453818
857.017584	2816.666574
857.330953	2811.824545
857.644278	2820.795279
857.957561	2825.362564
858.270802	2830.030673
858.584000	2829.733244
858.897155	2819.512305
859.210268	2817.541214
859.523339	2817.873930
859.836367	2814.367807
860.149352	2808.928402
860.462295	2806.198618
860.775195	2814.428301
861.088054	2816.464927
861.400869	2798.465488
861.713642	2793.106741
862.026373	2807.277425
862.339062	2810.934782
862.651708	2815.514670
862.964312	2820.833087
863.276873	2814.176244
863.589392	2819.865186
863.901869	2832.049655
864.214303	2851.054805
864.526696	2868.945860
864.839045	2866.924357
865.151353	2865.071733
865.463619	2861.782380
865.775842	2863.463605
866.088023	2876.721839
866.400162	2889.717934
866.712258	2862.742720
867.024313	2850.180164
867.336325	2857.895650
867.648296	2876.361397
867.960224	2868.083822
868.272110	2859.322297
868.583954	2865.434696
868.895755	2879.570091
869.207515	2862.994778
869.519233	2863.415714
869.830909	2876.689072
870.142542	2888.853376
870.454134	2888.581154
870.765684	2889.463356
871.077191	2890.237173
871.388657	2898.023235
871.700081	2908.312230
872.011463	2918.865886
872.322803	2920.612645
872.634101	2918.059301
872.945357	2934.964810
873.256571	2961.161166
873.567744	2954.131277
873.878874	2944.558126
874.189963	2968.884214
874.501010	2971.414873
874.812015	2961.771146
875.122979	2959.454736
875.433900	2954.441308
875.744780	2962.597895
876.055618	2967.069399
876.366415	2963.016311
876.677169	2975.261274
876.987882	2976.461068
877.298554	2966.214923
877.609183	2985.240238
877.919771	3006.249246
878.230317	3031.286137
878.540822	3080.371852
878.851285	3118.125053
879.161707	3155.026299
879.472087	3247.125659
879.782425	3449.764921
880.092722	3848.101774
880.402977	4352.413764
880.713191	4937.759781
881.023363	6012.357340
881.333494	7241.524239
881.643583	7815.883061
881.953631	7542.813839
882.263637	6966.930068
882.573602	6424.053252
882.883526	5869.216298
883.193408	5309.590247
883.503248	4852.584445
883.813048	4564.018717
884.122806	4289.681645
884.432522	3989.168382
884.742197	3764.930297
885.051831	3577.021288
885.361424	3439.034825
885.670975	3371.435472
885.980485	3294.202475
886.289954	3221.103223
886.599382	3178.999506
886.908768	3144.260915
887.218113	3101.287599
887.527417	3047.768189
887.836680	2996.539984
888.145901	2991.859273
888.455082	2987.869199
888.764221	2935.385747
889.073319	2907.442631
889.382376	2906.530182
889.691392	2909.123856
890.000366	2909.149062
890.309300	2896.354613
890.618193	2909.806932
890.927044	2926.982143
891.235855	2929.301074
891.544625	2909.940523
891.853353	2920.413520
892.162041	2937.745007
892.470687	2974.439566
892.779293	3022.091072
893.087858	3066.445664
893.396381	3129.785242
893.704864	3238.797673
894.013306	3461.611632
894.321707	3747.523193
894.630068	3957.698979
894.938387	3956.126139
895.246665	3911.703492
895.554903	3802.870021
895.863100	3612.170733
896.171256	3452.973615
896.479371	3321.502843
896.787446	3207.603013
897.095480	3108.458641
897.403473	3046.709547
897.711425	3009.203363
898.019336	3000.295644
898.327207	2976.813949
898.635038	2941.336829
898.942827	2926.843512
899.250576	2916.420926
899.558284	2884.525546
899.865952	2866.102649
900.173579	2848.677901
900.481165	2842.063907
900.788711	2831.989161
901.096216	2809.223310
901.403681	2792.680764
901.711105	2802.495890
902.018489	2799.398101
902.325832	2799.367854
902.633135	2808.252888
902.940397	2838.714060
903.247619	2906.288207
903.554800	3083.008375
903.861941	3396.933628
904.169041	3798.862304
904.476101	4102.299436
904.783121	4076.549222
905.090100	3852.742156
905.397039	3588.910849
905.703938	3351.235569
906.010796	3175.478260
906.317614	3066.677558
906.624391	2978.328816
906.931129	2909.441448
907.237826	2852.678056
907.544483	2805.911272
907.851099	2775.797939
908.157675	2755.600557
908.464211	2737.621281
908.770707	2723.725341
909.077163	2714.719319
909.383578	2699.033769
909.689954	2690.796524
909.996289	2687.260154
910.302584	2686.942562
910.608839	2690.652851
910.915054	2684.830318
911.221229	2677.855882
911.527363	2679.743794
911.833458	2685.271419
912.139513	2692.316432
912.445527	2691.318283
912.751502	2699.215251
913.057436	2707.467620
913.363331	2721.943293
913.669186	2737.684296
913.975000	2770.459357
914.280775	2824.195537
914.586510	2890.211967
914.892205	2964.929429
915.197859	3080.092068
915.503475	3255.156217
915.809050	3454.614511
916.114585	3596.714555
916.420081	3624.524080
916.725536	3573.815114
917.030952	3461.384780
917.336328	3342.831965
917.641665	3219.669015
917.946961	3123.395579
918.252218	3060.499623
918.557435	2982.565906
918.862612	2931.640169
919.167750	2883.197202
919.472848	2846.810153
919.777906	2818.557006
920.082925	2796.817030
920.387904	2769.065478
920.692843	2752.845566
920.997743	2742.853999
921.302603	2731.082905
921.607423	2718.878271
921.912204	2709.461396
922.216946	2699.532843
922.521647	2691.590506
922.826310	2681.803105
923.130932	2674.934533
923.435516	2667.584531
923.740059	2660.282420
924.044564	2654.104486
924.349028	2650.426964
924.653454	2640.526138
924.957840	2637.176291
925.262186	2633.985241
925.566493	2628.533233
925.870761	2626.521812
926.174989	2621.336986
926.479178	2614.276850
926.783328	2613.550923
927.087438	2609.659153
927.391509	2609.528083
927.695541	2605.492639
927.999533	2603.350149
928.303486	2598.543408
928.607400	2603.584562
928.911275	2601.348811
929.215110	2600.953080
929.518906	2598.263624
929.822663	2599.145826
930.126381	2596.461412
930.430060	2600.358224
930.733699	2599.607092
931.037299	2598.787904
931.340861	2599.889397
931.644383	2602.026846
931.947866	2598.041814
932.251309	2597.217585
932.554714	2596.121134
932.858080	2595.705239
933.161407	2592.620053
933.464694	2589.953282
933.767943	2587.601584
934.071153	2591.329517
934.374323	2590.182655
934.677455	2589.633169
934.980548	2590.119640
935.283602	2588.957654
935.586617	2587.543611
935.889593	2586.747108
936.192530	2589.481934
936.495428	2591.652151
936.798287	2590.583427
937.101108	2593.454364
937.403890	2597.981320
937.706632	2603.002309
938.009336	2609.230655
938.312002	2618.924793
938.614628	2624.394445
938.917216	2632.581279
939.219765	2633.627319
939.522275	2632.780405
939.824747	2627.872842
940.127179	2625.949641
940.429573	2624.734723
940.731929	2620.603498
941.034246	2619.910339
941.336524	2616.096706
941.638763	2613.888681
941.940964	2610.415326
942.243126	2607.060438
942.545250	2610.813577
942.847335	2607.088164
943.149381	2602.107504
943.451389	2600.423759
943.753359	2597.232708
944.055290	2593.232553
944.357182	2596.453850
944.659036	2592.057964
944.960851	2593.086359
945.262628	2592.173911
945.564367	2593.466967
945.866067	2591.654672
946.167729	2594.286154
946.469352	2593.623242
946.770937	2591.289188
947.072484	2589.423961
947.373992	2591.289188
947.675462	2590.064188
947.976893	2583.150245
948.278286	2584.055132
948.579641	2585.630493
948.880958	2582.802406
949.182236	2587.553693
949.483476	2580.299473
949.784678	2586.411872
950.085841	2582.779720
950.386967	2586.091758
950.688054	2581.027919
950.989103	2587.319279
951.290114	2585.529670
951.591087	2588.153590
951.892021	2591.279106
952.192917	2592.693149
952.493776	2594.031576
952.794596	2597.328490
953.095378	2594.187852
953.396122	2594.593664
953.696828	2590.989239
953.997496	2592.136102
954.298126	2588.592171
954.598718	2588.604774
954.899272	2585.895153
955.199788	2582.560430
955.500266	2580.743094
955.800706	2580.496078
956.101108	2573.052814
956.401472	2577.864595
956.701798	2573.866960
957.002087	2572.057186
957.302337	2571.542988
957.602550	2569.811352
957.902724	2567.532751
958.202861	2568.576269
958.502960	2564.659293
958.803022	2567.298337
959.103045	2565.120558
959.403031	2564.979406
959.702979	2561.463201
960.002889	2563.469581
960.302762	2560.344065
960.602596	2560.623849
960.902393	2563.756926
961.202153	2560.276010
961.501875	2561.899261
961.801559	2558.685526
962.101205	2559.839950
962.400814	2563.562842
962.700385	2556.434650
962.999918	2558.320042
963.299414	2558.350289
963.598873	2554.617314
963.898293	2554.503888
964.197677	2559.078736
964.497022	2559.981102
964.796331	2558.413303
965.095601	2558.864487
965.394835	2557.702501
965.694030	2556.951369
965.993189	2558.458674
966.292309	2557.092521
966.591393	2561.059909
966.890439	2559.240053
967.189447	2559.159394
967.488419	2556.434650
967.787353	2556.043961
968.086249	2555.733930
968.385108	2555.431461
968.683930	2555.045813
968.982714	2558.662840
969.281462	2556.815258
969.580172	2557.223591
969.878844	2560.331462
970.177480	2560.026472
970.476078	2560.013870
970.774639	2560.107131
971.073162	2560.512944
971.371649	2558.403221
971.670098	2558.327604
971.968510	2557.992367
972.266885	2558.168807
972.565223	2560.086966
972.863524	2560.008828
973.161788	2560.074363
973.460014	2558.965310
973.758204	2559.691236
974.056356	2559.275341
974.354471	2557.079918
974.652550	2556.658982
974.950591	2559.519837
975.248595	2557.553787
975.546563	2559.202244
975.844493	2560.434806
976.142386	2560.155022
976.440243	2560.891030
976.738062	2558.960268
977.035845	2561.105279
977.333590	2559.713921
977.631299	2558.367933
977.928971	2552.973898
978.226606	2551.015410
978.524204	2555.270144
978.821765	2551.547252
979.119290	2556.389280
979.416777	2554.544218
979.714228	2555.023127
980.011642	2554.985319
980.309020	2557.014383
980.606360	2555.544887
980.903664	2557.548745
981.200931	2553.780483
981.498162	2556.411965
981.795356	2558.320042
982.092513	2560.162584
982.389633	2563.182235
982.686717	2566.098542
982.983764	2569.234140
983.280775	2572.760427
983.577749	2574.817218
983.874686	2574.565160
984.171587	2569.408060
984.468451	2571.684141
984.765279	2564.563511
985.062070	2566.453944
985.358824	2562.211813
985.655543	2562.161401
985.952224	2560.986812
986.248869	2561.064950
986.545478	2557.914229
986.842050	2558.667882
987.138586	2556.371636
987.435086	2557.934394
987.731549	2558.130999
988.027975	2555.315514
988.324366	2557.377346
988.620719	2554.922304
988.917037	2555.310473
989.213318	2556.177552
989.509563	2554.385421
989.805772	2552.789896
990.101944	2552.883158
990.398080	2556.427089
990.694180	2553.112530
990.990244	2552.706717
991.286271	2554.725699
991.582262	2556.197716
991.878217	2553.727551
992.174136	2555.464228
992.470019	2553.684701
992.765865	2552.686552
993.061676	2550.171017
993.357450	2553.520863
993.653188	2550.591953
993.948890	2555.461708
994.244556	2556.260731
994.540186	2557.147974
994.835780	2553.926676
995.131337	2555.902809
995.426859	2555.890206
995.722345	2555.214691
996.017795	2558.020093
996.313208	2558.652758
996.608586	2558.514126
996.903928	2560.628890
997.199234	2558.380536
997.494504	2558.809034
997.789738	2560.253324
998.084936	2558.723334
998.380099	2560.646534
998.675225	2557.122768
998.970316	2554.728220
999.265371	2556.759805
999.560390	2555.325597
999.855373	2555.635628
1000.150320	2554.395504
1000.445232	2555.136553
1000.740108	2554.103117
1001.034948	2554.501368
1001.329752	2553.523384
1001.624521	2552.915925
1001.919254	2556.840463
1002.213951	2554.955072
1002.508613	2552.744526
1002.803239	2554.559341
1003.097829	2553.619166
1003.392384	2551.416182
1003.686903	2553.026830
1003.981386	2557.576472
1004.275834	2554.990360
1004.570246	2554.776111
1004.864623	2550.654967
1005.158964	2553.843497
1005.453270	2552.414330
1005.747540	2553.853580
1006.041775	2550.690256
1006.335974	2553.500699
1006.630138	2553.183106
1006.924266	2552.036244
1007.218359	2551.196892
1007.512416	2547.501726
1007.806438	2551.403579
1008.100425	2551.269988
1008.394376	2546.468289
1008.688292	2553.808209
1008.982172	2550.723023
1009.276017	2551.738816
1009.569827	2552.532797
1009.863602	2551.784186
1010.157341	2551.005328
1010.451045	2552.502550
1010.744714	2550.637323
1011.038347	2552.386604
1011.331945	2550.889381
1011.625508	2550.453321
1011.919036	2551.325441
1012.212528	2551.597663
1012.505986	2554.027499
1012.799408	2550.801161
1013.092795	2550.869217
1013.386147	2551.892571
1013.679464	2551.393497
1013.972745	2552.583209
1014.265992	2551.315359
1014.559204	2552.167314
1014.852380	2552.517674
1015.145521	2552.547921
1015.438628	2550.382745
1015.731699	2549.550955
1016.024736	2552.472303
1016.317737	2553.533466
1016.610703	2550.841490
1016.903635	2553.979608
1017.196531	2552.414330
1017.489393	2552.431974
1017.782219	2552.542880
1018.075011	2549.883671
1018.367768	2553.911553
1018.660490	2550.473486
1018.953177	2550.473486
1019.245829	2550.473486
