Dividing Wavelength (nm)	Counts (n)	Blue Motor Position (mm): 7.700000	Red Motor Position (mm): 0.000000	
326.493990	2159.146357
326.888308	2159.146357
327.282561	2159.146357
327.676750	2118.880141
328.070874	2115.326127
328.464933	2116.004162
328.858929	2116.173041
329.252859	2120.359719
329.646726	2132.062758
330.040528	2145.308390
330.434265	2155.627632
330.827938	2176.011537
331.221547	2192.559125
331.615091	2208.784078
332.008571	2228.484908
332.401986	2244.362022
332.795338	2268.468819
333.188625	2284.764349
333.581847	2301.911834
333.975006	2320.279278
334.368100	2337.182267
334.761129	2356.517612
335.154095	2374.794316
335.546996	2390.716800
335.939833	2408.756569
336.332606	2421.757705
336.725315	2438.126331
337.117960	2452.196192
337.510540	2461.257666
337.903056	2472.784264
338.295508	2479.206694
338.687896	2489.969557
339.080220	2497.851402
339.472480	2505.650067
339.864676	2511.835562
340.256807	2517.116171
340.648875	2517.370749
341.040879	2523.405010
341.432818	2525.953314
341.824694	2527.634538
342.216506	2532.181659
342.608253	2531.054961
342.999937	2531.460774
343.391557	2528.990609
343.783113	2529.958510
344.174605	2530.243336
344.566033	2526.391894
344.957397	2528.254600
345.348697	2523.654547
345.739934	2524.287212
346.131106	2523.851152
346.522215	2520.309742
346.913260	2516.271778
347.304241	2516.748167
347.695159	2514.827487
348.086012	2513.894874
348.476802	2510.562671
348.867528	2508.037053
349.258191	2505.776095
349.648789	2504.757782
350.039324	2501.838954
350.429796	2504.752741
350.820203	2504.677124
351.210548	2502.176712
351.600828	2497.891731
351.991045	2500.009015
352.381198	2495.948366
352.771288	2496.613798
353.161314	2495.655979
353.551276	2497.725373
353.941175	2496.162615
354.331010	2495.045999
354.720782	2492.701863
355.110490	2493.447954
355.500135	2493.919302
355.889717	2497.206134
356.279235	2495.419045
356.668689	2494.516678
357.058080	2495.144302
357.447408	2493.193375
357.836672	2495.696308
358.225873	2496.644045
358.615010	2495.615650
359.004084	2498.380723
359.393095	2496.979282
359.782043	2497.271669
360.170927	2497.569097
360.559748	2501.208810
360.948505	2498.403408
361.337199	2499.961124
361.725830	2499.194869
362.114398	2504.543533
362.502903	2500.923985
362.891344	2501.329798
363.279722	2503.222751
363.668037	2502.884994
364.056289	2502.597648
364.444478	2503.076558
364.832603	2504.919099
365.220665	2506.479336
365.608665	2503.890704
365.996601	2506.378513
366.384474	2505.176198
366.772284	2507.018740
367.160031	2504.992196
367.547715	2505.284583
367.935336	2509.675428
368.322893	2505.778616
368.710388	2503.245436
369.097820	2503.855416
369.485189	2501.937257
369.872495	2507.522855
370.259738	2507.966477
370.646918	2509.703154
371.034035	2509.410767
371.421090	2510.119049
371.808081	2512.853875
372.195010	2509.385562
372.581875	2509.877074
372.968678	2509.335150
373.355418	2512.397651
373.742096	2508.825993
374.128710	2512.069976
374.515262	2512.009482
374.901751	2511.515449
375.288177	2512.533762
375.674540	2513.161386
376.060841	2511.122239
376.447079	2510.897908
376.833254	2511.457476
377.219367	2512.997548
377.605417	2513.058042
377.991404	2512.949657
378.377329	2516.662467
378.763191	2513.143742
379.148991	2516.087776
379.534727	2513.904956
379.920402	2516.231448
380.306013	2513.393279
380.691563	2516.428053
381.077049	2513.605007
381.462474	2515.258506
381.847835	2514.388907
382.233134	2517.252282
382.618371	2514.918228
383.003545	2515.434946
383.388657	2516.541479
383.773706	2516.226407
384.158693	2515.724813
384.543618	2517.446367
384.928480	2515.301356
385.313280	2517.774042
385.698017	2516.281860
386.082692	2517.378311
386.467305	2518.837725
386.851856	2519.614063
387.236344	2518.051305
387.620770	2515.437467
388.005133	2514.270440
388.389435	2519.112468
388.773674	2514.600635
389.157851	2518.149608
389.541965	2519.785462
389.926018	2519.472910
390.310008	2519.682118
390.693936	2519.984588
391.077802	2519.304032
391.461606	2520.750843
391.845348	2521.131450
392.229027	2522.248066
392.612645	2520.317304
392.996200	2521.925432
393.379694	2519.843435
393.763125	2522.061543
394.146494	2521.136491
394.529801	2520.939886
394.913047	2522.270751
395.296230	2521.953158
395.679351	2522.006090
396.062410	2521.224711
396.445408	2520.914680
396.828343	2524.481297
397.211217	2522.371574
397.594028	2522.721934
397.976778	2522.600946
398.359466	2523.513395
398.742092	2522.462315
399.124656	2523.674712
399.507158	2523.135309
399.889598	2529.817358
400.271977	2526.265865
400.654294	2526.384332
401.036549	2524.443488
401.418742	2523.069774
401.800874	2525.023221
402.182944	2525.844929
402.564952	2527.833664
402.946898	2526.749816
403.328783	2525.686133
403.710606	2524.604805
404.092367	2528.080681
404.474067	2528.655372
404.855705	2529.524971
405.237282	2527.342152
405.618797	2525.539939
406.000250	2527.016997
406.381642	2528.501617
406.762972	2530.787780
407.144240	2524.471214
407.525447	2527.891637
407.906593	2522.563138
408.287677	2528.229395
408.668700	2529.177132
409.049661	2527.047244
409.430560	2530.160157
409.811399	2527.700073
410.192176	2526.616225
410.572891	2530.467667
410.953545	2530.250897
411.334138	2531.075126
411.714669	2529.940866
412.095139	2528.297450
412.475547	2529.595547
412.855894	2528.804086
413.236180	2528.804086
413.616405	2529.900537
413.996568	2530.694519
414.376670	2530.334076
414.756711	2529.348531
415.136691	2530.755013
415.516609	2530.921371
415.896466	2532.705939
416.276262	2529.396422
416.655997	2530.450023
417.035670	2532.837009
417.415283	2532.315250
417.794834	2530.553367
418.174324	2532.549663
418.553753	2535.314736
418.933121	2531.707791
419.312428	2532.584952
419.691674	2531.735517
420.070859	2535.309695
420.449983	2532.587472
420.829045	2533.162164
421.208047	2532.516896
421.586988	2534.392205
421.965867	2533.872966
422.344686	2533.416742
422.723444	2534.366999
423.102141	2532.446320
423.480777	2534.283820
423.859352	2533.953625
424.237866	2534.566125
424.616319	2533.802390
424.994712	2532.829448
425.373044	2534.167874
425.751314	2532.826927
426.129524	2531.740558
426.507673	2530.064375
426.885762	2528.299971
427.263789	2536.335570
427.641756	2534.082174
428.019662	2535.392874
428.397508	2533.757020
428.775292	2535.803728
429.153016	2534.490508
429.530679	2534.853471
429.908282	2536.083512
430.285824	2534.883718
430.663305	2532.985723
431.040726	2536.738862
431.418086	2535.271887
431.795385	2534.419932
432.172624	2535.750796
432.549802	2536.131403
432.926920	2537.442103
433.303977	2536.285158
433.680974	2536.113759
434.057910	2535.743234
434.434786	2537.011085
434.811601	2537.631147
435.188355	2539.284645
435.565050	2534.729963
435.941683	2537.379089
436.318257	2536.980838
436.694770	2537.089223
437.071222	2539.428318
437.447614	2537.051414
437.823946	2538.132741
438.200218	2534.815662
438.576429	2539.516538
438.952580	2535.990251
439.328670	2537.631147
439.704700	2537.006043
440.080670	2537.220292
440.456580	2537.101825
440.832429	2537.709284
441.208218	2539.025026
441.583947	2536.824562
441.959616	2539.685417
442.335224	2537.807587
442.710773	2538.210879
443.086261	2537.731970
443.461689	2538.097453
443.837057	2540.870088
444.212365	2538.614172
444.587612	2535.725590
444.962800	2537.444624
445.337927	2537.457227
445.712995	2538.357073
446.088002	2539.788760
446.462949	2540.887732
446.837837	2541.487629
447.212664	2539.415715
447.587431	2540.310520
447.962139	2541.351518
448.336786	2538.876312
448.711374	2539.773637
449.085901	2537.663914
449.460369	2537.046373
449.834776	2538.498225
450.209124	2541.533000
450.583412	2539.025026
450.957640	2538.765406
451.331808	2540.476878
451.705917	2538.888914
452.079965	2540.139121
452.453954	2541.119625
452.827883	2540.547454
453.201752	2541.732125
453.575562	2543.264636
453.949311	2541.023843
454.323001	2540.625592
454.696632	2541.772454
455.070202	2542.480737
455.443713	2543.504091
455.817164	2540.668442
456.190556	2541.946374
456.563888	2543.186498
456.937160	2542.145500
457.310373	2541.933771
457.683526	2541.628782
458.056619	2540.998637
458.429653	2541.354039
458.802628	2545.543237
459.175542	2543.478885
459.548398	2542.644574
459.921194	2543.524255
460.293930	2541.671631
460.666607	2542.216076
461.039224	2542.526107
461.411782	2543.504091
461.784280	2541.868236
462.156719	2543.083154
462.529099	2543.390665
462.901419	2543.851930
463.273680	2542.344625
463.645882	2541.497712
464.018024	2538.760365
464.390106	2539.229192
464.762130	2542.944523
465.134094	2544.184647
465.505999	2544.207332
465.877845	2544.502239
466.249631	2542.720191
466.621358	2541.603576
466.993026	2543.804039
467.364634	2549.664381
467.736184	2545.122301
468.107674	2543.713299
468.479105	2545.578526
468.850477	2544.960984
469.221790	2548.020965
469.593043	2543.859492
469.964238	2544.688762
470.335373	2544.827394
470.706449	2545.205480
471.077467	2544.837476
471.448425	2546.400234
471.819324	2544.035932
472.190164	2547.405944
472.560945	2545.959133
472.931667	2545.631458
473.302330	2544.109029
473.672934	2544.504760
474.043479	2545.570964
474.413965	2540.330684
474.784393	2546.490974
475.154761	2543.814122
475.525070	2548.043650
475.895321	2545.878474
476.265513	2544.764379
476.635645	2547.388300
477.005719	2545.152548
477.375734	2544.807229
477.745691	2545.843186
478.115588	2546.438042
478.485427	2546.979966
478.855207	2546.342260
479.224928	2546.117929
479.594591	2546.685059
479.964194	2547.431150
480.333739	2545.210521
480.703226	2546.662374
481.072653	2548.295707
481.442022	2546.095244
481.811333	2544.953423
482.180584	2542.576518
482.549777	2544.293031
482.918912	2543.751107
483.287988	2544.585418
483.657005	2546.553989
484.025964	2546.506098
484.394864	2548.371325
484.763706	2546.145655
485.132489	2544.834955
485.501213	2548.174720
485.869879	2548.542724
486.238487	2543.196580
486.607036	2545.742363
486.975527	2547.279915
487.343959	2547.912580
487.712333	2548.910728
488.080648	2547.809236
488.448905	2549.235883
488.817104	2549.107333
489.185244	2548.300749
489.553326	2547.121119
489.921350	2545.565923
490.289315	2547.479041
490.657222	2547.196736
491.025070	2548.658671
491.392861	2550.029864
491.760593	2548.336037
492.128267	2548.255378
492.495883	2548.187323
492.863440	2549.871068
493.230939	2548.063814
493.598380	2549.603887
493.965763	2549.298897
494.333088	2550.012220
494.700354	2549.127498
495.067563	2548.840152
495.434713	2549.692107
495.801805	2551.320400
496.168839	2548.126829
496.535815	2550.770914
496.902733	2548.787220
497.269593	2547.695810
497.636395	2549.974412
498.003139	2547.388300
498.369825	2549.482899
498.736453	2548.444422
499.103023	2549.399720
499.469535	2550.460883
499.835989	2549.472817
500.202385	2548.706562
500.568723	2545.225645
500.935003	2545.003834
501.301226	2544.996272
501.667390	2551.045657
502.033497	2550.332334
502.399546	2549.500543
502.765537	2553.120092
503.131470	2549.588763
503.497345	2548.638506
503.863163	2551.030533
504.228923	2549.586243
504.594625	2551.156562
504.960269	2552.434495
505.325856	2550.856614
505.691385	2549.850903
506.056856	2552.550441
506.422270	2548.598177
506.787625	2551.854762
507.152924	2553.530946
507.518164	2549.976932
507.883347	2551.766542
508.248472	2547.458876
508.613540	2551.809392
508.978550	2550.574309
509.343503	2552.215205
509.708398	2551.275029
510.073236	2550.223949
510.438016	2552.313507
510.802738	2549.339226
511.167403	2549.510626
511.532010	2549.160265
511.896561	2551.118754
512.261053	2550.201264
512.625488	2551.038095
512.989866	2551.370811
513.354186	2550.309648
513.718449	2551.348126
514.082655	2551.625390
514.446803	2551.131357
514.810894	2552.409289
515.174927	2552.368960
515.538904	2549.435008
515.902822	2551.234700
516.266684	2552.172355
516.630488	2550.604556
516.994235	2549.011551
517.357925	2551.859803
517.721558	2554.836605
518.085133	2549.414844
518.448651	2551.522046
518.812112	2548.484751
519.175516	2551.421223
519.538863	2546.737991
519.902152	2553.198230
520.265385	2552.724361
520.628560	2552.968857
520.991678	2551.448949
521.354739	2553.155380
521.717743	2552.157231
522.080690	2551.582540
522.443580	2551.176727
522.806413	2554.602191
523.169189	2552.137067
523.531908	2553.412479
523.894569	2552.895760
524.257174	2554.413148
524.619722	2550.949875
524.982213	2549.850903
525.344647	2550.914587
525.707025	2552.989022
526.069345	2551.640513
526.431608	2552.290822
526.793815	2551.539690
527.155964	2553.687222
527.518057	2551.085986
527.880093	2551.872406
528.242072	2551.758980
528.603995	2554.166131
528.965860	2553.838456
529.327669	2548.008362
529.689421	2554.619835
530.051117	2551.733774
530.412755	2554.808878
530.774337	2555.194527
531.135862	2554.277037
531.497331	2552.041285
531.858743	2553.155380
532.220098	2552.560524
532.581396	2554.929866
532.942638	2553.243600
533.303824	2554.100596
533.664953	2555.560010
534.026025	2557.337017
534.387040	2555.123950
534.747999	2556.306101
535.108902	2555.713765
535.469748	2554.549259
535.830537	2557.110165
536.191270	2556.900957
536.551947	2552.139587
536.912567	2551.690925
537.273131	2555.592778
537.633638	2555.466749
537.994089	2554.818961
538.354483	2557.347099
538.714821	2557.866338
539.075103	2557.899106
539.435328	2558.461194
539.795497	2556.936245
540.155609	2557.954558
540.515665	2558.158725
540.875665	2561.367419
541.235609	2557.878941
541.595496	2562.695763
541.955328	2562.736093
542.315102	2562.262224
542.674821	2562.100907
543.034483	2563.830023
543.394090	2561.475804
543.753640	2563.898079
544.113134	2563.913202
544.472571	2565.034859
544.831953	2566.224571
545.191278	2565.884293
545.550548	2565.327246
545.909761	2566.761454
546.268918	2564.485373
546.628019	2566.380847
546.987064	2570.297823
547.346053	2568.049469
547.704986	2567.628532
548.063863	2570.963256
548.422684	2569.662638
548.781449	2569.702967
549.140158	2570.731363
549.498811	2570.368400
549.857408	2567.623491
550.215949	2572.271435
550.574434	2568.301527
550.932864	2570.812021
551.291237	2570.534758
551.649555	2572.513411
552.007817	2571.243040
552.366022	2570.101218
552.724173	2572.609192
553.082267	2572.112639
553.440305	2571.180025
553.798288	2571.530386
554.156215	2574.262691
554.514086	2570.736404
554.871902	2572.664645
555.229661	2570.403688
555.587365	2569.796229
555.945014	2572.349573
556.302606	2575.454924
556.660143	2574.968452
557.017625	2575.429718
557.375050	2574.461817
557.732421	2573.572053
558.089735	2574.615572
558.446994	2573.660273
558.804197	2577.252095
559.161345	2576.848803
559.518437	2574.771848
559.875474	2577.670511
560.232455	2573.720767
560.589381	2577.168916
560.946251	2574.913000
561.303065	2576.765624
561.659825	2578.787127
562.016528	2578.673701
562.373177	2575.893504
562.729770	2575.943916
563.086307	2577.075655
563.442789	2579.641602
563.799216	2575.351580
564.155587	2578.409040
564.511904	2576.937023
564.868164	2576.896694
565.224370	2578.892991
565.580520	2576.468196
565.936615	2579.329051
566.292654	2575.097002
566.648638	2577.335274
567.004567	2574.567681
567.360441	2576.687486
567.716260	2577.219328
568.072023	2577.715881
568.427732	2580.438104
568.783385	2575.273442
569.138982	2577.945254
569.494525	2576.563978
569.850013	2575.192784
570.205445	2575.596076
570.560823	2575.757393
570.916145	2577.733525
571.271412	2577.368042
571.626625	2577.564647
571.981782	2575.407033
572.336884	2572.145406
572.691931	2571.243040
573.046923	2572.707495
573.401860	2570.333112
573.756743	2577.015161
574.111570	2577.299986
574.466342	2573.897207
574.821059	2574.262691
575.175722	2574.655901
575.530330	2575.792681
575.884882	2574.615572
576.239380	2574.199677
576.593823	2574.900397
576.948211	2575.185222
577.302544	2573.819069
577.656823	2573.660273
578.011047	2573.332598
578.365216	2573.388051
578.719330	2571.235478
579.073389	2570.386044
579.427394	2574.711354
579.781344	2570.280179
580.135239	2572.868812
580.489080	2572.147927
580.842866	2569.705488
581.196597	2580.775862
581.550273	2569.017370
581.903895	2571.613565
582.257463	2573.423339
582.610975	2572.273956
582.964434	2571.132134
583.317837	2569.823955
583.671186	2570.237330
584.024481	2570.012998
584.377721	2571.658935
584.730906	2570.086095
585.084037	2571.389233
585.437113	2569.405539
585.790135	2570.386044
586.143103	2570.658266
586.496016	2570.338153
586.848874	2569.826476
587.201679	2569.710529
587.554428	2569.579459
587.907124	2570.759089
588.259765	2568.258677
588.612352	2568.251115
588.964884	2566.922771
589.317362	2567.101732
589.669786	2569.060220
590.022155	2567.517627
590.374470	2564.581155
590.726731	2565.107956
591.078937	2562.468912
591.431090	2568.417473
591.783188	2565.977555
592.135232	2566.688357
592.487222	2569.788667
592.839157	2566.285065
593.191038	2567.741958
593.542866	2565.420507
593.894639	2568.372103
594.246358	2565.796073
594.598022	2567.046279
594.949633	2566.390929
595.301190	2565.899417
595.652692	2565.009653
596.004141	2565.367575
596.355535	2565.390260
596.706876	2565.765826
597.058162	2566.307750
597.409395	2566.393450
597.760573	2564.737431
598.111698	2565.599468
598.462768	2563.744323
598.813785	2567.689026
599.164748	2566.063254
599.515657	2562.622667
599.866511	2563.179714
600.217312	2564.908830
600.568060	2567.106773
600.918753	2566.370765
601.269392	2562.723490
601.619978	2564.581155
601.970510	2564.389591
602.320988	2564.064437
602.671412	2564.858418
603.021783	2562.466391
603.372100	2565.917061
603.722363	2565.070147
604.072572	2566.587534
604.422728	2565.176011
604.772830	2566.363203
605.122878	2564.182904
605.472872	2567.273131
605.822813	2566.252297
606.172701	2563.020918
606.522534	2566.146433
606.872314	2566.874880
607.222041	2564.044272
607.571714	2563.106618
607.921333	2561.213664
608.270899	2565.944787
608.620411	2564.808007
608.969870	2566.075857
609.319276	2572.848647
609.668627	2576.175809
610.017926	2579.860892
610.367171	2584.660071
610.716362	2581.259812
611.065500	2580.271746
611.414585	2576.407702
611.763616	2573.345201
612.112594	2574.018195
612.461518	2573.506518
612.810389	2574.728998
613.159207	2571.628688
613.507971	2570.338153
613.856682	2572.236147
614.205340	2572.271435
614.553945	2573.234296
614.902496	2572.168092
615.250994	2572.354614
615.599439	2570.665828
615.947830	2571.996692
616.296169	2571.187587
616.644454	2569.745817
616.992686	2572.629357
617.340864	2570.907803
617.688990	2571.459809
618.037063	2572.752865
618.385082	2569.342525
618.733048	2573.027608
619.080961	2573.388051
619.428821	2572.949470
619.776628	2574.368555
620.124382	2573.647670
620.472083	2574.847465
620.819731	2575.162537
621.167326	2575.679255
621.514868	2575.185222
621.862357	2573.899728
622.209793	2572.951991
622.557176	2573.627506
622.904506	2572.548699
623.251783	2570.123904
623.599007	2573.685479
623.946179	2573.299831
624.293297	2576.712692
624.640363	2572.906621
624.987376	2572.306723
625.334336	2570.081054
625.681243	2569.755899
626.028097	2567.406722
626.374899	2573.781261
626.721647	2575.827969
627.068343	2574.333267
627.414987	2573.388051
627.761577	2575.175140
628.108115	2575.865778
628.454600	2575.457444
628.801032	2576.100192
629.147412	2577.683114
629.493739	2576.536251
629.840014	2576.947105
630.186236	2575.308730
630.532405	2577.975501
630.878521	2575.051632
631.224585	2574.605489
631.570597	2577.370562
631.916556	2578.867785
632.262462	2579.046746
632.608316	2579.255954
632.954117	2574.827300
633.299866	2579.936510
633.645562	2576.705130
633.991206	2579.180337
634.336797	2581.098496
634.682336	2579.684452
635.027823	2577.909966
635.373257	2578.608166
635.718639	2577.184040
636.063968	2576.934502
636.409245	2575.432239
636.754470	2580.740574
637.099642	2576.266550
637.444762	2576.957188
637.789829	2578.005748
638.134845	2580.770821
638.479808	2578.701427
638.824719	2580.155800
639.169577	2576.659760
639.514383	2576.357290
639.859137	2581.776531
640.203839	2581.791654
640.548489	2578.073803
640.893086	2580.700244
641.237632	2580.128073
641.582125	2581.673187
641.926566	2581.526994
642.270955	2576.488360
642.615292	2575.641447
642.959576	2578.908114
643.303809	2580.012127
643.647990	2584.193764
643.992118	2583.117478
644.336195	2581.723599
644.680219	2584.324834
645.024192	2587.914136
645.368112	2588.292222
645.711981	2584.793661
646.055797	2585.340627
646.399562	2589.169383
646.743274	2588.821543
647.086935	2594.339086
647.430544	2591.649631
647.774101	2594.863366
648.117606	2595.299426
648.461059	2597.462081
648.804460	2600.403594
649.147810	2597.162132
649.491108	2596.037955
649.834354	2599.516351
650.177548	2597.557863
650.520690	2597.068871
650.863781	2593.381267
651.206820	2595.969899
651.549807	2597.883017
651.892742	2598.727411
652.235626	2596.491659
652.578458	2598.969386
652.921238	2599.632298
653.263967	2600.020467
653.606644	2602.029366
653.949269	2597.943511
654.291843	2600.872422
654.634365	2603.579521
654.976836	2603.962649
655.319255	2602.251177
655.661622	2605.951384
656.003938	2606.054728
656.346203	2606.957094
656.688416	2607.786364
657.030577	2608.572784
657.372687	2610.359873
657.714746	2611.350460
658.056753	2612.378855
658.398708	2613.606376
658.740612	2615.738784
659.082465	2616.356326
659.424266	2612.600666
659.766016	2613.961777
660.107715	2616.850359
660.449362	2615.121243
660.790958	2620.936214
661.132503	2622.236832
661.473996	2624.964096
661.815438	2626.370578
662.156829	2628.979375
662.498168	2629.425517
662.839456	2632.563635
663.180693	2631.444499
663.521879	2632.198152
663.863013	2638.280304
664.204097	2637.577063
664.545129	2636.974645
664.886110	2637.834162
665.227040	2645.143835
665.567918	2645.597538
665.908746	2650.910915
666.249522	2650.293373
666.590248	2649.731285
666.930922	2658.167656
667.271545	2657.451812
667.612118	2664.496824
667.952639	2661.472132
668.293109	2662.976916
668.633528	2667.014881
668.973896	2666.782987
669.314213	2676.469565
669.654480	2669.480005
669.994695	2667.289623
670.334859	2673.835562
670.674973	2677.588701
671.015035	2680.346212
671.355047	2682.438291
671.695008	2677.026612
672.034918	2684.527849
672.374777	2689.039682
672.714585	2688.462470
673.054342	2698.804397
673.394049	2697.909592
673.733705	2701.642566
674.073310	2704.311857
674.412864	2711.871067
674.752368	2706.691282
675.091820	2704.805890
675.431223	2715.490616
675.770574	2711.404761
676.109875	2713.736294
676.449125	2712.904504
676.788324	2711.815615
677.127473	2709.594987
677.466571	2712.264277
677.805619	2719.372304
678.144616	2715.067159
678.483562	2725.479662
678.822458	2717.794423
679.161303	2722.215515
679.500098	2729.681464
679.838842	2732.418811
680.177535	2728.325394
680.516179	2733.888307
680.854771	2739.753689
681.193314	2748.177457
681.531805	2750.214084
681.870247	2770.413987
682.208638	2784.297325
682.546978	2800.214768
682.885268	2807.963022
683.223508	2799.080508
683.561697	2796.713687
683.899836	2800.481949
684.237925	2798.926753
684.575963	2802.853812
684.913951	2817.440391
685.251889	2813.357056
685.589776	2824.747543
685.927614	2830.439006
686.265401	2823.767039
686.603137	2840.659945
686.940824	2852.206708
687.278460	2864.544932
687.616046	2883.030843
687.953582	2896.281516
688.291068	2887.088972
688.628504	2899.102042
688.965889	2914.989238
689.303224	2928.290323
689.640510	2927.206475
689.977745	2908.597055
690.314930	2908.914648
690.652065	2912.418250
690.989150	2892.727503
691.326185	2890.290105
691.663170	2884.384393
692.000105	2874.143289
692.336990	2886.136194
692.673825	2870.349821
693.010610	2868.502238
693.347345	2856.753829
693.684030	2852.400793
694.020665	2849.827284
694.357251	2853.136801
694.693786	2868.280427
695.030272	2844.047601
695.366707	2847.929289
695.703093	2852.456245
696.039429	2855.027234
696.375716	2861.182483
696.711952	2849.623117
697.048139	2858.848428
697.384276	2869.505428
697.720363	2867.219264
698.056400	2867.012577
698.392388	2874.949874
698.728326	2877.946840
699.064214	2872.146992
699.400053	2893.171124
699.735842	2880.091851
700.071581	2875.106150
700.407270	2871.254708
700.742910	2872.794781
701.078501	2880.971532
701.414042	2869.991899
701.749533	2872.809904
702.084974	2864.686085
702.420366	2870.168339
702.755709	2872.691437
703.091002	2865.099459
703.426246	2871.083309
703.761440	2876.336191
704.096584	2878.120760
704.431679	2873.987013
704.766725	2877.157899
705.101721	2875.960625
705.436668	2879.640668
705.771565	2881.967160
706.106413	2893.445867
706.441212	2905.436252
706.775961	2893.357647
707.110661	2896.190776
707.445311	2926.162956
707.779913	2914.459917
708.114465	2931.564552
708.448967	2938.486056
708.783421	2940.578135
709.117825	2973.272538
709.452180	2981.406440
709.786485	2982.482727
710.120742	3018.554703
710.454949	3020.810619
710.789107	3037.343083
711.123216	3056.668347
711.457275	3086.708582
711.791286	3113.093982
712.125247	3103.944287
712.459159	3134.541571
712.793023	3155.497647
713.126837	3122.374746
713.460602	3136.759678
713.794318	3101.559822
714.127985	3134.410501
714.461602	3119.624796
714.795171	3097.171497
715.128691	3089.486258
715.462162	3058.462997
715.795584	3075.686099
716.128957	3060.539953
716.462281	3025.219108
716.795556	3061.033986
717.128782	3032.266641
717.461960	3002.423011
717.795088	3022.708614
718.128167	3018.791637
718.461198	3004.535254
718.794180	2999.360510
719.127113	3018.030423
719.459997	3006.922240
719.792833	2972.760861
720.125619	2987.349961
720.458357	2964.894141
720.791046	2973.378403
721.123686	2999.327742
721.456278	2974.167343
721.788821	2975.314206
722.121315	2959.759726
722.453761	2978.991728
722.786158	2991.755929
723.118506	2987.649909
723.450805	2990.372132
723.783056	2994.271465
724.115259	2984.037923
724.447412	2997.966631
724.779518	2997.318842
725.111574	3000.517454
725.443582	3018.562265
725.775542	3017.070083
726.107453	3045.746687
726.439315	3040.597148
726.771129	3046.013868
727.102895	3065.593709
727.434612	3085.513829
727.766281	3096.916919
728.097901	3109.602983
728.429473	3098.283072
728.760996	3105.892693
729.092471	3109.096347
729.423897	3113.794702
729.755276	3128.625777
730.086606	3118.072121
730.417887	3117.588170
730.749120	3134.259266
731.080305	3196.197403
731.411442	3215.250444
731.742530	3195.559697
732.073570	3239.528641
732.404562	3256.686208
732.735506	3212.694579
733.066401	3256.882813
733.397249	3250.183119
733.728048	3222.814695
734.058798	3178.187881
734.389501	3166.106755
734.720156	3145.438025
735.050762	3100.826334
735.381320	3088.019282
735.711831	3100.712908
736.042293	3089.554314
736.372707	3104.017384
736.703073	3082.781523
737.033391	3081.130546
737.363661	3085.173551
737.693883	3097.030345
738.024056	3128.381281
738.354182	3133.740027
738.684260	3133.233391
739.014290	3158.232473
739.344272	3176.247036
739.674207	3175.395081
740.004093	3192.618183
740.333931	3197.787887
740.663722	3202.962631
740.993464	3230.883062
741.323159	3250.548603
741.652806	3175.992458
741.982405	3174.031449
742.311956	3233.224678
742.641460	3205.069833
742.970915	3154.698624
743.300323	3167.951818
743.629683	3157.327586
743.958996	3133.772795
744.288260	3124.587812
744.617477	3138.763537
744.946647	3148.934065
745.275768	3100.294492
745.604842	3109.464351
745.933869	3107.944443
746.262847	3093.067998
746.591778	3109.338322
746.920662	3101.350614
747.249498	3098.817434
747.578286	3114.001389
747.907027	3136.552991
748.235720	3151.878099
748.564365	3127.294912
748.892963	3133.445120
749.221514	3198.806200
749.550017	3169.779236
749.878473	3119.864251
750.206881	3152.651916
750.535242	3141.737818
750.863555	3120.960702
751.191821	3142.322592
751.520039	3154.975888
751.848210	3124.590333
752.176334	3122.427678
752.504411	3158.913029
752.832440	3145.115391
753.160421	3098.761981
753.488356	3133.634163
753.816243	3167.125068
754.144082	3122.425157
754.471875	3104.849174
754.799620	3131.458905
755.127318	3138.461068
755.454969	3122.891464
755.782572	3115.211266
756.110129	3142.289824
756.437638	3155.958913
756.765100	3124.363481
757.092515	3120.025568
757.419882	3141.427787
757.747203	3138.660193
758.074477	3170.943742
758.401703	3174.646470
758.728882	3134.871766
759.056014	3145.654794
759.383099	3208.323898
759.710138	3204.933722
760.037129	3182.422450
760.364073	3184.862368
760.690970	3229.189234
761.017820	3235.291551
761.344623	3200.336190
761.671379	3225.178996
761.998088	3257.638986
762.324751	3306.608754
762.651366	3432.688012
762.977935	3689.610418
763.304456	3992.656861
763.630931	4171.088501
763.957359	4106.390333
764.283740	3983.638236
764.610074	3871.240670
764.936362	3649.548368
765.262602	3510.198273
765.588796	3381.190105
765.914943	3300.803866
766.241044	3298.207671
766.567097	3269.684823
766.893104	3196.575489
767.219064	3140.384268
767.544978	3146.758807
767.870845	3140.590955
768.196665	3104.829010
768.522438	3087.169848
768.848165	3092.997422
769.173846	3085.392841
769.499479	3073.682241
769.825066	3054.979560
770.150607	3045.023281
770.476101	3036.450799
770.801548	3051.987635
771.126949	3043.387427
771.452303	3024.702390
771.777611	3010.985410
772.102872	3019.300794
772.428087	3010.955163
772.753256	3013.692510
773.078378	3002.750686
773.403453	2985.865341
773.728482	2987.922132
774.053465	2974.691623
774.378401	2974.295893
774.703291	2987.420537
775.028135	2966.928246
775.352932	2947.008127
775.677683	2943.617951
776.002388	2962.509675
776.327046	2972.327322
776.651658	2938.874225
776.976224	2914.636358
777.300743	2923.395362
777.625216	2941.737601
777.949643	2949.848817
778.274024	2922.011566
778.598359	2906.832651
778.922647	2913.663415
779.246889	2919.947213
779.571086	2925.598347
779.895236	2924.988367
780.219339	2909.582601
780.543397	2903.865932
780.867409	2925.361412
781.191374	2940.706685
781.515294	2921.530135
781.839167	2913.350863
782.162995	2922.351843
782.486776	2920.325300
782.810511	2929.202772
783.134201	2938.470933
783.457844	2924.436361
783.781441	2897.882083
784.104993	2901.846950
784.428498	2913.613003
784.751958	2925.169848
785.075372	2910.101840
785.398739	2894.960734
785.722061	2898.108935
786.045337	2926.122627
786.368568	2944.389248
786.691752	2903.359296
787.014891	2911.641912
787.337983	2948.142387
787.661030	2991.582009
787.984031	3036.428114
788.306987	3083.325968
788.629897	3099.306426
788.952760	3089.216556
789.275579	3080.795309
789.598351	3087.429467
789.921078	3055.980229
790.243759	2979.359732
790.566395	2976.082982
790.888984	2992.761639
791.211529	2951.555248
791.534027	2938.947322
791.856480	2948.762448
792.178888	2918.356729
792.501249	2891.706669
792.823566	2903.795356
793.145836	2927.917277
793.468062	2908.781057
793.790241	2882.746018
794.112375	2894.461660
794.434464	2920.731113
794.756507	2941.344391
795.078505	2925.439550
795.400457	2916.816657
795.722364	2961.057823
796.044226	2994.256341
796.366042	3013.062366
796.687812	3016.082017
797.009538	3020.614014
797.331218	3003.032990
797.652852	2997.351610
797.974442	3001.560973
798.295986	3011.940709
798.617484	2983.997593
798.938938	2950.390741
799.260346	2973.879998
799.581709	2984.741163
799.903026	2956.203192
800.224299	2942.292128
800.545526	2945.647015
800.866708	2931.408276
801.187845	2905.965573
801.508936	2928.065991
801.829983	2937.510593
802.150984	2898.522309
802.471940	2892.183058
802.792851	2902.179666
803.113717	2905.726118
803.434538	2912.264495
803.755314	2885.495968
804.076045	2864.658358
804.396731	2878.476161
804.717372	2896.982237
805.037967	2891.820095
805.358518	2886.337840
805.679024	2886.347923
805.999485	2890.832029
806.319901	2895.401835
806.640272	2904.478433
806.960598	2913.066038
807.280879	2895.376629
807.601115	2897.514078
807.921306	2912.952612
808.241453	2932.081270
808.561554	2924.653130
808.881611	2890.111144
809.201623	2908.612179
809.521590	2921.883016
809.841513	2911.858682
810.161390	2932.529933
810.481223	2927.319901
810.801011	2896.810838
811.120755	2888.059394
811.440453	2916.163827
811.760107	2925.182451
812.079716	2910.323650
812.399281	2889.586864
812.718801	2900.722773
813.038276	2893.350085
813.357707	2898.275293
813.677093	2911.042015
813.996434	2886.254661
814.315731	2887.855228
814.634983	2890.600136
814.954191	2896.543656
815.273354	2918.646595
815.592473	2915.498395
815.911547	2907.551016
816.230577	2921.578026
816.549562	2947.776903
816.868502	2971.931592
817.187399	2983.085144
817.506250	2973.068372
817.825058	2966.240129
818.143821	3006.249246
818.462539	3059.214129
818.781213	3079.892942
819.099843	3086.297728
819.418429	3170.084226
819.736970	3254.190837
820.055466	3336.628825
820.373919	3501.406501
820.692327	3664.560924
821.010691	3789.800830
821.329011	4228.504723
821.647286	5027.033574
821.965517	6134.428881
822.283704	6995.836044
822.601847	7529.447220
822.919945	7346.551638
823.237999	6974.448949
823.556010	6466.585467
823.873976	5970.611545
824.191897	5244.256893
824.509775	4756.948716
824.827609	4356.534907
825.145398	4145.693688
825.463144	4128.692397
825.780845	4166.301925
826.098502	4165.525588
826.416116	4399.062081
826.733685	4811.272190
827.051210	5228.152927
827.368692	5356.903997
827.686129	4988.584694
828.003522	4443.300726
828.320872	4102.352368
828.638177	3861.740616
828.955439	3655.272598
829.272656	3445.321143
829.589830	3316.660815
829.906960	3251.405599
830.224046	3172.264525
830.541088	3125.908595
830.858086	3110.081892
831.175041	3079.840010
831.491952	3071.368351
831.808819	3079.640885
832.125642	3110.044083
832.442421	3169.965759
832.759157	3276.694547
833.075849	3476.092347
833.392497	3772.035804
833.709101	4000.629445
834.025662	4161.006193
834.342179	4105.341773
834.658653	3896.101120
834.975083	3665.443126
835.291469	3430.379163
835.607811	3245.328488
835.924110	3203.754092
836.240366	3112.869650
836.556578	3014.302490
836.872746	2966.013277
837.188871	2957.904581
837.504952	2934.254008
837.820990	2890.668192
838.136984	2863.143492
838.452935	2880.525390
838.768842	2881.057232
839.084706	2894.678429
839.400526	2952.021554
839.716303	3056.370918
840.032037	3240.559557
840.347727	3378.793036
840.663373	3311.105463
840.978977	3175.470699
841.294537	3046.500339
841.610054	2934.001950
841.925527	2887.162069
842.240957	2854.676874
842.556344	2838.567867
842.871687	2813.150369
843.186987	2785.986111
843.502244	2766.489449
843.817458	2749.364649
844.132629	2731.639952
844.447756	2740.139338
844.762840	2737.845613
845.077881	2721.792058
845.392879	2708.995089
845.707833	2710.081458
846.022745	2708.463247
846.337613	2709.632795
846.652438	2707.026519
846.967221	2708.755634
847.281960	2697.140816
847.596656	2696.059488
847.911309	2694.141329
848.225919	2692.394570
848.540485	2689.097655
848.855009	2692.112265
849.169490	2689.034641
849.483928	2683.375945
849.798323	2677.258505
850.112675	2679.393434
850.426984	2685.720082
850.741251	2687.550021
851.055474	2679.703465
851.369654	2680.013496
851.683792	2676.499812
851.997887	2685.798220
852.311938	2685.367201
852.625947	2681.467869
852.939914	2686.259485
853.253837	2687.129084
853.567718	2675.456293
853.881555	2672.729028
854.195350	2685.674712
854.509103	2684.124557
854.822812	2681.772858
855.136479	2680.318486
855.450103	2682.176151
855.763685	2672.217351
856.077224	2668.854902
856.390720	2678.985100
856.704173	2688.848118
857.017584	2684.200174
857.330953	2675.718433
857.644278	2684.623631
857.957561	2688.464990
858.270802	2691.335927
858.584000	2691.809796
858.897155	2687.862572
859.210268	2686.254444
859.523339	2685.652026
859.836367	2684.527849
860.149352	2681.558609
860.462295	2681.770338
860.775195	2688.528005
861.088054	2688.036492
861.400869	2678.493588
861.713642	2672.381189
862.026373	2683.973322
862.339062	2689.432892
862.651708	2690.315094
862.964312	2692.102183
863.276873	2686.214115
863.589392	2687.464321
863.901869	2692.828109
864.214303	2704.311857
864.526696	2714.323589
864.839045	2713.340564
865.151353	2707.487784
865.463619	2707.258412
865.775842	2710.741849
866.088023	2720.443550
866.400162	2726.913871
866.712258	2711.140100
867.024313	2704.541230
867.336325	2710.956098
867.648296	2724.433623
867.960224	2721.466904
868.272110	2716.435832
868.583954	2717.650750
868.895755	2729.850343
869.207515	2717.625545
869.519233	2718.787531
869.830909	2725.683829
870.142542	2734.173132
870.454134	2730.971999
870.765684	2734.523492
871.077191	2732.265055
871.388657	2734.599110
871.700081	2742.372569
872.011463	2748.739546
872.322803	2751.181985
872.634101	2748.666449
872.945357	2756.518047
873.256571	2770.477002
873.567744	2767.043976
873.878874	2758.794127
874.189963	2774.562857
874.501010	2775.835748
874.812015	2772.400202
875.122979	2775.775254
875.433900	2771.417177
875.744780	2775.412291
876.055618	2778.638630
876.366415	2782.295987
876.677169	2795.307205
876.987882	2794.727472
877.298554	2782.041408
877.609183	2793.804941
877.919771	2811.756490
878.230317	2830.917916
878.540822	2864.398739
878.851285	2887.628376
879.161707	2905.118659
879.472087	2953.090279
879.782425	3070.778536
880.092722	3303.445430
880.402977	3544.301679
880.713191	3721.770459
881.023363	4029.971481
881.333494	4396.097882
881.643583	4560.288263
881.953631	4553.480185
882.263637	4473.729131
882.573602	4367.280126
882.883526	4194.139177
883.193408	3949.648257
883.503248	3741.798963
883.813048	3629.784524
884.122806	3513.722039
884.432522	3358.502392
884.742197	3235.740213
885.051831	3131.990747
885.361424	3054.982081
885.670975	3022.038140
885.980485	2974.689103
886.289954	2932.940787
886.599382	2910.172416
886.908768	2889.286915
887.218113	2863.965200
887.527417	2833.796414
887.836680	2806.727939
888.145901	2808.978814
888.455082	2807.698361
888.764221	2778.255502
889.073319	2759.106679
889.382376	2760.745054
889.691392	2761.864190
890.000366	2760.921494
890.309300	2753.367325
890.618193	2761.027359
890.927044	2771.074378
891.235855	2771.391971
891.544625	2757.896802
891.853353	2765.219078
892.162041	2774.038577
892.470687	2795.246711
892.779293	2824.122440
893.087858	2849.058508
893.396381	2883.078734
893.704864	2936.986313
894.013306	3051.387738
894.321707	3201.049513
894.630068	3310.072027
894.938387	3311.249136
895.246665	3300.856798
895.554903	3262.952362
895.863100	3166.691529
896.171256	3080.260947
896.479371	3013.679907
896.787446	2948.439815
897.095480	2887.121740
897.403473	2845.050790
897.711425	2821.155721
898.019336	2817.095072
898.327207	2801.853143
898.635038	2783.173147
898.942827	2771.737290
899.250576	2766.509613
899.558284	2746.821387
899.865952	2733.391753
900.173579	2726.835733
900.481165	2722.850701
900.788711	2717.940617
901.096216	2703.943853
901.403681	2692.974302
901.711105	2699.941177
902.018489	2701.451002
902.325832	2696.392205
902.633135	2702.106352
902.940397	2718.185113
903.247619	2759.716659
903.554800	2857.477235
903.861941	3010.176305
904.169041	3209.231306
904.476101	3367.208465
904.783121	3378.793036
905.090100	3284.352060
905.397039	3158.628204
905.703938	3020.677029
906.010796	2920.582398
906.317614	2861.898327
906.624391	2807.557209
906.931129	2772.548916
907.237826	2733.106928
907.544483	2703.233050
907.851099	2686.471214
908.157675	2672.741631
908.464211	2660.214364
908.770707	2656.297387
909.077163	2649.827067
909.383578	2636.173101
909.689954	2632.130096
909.996289	2626.569703
910.302584	2631.207565
910.608839	2631.726804
910.915054	2629.470887
911.221229	2624.031482
911.527363	2623.353447
911.833458	2627.658592
912.139513	2630.814355
912.445527	2630.708491
912.751502	2638.731487
913.057436	2645.186684
913.363331	2653.648261
913.669186	2659.788387
913.975000	2678.838907
914.280775	2716.277036
914.586510	2752.928745
914.892205	2794.566155
915.197859	2853.618231
915.503475	2943.733898
915.809050	3049.335988
916.114585	3120.766618
916.420081	3150.489261
916.725536	3131.496714
917.030952	3080.926379
917.336328	3016.787778
917.641665	2943.819597
917.946961	2887.736761
918.252218	2855.546473
918.557435	2814.750935
918.862612	2780.047632
919.167750	2750.776172
919.472848	2727.443192
919.777906	2714.263095
920.082925	2698.698532
920.387904	2679.448887
920.692843	2671.294820
920.997743	2664.217040
921.302603	2658.613798
921.607423	2651.604073
921.912204	2645.436222
922.216946	2636.727628
922.521647	2633.040024
922.826310	2627.688839
923.130932	2624.805299
923.435516	2619.307921
923.740059	2613.051849
924.044564	2609.976745
924.349028	2605.505242
924.653454	2602.225971
924.957840	2597.101638
925.262186	2591.763057
925.566493	2589.348344
925.870761	2587.236100
926.174989	2585.486820
926.479178	2582.772159
926.783328	2579.863413
927.087438	2576.546334
927.391509	2576.637074
927.695541	2573.791343
927.999533	2573.483833
928.303486	2571.583318
928.607400	2570.239850
928.911275	2568.571228
929.215110	2569.055179
929.518906	2571.968966
929.822663	2569.219017
930.126381	2565.120558
930.430060	2571.641291
930.733699	2568.334294
931.037299	2572.667166
931.340861	2569.024932
931.644383	2573.221693
931.947866	2571.467371
932.251309	2567.326063
932.554714	2570.675910
932.858080	2568.840930
933.161407	2565.783470
933.464694	2567.880590
933.767943	2564.276165
934.071153	2566.970662
934.374323	2565.793552
934.677455	2564.155177
934.980548	2565.541495
935.283602	2567.043759
935.586617	2565.259190
935.889593	2565.884293
936.192530	2562.599982
936.495428	2564.578634
936.798287	2567.336146
937.101108	2568.543502
937.403890	2568.001578
937.706632	2575.525500
938.009336	2576.921900
938.312002	2580.685121
938.614628	2588.335072
938.917216	2591.581575
939.219765	2594.999477
939.522275	2594.500403
939.824747	2591.758015
940.127179	2591.064857
940.429573	2590.333889
940.731929	2590.520412
941.034246	2586.852973
941.336524	2582.426840
941.638763	2580.720409
941.940964	2582.043712
942.243126	2580.027250
942.545250	2580.395255
942.847335	2578.623289
943.149381	2575.162537
943.451389	2572.031980
943.753359	2566.622822
944.055290	2568.881259
944.357182	2568.389747
944.659036	2570.242371
944.960851	2569.123235
945.262628	2566.012843
945.564367	2567.721794
945.866067	2566.141392
946.167729	2567.651218
946.469352	2567.051320
946.770937	2568.470405
947.072484	2565.748182
947.373992	2565.652400
947.675462	2567.084088
947.976893	2562.279868
948.278286	2559.555125
948.579641	2562.287430
948.880958	2558.622511
949.182236	2560.586041
949.483476	2559.406411
949.784678	2563.517472
950.085841	2561.324570
950.386967	2559.729044
950.688054	2564.414797
950.989103	2562.612584
951.290114	2563.633418
951.591087	2564.969324
951.892021	2567.381516
952.192917	2568.447720
952.493776	2568.117524
952.794596	2568.896383
953.095378	2566.985785
953.396122	2568.049469
953.696828	2567.270611
953.997496	2566.116186
954.298126	2565.130641
954.598718	2561.627039
954.899272	2561.589230
955.199788	2561.382543
955.500266	2558.690567
955.800706	2558.136040
956.101108	2554.254351
956.401472	2555.638148
956.701798	2552.918446
957.002087	2554.065308
957.302337	2551.766542
957.602550	2551.764021
957.902724	2549.056922
958.202861	2550.677653
958.502960	2548.782179
958.803022	2546.196067
959.103045	2546.052394
959.403031	2547.287477
959.702979	2546.811088
960.002889	2547.257230
960.302762	2545.971736
960.602596	2546.198587
960.902393	2544.860161
961.202153	2546.496016
961.501875	2544.557692
961.801559	2543.562064
962.101205	2546.939637
962.400814	2544.003165
962.700385	2544.698844
962.999918	2543.683052
963.299414	2543.665408
963.598873	2542.216076
963.898293	2540.630633
964.197677	2543.630120
964.497022	2543.965356
964.796331	2545.283618
965.095601	2545.744884
965.394835	2544.933258
965.694030	2545.563402
965.993189	2543.395706
966.292309	2544.537527
966.591393	2545.293700
966.890439	2544.073741
967.189447	2544.146838
967.488419	2543.546941
967.787353	2543.892260
968.086249	2541.848072
968.385108	2543.476364
968.683930	2543.448638
968.982714	2544.013247
969.281462	2543.834286
969.580172	2546.044832
969.878844	2544.391334
970.177480	2545.084492
970.476078	2543.602393
970.774639	2544.774462
971.073162	2543.614996
971.371649	2541.966539
971.670098	2544.403937
971.968510	2545.545758
972.266885	2544.217414
972.565223	2542.400078
972.863524	2544.963505
973.161788	2543.214224
973.460014	2543.496529
973.758204	2542.674821
974.056356	2542.659698
974.354471	2546.881664
974.652550	2541.850592
974.950591	2543.297403
975.248595	2543.720860
975.546563	2546.334699
975.844493	2541.578370
976.142386	2542.037115
976.440243	2543.357897
976.738062	2541.875798
977.035845	2541.999306
977.333590	2542.117773
977.631299	2543.123484
977.928971	2542.276570
978.226606	2538.520910
978.524204	2540.292876
978.821765	2539.377906
979.119290	2545.523073
979.416777	2544.923176
979.714228	2543.050387
980.011642	2540.945705
980.309020	2544.124153
980.606360	2543.579708
980.903664	2543.274718
981.200931	2542.972249
981.498162	2544.333361
981.795356	2546.841335
982.092513	2545.588608
982.389633	2546.937117
982.686717	2548.187323
982.983764	2548.285625
983.280775	2552.719320
983.577749	2552.883157
983.874686	2554.508930
984.171587	2552.696635
984.468451	2550.990204
984.765279	2549.545914
985.062070	2546.319575
985.358824	2548.368804
985.655543	2546.508618
985.952224	2543.496529
986.248869	2544.434184
986.545478	2543.554502
986.842050	2541.767413
987.138586	2543.458720
987.435086	2540.988555
987.731549	2539.624923
988.027975	2543.183978
988.324366	2541.177598
988.620719	2542.546272
988.917037	2542.684903
989.213318	2541.336395
989.509563	2543.947712
989.805772	2543.438556
990.101944	2543.103319
990.398080	2541.802701
990.694180	2539.256919
990.990244	2542.548792
991.286271	2541.560726
991.582262	2541.457382
991.878217	2538.800694
992.174136	2543.360418
992.470019	2542.309337
992.765865	2539.609799
993.061676	2535.372710
993.357450	2538.770447
993.653188	2538.077289
993.948890	2541.754810
994.244556	2542.339584
994.540186	2542.241282
994.835780	2540.789429
995.131337	2540.255067
995.426859	2545.137425
995.722345	2541.278421
996.017795	2542.006868
996.313208	2543.723381
996.608586	2543.229348
996.903928	2542.856302
997.199234	2544.837476
997.494504	2544.164482
997.789738	2542.057280
998.084936	2546.143135
998.380099	2543.153731
998.675225	2544.381252
998.970316	2542.833617
999.265371	2544.610624
999.560390	2541.212886
999.855373	2542.188350
1000.150320	2543.705737
1000.445232	2540.045859
1000.740108	2539.587114
1001.034948	2538.624254
1001.329752	2539.171219
1001.624521	2541.399409
1001.919254	2538.747762
1002.213951	2541.598535
1002.508613	2539.025026
1002.803239	2540.769265
1003.097829	2541.180119
1003.392384	2541.011240
1003.686903	2538.029398
1003.981386	2539.498894
1004.275834	2537.421939
1004.570246	2542.248843
1004.864623	2542.311858
1005.158964	2539.733308
1005.453270	2538.465457
1005.747540	2538.891435
1006.041775	2543.249512
1006.335974	2541.870757
1006.630138	2541.086857
1006.924266	2542.074924
1007.218359	2538.009233
1007.512416	2540.378575
1007.806438	2533.968748
1008.100425	2538.606610
1008.394376	2535.118131
1008.688292	2541.807743
1008.982172	2540.418905
1009.276017	2540.887732
1009.569827	2540.696168
1009.863602	2541.175078
1010.157341	2540.708771
1010.451045	2539.085519
1010.744714	2540.610468
1011.038347	2539.219110
1011.331945	2538.074768
1011.625508	2540.376055
1011.919036	2537.048893
1012.212528	2542.659698
1012.505986	2540.255067
1012.799408	2540.441590
1013.092795	2537.709284
1013.386147	2538.034439
1013.679464	2539.002340
1013.972745	2540.386137
1014.265992	2537.757175
1014.559204	2540.648277
1014.852380	2539.130890
1015.145521	2540.640715
1015.438628	2538.843544
1015.731699	2541.444779
1016.024736	2538.162988
1016.317737	2540.373534
1016.610703	2539.171219
1016.903635	2539.246836
1017.196531	2540.907897
1017.489393	2537.119469
1017.782219	2538.349511
1018.075011	2537.976466
1018.367768	2541.202804
1018.660490	2544.504760
1018.953177	2544.504760
1019.245829	2544.504760
