Dividing Wavelength (nm)	Counts (n)	Blue Motor Position (mm): 17.100000	Red Motor Position (mm): 0.000000	
326.493990	2178.338030
326.888308	2178.338030
327.282561	2178.338030
327.676750	2137.237502
328.070874	2132.864301
328.464933	2134.563170
328.858929	2134.013684
329.252859	2146.891312
329.646726	2151.496406
330.040528	2165.011739
330.434265	2176.573626
330.827938	2195.271265
331.221547	2210.966898
331.615091	2228.089177
332.008571	2248.899060
332.401986	2266.646442
332.795338	2286.165790
333.188625	2305.201187
333.581847	2322.202478
333.975006	2341.197546
334.368100	2357.351923
334.761129	2377.042670
335.154095	2393.315515
335.546996	2415.529359
335.939833	2444.324430
336.332606	2458.333797
336.725315	2472.161682
337.117960	2484.232724
337.510540	2494.526761
337.903056	2508.551251
338.295508	2517.239679
338.687896	2523.672192
339.080220	2533.008408
339.472480	2538.838503
339.864676	2545.253371
340.256807	2550.385266
340.648875	2554.362736
341.040879	2555.597819
341.432818	2557.309291
341.824694	2563.978737
342.216506	2562.461350
342.608253	2564.356824
342.999937	2560.996895
343.391557	2564.876062
343.783113	2564.855898
344.174605	2565.354972
344.566033	2563.514951
344.957397	2560.036555
345.348697	2558.819116
345.739934	2556.749722
346.131106	2558.897254
346.522215	2554.899619
346.913260	2551.411141
347.304241	2550.478527
347.695159	2548.910728
348.086012	2547.589946
348.476802	2544.230017
348.867528	2540.071065
349.258191	2536.257432
349.648789	2536.103677
350.039324	2535.022349
350.429796	2538.636857
350.820203	2535.450848
351.210548	2534.707277
351.600828	2535.597041
351.991045	2532.216947
352.381198	2531.637215
352.771288	2532.753830
353.161314	2530.190403
353.551276	2531.944725
353.941175	2528.272244
354.331010	2528.128572
354.720782	2528.446164
355.110490	2529.109076
355.500135	2526.258303
355.889717	2531.768285
356.279235	2529.560259
356.668689	2529.913140
357.058080	2530.565969
357.447408	2528.146216
357.836672	2529.867770
358.225873	2532.640404
358.615010	2531.291896
359.004084	2531.223840
359.393095	2533.182328
359.782043	2530.843233
360.170927	2533.794828
360.559748	2534.598892
360.948505	2535.297092
361.337199	2531.375075
361.725830	2531.828778
362.114398	2536.053265
362.502903	2536.239788
362.891344	2535.791125
363.279722	2538.629295
363.668037	2537.636188
364.056289	2536.249870
364.444478	2539.677855
364.832603	2538.112577
365.220665	2540.197094
365.608665	2539.342618
365.996601	2538.329346
366.384474	2538.140303
366.772284	2539.503935
367.160031	2540.529810
367.547715	2542.722712
367.935336	2543.829245
368.322893	2537.943698
368.710388	2536.703574
369.097820	2541.386806
369.485189	2538.898997
369.872495	2543.529297
370.259738	2544.237579
370.646918	2544.320758
371.034035	2545.636499
371.421090	2544.880326
371.808081	2543.539379
372.195010	2544.703885
372.581875	2546.569112
372.968678	2544.492157
373.355418	2545.099616
373.742096	2544.819832
374.128710	2546.853938
374.515262	2545.606252
374.901751	2547.456355
375.288177	2545.807898
375.674540	2550.221428
376.060841	2546.760676
376.447079	2548.131870
376.833254	2546.034750
377.219367	2546.916952
377.605417	2547.196736
377.991404	2549.349309
378.377329	2550.082797
378.763191	2547.892415
379.148991	2547.705893
379.534727	2550.445760
379.920402	2549.722354
380.306013	2550.949875
380.691563	2549.866027
381.077049	2550.405430
381.462474	2548.545245
381.847835	2550.609597
382.233134	2547.733619
382.618371	2548.557847
383.003545	2552.227808
383.388657	2549.311500
383.773706	2549.450132
384.158693	2552.288301
384.543618	2554.962633
384.928480	2550.849052
385.313280	2553.205791
385.698017	2551.035575
386.082692	2550.418033
386.467305	2551.123795
386.851856	2554.801317
387.236344	2555.698642
387.620770	2552.139587
388.005133	2549.810574
388.389435	2550.511295
388.773674	2548.915769
389.157851	2554.443395
389.541965	2554.576985
389.926018	2555.542366
390.310008	2555.575134
390.693936	2556.883313
391.077802	2554.904660
391.461606	2555.723848
391.845348	2559.298026
392.229027	2555.880123
392.612645	2555.744012
392.996200	2557.846173
393.379694	2557.289126
393.763125	2558.183931
394.146494	2556.777449
394.529801	2554.929866
394.913047	2557.982285
395.296230	2558.980433
395.679351	2557.435319
396.062410	2558.509085
396.445408	2556.732078
396.828343	2558.501523
397.211217	2557.818447
397.594028	2557.725186
397.976778	2560.102090
398.359466	2560.349106
398.742092	2559.552604
399.124656	2558.851884
399.507158	2560.681822
399.889598	2559.381205
400.271977	2562.831875
400.654294	2561.806000
401.036549	2560.734755
401.418742	2561.455640
401.800874	2559.708880
402.182944	2559.484548
402.564952	2560.991853
402.946898	2563.507389
403.328783	2562.146278
403.710606	2559.151832
404.092367	2562.705846
404.474067	2564.583676
404.855705	2565.997719
405.237282	2562.728531
405.618797	2564.440003
406.000250	2564.732390
406.381642	2564.452606
406.762972	2562.715928
407.144240	2558.443550
407.525447	2562.826833
407.906593	2558.551935
408.287677	2564.540826
408.668700	2567.799932
409.049661	2568.135168
409.430560	2566.025446
409.811399	2567.343707
410.192176	2567.716753
410.572891	2563.270455
410.953545	2563.840105
411.334138	2566.796742
411.714669	2566.890003
412.095139	2565.286917
412.475547	2566.153995
412.855894	2564.881104
413.236180	2568.790518
413.616405	2566.201886
413.996568	2568.293965
414.376670	2566.143913
414.756711	2566.229612
415.136691	2566.108625
415.516609	2568.046948
415.896466	2568.712381
416.276262	2568.528378
416.655997	2569.846640
417.035670	2570.970817
417.415283	2569.380333
417.794834	2569.866805
418.174324	2569.050138
418.553753	2568.866136
418.933121	2572.624316
419.312428	2569.350087
419.691674	2571.384192
420.070859	2570.257494
420.449983	2569.254305
420.829045	2567.628533
421.208047	2570.688513
421.586988	2568.437638
421.965867	2570.088616
422.344686	2571.316137
422.723444	2569.597103
423.102141	2570.436455
423.480777	2569.992834
423.859352	2572.518452
424.237866	2571.535427
424.616319	2570.827145
424.994712	2573.141034
425.373044	2570.040725
425.751314	2573.110787
426.129524	2568.503173
426.507673	2568.568708
426.885762	2566.239695
427.263789	2570.212124
427.641756	2573.430901
428.019662	2572.589028
428.397508	2571.429563
428.775292	2571.729511
429.153016	2571.618606
429.530679	2572.997361
429.908282	2571.532906
430.285824	2575.081878
430.663305	2571.868143
431.040726	2573.967783
431.418086	2572.813359
431.795385	2574.696230
432.172624	2570.880077
432.549802	2572.798236
432.926920	2573.451065
433.303977	2572.508369
433.680974	2575.941395
434.057910	2571.805128
434.434786	2575.379307
434.811601	2575.913669
435.188355	2576.805953
435.565050	2573.584656
435.941683	2571.278328
436.318257	2574.383679
436.694770	2577.282342
437.071222	2573.370407
437.447614	2572.644481
437.823946	2577.592373
438.200218	2574.300500
438.576429	2574.663463
438.952580	2574.597928
439.328670	2579.200501
439.704700	2576.120356
440.080670	2576.740418
440.456580	2576.793350
440.832429	2575.651529
441.208218	2578.635892
441.583947	2576.080027
441.959616	2579.152610
442.335224	2577.040367
442.710773	2575.654049
443.086261	2576.616910
443.461689	2576.311920
443.837057	2576.891653
444.212365	2575.291086
444.587612	2573.829152
444.962800	2574.610531
445.337927	2576.105233
445.712995	2573.942578
446.088002	2578.219997
446.462949	2579.354256
446.837837	2579.223186
447.212664	2579.674370
447.587431	2578.338464
447.962139	2578.656057
448.336786	2582.618403
448.711374	2580.241499
449.085901	2581.786613
449.460369	2579.185378
449.834776	2580.972467
450.209124	2581.365677
450.583412	2582.338619
450.957640	2581.920204
451.331808	2582.154617
451.705917	2581.456417
452.079965	2581.673187
452.453954	2582.452045
452.827883	2581.708475
453.201752	2579.329051
453.575562	2582.681418
453.949311	2581.532035
454.323001	2582.124370
454.696632	2580.659915
455.070202	2581.980697
455.443713	2584.586974
455.817164	2581.632858
456.190556	2584.773497
456.563888	2584.347519
456.937160	2583.094792
457.310373	2585.290215
457.683526	2582.744432
458.056619	2583.939186
458.429653	2586.220308
458.802628	2585.237283
459.175542	2583.409865
459.548398	2585.716192
459.921194	2584.715523
460.293930	2586.631162
460.666607	2584.342478
461.039224	2588.582088
461.411782	2586.787438
461.784280	2588.554362
462.156719	2589.585278
462.529099	2591.120309
462.901419	2587.901533
463.273680	2587.629310
463.645882	2581.582446
464.018024	2588.672829
464.390106	2584.473548
464.762130	2586.825246
465.134094	2588.819023
465.505999	2589.582757
465.877845	2593.779518
466.249631	2593.882862
466.621358	2595.319591
466.993026	2593.197265
467.364634	2598.866042
467.736184	2592.781370
468.107674	2593.076277
468.479105	2591.536205
468.850477	2593.403952
469.221790	2593.502255
469.593043	2591.516040
469.964238	2591.241297
470.335373	2591.652151
470.706449	2594.064343
471.077467	2593.943356
471.448425	2595.508634
471.819324	2598.321598
472.190164	2598.079622
472.560945	2599.511310
472.931667	2596.405959
473.302330	2595.120465
473.672934	2594.422265
474.043479	2596.221957
474.413965	2591.826071
474.784393	2596.466453
475.154761	2597.104159
475.525070	2596.660537
475.895321	2596.600044
476.265513	2595.150712
476.635645	2596.284972
477.005719	2595.259097
477.375734	2596.161463
477.745691	2596.905033
478.115588	2599.410487
478.485427	2597.388984
478.855207	2601.056424
479.224928	2602.954418
479.594591	2603.090529
479.964194	2604.398709
480.333739	2604.796960
480.703226	2604.522217
481.072653	2605.071703
481.442022	2604.315530
481.811333	2605.447269
482.180584	2601.812597
482.549777	2603.294696
482.918912	2599.307143
483.287988	2603.130858
483.657005	2607.047835
484.025964	2606.057248
484.394864	2606.949532
484.763706	2607.347784
485.132489	2604.497011
485.501213	2605.709409
485.869879	2607.083123
486.238487	2606.268977
486.607036	2607.499018
486.975527	2607.282249
487.343959	2609.301231
487.712333	2609.175202
488.080648	2606.911724
488.448905	2606.475664
488.817104	2609.200408
489.185244	2609.253340
489.553326	2608.769389
489.921350	2611.209308
490.289315	2613.150152
490.657222	2617.964454
491.025070	2618.319855
491.392861	2619.134001
491.760593	2616.729371
492.128267	2616.676439
492.495883	2615.640482
492.863440	2613.261057
493.230939	2613.518156
493.598380	2616.938579
493.965763	2614.052518
494.333088	2614.849021
494.700354	2614.412961
495.067563	2616.139556
495.434713	2614.435646
495.801805	2616.159721
496.168839	2617.021758
496.535815	2616.109309
496.902733	2616.615945
497.269593	2617.329268
497.636395	2617.735081
498.003139	2617.273816
498.369825	2618.662653
498.736453	2618.440843
499.103023	2622.637603
499.469535	2620.215329
499.835989	2622.882099
500.202385	2619.081069
500.568723	2617.699793
500.935003	2622.720782
501.301226	2620.580812
501.667390	2628.087091
502.033497	2627.020887
502.399546	2627.792183
502.765537	2630.433748
503.131470	2632.193110
503.497345	2632.833337
503.863163	2633.556743
504.228923	2636.926754
504.594625	2636.664614
504.960269	2637.398102
505.325856	2641.100829
505.691385	2639.822897
506.056856	2642.252733
506.422270	2643.538227
506.787625	2645.345481
507.152924	2649.499392
507.518164	2651.551141
507.883347	2650.628610
508.248472	2655.435350
508.613540	2660.388284
508.978550	2661.940959
509.343503	2664.998419
509.708398	2667.100580
510.073236	2670.011847
510.438016	2674.899245
510.802738	2678.428053
511.167403	2681.041891
511.532010	2684.248065
511.896561	2694.060671
512.261053	2694.653007
512.625488	2699.326156
512.989866	2704.720191
513.354186	2709.589945
513.718449	2715.324258
514.082655	2721.169476
514.446803	2726.465208
514.810894	2735.655231
515.174927	2741.069431
515.538904	2748.363980
515.902822	2756.865886
516.266684	2762.670775
516.630488	2769.609923
516.994235	2780.670215
517.357925	2791.357461
517.721558	2803.292392
518.085133	2811.007878
518.448651	2823.036072
518.812112	2827.542863
519.175516	2844.496263
519.538863	2855.180989
519.902152	2870.942157
520.265385	2889.881772
520.628560	2903.109759
520.991678	2918.482758
521.354739	2936.744338
521.717743	2951.063735
522.080690	2968.145685
522.443580	2992.527226
522.806413	3009.957015
523.169189	3028.954603
523.531908	3054.288922
523.894569	3065.830644
524.257174	3094.492124
524.619722	3121.989097
524.982213	3139.343270
525.344647	3170.273269
525.707025	3197.379553
526.069345	3227.760067
526.431608	3255.884664
526.793815	3296.947383
527.155964	3304.183959
527.518057	3343.290710
527.880093	3375.733056
528.242072	3410.370824
528.603995	3434.560801
528.965860	3469.647231
529.327669	3514.400075
529.689421	3548.742935
530.051117	3583.390786
530.412755	3638.515803
530.774337	3664.669309
531.135862	3706.460474
531.497331	3762.472735
531.858743	3784.754635
532.220098	3866.093652
532.581396	3879.956825
532.942638	3952.020119
533.303824	3993.287005
533.664953	4059.313517
534.026025	4094.888940
534.387040	4154.951768
534.747999	4231.413468
535.108902	4290.152993
535.469748	4316.954288
535.830537	4395.934045
536.191270	4454.177016
536.551947	4530.994118
536.912567	4539.818658
537.273131	4637.236435
537.633638	4676.199513
537.994089	4787.054487
538.354483	4801.908246
538.714821	4923.084982
539.075103	5018.508983
539.435328	5069.616201
539.795497	5084.452317
540.155609	5211.433941
540.515665	5322.742618
540.875665	5308.844157
541.235609	5419.230302
541.595496	5512.741186
541.955328	5632.055215
542.315102	5706.636565
542.674821	5747.399335
543.034483	5804.596267
543.394090	5892.448455
543.753640	5956.695440
544.113134	6125.874043
544.472571	6186.471233
544.831953	6344.559297
545.191278	6349.665985
545.550548	6451.618281
545.909761	6533.504263
546.268918	6694.932092
546.628019	6778.073322
546.987064	6878.911522
547.346053	6918.739158
547.704986	7022.811258
548.063863	7165.077661
548.422684	7216.971299
548.781449	7270.800740
549.140158	7452.902340
549.498811	7506.653643
549.857408	7511.921649
550.215949	7724.474339
550.574434	7754.239832
550.932864	7916.312928
551.291237	8032.423304
551.649555	8141.697875
552.007817	8262.078108
552.366022	8352.554217
552.724173	8433.726876
553.082267	8544.533958
553.440305	8778.440976
553.798288	8699.879635
554.156215	8958.354716
554.514086	9091.448739
554.871902	9031.380871
555.229661	9219.806598
555.587365	9319.490375
555.945014	9363.494607
556.302606	9591.937014
556.660143	9653.517228
557.017625	9884.492815
557.375050	9860.474238
557.732421	10073.548688
558.089735	10167.311628
558.446994	10278.988310
558.804197	10425.993397
559.161345	10552.975021
559.518437	10524.684066
559.875474	10768.895202
560.232455	10901.396890
560.589381	11015.148006
560.946251	11082.321381
561.303065	11354.473112
561.659825	11510.002791
562.016528	11476.748819
562.373177	11512.319201
562.729770	11728.108312
563.086307	11855.546161
563.442789	12031.242975
563.799216	12090.821852
564.155587	12185.676202
564.511904	12330.964777
564.868164	12386.921585
565.224370	12562.434397
565.580520	12582.157911
565.936615	12811.719455
566.292654	12743.731933
566.648638	13075.903642
567.004567	13068.707395
567.360441	13175.927697
567.716260	13147.694714
568.072023	13466.154485
568.427732	13460.102580
568.783385	13455.371457
569.138982	13674.661649
569.494525	13837.296834
569.850013	13841.982587
570.205445	13988.907016
570.560823	13970.494201
570.916145	13997.983613
571.271412	14155.073529
571.626625	14193.799673
571.981782	14320.506554
572.336884	14311.079596
572.691931	14507.798022
573.046923	14425.551597
573.401860	14513.358415
573.756743	14629.367968
574.111570	14661.941383
574.466342	14731.658020
574.821059	14908.526903
575.175722	14810.559640
575.530330	14954.305621
575.884882	15047.423294
576.239380	15108.620382
576.593823	15125.145284
576.948211	15194.501478
577.302544	15181.071845
577.656823	15207.598396
578.011047	15387.345778
578.365216	15396.339196
578.719330	15408.092646
579.073389	15416.584470
579.427394	15635.186545
579.781344	15543.586259
580.135239	15592.563589
580.489080	15633.107069
580.842866	15535.618715
581.196597	15790.454083
581.550273	15817.192363
581.903895	15885.895728
582.257463	16170.874676
582.610975	15926.411482
582.964434	16210.162908
583.317837	16091.554641
583.671186	16234.725931
584.024481	16292.250537
584.377721	16178.222158
584.730906	16298.839325
585.084037	16417.863488
585.437113	16410.982313
585.790135	16620.694313
586.143103	16304.351827
586.496016	16356.222779
586.848874	16669.366653
587.201679	16674.092735
587.554428	16458.991742
587.907124	16783.193387
588.259765	16674.924526
588.612352	16828.543607
588.964884	16532.993360
589.317362	16736.043475
589.669786	16838.036099
590.022155	16947.749251
590.374470	17146.574879
590.726731	17073.551245
591.078937	16910.568221
591.431090	17050.636681
591.783188	16901.554638
592.135232	16930.165707
592.487222	17091.467506
592.839157	17155.991755
593.191038	17127.622662
593.542866	17061.727219
593.894639	16909.769198
594.246358	17134.576933
594.598022	17105.698683
594.949633	16955.797453
595.301190	16950.037935
595.652692	17142.753685
596.004141	17425.882529
596.355535	16862.034512
596.706876	16924.189419
597.058162	16883.913120
597.409395	17110.865866
597.760573	17249.941218
598.111698	17108.068026
598.462768	17084.674551
598.813785	17067.272488
599.164748	16962.212322
599.515657	17029.302518
599.866511	16882.695681
600.217312	17239.150629
600.568060	16859.040067
600.918753	17174.107141
601.269392	17128.477137
601.619978	16935.592509
601.970510	17195.453907
602.320988	17152.871281
602.671412	17389.835758
603.021783	17320.167012
603.372100	17120.063451
603.722363	17265.672139
604.072572	17240.811689
604.422728	17376.363275
604.772830	17204.974126
605.122878	17161.605080
605.472872	17199.370884
605.822813	17224.014564
606.172701	17196.205039
606.522534	17414.537412
606.872314	17466.569682
607.222041	17319.070561
607.571714	17549.884831
607.921333	17410.968275
608.270899	17509.306063
608.620411	17720.016212
608.969870	17486.194893
609.319276	17511.201537
609.668627	17576.474397
610.017926	17713.364409
610.367171	17857.914455
610.716362	17913.644410
611.065500	17749.741375
611.414585	17889.512407
611.763616	17889.877891
612.112594	17851.010594
612.461518	17841.402155
612.810389	18049.170790
613.159207	17903.166372
613.507971	17827.743149
613.856682	18135.644223
614.205340	18074.981498
614.553945	18235.935458
614.902496	17966.115260
615.250994	18260.841279
615.599439	18186.993416
615.947830	18181.332200
616.296169	18232.827587
616.644454	18213.227581
616.992686	18191.427111
617.340864	18399.939316
617.688990	18184.742541
618.037063	18357.414663
618.385082	18207.052167
618.733048	18503.479575
619.080961	18352.144137
619.428821	18420.842461
619.776628	18330.288214
620.124382	18253.294671
620.472083	18296.003327
620.819731	18330.114294
621.167326	18026.326802
621.514868	18089.069003
621.862357	17853.127879
622.209793	17884.607364
622.557176	17720.018732
622.904506	17556.768527
623.251783	17464.036502
623.599007	17256.550171
623.946179	17213.619705
624.293297	17164.781007
624.640363	16929.633865
624.987376	16950.927699
625.334336	16739.456336
625.681243	16600.587671
626.028097	16602.558762
626.374899	16541.780091
626.721647	16412.058599
627.068343	16250.507263
627.414987	16174.852146
627.761577	16162.692883
628.108115	16220.542644
628.454600	15939.203410
628.801032	16038.062957
629.147412	15965.848428
629.493739	15986.328116
629.840014	15800.798531
630.186236	15906.536733
630.532405	15662.738971
630.878521	15867.498038
631.224585	15750.026550
631.570597	15581.483133
631.916556	15620.829339
632.262462	15600.770587
632.608316	15520.631365
632.954117	15465.662623
633.299866	15463.280678
633.645562	15394.347940
633.991206	15144.253778
634.336797	15008.240926
634.682336	14982.024406
635.027823	14883.227872
635.373257	14771.110090
635.718639	14654.609025
636.063968	14619.104178
636.409245	14367.190159
636.754470	14395.539088
637.099642	14246.215070
637.444762	14026.413200
637.789829	14068.466506
638.134845	13923.225822
638.479808	13946.024440
638.824719	13898.443510
639.169577	13747.425664
639.514383	13792.264207
639.859137	13611.364922
640.203839	13687.710676
640.548489	13525.597251
640.893086	13514.428574
641.237632	13387.935942
641.582125	13534.515052
641.926566	13377.604097
642.270955	13380.510323
642.615292	13355.150798
642.959576	13365.933826
643.303809	13400.256522
643.647990	13327.910923
643.992118	13383.529974
644.336195	13162.351869
644.680219	13350.432278
645.024192	13291.591930
645.368112	13521.440819
645.711981	13591.396911
646.055797	13760.416717
646.399562	13726.275503
646.743274	13989.055730
647.086935	14272.746662
647.430544	14231.212596
647.774101	14260.352986
648.117606	14417.881482
648.461059	14374.209966
648.804460	14379.712385
649.147810	14114.872847
649.491108	14005.452083
649.834354	14030.494014
650.177548	13732.294641
650.520690	13546.639027
650.863781	13458.922950
651.206820	13503.484229
651.549807	13332.573991
651.892742	13153.224860
652.235626	13082.840270
652.578458	13081.675764
652.921238	12763.387392
653.263967	12964.131179
653.606644	12793.886373
653.949269	12758.931012
654.291843	12571.415213
654.634365	12723.022873
654.976836	12578.757653
655.319255	12599.423863
655.661622	12538.897250
656.003938	12466.229017
656.346203	12391.125907
656.688416	12461.697020
657.030577	12422.287799
657.372687	12347.492200
657.714746	12321.366420
658.056753	12501.015499
658.398708	12328.938233
658.740612	12326.294148
659.082465	12424.364755
659.424266	12384.287582
659.766016	12407.060994
660.107715	12316.143785
660.449362	12400.053790
660.790958	12353.589475
661.132503	12306.323617
661.473996	12360.258922
661.815438	12375.513453
662.156829	12389.129610
662.498168	12376.050336
662.839456	12367.145138
663.180693	12389.661452
663.521879	12478.116058
663.863013	12462.556536
664.204097	12428.470775
664.545129	12553.060371
664.886110	12510.442457
665.227040	12605.697579
665.567918	12613.450874
665.908746	12648.494455
666.249522	12629.806898
666.590248	12674.211901
666.930922	12786.354889
667.271545	12778.183179
667.612118	12859.854912
667.952639	12766.079368
668.293109	12766.454934
668.633528	12726.377761
668.973896	12708.199360
669.314213	12792.613482
669.654480	12534.889532
669.994695	12587.904827
670.334859	12613.279475
670.674973	12559.321484
671.015035	12598.854213
671.355047	12539.368598
671.695008	12506.656550
672.034918	12515.181141
672.374777	12559.671845
672.714585	12472.318731
673.054342	12504.720747
673.394049	12444.627673
673.733705	12543.179710
674.073310	12465.220786
674.412864	12478.403403
674.752368	12360.556350
675.091820	12358.098787
675.431223	12353.660052
675.770574	12226.247409
676.109875	12151.396356
676.449125	12125.242850
676.788324	12047.798124
677.127473	11884.005995
677.466571	11878.483411
677.805619	11780.732917
678.144616	11703.605784
678.483562	11663.823518
678.822458	11532.745956
679.161303	11509.695280
679.500098	11509.821309
679.838842	11464.488733
680.177535	11474.777728
680.516179	11532.597242
680.854771	11477.467184
681.193314	11701.407841
681.531805	11841.057884
681.870247	12237.400962
682.208638	12639.526242
682.546978	12969.358856
682.885268	13045.180330
683.223508	12727.847257
683.561697	12563.735015
683.899836	12452.988426
684.237925	12265.391968
684.575963	12195.163654
684.913951	12115.067281
685.251889	12056.499156
685.589776	12153.009526
685.927614	12083.693660
686.265401	12043.641693
686.603137	12086.163826
686.940824	12236.191085
687.278460	12352.450175
687.616046	12400.489850
687.953582	12579.927201
688.291068	12498.983914
688.628504	12731.681055
688.965889	12741.735636
689.303224	12713.119527
689.640510	12612.049433
689.977745	12310.986684
690.314930	12078.120665
690.652065	11989.038435
690.989150	11720.700336
691.326185	11490.576704
691.663170	11284.496856
692.000105	11036.000739
692.336990	10938.454412
692.673825	10684.455875
693.010610	10560.829139
693.347345	10361.701041
693.684030	10153.597169
694.020665	10097.063150
694.357251	9900.768181
694.693786	9858.447694
695.030272	9687.862610
695.366707	9565.533970
695.703093	9489.258792
696.039429	9491.214760
696.375716	9426.743443
696.711952	9292.653792
697.048139	9325.842228
697.384276	9285.697000
697.720363	9293.714955
698.056400	9238.857119
698.392388	9192.924646
698.728326	9149.948809
699.064214	9079.854085
699.400053	9135.488259
699.735842	8953.487482
700.071581	8902.987723
700.407270	8840.129576
700.742910	8758.636803
701.078501	8663.308584
701.414042	8542.124287
701.749533	8475.318916
702.084974	8340.639450
702.420366	8448.525183
702.755709	8332.903799
703.091002	8205.339922
703.426246	8229.272800
703.761440	8182.148094
704.096584	8131.270248
704.431679	8064.079229
704.766725	8059.887510
705.101721	8002.441041
705.436668	8047.314872
705.771565	7943.351157
706.106413	8025.080863
706.441212	8072.818070
706.775961	8022.232611
707.110661	8048.895274
707.445311	8198.607461
707.779913	8092.783559
708.114465	8225.630566
708.448967	8268.951722
708.783421	8401.871825
709.117825	8583.678518
709.452180	8616.506512
709.786485	8706.319709
710.120742	8973.861305
710.454949	8976.515473
710.789107	9076.912572
711.123216	9284.348491
711.457275	9446.325805
711.791286	9616.137073
712.125247	9606.924364
712.459159	9597.683929
712.793023	9857.182364
713.126837	9435.618395
713.460602	9577.683151
713.794318	9406.445237
714.127985	9431.779556
714.461602	9131.662023
714.795171	9073.025843
715.128691	8833.134975
715.462162	8583.383611
715.795584	8524.505454
716.128957	8394.337821
716.462281	8217.161428
716.795556	8269.808718
717.128782	8066.498983
717.461960	7788.771736
717.795088	7860.918209
718.128167	7773.008048
718.461198	7600.635874
718.794180	7542.181175
719.127113	7536.436780
719.459997	7400.250009
719.792833	7165.488515
720.125619	7219.554890
720.458357	7079.294867
720.791046	7074.334371
721.123686	7070.775317
721.456278	6919.041627
721.788821	6929.272649
722.121315	6823.965466
722.453761	6888.431741
722.786158	6836.800243
723.118506	6850.003025
723.450805	6817.212840
723.783056	6884.756740
724.115259	6786.313088
724.447412	6782.748992
724.779518	6828.215158
725.111574	6827.121228
725.443582	6916.281595
725.775542	6887.960393
726.107453	7073.898312
726.439315	6985.854560
726.771129	7037.047477
727.102895	7205.308589
727.434612	7321.993657
727.766281	7346.256730
728.097901	7436.150586
728.429473	7417.095024
728.760996	7392.232053
729.092471	7374.756894
729.423897	7327.327198
729.755276	7345.626586
730.086606	7268.660770
730.417887	7371.336471
730.749120	7542.062708
731.080305	7739.295331
731.411442	7864.134465
731.742530	7872.979169
732.073570	7976.148903
732.404562	8051.433495
732.735506	7900.468581
733.066401	8048.396200
733.397249	7988.648444
733.728048	7753.622290
734.058798	7418.995539
734.389501	7198.084616
734.720156	7022.554160
735.050762	6787.979189
735.381320	6684.305339
735.711831	6640.540562
736.042293	6530.698861
736.372707	6554.737603
736.703073	6416.098311
737.033391	6450.181552
737.363661	6463.737215
737.693883	6479.445450
738.024056	6565.369397
738.354182	6614.198013
738.684260	6655.593448
739.014290	6756.633294
739.344272	6864.680345
739.674207	6892.794860
740.004093	6955.254756
740.333931	6981.113354
740.663722	6985.489076
740.993464	7064.307516
741.323159	7063.274080
741.652806	6817.863149
741.982405	6806.742363
742.311956	6870.785182
742.641460	6726.809828
742.970915	6527.286000
743.300323	6522.007912
743.629683	6463.081865
743.958996	6335.147462
744.288260	6245.505665
744.617477	6193.352408
744.946647	6208.422937
745.275768	6036.592687
745.604842	5996.253374
745.933869	5973.071628
746.262847	5931.293066
746.591778	5916.628349
746.920662	5882.436723
747.249498	5860.623651
747.578286	5913.321353
747.907027	5989.830944
748.235720	6046.110386
748.564365	6020.730697
748.892963	6035.765938
749.221514	6198.368356
749.550017	6047.733638
749.878473	5915.365540
750.206881	5963.811029
750.535242	5907.072842
750.863555	5841.220250
751.191821	5860.054000
751.520039	5865.483323
751.848210	5772.078304
752.176334	5785.581035
752.504411	5840.380898
752.832440	5768.869610
753.160421	5690.726684
753.488356	5738.642851
753.816243	5777.379077
754.144082	5635.460514
754.471875	5595.527014
754.799620	5642.291278
755.127318	5651.851826
755.454969	5601.762921
755.782572	5567.891409
756.110129	5614.161639
756.437638	5608.344148
756.765100	5541.616915
757.092515	5537.674732
757.419882	5582.561166
757.747203	5568.239248
758.074477	5633.262571
758.401703	5624.072548
758.728882	5568.554320
759.056014	5614.043172
759.383099	5757.864771
759.710138	5762.495071
760.037129	5740.918932
760.364073	5751.543164
760.690970	5837.986349
761.017820	5823.132590
761.344623	5773.280619
761.671379	5863.948292
761.998088	5978.763091
762.324751	6203.152411
762.651366	6772.971674
762.977935	8035.954632
763.304456	9645.902566
763.630931	10568.499254
763.957359	10229.292615
764.283740	9306.864805
764.610074	8493.267944
764.936362	7520.221908
765.262602	6922.172184
765.588796	6379.612960
765.914943	6033.436925
766.241044	5878.981013
766.567097	5691.755079
766.893104	5428.054842
767.219064	5249.439200
767.544978	5189.111712
767.870845	5120.123521
768.196665	5004.723948
768.522438	4936.428916
768.848165	4905.682919
769.173846	4845.345348
769.499479	4800.431188
769.825066	4743.007405
770.150607	4683.380637
770.476101	4658.409282
770.801548	4655.800484
771.126949	4588.758179
771.452303	4534.044016
771.777611	4489.888550
772.102872	4504.704501
772.428087	4468.781238
772.753256	4432.968882
773.078378	4391.800299
773.403453	4322.592818
773.728482	4303.449036
774.053465	4262.290536
774.378401	4243.560129
774.703291	4251.542796
775.028135	4183.187270
775.352932	4133.173983
775.677683	4117.679997
776.002388	4138.389057
776.327046	4155.249196
776.651658	4075.336825
776.976224	4015.463041
777.300743	4018.815408
777.625216	4037.508006
777.949643	4038.332235
778.274024	3994.413703
778.598359	3942.817493
778.922647	3964.234835
779.246889	3959.692756
779.571086	3957.507415
779.895236	3944.314716
780.219339	3928.488013
780.543397	3915.111312
780.867409	3966.725165
781.191374	3982.730829
781.515294	3925.155811
781.839167	3916.525355
782.162995	3935.081842
782.486776	3922.920059
782.810511	3931.036317
783.134201	3930.237294
783.457844	3889.729102
783.781441	3833.885720
784.104993	3834.273889
784.428498	3854.506560
784.751958	3857.717775
785.075372	3833.048889
785.398739	3793.173362
785.722061	3802.781801
786.045337	3847.244778
786.368568	3883.092423
786.691752	3799.063950
787.014891	3839.753623
787.337983	3960.985812
787.661030	4115.587918
787.984031	4275.899131
788.306987	4448.581335
788.629897	4523.424826
788.952760	4486.107684
789.275579	4415.254267
789.598351	4358.800906
789.921078	4225.220411
790.243759	4028.471738
790.566395	4002.217409
790.888984	4000.516019
791.211529	3893.767066
791.534027	3835.133406
791.856480	3830.976974
792.178888	3768.595216
792.501249	3716.280642
792.823566	3725.778176
793.145836	3757.086262
793.468062	3709.462482
793.790241	3658.866941
794.112375	3688.894574
794.434464	3747.571084
794.756507	3774.407667
795.078505	3761.139350
795.400457	3787.489461
795.722364	3918.481323
796.044226	4022.339174
796.366042	4093.235442
796.687812	4081.938216
797.009538	4090.742591
797.331218	4047.018143
797.652852	4017.015716
797.974442	3997.564424
798.295986	4000.599198
798.617484	3919.648350
798.938938	3830.692149
799.260346	3871.550701
799.581709	3872.258983
799.903026	3799.905823
800.224299	3763.307046
800.545526	3755.344543
800.866708	3717.412381
801.187845	3656.137156
801.508936	3689.733926
801.829983	3695.072508
802.150984	3613.907410
802.471940	3600.016511
802.792851	3616.536372
803.113717	3613.683079
803.434538	3617.884881
803.755314	3562.893454
804.076045	3534.484032
804.396731	3549.688152
804.717372	3580.058583
805.037967	3565.358578
805.358518	3557.960685
805.679024	3583.098399
805.999485	3593.415120
806.319901	3595.461828
806.640272	3607.220320
806.960598	3624.967702
807.280879	3596.409565
807.601115	3610.217286
807.921306	3625.002990
808.241453	3667.404135
808.561554	3647.037873
808.881611	3581.727205
809.201623	3613.609982
809.521590	3630.507930
809.841513	3604.157819
810.161390	3628.383084
810.481223	3609.251905
810.801011	3556.559244
811.120755	3541.871842
811.440453	3577.802667
811.760107	3583.685693
812.079716	3545.239333
812.399281	3511.022502
812.718801	3532.724669
813.038276	3503.735514
813.357707	3502.644104
813.677093	3522.234028
813.996434	3472.886173
814.315731	3477.241730
814.634983	3482.275322
814.954191	3494.865603
815.273354	3525.288967
815.592473	3520.756970
815.911547	3526.748381
816.230577	3560.456056
816.549562	3608.936833
816.868502	3655.196981
817.187399	3679.046680
817.506250	3675.200279
817.825058	3646.589211
818.143821	3732.838312
818.462539	3835.408149
818.781213	3882.958832
819.099843	3933.980350
819.418429	4166.301925
819.736970	4399.929159
820.055466	4632.306187
820.373919	4993.298173
820.692327	5397.190378
821.010691	5800.258354
821.329011	7093.407577
821.647286	9697.166059
821.965517	14088.250514
822.283704	18083.531295
822.601847	20358.777946
822.919945	18633.800964
823.237999	16152.567726
823.556010	13709.911918
823.873976	11679.435972
824.191897	9615.252350
824.509775	8266.249663
824.827609	7152.724314
825.145398	6600.627227
825.463144	6482.833105
825.780845	6593.531803
826.098502	6766.236692
826.416116	7570.020947
826.733685	8853.803706
827.051210	9965.115989
827.368692	10079.877856
827.686129	8889.484993
828.003522	7388.413379
828.320872	6384.354165
828.638177	5698.492581
828.955439	5154.990662
829.272656	4661.781813
829.589830	4378.302609
829.906960	4200.801062
830.224046	4023.274308
830.541088	3897.832757
830.858086	3850.536651
831.175041	3778.760703
831.491952	3758.243207
831.808819	3768.093621
832.125642	3834.019311
832.442421	3974.972493
832.759157	4234.864138
833.075849	4752.721708
833.392497	5590.092650
833.709101	6350.366706
834.025662	6702.768565
834.342179	6384.649072
834.658653	5738.113530
834.975083	5103.827991
835.291469	4537.487124
835.607811	4129.090648
835.924110	3994.050740
836.240366	3806.232471
836.556578	3597.475769
836.872746	3489.431240
837.188871	3450.901701
837.504952	3391.670664
837.820990	3310.802994
838.136984	3259.370622
838.452935	3284.578912
838.768842	3278.095988
839.084706	3301.595327
839.400526	3448.330712
839.716303	3764.738733
840.032037	4263.175258
840.347727	4545.225295
840.663373	4296.794713
840.978977	3927.005914
841.294537	3623.692290
841.610054	3395.328021
841.925527	3286.950775
842.240957	3220.856207
842.556344	3165.337979
842.871687	3113.277984
843.186987	3064.547670
843.502244	3026.754140
843.817458	2992.665857
844.132629	2963.306177
844.447756	2967.843216
844.762840	2957.125723
845.077881	2924.890064
845.392879	2906.878022
845.707833	2905.227044
846.022745	2899.853174
846.337613	2903.588669
846.652438	2890.259858
846.967221	2888.228273
847.281960	2877.409957
847.596656	2872.018443
847.911309	2869.974255
848.225919	2863.531660
848.540485	2859.113089
848.855009	2858.913963
849.169490	2849.756707
849.483928	2840.415449
849.798323	2837.852023
850.112675	2835.989316
850.426984	2846.933661
850.741251	2846.863085
851.055474	2835.230623
851.369654	2830.426403
851.683792	2835.099553
851.997887	2840.400326
852.311938	2842.961232
852.625947	2833.788853
852.939914	2837.093329
853.253837	2842.925944
853.567718	2827.220229
853.881555	2825.929694
854.195350	2838.462002
854.509103	2835.167608
854.822812	2829.085456
855.136479	2829.307267
855.450103	2827.487410
855.763685	2822.295022
856.077224	2816.444763
856.390720	2829.468584
856.704173	2840.065089
857.017584	2831.943790
857.330953	2828.268789
857.644278	2837.794049
857.957561	2844.846624
858.270802	2849.731502
858.584000	2851.319465
858.897155	2838.469564
859.210268	2836.811024
859.523339	2834.555108
859.836367	2834.902948
860.149352	2827.275682
860.462295	2823.827533
860.775195	2833.776250
861.088054	2831.371619
861.400869	2819.479537
861.713642	2810.977632
862.026373	2828.238542
862.339062	2828.190651
862.651708	2837.473936
862.964312	2836.427897
863.276873	2831.046465
863.589392	2839.979390
863.901869	2852.443643
864.214303	2873.402240
864.526696	2890.756412
864.839045	2885.679970
865.151353	2883.497150
865.463619	2881.957078
865.775842	2883.434136
866.088023	2902.242681
866.400162	2908.763413
866.712258	2881.445401
867.024313	2868.449306
867.336325	2877.354504
867.648296	2899.013822
867.960224	2892.581309
868.272110	2875.648074
868.583954	2885.009496
868.895755	2899.018863
869.207515	2884.679301
869.519233	2885.596791
869.830909	2895.540467
870.142542	2907.024215
870.454134	2908.776016
870.765684	2910.671490
871.077191	2908.831469
871.388657	2916.108374
871.700081	2928.880138
872.011463	2939.025460
872.322803	2941.218362
872.634101	2943.738939
872.945357	2958.166721
873.256571	2982.994404
873.567744	2978.643888
873.878874	2966.136785
874.189963	2992.265086
874.501010	2994.243738
874.812015	2982.714620
875.122979	2983.579178
875.433900	2979.407623
875.744780	2981.847541
876.055618	2990.591423
876.366415	2988.116216
876.677169	2999.985613
876.987882	2999.690705
877.298554	2991.067812
877.609183	3009.026922
877.919771	3030.114069
878.230317	3054.417471
878.540822	3108.909824
878.851285	3145.924496
879.161707	3179.158303
879.472087	3276.959208
879.782425	3482.459324
880.092722	3896.050709
880.402977	4403.836053
880.713191	4999.740767
881.023363	6104.257575
881.333494	7353.170673
881.643583	7921.953979
881.953631	7647.143039
882.263637	7051.686988
882.573602	6498.017061
882.883526	5928.351553
883.193408	5365.327765
883.503248	4907.265841
883.813048	4613.472436
884.122806	4329.945341
884.432522	4024.496788
884.742197	3797.864155
885.051831	3607.437089
885.361424	3473.508755
885.670975	3403.943353
885.980485	3322.112823
886.289954	3248.239754
886.599382	3208.328939
886.908768	3169.075995
887.218113	3123.123357
887.527417	3073.112590
887.836680	3019.716689
888.145901	3014.920031
888.455082	3006.309740
888.764221	2960.331897
889.073319	2930.062288
889.382376	2926.452822
889.691392	2931.804007
890.000366	2931.423400
890.309300	2917.472007
890.618193	2930.654624
890.927044	2949.135494
891.235855	2949.682459
891.544625	2934.153185
891.853353	2941.886315
892.162041	2958.849797
892.470687	2999.320180
892.779293	3048.536965
893.087858	3090.449118
893.396381	3158.885302
893.704864	3271.877725
894.013306	3494.260665
894.321707	3784.648771
894.630068	3994.096110
894.938387	3994.373373
895.246665	3949.302937
895.554903	3838.127851
895.863100	3642.984786
896.171256	3485.257164
896.479371	3348.636854
896.787446	3231.470356
897.095480	3129.626446
897.403473	3068.575552
897.711425	3034.192362
898.019336	3025.032586
898.327207	2996.971003
898.635038	2963.714511
898.942827	2950.776389
899.250576	2941.422528
899.558284	2906.250398
899.865952	2890.179200
900.173579	2868.504759
900.481165	2861.971423
900.788711	2850.888447
901.096216	2826.514468
901.403681	2814.408137
901.711105	2821.690083
902.018489	2821.185968
902.325832	2819.598005
902.633135	2826.569920
902.940397	2858.387163
903.247619	2932.867690
903.554800	3107.664659
903.861941	3432.907302
904.169041	3842.165815
904.476101	4143.291579
904.783121	4116.828042
905.090100	3888.418402
905.397039	3619.545941
905.703938	3379.861761
906.010796	3199.857280
906.317614	3088.941813
906.624391	3000.462002
906.931129	2933.651590
907.237826	2873.752600
907.544483	2826.166628
907.851099	2798.054634
908.157675	2778.371448
908.464211	2756.684405
908.770707	2743.224524
909.077163	2732.474263
909.383578	2718.593446
909.689954	2708.806046
909.996289	2707.366797
910.302584	2706.096426
910.608839	2707.815459
910.915054	2701.635005
911.221229	2696.480425
911.527363	2697.730631
911.833458	2702.436548
912.139513	2705.778833
912.445527	2710.381407
912.751502	2720.146122
913.057436	2726.928994
913.363331	2738.745459
913.669186	2756.838160
913.975000	2788.657923
914.280775	2846.056501
914.586510	2908.675193
914.892205	2987.642348
915.197859	3104.821448
915.503475	3290.494706
915.809050	3492.004749
916.114585	3632.847025
916.420081	3659.103875
916.725536	3606.625464
917.030952	3489.708503
917.336328	3373.018394
917.641665	3245.988879
917.946961	3148.450114
918.252218	3083.570464
918.557435	3007.567508
918.862612	2952.863427
919.167750	2900.989954
919.472848	2868.819831
919.777906	2841.322857
920.082925	2817.432829
920.387904	2786.651544
920.692843	2770.300561
920.997743	2762.607760
921.302603	2749.205853
921.607423	2740.850140
921.912204	2725.572924
922.216946	2716.972715
922.521647	2708.052393
922.826310	2703.888400
923.130932	2695.015970
923.435516	2685.457942
923.740059	2681.682118
924.044564	2671.559481
924.349028	2666.208296
924.653454	2660.894920
924.957840	2654.762356
925.262186	2650.311017
925.566493	2646.792292
925.870761	2639.286014
926.174989	2638.509676
926.479178	2634.759058
926.783328	2626.980557
927.087438	2627.482152
927.391509	2628.888634
927.695541	2625.420320
927.999533	2618.818929
928.303486	2618.849176
928.607400	2617.788013
928.911275	2617.548558
929.215110	2615.879937
929.518906	2611.315172
929.822663	2614.637292
930.126381	2615.254833
930.430060	2615.335492
930.733699	2614.569237
931.037299	2616.638630
931.340861	2619.134001
931.644383	2616.731892
931.947866	2616.507560
932.251309	2615.025461
932.554714	2613.918928
932.858080	2610.737960
933.161407	2612.013372
933.464694	2610.506067
933.767943	2605.522886
934.071153	2608.018257
934.374323	2607.836776
934.677455	2605.543051
934.980548	2606.400047
935.283602	2606.286621
935.586617	2604.083637
935.889593	2606.140427
936.192530	2607.042794
936.495428	2606.425252
936.798287	2608.973556
937.101108	2609.817949
937.403890	2616.754577
937.706632	2617.288939
938.009336	2626.141205
938.312002	2633.302164
938.614628	2642.376241
938.917216	2650.759680
939.219765	2650.684063
939.522275	2647.036788
939.824747	2647.677014
940.127179	2643.182826
940.429573	2640.125366
940.731929	2640.216107
941.034246	2636.072278
941.336524	2631.588172
941.638763	2629.339817
941.940964	2627.976185
942.243126	2625.783283
942.545250	2628.334107
942.847335	2623.683643
943.149381	2618.685339
943.451389	2615.043105
943.753359	2613.311469
944.055290	2611.443721
944.357182	2610.977414
944.659036	2609.195367
944.960851	2609.076899
945.262628	2609.071858
945.564367	2608.996241
945.866067	2607.546909
946.167729	2608.708895
946.469352	2607.665376
946.770937	2608.560181
947.072484	2607.990531
947.373992	2606.745366
947.675462	2607.347784
947.976893	2601.394181
948.278286	2599.891917
948.579641	2602.717484
948.880958	2598.848398
949.182236	2600.471650
949.483476	2599.009715
949.784678	2600.166660
950.085841	2599.720518
950.386967	2599.907041
950.688054	2600.890066
950.989103	2602.694799
951.290114	2600.794284
951.591087	2603.057762
951.892021	2607.657815
952.192917	2608.058586
952.493776	2609.066817
952.794596	2611.010182
953.095378	2611.005141
953.396122	2609.800305
953.696828	2608.955912
953.997496	2608.108998
954.298126	2604.872577
954.598718	2602.851074
954.899272	2602.210848
955.199788	2598.409818
955.500266	2596.214395
955.800706	2594.928901
956.101108	2590.908581
956.401472	2591.654672
956.701798	2588.077973
957.002087	2586.641244
957.302337	2585.464135
957.602550	2585.829618
957.902724	2581.156469
958.202861	2581.862230
958.502960	2580.664956
958.803022	2582.452045
959.103045	2579.795357
959.403031	2577.783937
959.702979	2576.768144
960.002889	2577.121025
960.302762	2577.665470
960.602596	2577.478947
960.902393	2577.393247
961.202153	2578.005748
961.501875	2574.113977
961.801559	2575.510377
962.101205	2573.118349
962.400814	2578.925758
962.700385	2575.661611
962.999918	2571.711867
963.299414	2569.869325
963.598873	2573.264542
963.898293	2570.983420
964.197677	2573.302351
964.497022	2573.771178
964.796331	2576.490881
965.095601	2573.007444
965.394835	2571.669017
965.694030	2574.507187
965.993189	2570.759089
966.292309	2575.119687
966.591393	2573.415777
966.890439	2571.358986
967.189447	2572.979717
967.488419	2572.173133
967.787353	2572.286559
968.086249	2571.358986
968.385108	2573.773699
968.683930	2570.819583
968.982714	2574.197156
969.281462	2573.907290
969.580172	2570.539799
969.878844	2572.730180
970.177480	2573.561971
970.476078	2572.261353
970.774639	2569.319840
971.073162	2572.074830
971.371649	2572.014336
971.670098	2572.241188
971.968510	2574.421487
972.266885	2571.500139
972.565223	2574.028277
972.863524	2571.782443
973.161788	2572.135324
973.460014	2574.623133
973.758204	2573.163719
974.056356	2574.575242
974.354471	2572.626837
974.652550	2573.829152
974.950591	2574.071127
975.248595	2574.058524
975.546563	2575.278483
975.844493	2573.713205
976.142386	2571.666497
976.440243	2575.197825
976.738062	2572.407546
977.035845	2573.047773
977.333590	2574.197156
977.631299	2571.255643
977.928971	2566.612740
978.226606	2567.653738
978.524204	2568.525858
978.821765	2566.602658
979.119290	2570.093657
979.416777	2571.449727
979.714228	2570.933009
980.011642	2572.334450
980.309020	2573.100705
980.606360	2569.607185
980.903664	2570.691033
981.200931	2571.053997
981.498162	2574.234965
981.795356	2572.455437
982.092513	2573.657752
982.389633	2574.567681
982.686717	2577.458782
982.983764	2582.724268
983.280775	2588.017479
983.577749	2586.580750
983.874686	2584.778538
984.171587	2585.590164
984.468451	2583.291397
984.765279	2577.915007
985.062070	2575.124728
985.358824	2577.143710
985.655543	2574.103895
985.952224	2573.851837
986.248869	2573.473750
986.545478	2568.843451
986.842050	2574.272773
987.138586	2572.258832
987.435086	2570.297823
987.731549	2570.181877
988.027975	2568.135168
988.324366	2569.234140
988.620719	2570.688513
988.917037	2567.404201
989.213318	2569.075344
989.509563	2569.150961
989.805772	2571.563153
990.101944	2567.225240
990.398080	2564.775239
990.694180	2567.089129
990.990244	2566.932853
991.286271	2568.107442
991.582262	2567.676423
991.878217	2563.630897
992.174136	2569.385375
992.470019	2568.349417
992.765865	2564.107287
993.061676	2566.408573
993.357450	2567.426886
993.653188	2565.675085
993.948890	2570.688513
994.244556	2569.594582
994.540186	2567.656259
994.835780	2567.469736
995.131337	2567.300857
995.426859	2568.603996
995.722345	2566.796742
996.017795	2572.021898
996.313208	2574.799574
996.608586	2573.448545
996.903928	2573.070458
997.199234	2572.810839
997.494504	2572.863771
997.789738	2573.680438
998.084936	2571.691702
998.380099	2570.227247
998.675225	2570.764130
998.970316	2567.184911
999.265371	2571.182546
999.560390	2569.559294
999.855373	2568.437638
1000.150320	2568.699778
1000.445232	2568.563667
1000.740108	2566.713563
1001.034948	2565.508727
1001.329752	2567.668862
1001.624521	2567.444530
1001.919254	2565.796073
1002.213951	2565.284396
1002.508613	2567.825137
1002.803239	2565.291958
1003.097829	2565.818758
1003.392384	2567.005950
1003.686903	2565.778429
1003.981386	2565.922102
1004.275834	2565.246587
1004.570246	2566.219530
1004.864623	2565.992678
1005.158964	2567.946125
1005.453270	2564.308933
1005.747540	2564.160219
1006.041775	2567.338666
1006.335974	2566.736248
1006.630138	2565.218861
1006.924266	2566.166598
1007.218359	2563.124262
1007.512416	2563.905640
1007.806438	2561.317008
1008.100425	2563.456978
1008.394376	2561.858932
1008.688292	2565.372616
1008.982172	2566.514437
1009.276017	2567.137020
1009.569827	2563.522513
1009.863602	2564.109807
1010.157341	2563.121741
1010.451045	2565.264231
1010.744714	2565.871690
1011.038347	2563.963614
1011.331945	2565.654921
1011.625508	2564.694581
1011.919036	2564.560990
1012.212528	2564.825651
1012.505986	2562.602502
1012.799408	2565.244067
1013.092795	2566.975703
1013.386147	2564.916392
1013.679464	2566.166598
1013.972745	2566.726166
1014.265992	2565.947308
1014.559204	2564.071998
1014.852380	2564.772719
1015.145521	2562.521844
1015.438628	2562.718449
1015.731699	2565.357493
1016.024736	2566.285065
1016.317737	2568.064592
1016.610703	2563.278017
1016.903635	2565.637277
1017.196531	2564.250959
1017.489393	2566.103583
1017.782219	2564.150136
1018.075011	2563.802297
1018.367768	2561.775753
1018.660490	2563.822461
1018.953177	2563.822461
1019.245829	2563.822461
