Dividing Wavelength (nm)	Counts (n)	Blue Motor Position (mm): 30.400000	Red Motor Position (mm): 0.000000	
326.493990	2214.099975
326.888308	2214.099975
327.282561	2214.099975
327.676750	2175.353667
328.070874	2170.909889
328.464933	2166.733293
328.858929	2175.567916
329.252859	2180.145283
329.646726	2188.125430
330.040528	2200.362831
330.434265	2214.478062
330.827938	2232.943808
331.221547	2248.727661
331.615091	2269.013264
332.008571	2286.165790
332.401986	2303.124231
332.795338	2320.853969
333.188625	2339.791064
333.581847	2358.725638
333.975006	2381.183978
334.368100	2397.509755
334.761129	2418.203691
335.154095	2432.898655
335.546996	2457.176852
335.939833	2496.016422
336.332606	2509.723319
336.725315	2523.934332
337.117960	2539.559388
337.510540	2550.488609
337.903056	2558.194013
338.295508	2568.707339
338.687896	2579.510532
339.080220	2584.924731
339.472480	2591.861359
339.864676	2597.746906
340.256807	2602.944336
340.648875	2606.909203
341.040879	2608.648401
341.432818	2613.729884
341.824694	2615.075873
342.216506	2613.835749
342.608253	2616.759618
342.999937	2618.912191
343.391557	2616.527725
343.783113	2619.355812
344.174605	2616.464710
344.566033	2612.978752
344.957397	2614.183588
345.348697	2611.773917
345.739934	2609.903649
346.131106	2610.226282
346.522215	2606.614296
346.913260	2605.217896
347.304241	2602.016763
347.695159	2600.229674
348.086012	2600.610282
348.476802	2599.816300
348.867528	2592.148705
349.258191	2590.966554
349.648789	2589.915474
350.039324	2584.758373
350.429796	2593.139292
350.820203	2589.176945
351.210548	2587.835998
351.600828	2585.839701
351.991045	2588.183837
352.381198	2586.419433
352.771288	2582.131932
353.161314	2583.803075
353.551276	2582.920873
353.941175	2584.284505
354.331010	2581.816860
354.720782	2582.230235
355.110490	2583.296439
355.500135	2579.545820
355.889717	2581.728640
356.279235	2582.449525
356.668689	2583.611511
357.058080	2582.837694
357.447408	2583.762745
357.836672	2581.756366
358.225873	2582.058835
358.615010	2580.798547
359.004084	2581.559761
359.393095	2585.267530
359.782043	2584.077817
360.170927	2584.523960
360.559748	2587.099989
360.948505	2586.626121
361.337199	2586.573189
361.725830	2588.410689
362.114398	2586.973960
362.502903	2586.868096
362.891344	2590.931266
363.279722	2590.976637
363.668037	2590.527974
364.056289	2591.558890
364.444478	2592.753643
364.832603	2590.931266
365.220665	2591.493355
365.608665	2592.544435
365.996601	2595.838829
366.384474	2593.184662
366.772284	2593.933273
367.160031	2593.260279
367.547715	2595.312029
367.935336	2597.940991
368.322893	2593.303129
368.710388	2591.430340
369.097820	2594.200454
369.485189	2589.950762
369.872495	2595.133068
370.259738	2597.777153
370.646918	2598.709767
371.034035	2597.164653
371.421090	2599.022318
371.808081	2600.433841
372.195010	2602.848554
372.581875	2600.466609
372.968678	2599.498707
373.355418	2600.937957
373.742096	2600.388471
374.128710	2600.179263
374.515262	2601.253029
374.901751	2602.311671
375.288177	2602.251177
375.674540	2602.684716
376.060841	2604.370982
376.447079	2601.381578
376.833254	2601.212699
377.219367	2601.734459
377.605417	2602.470467
377.991404	2601.225302
378.377329	2604.010540
378.763191	2602.649428
379.148991	2602.493152
379.534727	2603.357710
379.920402	2602.304109
380.306013	2605.716970
380.691563	2606.243771
381.077049	2605.875767
381.462474	2606.062289
381.847835	2606.624378
382.233134	2606.420211
382.618371	2607.567074
383.003545	2605.638832
383.388657	2606.319388
383.773706	2608.459358
384.158693	2606.684872
384.543618	2608.880294
384.928480	2610.695110
385.313280	2609.447424
385.698017	2609.361725
386.082692	2610.087651
386.467305	2610.861468
386.851856	2611.123608
387.236344	2612.066304
387.620770	2607.448607
388.005133	2607.372989
388.389435	2609.757455
388.773674	2607.257043
389.157851	2612.963629
389.541965	2612.585542
389.926018	2612.918259
390.310008	2611.582353
390.693936	2612.179730
391.077802	2614.591922
391.461606	2613.089658
391.845348	2616.394134
392.229027	2614.170985
392.612645	2615.237189
392.996200	2614.967488
393.379694	2614.123094
393.763125	2617.931686
394.146494	2616.018568
394.529801	2616.260544
394.913047	2617.616614
395.296230	2616.709206
395.679351	2617.137704
396.062410	2618.128291
396.445408	2617.109978
396.828343	2619.963271
397.211217	2620.729527
397.594028	2619.832201
397.976778	2621.732716
398.359466	2619.887654
398.742092	2616.973867
399.124656	2621.689866
399.507158	2622.806482
399.889598	2620.326234
400.271977	2620.064094
400.654294	2623.212295
401.036549	2620.240535
401.418742	2620.835391
401.800874	2624.664147
402.182944	2623.050978
402.564952	2625.616925
402.946898	2625.901750
403.328783	2626.635238
403.710606	2627.595578
404.092367	2629.022225
404.474067	2626.095835
404.855705	2627.250259
405.237282	2626.352934
405.618797	2630.383336
406.000250	2630.993316
406.381642	2631.033645
406.762972	2629.430558
407.144240	2627.686319
407.525447	2629.039869
407.906593	2628.508027
408.287677	2635.686630
408.668700	2633.218985
409.049661	2634.383492
409.430560	2633.665127
409.811399	2637.037659
410.192176	2636.281486
410.572891	2635.023718
410.953545	2637.040180
411.334138	2638.436579
411.714669	2639.134779
412.095139	2638.174439
412.475547	2639.795170
412.855894	2639.381796
413.236180	2640.236271
413.616405	2641.441107
413.996568	2642.787095
414.376670	2642.792136
414.756711	2643.513021
415.136691	2644.246509
415.516609	2643.691982
415.896466	2644.233906
416.276262	2644.543937
416.655997	2649.539721
417.035670	2646.570481
417.415283	2649.632982
417.794834	2652.226656
418.174324	2651.664567
418.553753	2651.583909
418.933121	2652.546769
419.312428	2653.721358
419.691674	2654.623724
420.070859	2657.814775
420.449983	2658.805362
420.829045	2664.741320
421.208047	2666.094870
421.586988	2668.902793
421.965867	2676.870336
422.344686	2682.960050
422.723444	2689.188396
423.102141	2691.073787
423.480777	2706.557691
423.859352	2712.208825
424.237866	2732.375961
424.616319	2748.174937
424.994712	2774.232661
425.373044	2784.307407
425.751314	2815.118939
426.129524	2835.109635
426.507673	2871.433669
426.885762	2904.506159
427.263789	2943.401181
427.641756	2982.039105
428.019662	3028.402597
428.397508	3088.856114
428.775292	3129.092083
429.153016	3210.287428
429.530679	3260.499841
429.908282	3324.525015
430.285824	3360.297043
430.663305	3510.722553
431.040726	3515.589787
431.418086	3584.106629
431.795385	3709.422152
432.172624	3808.962256
432.549802	3878.184860
432.926920	3981.515911
433.303977	4040.366341
433.680974	4171.073378
434.057910	4288.849855
434.434786	4395.755084
434.811601	4467.152946
435.188355	4706.786714
435.565050	4739.518926
435.941683	4831.449408
436.318257	5089.700158
436.694770	5242.994084
437.071222	5389.595879
437.447614	5453.636177
437.823946	5533.742632
438.200218	5716.660900
438.576429	5756.024750
438.952580	5967.627182
439.328670	6123.877746
439.704700	6149.731303
440.080670	6261.554178
440.456580	6651.769733
440.832429	6662.774571
441.208218	6582.564773
441.583947	6869.318206
441.959616	7069.262971
442.335224	7096.815397
442.710773	7299.255532
443.086261	7550.758698
443.461689	7239.666573
443.837057	7743.169458
444.212365	8058.201244
444.587612	7951.923639
444.962800	8233.746824
445.337927	8203.051238
445.712995	8004.485229
446.088002	8886.430053
446.462949	8753.716637
446.837837	8841.599072
447.212664	8964.570459
447.587431	9430.927601
447.962139	10072.525333
448.336786	11844.551404
448.711374	12475.088845
449.085901	10945.373395
449.460369	10733.765922
449.834776	10408.810624
450.209124	11183.754437
450.583412	11601.063673
450.957640	12498.121877
451.331808	11932.597677
451.705917	11155.155972
452.079965	10638.422579
452.453954	11503.776966
452.827883	11244.820454
453.201752	11565.760473
453.575562	11194.030829
453.949311	11634.108437
454.323001	11648.200982
454.696632	11909.458780
455.070202	12207.990870
455.443713	12498.434428
455.817164	12988.938697
456.190556	13047.990774
456.563888	13432.517386
456.937160	13651.177434
457.310373	13048.439436
457.683526	13157.827434
458.056619	12762.679110
458.429653	12912.658478
458.802628	12428.115373
459.175542	12784.840022
459.548398	13749.600922
459.921194	14082.808588
460.293930	14152.003466
460.666607	15048.620568
461.039224	16063.699745
461.411782	16760.190602
461.784280	16719.453038
462.156719	16756.876043
462.529099	16486.738253
462.901419	15436.313026
463.273680	15251.952988
463.645882	15115.746053
464.018024	14862.281878
464.390106	15091.437609
464.762130	15828.479507
465.134094	16563.525108
465.505999	18505.430502
465.877845	21747.439390
466.249631	24584.638583
466.621358	24337.473331
466.993026	22904.593405
467.364634	22360.481506
467.736184	20915.333933
468.107674	20117.662078
468.479105	20244.041284
468.850477	19718.276664
469.221790	19300.501122
469.593043	18627.310478
469.964238	18071.475376
470.335373	17745.584944
470.706449	18160.378644
471.077467	17698.130042
471.448425	19497.285082
471.819324	23473.906033
472.190164	25601.066268
472.560945	22109.961366
472.931667	19707.886846
473.302330	19059.826355
473.672934	18529.605355
474.043479	18909.680628
474.413965	18727.389985
474.784393	18365.026805
475.154761	19026.300161
475.525070	19048.619870
475.895321	18691.607875
476.265513	19256.300285
476.635645	19838.349387
477.005719	19636.206680
477.375734	19843.297280
477.745691	20318.897378
478.115588	20819.620066
478.485427	21329.905822
478.855207	22372.237477
479.224928	24120.466781
479.594591	26328.736662
479.964194	26425.935149
480.333739	26631.967107
480.703226	26195.299840
481.072653	25854.520360
481.442022	26405.977221
481.811333	27308.230333
482.180584	27268.095187
482.549777	26310.394423
482.918912	25932.133965
483.287988	26062.430148
483.657005	25756.028817
484.025964	25465.716329
484.394864	25423.428610
484.763706	25112.994356
485.132489	24533.554051
485.501213	24709.497882
485.869879	24619.886331
486.238487	24419.931484
486.607036	24583.320321
486.975527	24250.916719
487.343959	24593.198462
487.712333	24550.179776
488.080648	24215.958838
488.448905	24685.993502
488.817104	24419.694550
489.185244	25098.377530
489.553326	25069.738735
489.921350	26035.094491
490.289315	28292.644171
490.657222	30109.473497
491.025070	30597.104308
491.392861	30396.652908
491.760593	29564.234900
492.128267	28661.102106
492.495883	27629.918963
492.863440	26756.171055
493.230939	25868.416301
493.598380	25723.452881
493.965763	25315.104296
494.333088	24872.433015
494.700354	24791.832527
495.067563	24674.580329
495.434713	24431.490850
495.801805	24567.775923
496.168839	24405.055039
496.535815	24226.567946
496.902733	24427.767958
497.269593	24111.410348
497.636395	24293.166629
498.003139	24270.567137
498.369825	24026.114025
498.736453	24220.916813
499.103023	24110.197951
499.469535	24123.441062
499.835989	24324.235261
500.202385	24348.901626
500.568723	23844.151056
500.935003	24118.427634
501.301226	23714.578279
501.667390	24537.198805
502.033497	24786.151146
502.399546	24514.992522
502.765537	24096.397792
503.131470	24471.439473
503.497345	24617.998419
503.863163	23830.701258
504.228923	24443.990391
504.594625	24639.244362
504.960269	24148.392253
505.325856	24657.581559
505.691385	24063.302617
506.056856	24653.815817
506.422270	24629.575428
506.787625	24220.117790
507.152924	24607.661533
507.518164	24643.627645
507.883347	24455.282575
508.248472	24150.963241
508.613540	24927.608444
508.978550	24708.119126
509.343503	24691.395098
509.708398	24973.820701
510.073236	25119.809996
510.438016	25331.636760
510.802738	25003.011502
511.167403	25253.914771
511.532010	24944.148470
511.896561	25736.327988
512.261053	25706.769182
512.625488	25540.706013
512.989866	25424.683857
513.354186	25284.202023
513.718449	25380.752722
514.082655	25775.291066
514.446803	25497.720094
514.810894	25952.132222
515.174927	25436.026453
515.538904	25471.788399
515.902822	25969.050335
516.266684	25720.128240
516.630488	25626.743386
516.994235	25603.518790
517.357925	25903.742187
517.721558	26089.922080
518.085133	26188.935383
518.448651	26090.254797
518.812112	25815.806819
519.175516	26015.156728
519.538863	26181.852562
519.902152	25968.435314
520.265385	26250.409734
520.628560	26032.818410
520.991678	26058.616515
521.354739	26120.277388
521.717743	26180.287284
522.080690	25981.869989
522.443580	26310.911142
522.806413	26307.342005
523.169189	26399.237198
523.531908	26449.744518
523.894569	26051.064867
524.257174	26121.850228
524.619722	26327.531826
524.982213	25998.180642
525.344647	26079.653250
525.707025	26199.211775
526.069345	26194.790683
526.431608	26136.245243
526.793815	26337.722518
527.155964	25778.570337
527.518057	25961.256711
527.880093	25872.660952
528.242072	26120.786545
528.603995	25818.846635
528.965860	25620.021007
529.327669	25675.403123
529.689421	25660.693036
530.051117	25499.976010
530.412755	25668.106053
530.774337	25471.133049
531.135862	25329.055689
531.497331	25544.489399
531.858743	25088.552322
532.220098	25573.629789
532.581396	25259.840647
532.942638	25191.989237
533.303824	25280.345540
533.664953	25305.974766
534.026025	24964.822242
534.387040	25213.169645
534.747999	25270.492605
535.108902	25437.301865
535.469748	24926.932929
535.830537	25111.847493
536.191270	25231.582459
536.551947	25100.598159
536.912567	24769.722026
537.273131	25099.287459
537.633638	24796.288907
537.994089	25009.829663
538.354483	24568.564864
538.714821	25058.267590
539.075103	25095.811583
539.435328	24879.800661
539.795497	24447.597336
540.155609	24851.923081
540.515665	25126.018177
540.875665	24373.714186
541.235609	24664.702188
541.595496	24636.872499
541.955328	24975.108716
542.315102	24901.573405
542.674821	24451.811741
543.034483	24326.649973
543.394090	24497.930737
543.753640	24289.161433
544.113134	24917.122844
544.472571	24525.387381
544.831953	24817.975951
545.191278	24432.688124
545.550548	24353.884807
545.909761	24552.014756
546.268918	24785.170642
546.628019	24747.588840
546.987064	24457.389778
547.346053	24210.993301
547.704986	24335.585418
548.063863	24481.161339
548.422684	24493.481919
548.781449	24035.430077
549.140158	24438.916469
549.498811	24011.960986
549.857408	23755.323405
550.215949	24188.608058
550.574434	23863.854406
550.932864	24086.728859
551.291237	24237.033381
551.649555	24106.099493
552.007817	24161.360621
552.366022	24025.093191
552.724173	24068.810077
553.082267	23995.368028
553.440305	24479.709486
553.798288	23749.899123
554.156215	24261.873667
554.514086	24358.139541
554.871902	23727.276946
555.229661	24025.761144
555.587365	23877.737744
555.945014	23727.735691
556.302606	23981.542663
556.660143	23927.599797
557.017625	24183.589589
557.375050	23713.703639
557.732421	24101.882567
558.089735	23919.589403
558.446994	23978.054185
558.804197	24007.431509
559.161345	23943.378608
559.518437	23708.670047
559.875474	23906.999121
560.232455	24083.210133
560.589381	23914.109669
560.946251	23890.564960
561.303065	24209.233938
561.659825	24300.541838
562.016528	23892.130238
562.373177	23634.096258
562.729770	24002.216435
563.086307	23862.871381
563.442789	24029.204252
563.799216	23851.443085
564.155587	23862.601679
564.511904	23844.022507
564.868164	23771.800416
565.224370	23757.937243
565.580520	23691.699002
565.936615	23809.994718
566.292654	23476.504748
566.648638	23796.277739
567.004567	23619.923054
567.360441	23576.528802
567.716260	23289.528351
568.072023	23622.045380
568.427732	23377.284757
568.783385	23164.374145
569.138982	23395.924424
569.494525	23428.528086
569.850013	23173.274303
570.205445	23272.464046
570.560823	23083.171239
570.916145	22827.499040
571.271412	23014.341845
571.626625	22768.338579
571.981782	22885.328636
572.336884	22689.275642
572.691931	22819.415549
573.046923	22558.145148
573.401860	22434.178134
573.756743	22442.856481
574.111570	22356.065455
574.466342	22281.330350
574.821059	22369.807641
575.175722	22078.265111
575.530330	22061.281464
575.884882	22092.145928
576.239380	21996.875682
576.593823	21885.012478
576.948211	21865.420034
577.302544	21716.711037
577.656823	21577.481929
578.011047	21687.212725
578.365216	21555.502498
578.719330	21433.279723
579.073389	21333.805155
579.427394	21476.477371
579.781344	21236.740258
580.135239	21135.090432
580.489080	21098.458888
580.842866	20872.249712
581.196597	21063.972354
581.550273	21034.254752
581.903895	20922.996487
582.257463	21244.934654
582.610975	20769.823548
582.964434	21076.633212
583.317837	20784.266454
583.671186	20877.767255
584.024481	20852.168275
584.377721	20624.025817
584.730906	20677.164620
585.084037	20699.081036
585.437113	20599.082188
585.790135	20806.129938
586.143103	20268.203534
586.496016	20283.203488
586.848874	20529.622649
587.201679	20463.928853
587.554428	20131.111876
587.907124	20469.345573
588.259765	20250.851883
588.612352	20305.021602
588.964884	19884.959896
589.317362	20061.150743
589.669786	20108.156982
590.022155	20155.183386
590.374470	20343.765389
590.726731	20143.712240
591.078937	19898.777698
591.431090	19996.646659
591.783188	19755.513147
592.135232	19728.119517
592.487222	19816.911880
592.839157	19838.833338
593.191038	19708.814418
593.542866	19603.658470
593.894639	19316.597526
594.246358	19547.230314
594.598022	19451.811354
594.949633	19196.882725
595.301190	19162.015584
595.652692	19330.158230
596.004141	19575.216280
596.355535	18909.640299
596.706876	18914.883099
597.058162	18804.534762
597.409395	19031.462302
597.760573	19113.310476
598.111698	18889.140447
598.462768	18825.195931
598.813785	18779.495351
599.164748	18600.955326
599.515657	18646.098858
599.866511	18439.824925
600.217312	18792.118400
600.568060	18319.744641
600.918753	18629.132855
601.269392	18538.956695
601.619978	18308.676788
601.970510	18518.633283
602.320988	18464.423236
602.671412	18677.427109
603.021783	18570.990707
603.372100	18314.612746
603.722363	18450.360937
604.072572	18386.560094
604.422728	18530.858082
604.772830	18292.824879
605.122878	18244.084483
605.472872	18232.368842
605.822813	18222.687306
606.172701	18184.639197
606.522534	18385.824085
606.872314	18410.523219
607.222041	18239.353360
607.571714	18457.395867
607.921333	18278.450029
608.270899	18352.577676
608.620411	18543.866779
608.969870	18309.294329
609.319276	18313.561666
609.668627	18346.707252
610.017926	18479.166090
610.367171	18594.174974
610.716362	18636.646695
611.065500	18456.100291
611.414585	18582.955886
611.763616	18576.183096
612.112594	18517.025155
612.461518	18476.670719
612.810389	18672.068362
613.159207	18531.122742
613.507971	18445.355071
613.856682	18724.261949
614.205340	18645.521646
614.553945	18796.337846
614.902496	18534.616262
615.250994	18773.229197
615.599439	18714.436740
615.947830	18702.287559
616.296169	18750.975023
616.644454	18718.089056
616.992686	18682.130506
617.340864	18894.985665
617.688990	18659.825920
618.037063	18825.208534
618.385082	18679.075566
618.733048	18956.449933
619.080961	18825.964707
619.428821	18874.574033
619.776628	18751.552235
620.124382	18685.936577
620.472083	18723.588955
620.819731	18747.645341
621.167326	18440.636551
621.514868	18473.431777
621.862357	18248.538343
622.209793	18254.620495
622.557176	18093.666535
622.904506	17907.842042
623.251783	17824.383220
623.599007	17586.793639
623.946179	17536.941669
624.293297	17467.590515
624.640363	17220.977269
624.987376	17245.328563
625.334336	17032.730502
625.681243	16870.785955
626.028097	16884.268521
626.374899	16813.788149
626.721647	16679.554825
627.068343	16514.535175
627.414987	16444.092612
627.761577	16416.976245
628.108115	16457.318079
628.454600	16181.675348
628.801032	16271.743123
629.147412	16216.045935
629.493739	16230.193933
629.840014	16036.381733
630.186236	16130.114427
630.532405	15896.653551
630.878521	16097.054540
631.224585	15994.986298
631.570597	15807.760364
631.916556	15845.460633
632.262462	15823.713096
632.608316	15742.109418
632.954117	15687.758218
633.299866	15678.721949
633.645562	15601.662872
633.991206	15351.306569
634.336797	15227.274020
634.682336	15192.726992
635.027823	15073.879270
635.373257	14959.745026
635.718639	14853.749725
636.063968	14804.850533
636.409245	14556.430033
636.754470	14584.942799
637.099642	14436.097691
637.444762	14205.154872
637.789829	14245.100975
638.134845	14093.092542
638.479808	14115.419813
638.824719	14063.982399
639.169577	13918.850101
639.514383	13953.450060
639.859137	13783.321200
640.203839	13863.369682
640.548489	13704.094426
640.893086	13690.737889
641.237632	13563.209300
641.582125	13714.816960
641.926566	13545.174572
642.270955	13553.517681
642.615292	13516.656764
642.959576	13530.688816
643.303809	13554.669585
643.647990	13486.833298
643.992118	13545.532494
644.336195	13321.836333
644.680219	13525.670348
645.024192	13454.499338
645.368112	13694.886759
645.711981	13742.578595
646.055797	13928.070371
646.399562	13897.049631
646.743274	14170.386033
647.086935	14450.278457
647.430544	14411.020471
647.774101	14437.211786
648.117606	14587.657461
648.461059	14556.621597
648.804460	14553.241503
649.147810	14271.561991
649.491108	14170.199511
649.834354	14183.450184
650.177548	13885.704514
650.520690	13687.022559
650.863781	13616.280047
651.206820	13654.524760
651.549807	13483.344820
651.892742	13293.066468
652.235626	13224.912588
652.578458	13224.821848
652.921238	12912.739137
653.263967	13110.591822
653.606644	12942.179475
653.949269	12919.320363
654.291843	12721.870970
654.634365	12873.851676
654.976836	12729.866240
655.319255	12737.092734
655.661622	12695.316692
656.003938	12606.768824
656.346203	12544.969319
656.688416	12612.750153
657.030577	12575.075090
657.372687	12490.020742
657.714746	12461.891104
658.056753	12661.591372
658.398708	12469.803195
658.740612	12473.778145
659.082465	12571.352198
659.424266	12539.744163
659.766016	12555.517934
660.107715	12471.882671
660.449362	12546.617777
660.790958	12510.306346
661.132503	12448.600102
661.473996	12512.216943
661.815438	12535.411292
662.156829	12553.778736
662.498168	12532.058924
662.839456	12527.642874
663.180693	12538.839276
663.521879	12637.479534
663.863013	12611.434412
664.204097	12586.871390
664.545129	12705.744318
664.886110	12679.580730
665.227040	12772.466510
665.567918	12779.234259
665.908746	12808.541007
666.249522	12787.451340
666.590248	12840.053260
666.930922	12958.709418
667.271545	12933.052466
667.612118	13021.272658
667.952639	12919.244746
668.293109	12936.596397
668.633528	12893.973441
668.973896	12864.449924
669.314213	12950.628449
669.654480	12684.621884
669.994695	12752.979930
670.334859	12777.777366
670.674973	12723.658059
671.015035	12757.068306
671.355047	12705.187271
671.695008	12664.537927
672.034918	12675.414216
672.374777	12718.059857
672.714585	12631.089871
673.054342	12672.069411
673.394049	12614.602778
673.733705	12707.697766
674.073310	12624.100311
674.412864	12641.204946
674.752368	12503.531035
675.091820	12517.860515
675.431223	12515.685257
675.770574	12383.140719
676.109875	12303.797999
676.449125	12250.702046
676.788324	12200.144314
677.127473	12043.445088
677.466571	12027.598221
677.805619	11921.360945
678.144616	11839.525374
678.483562	11816.928402
678.822458	11683.930160
679.161303	11665.857624
679.500098	11644.281485
679.838842	11603.206164
680.177535	11627.733898
680.516179	11692.147241
680.854771	11633.690021
681.193314	11851.835871
681.531805	12011.257321
681.870247	12429.786516
682.208638	12844.043333
682.546978	13160.826920
682.885268	13201.627499
683.223508	12887.611505
683.561697	12738.537024
683.899836	12633.423925
684.237925	12432.939757
684.575963	12354.554856
684.913951	12277.213474
685.251889	12226.912841
685.589776	12321.583190
685.927614	12248.975451
686.265401	12206.818802
686.603137	12263.801484
686.940824	12411.197261
687.278460	12533.513297
687.616046	12588.555136
687.953582	12753.035383
688.291068	12677.115606
688.628504	12916.285588
688.965889	12922.145930
689.303224	12887.551011
689.640510	12781.328859
689.977745	12464.177267
690.314930	12235.686969
690.652065	12154.431131
690.989150	11860.234434
691.326185	11636.228242
691.663170	11428.124370
692.000105	11181.407780
692.336990	11073.310318
692.673825	10820.161216
693.010610	10696.489109
693.347345	10492.362708
693.684030	10293.940372
694.020665	10238.880890
694.357251	10040.705570
694.693786	9975.054624
695.030272	9819.993772
695.366707	9695.930976
695.703093	9633.892017
696.039429	9628.593764
696.375716	9549.392196
696.711952	9418.496116
697.048139	9456.307290
697.384276	9412.464375
697.720363	9428.588506
698.056400	9371.953663
698.392388	9313.992996
698.728326	9276.943036
699.064214	9211.400474
699.400053	9259.702290
699.735842	9082.175537
700.071581	9032.124441
700.407270	8959.163821
700.742910	8882.669353
701.078501	8787.497409
701.414042	8661.808841
701.749533	8596.054551
702.084974	8455.963406
702.420366	8573.845747
702.755709	8456.706976
703.091002	8328.417173
703.426246	8349.116150
703.761440	8307.566960
704.096584	8257.417562
704.431679	8191.365843
704.766725	8175.360180
705.101721	8125.493086
705.436668	8168.146289
705.771565	8065.334477
706.106413	8145.398082
706.441212	8189.745113
706.775961	8144.853637
707.110661	8178.221035
707.445311	8323.582706
707.779913	8223.679640
708.114465	8356.955144
708.448967	8387.673415
708.783421	8530.416207
709.117825	8720.364363
709.452180	8750.593642
709.786485	8836.724277
710.120742	9122.285477
710.454949	9118.766752
710.789107	9224.681394
711.123216	9440.495711
711.457275	9599.203837
711.791286	9765.514023
712.125247	9756.984391
712.459159	9746.518955
712.793023	9995.307459
713.126837	9570.300381
713.460602	9720.042815
713.794318	9547.035456
714.127985	9575.333973
714.461602	9256.722968
714.795171	9205.177170
715.128691	8956.912946
715.462162	8706.460861
715.795584	8653.546390
716.128957	8504.469388
716.462281	8331.663676
716.795556	8386.355154
717.128782	8176.759100
717.461960	7910.497957
717.795088	7981.923545
718.128167	7889.693115
718.461198	7724.376036
718.794180	7658.389853
719.127113	7657.278279
719.459997	7501.554516
719.792833	7274.321986
720.125619	7338.067376
720.458357	7191.059768
720.791046	7186.200096
721.123686	7180.576689
721.456278	7021.220774
721.788821	7040.266254
722.121315	6930.938750
722.453761	6997.360993
722.786158	6943.075328
723.118506	6949.379291
723.450805	6919.553304
723.783056	6988.493604
724.115259	6897.760396
724.447412	6889.497945
724.779518	6937.633402
725.111574	6938.124915
725.443582	7022.501227
725.775542	7001.449369
726.107453	7193.229985
726.439315	7103.996521
726.771129	7166.567322
727.102895	7334.180646
727.434612	7446.721885
727.766281	7480.416958
728.097901	7558.325470
728.429473	7548.114613
728.760996	7526.843464
729.092471	7500.684917
729.423897	7448.819005
729.755276	7462.566232
730.086606	7385.282823
730.417887	7487.121692
730.749120	7684.409769
731.080305	7879.073924
731.411442	8003.540013
731.742530	7993.656831
732.073570	8103.059952
732.404562	8188.094135
732.735506	8038.182822
733.066401	8180.562651
733.397249	8104.226979
733.728048	7864.225206
734.058798	7528.459154
734.389501	7305.867006
734.720156	7128.577187
735.050762	6897.077320
735.381320	6805.779503
735.711831	6746.051912
736.042293	6645.795965
736.372707	6661.249622
736.703073	6517.617067
737.033391	6560.413942
737.363661	6574.622435
737.693883	6600.609583
738.024056	6685.671492
738.354182	6725.993161
738.684260	6766.405571
739.014290	6876.695935
739.344272	6990.227761
739.674207	7017.449991
740.004093	7085.843326
740.333931	7100.460151
740.663722	7111.149918
740.993464	7188.067843
741.323159	7173.052767
741.652806	6918.905516
741.982405	6939.619617
742.311956	6994.381671
742.641460	6829.089798
742.970915	6638.435881
743.300323	6630.816177
743.629683	6581.538898
743.958996	6447.555111
744.288260	6354.505493
744.617477	6303.095806
744.946647	6306.896836
745.275768	6138.925590
745.604842	6094.422284
745.933869	6076.997536
746.262847	6037.154776
746.591778	6028.874681
746.920662	5984.570500
747.249498	5972.935517
747.578286	6021.262539
747.907027	6099.775989
748.235720	6155.621892
748.564365	6131.772193
748.892963	6158.903683
749.221514	6309.346837
749.550017	6141.887268
749.878473	6020.087950
750.206881	6070.885137
750.535242	6016.665006
750.863555	5950.668741
751.191821	5964.574764
751.520039	5966.180371
751.848210	5872.803078
752.176334	5895.044649
752.504411	5945.365447
752.832440	5867.676225
753.160421	5799.623169
753.488356	5846.604202
753.816243	5881.678030
754.144082	5727.574998
754.471875	5703.138005
754.799620	5746.643162
755.127318	5759.256129
755.454969	5711.158480
755.782572	5674.078273
756.110129	5713.507658
756.437638	5703.511050
756.765100	5642.722296
757.092515	5645.590713
757.419882	5690.877918
757.747203	5672.976781
758.074477	5736.946503
758.401703	5727.832097
758.728882	5670.136091
759.056014	5732.285956
759.383099	5857.954360
759.710138	5871.562955
760.037129	5859.887642
760.364073	5859.048290
760.690970	5943.923677
761.017820	5923.801911
761.344623	5882.633328
761.671379	5980.421631
761.998088	6100.126349
762.324751	6345.262537
762.651366	6949.054137
762.977935	8263.144313
763.304456	9897.120906
763.630931	10795.293204
763.957359	10401.362319
764.283740	9458.190161
764.610074	8618.462480
764.936362	7618.118596
765.262602	7023.789242
765.588796	6484.358054
765.914943	6148.637373
766.241044	5982.576724
766.567097	5784.890397
766.893104	5526.735429
767.219064	5345.659703
767.544978	5285.140651
767.870845	5201.608732
768.196665	5099.966468
768.522438	5030.398544
768.848165	4994.024099
769.173846	4928.978091
769.499479	4885.233478
769.825066	4834.355633
770.150607	4771.628556
770.476101	4745.401953
770.801548	4740.595213
771.126949	4667.077546
771.452303	4615.874546
771.777611	4571.202361
772.102872	4591.006534
772.428087	4554.937078
772.753256	4515.358979
773.078378	4465.554900
773.403453	4396.221391
773.728482	4386.244947
774.053465	4341.905478
774.378401	4329.768901
774.703291	4327.069363
775.028135	4253.970111
775.352932	4208.539233
775.677683	4196.334599
776.002388	4213.492167
776.327046	4225.981625
776.651658	4150.417250
776.976224	4085.310748
777.300743	4094.238631
777.625216	4112.447279
777.949643	4110.269500
778.274024	4066.776946
778.598359	4019.609390
778.922647	4042.133265
779.246889	4035.216802
779.571086	4029.353940
779.895236	4013.890201
780.219339	3999.331348
780.543397	3993.269361
780.867409	4043.832134
781.191374	4061.783683
781.515294	3996.606605
781.839167	3988.094616
782.162995	4009.937936
782.486776	3996.137777
782.810511	4007.185466
783.134201	4005.400897
783.457844	3958.097230
783.781441	3901.795104
784.104993	3906.284251
784.428498	3928.019186
784.751958	3922.824277
785.075372	3902.331987
785.398739	3864.218343
785.722061	3876.617061
786.045337	3918.256992
786.368568	3956.042960
786.691752	3865.869321
787.014891	3917.886467
787.337983	4043.012946
787.661030	4201.393397
787.984031	4362.097820
788.306987	4533.547462
788.629897	4615.604844
788.952760	4570.816713
789.275579	4502.771218
789.598351	4442.501703
789.921078	4296.071308
790.243759	4100.040999
790.566395	4082.054162
790.888984	4075.475457
791.211529	3970.203561
791.534027	3909.029159
791.856480	3898.094897
792.178888	3834.301615
792.501249	3783.678348
792.823566	3798.579999
793.145836	3824.592353
793.468062	3775.284827
793.790241	3730.373188
794.112375	3760.748660
794.434464	3823.639575
794.756507	3849.414995
795.078505	3828.000173
795.400457	3857.803475
795.722364	3998.703725
796.044226	4105.112400
796.366042	4176.495138
796.687812	4157.444618
797.009538	4162.881503
797.331218	4124.725009
797.652852	4094.899022
797.974442	4076.569387
798.295986	4074.404211
798.617484	3991.023527
798.938938	3904.910537
799.260346	3945.718677
799.581709	3943.132565
799.903026	3870.887789
800.224299	3833.076615
800.545526	3824.027744
800.866708	3790.423412
801.187845	3729.896799
801.508936	3763.362498
801.829983	3759.506016
802.150984	3680.725384
802.471940	3675.792615
802.792851	3682.139428
803.113717	3683.490457
803.434538	3685.784182
803.755314	3626.061632
804.076045	3596.522991
804.396731	3622.076600
804.717372	3647.547030
805.037967	3634.397180
805.358518	3622.406796
805.679024	3652.061383
805.999485	3663.540091
806.319901	3664.243332
806.640272	3681.675642
806.960598	3694.122250
807.280879	3669.176101
807.601115	3680.191022
807.921306	3696.962941
808.241453	3737.725711
808.561554	3712.628326
808.881611	3651.272443
809.201623	3683.359387
809.521590	3694.218032
809.841513	3667.938497
810.161390	3699.387736
810.481223	3675.822862
810.801011	3623.299080
811.120755	3613.083182
811.440453	3649.989469
811.760107	3650.460817
812.079716	3607.001030
812.399281	3577.739652
812.718801	3600.702108
813.038276	3574.863674
813.357707	3570.553487
813.677093	3587.489244
813.996434	3535.983775
814.315731	3543.656411
814.634983	3547.659087
814.954191	3559.672157
815.273354	3590.597115
815.592473	3586.869182
815.911547	3593.054677
816.230577	3633.641007
816.549562	3685.945499
816.868502	3731.068867
817.187399	3753.524687
817.506250	3747.951691
817.825058	3722.206518
818.143821	3813.280004
818.462539	3916.656425
818.781213	3961.636120
819.099843	4021.073845
819.418429	4266.756998
819.736970	4509.339842
820.055466	4755.557357
820.373919	5118.512872
820.692327	5532.152148
821.010691	5977.374253
821.329011	7363.454627
821.647286	10114.041756
821.965517	14680.127346
822.283704	18713.814157
822.601847	20863.087415
822.919945	19040.856493
823.237999	16462.651619
823.556010	13968.137462
823.873976	11879.375695
824.191897	9779.173029
824.509775	8424.201616
824.827609	7300.452807
825.145398	6752.723879
825.463144	6636.101826
825.780845	6753.875783
826.098502	6940.980729
826.416116	7823.974113
826.733685	9149.006113
827.051210	10263.564899
827.368692	10299.871289
827.686129	9035.625522
828.003522	7523.198710
828.320872	6509.284040
828.638177	5804.873530
828.955439	5247.974744
829.272656	4744.098815
829.589830	4462.142039
829.906960	4284.663177
830.224046	4103.433696
830.541088	3975.400991
830.858086	3928.654371
831.175041	3852.613607
831.491952	3839.108356
831.808819	3847.401054
832.125642	3920.104574
832.442421	4068.405238
832.759157	4344.698278
833.075849	4894.698245
833.392497	5761.882570
833.709101	6542.200254
834.025662	6876.879937
834.342179	6506.985273
834.658653	5841.729406
834.975083	5197.822825
835.291469	4618.954691
835.607811	4208.776167
835.924110	4068.821133
836.240366	3875.084550
836.556578	3667.358765
836.872746	3557.378432
837.188871	3519.330323
837.504952	3453.379428
837.820990	3369.590410
838.136984	3325.056857
838.452935	3349.584591
838.768842	3345.637367
839.084706	3367.369782
839.400526	3524.220242
839.716303	3865.534084
840.032037	4392.042274
840.347727	4655.417357
840.663373	4374.035272
840.978977	3993.854135
841.294537	3682.925848
841.610054	3456.328503
841.925527	3349.357739
842.240957	3279.464661
842.556344	3224.208574
842.871687	3171.369720
843.186987	3117.835187
843.502244	3082.128694
843.817458	3047.783313
844.132629	3017.291894
844.447756	3022.476721
844.762840	3007.728825
845.077881	2976.224134
845.392879	2958.504478
845.707833	2956.029272
846.022745	2952.661781
846.337613	2954.494240
846.652438	2941.919082
846.967221	2941.248609
847.281960	2925.883172
847.596656	2921.746905
847.911309	2923.539035
848.225919	2913.532345
848.540485	2910.666449
848.855009	2912.395565
849.169490	2903.384502
849.483928	2891.000908
849.798323	2891.464694
850.112675	2885.788355
850.426984	2897.050292
850.741251	2896.382339
851.055474	2882.831718
851.369654	2878.836603
851.683792	2883.708879
851.997887	2894.481824
852.311938	2895.018707
852.625947	2882.584701
852.939914	2886.504198
853.253837	2890.902605
853.567718	2875.595142
853.881555	2877.641850
854.195350	2890.479148
854.509103	2886.148797
854.822812	2878.685369
855.136479	2876.300903
855.450103	2878.236706
855.763685	2872.598176
856.077224	2866.032073
856.390720	2880.081768
856.704173	2890.320352
857.017584	2883.350957
857.330953	2882.567057
857.644278	2890.837070
857.957561	2899.996847
858.270802	2901.567166
858.584000	2901.738565
858.897155	2887.416647
859.210268	2889.503685
859.523339	2884.412120
859.836367	2883.325751
860.149352	2879.035729
860.462295	2875.204452
860.775195	2880.903477
861.088054	2880.636295
861.400869	2865.288502
861.713642	2862.271372
862.026373	2876.641181
862.339062	2881.642006
862.651708	2885.049826
862.964312	2890.763973
863.276873	2882.158724
863.589392	2891.315980
863.901869	2904.569173
864.214303	2928.920467
864.526696	2944.747169
864.839045	2939.930347
865.151353	2936.618309
865.463619	2934.216199
865.775842	2937.613937
866.088023	2953.823767
866.400162	2961.728296
866.712258	2935.572269
867.024313	2920.952923
867.336325	2930.082453
867.648296	2954.617749
867.960224	2944.293466
868.272110	2933.780139
868.583954	2937.198042
868.895755	2952.001390
869.207515	2938.055038
869.519233	2941.793053
869.830909	2953.634724
870.142542	2961.997998
870.454134	2960.311732
870.765684	2963.863225
871.077191	2963.296095
871.388657	2972.496201
871.700081	2984.663026
872.011463	2993.845487
872.322803	2996.562669
872.634101	2995.400683
872.945357	3013.899197
873.256571	3039.631767
873.567744	3029.839326
873.878874	3022.960671
874.189963	3047.435473
874.501010	3050.840773
874.812015	3037.592620
875.122979	3039.767878
875.433900	3037.953063
875.744780	3043.329453
876.055618	3047.886657
876.366415	3047.611914
876.677169	3057.580795
876.987882	3054.961916
877.298554	3048.413457
877.609183	3069.346848
877.919771	3090.870055
878.230317	3120.685959
878.540822	3170.492559
878.851285	3211.623333
879.161707	3254.851228
879.472087	3354.625745
879.782425	3586.291970
880.092722	4022.349257
880.402977	4552.855082
880.713191	5185.025856
881.023363	6345.154153
881.333494	7634.540154
881.643583	8179.078031
881.953631	7883.719348
882.263637	7250.633604
882.573602	6659.888511
882.883526	6080.329738
883.193408	5501.769114
883.503248	5045.504362
883.813048	4739.629832
884.122806	4434.118265
884.432522	4120.281232
884.742197	3880.816342
885.051831	3685.942978
885.361424	3553.811815
885.670975	3481.025116
885.980485	3394.213926
886.289954	3318.556289
886.599382	3271.532406
886.908768	3235.359606
887.218113	3189.802699
887.527417	3130.690129
887.836680	3083.071390
888.145901	3079.386306
888.455082	3066.372568
888.764221	3014.433560
889.073319	2988.464056
889.382376	2985.020948
889.691392	2990.334324
890.000366	2991.201402
890.309300	2974.336222
890.618193	2990.331803
890.927044	3006.771006
891.235855	3004.809997
891.544625	2991.927328
891.853353	3003.844616
892.162041	3022.322965
892.470687	3060.355951
892.779293	3111.014506
893.087858	3157.662823
893.396381	3232.501272
893.704864	3353.317565
894.013306	3592.429574
894.321707	3896.320411
894.630068	4102.939663
894.938387	4096.305504
895.246665	4055.333526
895.554903	3928.316614
895.863100	3730.721027
896.171256	3561.290367
896.479371	3425.209460
896.787446	3302.480049
897.095480	3199.421221
897.403473	3132.706591
897.711425	3098.683843
898.019336	3086.547265
898.327207	3057.976526
898.635038	3020.878675
898.942827	3005.878722
899.250576	2993.618635
899.558284	2966.209882
899.865952	2942.798763
900.173579	2923.365115
900.481165	2918.218097
900.788711	2903.828124
901.096216	2878.105636
901.403681	2865.288503
901.711105	2874.140769
902.018489	2874.390306
902.325832	2872.215048
902.633135	2881.967160
902.940397	2919.110382
903.247619	3001.543329
903.554800	3191.161290
903.861941	3539.741955
904.169041	3965.946307
904.476101	4266.613325
904.783121	4221.253023
905.090100	3977.298985
905.397039	3700.524516
905.703938	3447.443469
906.010796	3263.574944
906.317614	3154.111330
906.624391	3057.807647
906.931129	2988.990856
907.237826	2925.139602
907.544483	2875.980790
907.851099	2845.983404
908.157675	2828.024293
908.464211	2807.030408
908.770707	2793.328552
909.077163	2780.226593
909.383578	2765.443409
909.689954	2755.232552
909.996289	2753.485792
910.302584	2753.997470
910.608839	2756.921339
910.915054	2749.415061
911.221229	2739.541961
911.527363	2741.452558
911.833458	2749.833477
912.139513	2757.654827
912.445527	2758.652975
912.751502	2768.649583
913.057436	2778.187446
913.363331	2789.910650
913.669186	2811.912766
913.975000	2846.369052
914.280775	2908.113104
914.586510	2977.381079
914.892205	3054.815722
915.197859	3182.699713
915.503475	3377.860423
915.809050	3595.494596
916.114585	3738.829723
916.420081	3759.410234
916.725536	3696.811706
917.030952	3580.461875
917.336328	3449.187708
917.641665	3320.660971
917.946961	3217.851679
918.252218	3149.876761
918.557435	3069.941705
918.862612	3012.417098
919.167750	2962.025724
919.472848	2924.814447
919.777906	2896.273955
920.082925	2869.598689
920.387904	2839.455110
920.692843	2823.444405
920.997743	2809.256077
921.302603	2796.023049
921.607423	2788.478962
921.912204	2774.893052
922.216946	2764.462905
922.521647	2755.091400
922.826310	2746.662591
923.130932	2739.201683
923.435516	2730.041907
923.740059	2723.357337
924.044564	2714.827704
924.349028	2708.017105
924.653454	2705.148689
924.957840	2700.669624
925.262186	2694.141329
925.566493	2689.770649
925.870761	2683.202026
926.174989	2683.302849
926.479178	2677.850841
926.783328	2671.809018
927.087438	2671.582166
927.391509	2668.534788
927.695541	2666.896413
927.999533	2662.250990
928.303486	2661.174704
928.607400	2655.969712
928.911275	2656.655309
929.215110	2657.792090
929.518906	2655.684887
929.822663	2656.793941
930.126381	2654.863179
930.430060	2657.741678
930.733699	2658.911226
931.037299	2659.375012
931.340861	2659.012049
931.644383	2661.595640
931.947866	2656.957779
932.251309	2658.268479
932.554714	2656.415855
932.858080	2654.495175
933.161407	2651.039464
933.464694	2650.447128
933.767943	2648.622231
934.071153	2650.789927
934.374323	2652.345123
934.677455	2648.274391
934.980548	2647.427477
935.283602	2649.083496
935.586617	2649.564927
935.889593	2650.563075
936.192530	2648.004689
936.495428	2650.026192
936.798287	2649.317910
937.101108	2656.173879
937.403890	2657.333345
937.706632	2663.418017
938.009336	2666.049500
938.312002	2678.997703
938.614628	2687.391224
938.917216	2694.035465
939.219765	2693.218798
939.522275	2693.879189
939.824747	2688.003725
940.127179	2686.002387
940.429573	2684.979032
940.731929	2682.113136
941.034246	2679.532066
941.336524	2675.466375
941.638763	2673.500325
941.940964	2671.680468
942.243126	2670.223575
942.545250	2668.312978
942.847335	2663.917092
943.149381	2661.520023
943.451389	2656.980464
943.753359	2655.843684
944.055290	2656.151194
944.357182	2653.774290
944.659036	2649.569968
944.960851	2651.825884
945.262628	2650.338744
945.564367	2650.636172
945.866067	2649.645585
946.167729	2650.265647
946.469352	2652.198929
946.770937	2650.701707
947.072484	2648.130718
947.373992	2650.182468
947.675462	2644.637199
947.976893	2640.803401
948.278286	2640.448000
948.579641	2642.822383
948.880958	2640.465644
949.182236	2642.053607
949.483476	2644.604431
949.784678	2643.916314
950.085841	2642.436735
950.386967	2643.492857
950.688054	2641.337763
950.989103	2642.623258
951.290114	2644.732981
951.591087	2645.713485
951.892021	2646.331026
952.192917	2652.309835
952.493776	2651.352016
952.794596	2653.015596
953.095378	2652.876965
953.396122	2652.798827
953.696828	2647.500574
953.997496	2650.648775
954.298126	2648.319762
954.598718	2646.436891
954.899272	2644.569143
955.199788	2639.396919
955.500266	2638.055972
955.800706	2638.854995
956.101108	2635.497587
956.401472	2629.080198
956.701798	2629.455764
957.002087	2626.892337
957.302337	2627.724127
957.602550	2626.935187
957.902724	2624.192799
958.202861	2621.702469
958.502960	2622.763632
958.803022	2623.663478
959.103045	2620.122067
959.403031	2619.650720
959.702979	2618.105606
960.002889	2617.563682
960.302762	2615.718620
960.602596	2619.247427
960.902393	2617.263733
961.202153	2617.901439
961.501875	2614.599483
961.801559	2616.036212
962.101205	2617.334309
962.400814	2616.386572
962.700385	2616.442025
962.999918	2612.852724
963.299414	2609.807867
963.598873	2612.426746
963.898293	2612.683845
964.197677	2613.893722
964.497022	2613.331633
964.796331	2614.390276
965.095601	2615.554782
965.394835	2615.622838
965.694030	2612.056221
965.993189	2613.044287
966.292309	2616.275667
966.591393	2614.647374
966.890439	2612.567898
967.189447	2613.729884
967.488419	2612.862806
967.787353	2613.112343
968.086249	2612.986314
968.385108	2615.655605
968.683930	2611.461365
968.982714	2614.869185
969.281462	2612.303238
969.580172	2612.719133
969.878844	2614.614607
970.177480	2614.773403
970.476078	2613.185440
970.774639	2613.220728
971.073162	2618.836573
971.371649	2615.791716
971.670098	2613.976901
971.968510	2612.061262
972.266885	2615.133846
972.565223	2615.300204
972.863524	2613.755090
973.161788	2615.748867
973.460014	2615.937910
973.758204	2615.562344
974.056356	2610.606890
974.354471	2613.944133
974.652550	2612.671242
974.950591	2611.100923
975.248595	2614.642333
975.546563	2616.346243
975.844493	2613.379524
976.142386	2609.767537
976.440243	2612.988835
976.738062	2613.243413
977.035845	2614.470934
977.333590	2614.067642
977.631299	2610.919441
977.928971	2609.109667
978.226606	2606.362238
978.524204	2606.876436
978.821765	2608.512290
979.119290	2613.518156
979.416777	2612.053701
979.714228	2608.373658
980.011642	2611.516818
980.309020	2612.555296
980.606360	2607.824173
980.903664	2609.283587
981.200931	2611.637806
981.498162	2612.003289
981.795356	2614.118053
982.092513	2615.370780
982.389633	2615.869854
982.686717	2619.968312
982.983764	2625.206071
983.280775	2628.422327
983.577749	2628.492903
983.874686	2628.855867
984.171587	2625.609363
984.468451	2624.628859
984.765279	2620.641306
985.062070	2618.652571
985.358824	2617.122581
985.655543	2616.205091
985.952224	2616.071500
986.248869	2614.501181
986.545478	2614.493619
986.842050	2610.160747
987.138586	2609.749893
987.435086	2612.784668
987.731549	2608.408947
988.027975	2609.064297
988.324366	2611.332816
988.620719	2608.724019
988.917037	2608.696292
989.213318	2607.700664
989.509563	2609.160078
989.805772	2609.220572
990.101944	2607.098247
990.398080	2606.009357
990.694180	2608.524893
990.990244	2607.252002
991.286271	2605.729573
991.582262	2608.988679
991.878217	2608.731580
992.174136	2605.722012
992.470019	2610.682507
992.765865	2606.301744
993.061676	2602.709922
993.357450	2606.405088
993.653188	2602.871239
993.948890	2606.962135
994.244556	2612.036057
994.540186	2606.906683
994.835780	2608.393823
995.131337	2608.250150
995.426859	2610.490943
995.722345	2607.312496
996.017795	2611.224431
996.313208	2612.083948
996.608586	2612.711571
996.903928	2612.467075
997.199234	2612.043618
997.494504	2610.180912
997.789738	2611.300048
998.084936	2610.022116
998.380099	2608.915582
998.675225	2609.460027
998.970316	2611.095882
999.265371	2611.660491
999.560390	2608.779471
999.855373	2607.937599
1000.150320	2606.873915
1000.445232	2606.087495
1000.740108	2606.382403
1001.034948	2606.112701
1001.329752	2605.797629
1001.624521	2604.149172
1001.919254	2608.746704
1002.213951	2607.972887
1002.508613	2604.310488
1002.803239	2608.802157
1003.097829	2606.558843
1003.392384	2604.741507
1003.686903	2604.219748
1003.981386	2607.511621
1004.275834	2604.761672
1004.570246	2607.486415
1004.864623	2603.614809
1005.158964	2606.604213
1005.453270	2605.974069
1005.747540	2607.922475
1006.041775	2606.382403
1006.335974	2604.973400
1006.630138	2607.428442
1006.924266	2605.096908
1007.218359	2602.941815
1007.512416	2601.547936
1007.806438	2603.385437
1008.100425	2603.246805
1008.394376	2599.327308
1008.688292	2604.186980
1008.982172	2602.288986
1009.276017	2603.997937
1009.569827	2603.824017
1009.863602	2602.639346
1010.157341	2603.897114
1010.451045	2605.837958
1010.744714	2602.893924
1011.038347	2606.997423
1011.331945	2603.382916
1011.625508	2605.124635
1011.919036	2602.798142
1012.212528	2602.498194
1012.505986	2604.456682
1012.799408	2605.341404
1013.092795	2604.320571
1013.386147	2606.074892
1013.679464	2605.449789
1013.972745	2604.529779
1014.265992	2606.541199
1014.559204	2606.016919
1014.852380	2605.991713
1015.145521	2605.853082
1015.438628	2604.617999
1015.731699	2602.704881
1016.024736	2601.981475
1016.317737	2602.543564
1016.610703	2602.924171
1016.903635	2602.412494
1017.196531	2602.437700
1017.489393	2603.387957
1017.782219	2601.442072
1018.075011	2607.947681
1018.367768	2604.733945
1018.660490	2605.033894
1018.953177	2605.033894
1019.245829	2605.033894
