Dividing Wavelength (nm)	Counts (n)	Blue Motor Position (mm): 11.200000	Red Motor Position (mm): 0.000000	
326.493990	2160.348672
326.888308	2160.348672
327.282561	2160.348672
327.676750	2118.862497
328.070874	2116.629265
328.464933	2117.589605
328.858929	2123.144957
329.252859	2128.370113
329.646726	2132.705505
330.040528	2150.573875
330.434265	2160.215082
330.827938	2179.477330
331.221547	2194.109279
331.615091	2211.912114
332.008571	2228.152191
332.401986	2250.050964
332.795338	2269.900507
333.188625	2288.406583
333.581847	2304.077009
333.975006	2323.901347
334.368100	2342.157886
334.761129	2360.553056
335.154095	2378.154245
335.546996	2397.708880
335.939833	2421.687129
336.332606	2435.756989
336.725315	2449.915070
337.117960	2464.506689
337.510540	2473.222844
337.903056	2486.423106
338.295508	2491.144146
338.687896	2502.998420
339.080220	2510.035870
339.472480	2517.451408
339.864676	2518.958713
340.256807	2527.674868
340.648875	2529.875331
341.040879	2531.203675
341.432818	2534.898841
341.824694	2540.325643
342.216506	2540.176929
342.608253	2541.820345
342.999937	2542.518545
343.391557	2539.708102
343.783113	2541.260777
344.174605	2540.144162
344.566033	2536.738862
344.957397	2538.359593
345.348697	2539.466127
345.739934	2533.099149
346.131106	2536.577545
346.522215	2532.675692
346.913260	2529.252749
347.304241	2527.808458
347.695159	2525.623118
348.086012	2523.710000
348.476802	2524.009949
348.867528	2518.394103
349.258191	2513.405882
349.648789	2517.960564
350.039324	2508.291631
350.429796	2512.874040
350.820203	2513.075686
351.210548	2509.980418
351.600828	2507.898421
351.991045	2508.780623
352.381198	2508.795747
352.771288	2506.108812
353.161314	2507.071672
353.551276	2506.348266
353.941175	2506.363390
354.331010	2506.128976
354.720782	2507.013699
355.110490	2506.658297
355.500135	2507.026302
355.889717	2509.246930
356.279235	2506.733915
356.668689	2504.442710
357.058080	2508.979749
357.447408	2506.839779
357.836672	2506.557474
358.225873	2505.518997
358.615010	2507.837927
359.004084	2506.580159
359.393095	2507.434635
359.782043	2505.624861
360.170927	2509.869512
360.559748	2512.601818
360.948505	2510.136693
361.337199	2512.526200
361.725830	2511.134842
362.114398	2508.914214
362.502903	2511.197856
362.891344	2512.783299
363.279722	2514.658608
363.668037	2515.074504
364.056289	2512.788340
364.444478	2515.253465
364.832603	2515.858403
365.220665	2514.056191
365.608665	2515.374452
365.996601	2515.888650
366.384474	2517.978208
366.772284	2518.527694
367.160031	2516.977539
367.547715	2518.683970
367.935336	2516.438136
368.322893	2520.173631
368.710388	2515.664319
369.097820	2517.133815
369.485189	2516.392765
369.872495	2520.949968
370.259738	2522.164887
370.646918	2520.917201
371.034035	2521.103724
371.421090	2520.198837
371.808081	2519.117509
372.195010	2519.356964
372.581875	2521.862417
372.968678	2520.602129
373.355418	2523.367202
373.742096	2523.503313
374.128710	2523.102541
374.515262	2522.371574
374.901751	2524.781245
375.288177	2522.479959
375.674540	2523.692356
376.060841	2523.273940
376.447079	2521.985926
376.833254	2524.922398
377.219367	2524.030113
377.605417	2525.678571
377.991404	2525.270237
378.377329	2523.155473
378.763191	2525.119003
379.148991	2524.652696
379.534727	2525.015659
379.920402	2526.081863
380.306013	2526.888448
380.691563	2525.444157
381.077049	2529.232584
381.462474	2526.699404
381.847835	2526.769981
382.233134	2527.314425
382.618371	2525.789476
383.003545	2527.460619
383.388657	2527.127903
383.773706	2525.943231
384.158693	2528.783922
384.543618	2529.373737
384.928480	2527.861390
385.313280	2528.688140
385.698017	2531.748120
386.082692	2527.803417
386.467305	2529.338448
386.851856	2530.213089
387.236344	2530.492873
387.620770	2527.591689
388.005133	2523.636903
388.389435	2529.051103
388.773674	2524.244363
389.157851	2528.526823
389.541965	2527.367357
389.926018	2531.317101
390.310008	2534.067051
390.693936	2532.814324
391.077802	2532.511855
391.461606	2529.822399
391.845348	2532.322812
392.229027	2533.116793
392.612645	2534.246012
392.996200	2531.276772
393.379694	2532.985723
393.763125	2532.050589
394.146494	2533.678882
394.529801	2534.427493
394.913047	2534.571166
395.296230	2535.944881
395.679351	2536.524613
396.062410	2533.429345
396.445408	2531.004550
396.828343	2533.073943
397.211217	2535.236598
397.594028	2535.912113
397.976778	2535.508821
398.359466	2533.764582
398.742092	2535.453368
399.124656	2534.800539
399.507158	2537.278266
399.889598	2535.846578
400.271977	2536.459078
400.654294	2537.691640
401.036549	2534.185518
401.418742	2537.931095
401.800874	2535.881866
402.182944	2536.227185
402.564952	2538.485622
402.946898	2537.232895
403.328783	2537.353883
403.710606	2537.956301
404.092367	2539.168698
404.474067	2541.056611
404.855705	2539.299768
405.237282	2541.535520
405.618797	2537.527803
406.000250	2538.097453
406.381642	2538.024357
406.762972	2536.557381
407.144240	2536.360776
407.525447	2536.181815
407.906593	2533.855322
408.287677	2537.686599
408.668700	2538.503266
409.049661	2543.458720
409.430560	2540.572660
409.811399	2539.612320
410.192176	2540.817156
410.572891	2541.568288
410.953545	2542.475695
411.334138	2540.902855
411.714669	2542.815973
412.095139	2541.341436
412.475547	2541.679193
412.855894	2542.256405
413.236180	2541.404450
413.616405	2542.765562
413.996568	2541.820345
414.376670	2544.555171
414.756711	2537.507638
415.136691	2541.928730
415.516609	2540.980993
415.896466	2541.984183
416.276262	2543.342774
416.655997	2541.865716
417.035670	2543.501570
417.415283	2543.302445
417.794834	2542.921838
418.174324	2544.456869
418.553753	2543.559543
418.933121	2548.799823
419.312428	2546.609442
419.691674	2545.177754
420.070859	2543.622558
420.449983	2546.780841
420.829045	2541.124666
421.208047	2541.971580
421.586988	2545.109698
421.965867	2544.872764
422.344686	2544.136756
422.723444	2545.520552
423.102141	2544.809750
423.480777	2542.725232
423.859352	2546.967363
424.237866	2544.960984
424.616319	2543.723381
424.994712	2546.601880
425.373044	2546.387631
425.751314	2544.371169
426.129524	2540.396219
426.507673	2542.200953
426.885762	2540.257588
427.263789	2544.265305
427.641756	2545.691952
428.019662	2544.285470
428.397508	2546.881664
428.775292	2548.832590
429.153016	2548.641027
429.530679	2546.904349
429.908282	2546.400234
430.285824	2545.739843
430.663305	2549.969371
431.040726	2548.215049
431.418086	2545.452497
431.795385	2547.300080
432.172624	2548.666232
432.549802	2549.049360
432.926920	2547.224462
433.303977	2546.929555
433.680974	2548.691438
434.057910	2546.793444
434.434786	2548.338557
434.811601	2547.791592
435.188355	2548.262940
435.565050	2548.058773
435.941683	2548.477189
436.318257	2548.918290
436.694770	2548.671273
437.071222	2547.985677
437.447614	2545.817980
437.823946	2549.404761
438.200218	2550.100441
438.576429	2549.046839
438.952580	2547.501726
439.328670	2549.840821
439.704700	2549.906356
440.080670	2550.760832
440.456580	2549.520708
440.832429	2550.513815
441.208218	2547.078269
441.583947	2548.759494
441.959616	2550.208825
442.335224	2550.347457
442.710773	2550.241593
443.086261	2548.819987
443.461689	2550.211346
443.837057	2550.407951
444.212365	2550.213867
444.587612	2546.775800
444.962800	2546.637168
445.337927	2549.475338
445.712995	2543.327650
446.088002	2553.034392
446.462949	2551.113712
446.837837	2551.133877
447.212664	2552.676470
447.587431	2550.639844
447.962139	2551.764021
448.336786	2555.580175
448.711374	2551.385935
449.085901	2552.192519
449.460369	2553.351985
449.834776	2551.247303
450.209124	2553.054557
450.583412	2552.232849
450.957640	2551.690925
451.331808	2551.910215
451.705917	2552.900802
452.079965	2552.915925
452.453954	2552.686553
452.827883	2551.632951
453.201752	2554.241748
453.575562	2554.103117
453.949311	2551.625390
454.323001	2555.628066
454.696632	2553.505740
455.070202	2551.738816
455.443713	2552.638662
455.817164	2551.922818
456.190556	2553.253682
456.563888	2553.304094
456.937160	2552.850390
457.310373	2555.139074
457.683526	2551.867365
458.056619	2554.249310
458.429653	2551.741336
458.802628	2555.270144
459.175542	2551.988353
459.548398	2553.414999
459.921194	2553.367108
460.293930	2555.214691
460.666607	2552.663867
461.039224	2556.427089
461.411782	2556.459856
461.784280	2552.996583
462.156719	2552.580688
462.529099	2555.572613
462.901419	2558.141081
463.273680	2552.857952
463.645882	2551.650595
464.018024	2551.055739
464.390106	2553.210832
464.762130	2556.979095
465.134094	2554.937428
465.505999	2556.081770
465.877845	2557.891544
466.249631	2556.951369
466.621358	2556.157387
466.993026	2555.643189
467.364634	2559.018242
467.736184	2555.617983
468.107674	2556.648899
468.479105	2554.831563
468.850477	2556.086811
469.221790	2555.073539
469.593043	2558.773746
469.964238	2556.918601
470.335373	2558.400700
470.706449	2558.249466
471.077467	2555.282747
471.448425	2557.251317
471.819324	2558.284754
472.190164	2560.268448
472.560945	2558.299877
472.931667	2559.444219
473.302330	2558.733417
473.672934	2560.606205
474.043479	2559.756771
474.413965	2561.019580
474.784393	2558.370453
475.154761	2559.333314
475.525070	2559.948335
475.895321	2557.876420
476.265513	2557.621842
476.635645	2561.579148
477.005719	2558.229301
477.375734	2564.422359
477.745691	2557.866338
478.115588	2561.022100
478.485427	2558.728375
478.855207	2560.795248
479.224928	2562.335321
479.594591	2561.984961
479.964194	2561.823644
480.333739	2564.077040
480.703226	2563.275496
481.072653	2561.339693
481.442022	2563.242729
481.811333	2561.100238
482.180584	2560.099569
482.549777	2558.977912
482.918912	2557.309291
483.287988	2564.006463
483.657005	2563.031000
484.025964	2564.697102
484.394864	2564.548387
484.763706	2563.686350
485.132489	2565.009653
485.501213	2563.850188
485.869879	2561.851370
486.238487	2566.002760
486.607036	2565.964952
486.975527	2563.895558
487.343959	2564.598799
487.712333	2566.668193
488.080648	2563.497307
488.448905	2566.060734
488.817104	2561.778273
489.185244	2565.468398
489.553326	2565.223902
489.921350	2565.884293
490.289315	2565.291958
490.657222	2569.012329
491.025070	2565.780950
491.392861	2564.928995
491.760593	2567.787329
492.128267	2566.786660
492.495883	2566.695919
492.863440	2563.996381
493.230939	2565.614592
493.598380	2567.925961
493.965763	2567.389078
494.333088	2566.829510
494.700354	2564.744993
495.067563	2564.316494
495.434713	2568.233471
495.801805	2566.262380
496.168839	2564.959242
496.535815	2567.953687
496.902733	2564.480332
497.269593	2567.021073
497.636395	2567.691547
498.003139	2566.711042
498.369825	2568.755230
498.736453	2565.218861
499.103023	2565.420507
499.469535	2567.041238
499.835989	2566.511917
500.202385	2563.847667
500.568723	2560.591082
500.935003	2566.395970
501.301226	2561.760629
501.667390	2568.876218
502.033497	2569.934860
502.399546	2566.884962
502.765537	2564.797925
503.131470	2566.322874
503.497345	2567.018553
503.863163	2564.616443
504.228923	2568.142730
504.594625	2567.013512
504.960269	2565.702812
505.325856	2569.944943
505.691385	2565.634756
506.056856	2565.975034
506.422270	2567.550395
506.787625	2568.006619
507.152924	2569.304716
507.518164	2569.092988
507.883347	2567.109294
508.248472	2569.158523
508.613540	2566.968141
508.978550	2569.234140
509.343503	2565.957390
509.708398	2569.463512
510.073236	2569.440827
510.438016	2568.757751
510.802738	2568.820765
511.167403	2569.392936
511.532010	2571.313616
511.896561	2568.054510
512.261053	2572.949470
512.625488	2570.655745
512.989866	2570.396126
513.354186	2571.374110
513.718449	2568.283882
514.082655	2572.364697
514.446803	2571.946281
514.810894	2575.089440
515.174927	2574.308061
515.538904	2575.903587
515.902822	2571.472412
516.266684	2576.100192
516.630488	2576.919379
516.994235	2574.020716
517.357925	2576.377455
517.721558	2575.207907
518.085133	2576.997517
518.448651	2572.795715
518.812112	2574.691189
519.175516	2574.383679
519.538863	2573.917372
519.902152	2580.042374
520.265385	2579.177816
520.628560	2577.186560
520.991678	2582.999011
521.354739	2581.194277
521.717743	2580.987590
522.080690	2583.598908
522.443580	2580.181006
522.806413	2583.087231
523.169189	2583.049422
523.531908	2585.249886
523.894569	2584.743250
524.257174	2586.235431
524.619722	2585.721234
524.982213	2586.406831
525.344647	2589.429002
525.707025	2586.109402
526.069345	2591.105186
526.431608	2589.416399
526.793815	2589.844897
527.155964	2591.760536
527.518057	2589.860021
527.880093	2593.509816
528.242072	2590.921184
528.603995	2594.724734
528.965860	2591.311873
529.327669	2593.724065
529.689421	2595.619539
530.051117	2596.965527
530.412755	2595.836309
530.774337	2596.327821
531.135862	2597.731783
531.497331	2599.816300
531.858743	2603.027515
532.220098	2604.895262
532.581396	2604.877618
532.942638	2602.188163
533.303824	2603.289655
533.664953	2605.525407
534.026025	2605.303596
534.387040	2606.238730
534.747999	2606.301744
535.108902	2607.269646
535.469748	2604.970880
535.830537	2608.010695
536.191270	2612.898094
536.551947	2607.667897
536.912567	2605.570777
537.273131	2609.331478
537.633638	2608.114039
537.994089	2611.864657
538.354483	2612.744339
538.714821	2614.380193
539.075103	2614.433125
539.435328	2613.382045
539.795497	2615.763990
540.155609	2612.547734
540.515665	2616.505040
540.875665	2618.478651
541.235609	2617.223404
541.595496	2619.476800
541.955328	2620.679115
542.315102	2619.650720
542.674821	2620.074177
543.034483	2622.463683
543.394090	2619.219701
543.753640	2622.725823
544.113134	2624.578447
544.472571	2624.858232
544.831953	2625.392594
545.191278	2622.869496
545.550548	2624.260855
545.909761	2626.438633
546.268918	2625.619446
546.628019	2627.101545
546.987064	2626.418469
547.346053	2629.503655
547.704986	2626.771349
548.063863	2627.666154
548.422684	2627.608181
548.781449	2629.150774
549.140158	2630.395939
549.498811	2631.036166
549.857408	2627.623304
550.215949	2630.839561
550.574434	2630.557256
550.932864	2632.077164
551.291237	2634.015487
551.649555	2633.040024
552.007817	2632.603964
552.366022	2633.960035
552.724173	2631.578090
553.082267	2629.793521
553.440305	2637.277114
553.798288	2636.843575
554.156215	2638.189563
554.514086	2634.423821
554.871902	2630.302678
555.229661	2632.019191
555.587365	2631.676392
555.945014	2634.484315
556.302606	2638.323153
556.660143	2637.425828
557.017625	2640.508494
557.375050	2639.437248
557.732421	2637.687968
558.089735	2640.132928
558.446994	2637.057824
558.804197	2638.416415
559.161345	2640.102681
559.518437	2636.954480
559.875474	2639.122176
560.232455	2639.396919
560.589381	2638.902886
560.946251	2640.120325
561.303065	2640.768113
561.659825	2643.124852
562.016528	2642.197280
562.373177	2640.077475
562.729770	2640.942033
563.086307	2643.223155
563.442789	2643.989410
563.799216	2645.433701
564.155587	2645.726088
564.511904	2645.111067
564.868164	2645.476551
565.224370	2645.849596
565.580520	2645.738691
565.936615	2644.808598
566.292654	2642.149389
566.648638	2647.359422
567.004567	2645.446304
567.360441	2647.117446
567.716260	2644.357415
568.072023	2645.607621
568.427732	2646.578043
568.783385	2647.871099
569.138982	2647.760193
569.494525	2647.157776
569.850013	2649.156593
570.205445	2648.854124
570.560823	2647.417395
570.916145	2646.482261
571.271412	2647.664412
571.626625	2652.952582
571.981782	2650.197591
572.336884	2647.404792
572.691931	2648.055101
573.046923	2647.329175
573.401860	2645.826911
573.756743	2653.650782
574.111570	2654.732109
574.466342	2653.393683
574.821059	2654.386790
575.175722	2654.205309
575.530330	2655.652120
575.884882	2656.592295
576.239380	2657.640855
576.593823	2659.637152
576.948211	2656.567089
577.302544	2658.901143
577.656823	2658.870897
578.011047	2657.610608
578.365216	2659.508602
578.719330	2662.881134
579.073389	2661.078922
579.427394	2666.351969
579.781344	2664.511948
580.135239	2664.872390
580.489080	2662.588747
580.842866	2664.779129
581.196597	2671.418328
581.550273	2666.125117
581.903895	2674.138031
582.257463	2676.640964
582.610975	2673.707012
582.964434	2675.947805
583.317837	2675.713392
583.671186	2679.632889
584.024481	2682.869309
584.377721	2681.120029
584.730906	2683.149093
585.084037	2685.775535
585.437113	2688.154959
585.790135	2690.368026
586.143103	2688.510361
586.496016	2690.758715
586.848874	2694.718542
587.201679	2695.749457
587.554428	2694.408511
587.907124	2701.768595
588.259765	2703.432176
588.612352	2708.440562
588.964884	2706.920654
589.317362	2708.876622
589.669786	2713.176726
590.022155	2715.180585
590.374470	2717.509598
590.726731	2719.803323
591.078937	2717.247458
591.431090	2726.187944
591.783188	2726.639128
592.135232	2729.787328
592.487222	2734.868811
592.839157	2737.651528
593.191038	2741.134966
593.542866	2743.043042
593.894639	2745.616551
594.246358	2751.444125
594.598022	2752.601070
594.949633	2754.703231
595.301190	2756.704569
595.652692	2759.716659
596.004141	2766.111362
596.355535	2765.105652
596.706876	2767.860643
597.058162	2772.281735
597.409395	2775.671911
597.760573	2780.647529
598.111698	2780.652571
598.462768	2786.505350
598.813785	2791.927111
599.164748	2791.727986
599.515657	2797.825261
599.866511	2802.853812
600.217312	2810.145841
600.568060	2805.691982
600.918753	2819.915597
601.269392	2824.510609
601.619978	2825.975064
601.970510	2840.543999
602.320988	2843.578773
602.671412	2853.587984
603.021783	2854.087059
603.372100	2857.036134
603.722363	2867.090715
604.072572	2871.519369
604.422728	2880.200236
604.772830	2888.550907
605.122878	2887.905639
605.472872	2899.916188
605.822813	2905.819379
606.172701	2918.298756
606.522534	2925.983995
606.872314	2936.749379
607.222041	2935.446241
607.571714	2953.614559
607.921333	2958.590178
608.270899	2971.218268
608.620411	2987.889364
608.969870	2984.970536
609.319276	3000.588031
609.668627	3018.516894
610.017926	3034.026004
610.367171	3048.196688
610.716362	3067.186714
611.065500	3066.949780
611.414585	3083.656164
611.763616	3093.710745
612.112594	3103.984617
612.461518	3110.255812
612.810389	3132.353710
613.159207	3139.660862
613.507971	3150.663181
613.856682	3183.191226
614.205340	3191.146167
614.553945	3220.387379
614.902496	3218.396124
615.250994	3250.717482
615.599439	3260.938421
615.947830	3278.499280
616.296169	3290.562762
616.644454	3316.378510
616.992686	3325.850838
617.340864	3361.131354
617.688990	3373.469578
618.037063	3410.169178
618.385082	3426.197526
618.733048	3459.814461
619.080961	3475.936071
619.428821	3505.878004
619.776628	3529.631921
620.124382	3540.077192
620.472083	3563.745409
620.819731	3588.540324
621.167326	3581.444900
621.514868	3596.643979
621.862357	3607.797532
622.209793	3617.597535
622.557176	3624.955099
622.904506	3623.455356
623.251783	3635.463384
623.599007	3648.220024
623.946179	3660.840553
624.293297	3671.913447
624.640363	3676.508459
624.987376	3683.619006
625.334336	3690.220397
625.681243	3698.775235
626.028097	3713.641598
626.374899	3747.886156
626.721647	3743.349118
627.068343	3756.435953
627.414987	3776.023356
627.761577	3806.174498
628.108115	3840.698840
628.454600	3824.100841
628.801032	3854.617465
629.147412	3876.662431
629.493739	3902.775608
629.840014	3919.050973
630.186236	3951.115232
630.532405	3957.245275
630.878521	4001.360413
631.224585	4017.507228
631.570597	4040.520096
631.916556	4056.407292
632.262462	4080.231785
632.608316	4111.451651
632.954117	4128.717603
633.299866	4159.874454
633.645562	4177.440355
633.991206	4161.603570
634.336797	4159.380421
634.682336	4192.223538
635.027823	4188.278836
635.373257	4210.248184
635.718639	4203.576217
636.063968	4220.413671
636.409245	4213.782033
636.754470	4239.050817
637.099642	4245.415273
637.444762	4229.102099
637.789829	4263.581071
638.134845	4267.855970
638.479808	4289.364053
638.824719	4306.012463
639.169577	4306.254438
639.514383	4332.985157
639.859137	4335.228470
640.203839	4378.098443
640.548489	4364.434395
640.893086	4403.475611
641.237632	4386.509608
641.582125	4453.015030
641.926566	4452.649546
642.270955	4469.066064
642.615292	4488.807222
642.959576	4515.464844
643.303809	4555.892377
643.647990	4561.722471
643.992118	4617.152478
644.336195	4584.727777
644.680219	4650.507273
645.024192	4682.269063
645.368112	4743.060337
645.711981	4796.609994
646.055797	4853.295248
646.399562	4884.313468
646.743274	4958.912462
647.086935	5069.666612
647.430544	5095.686528
647.774101	5123.755673
648.117606	5214.214137
648.461059	5209.614084
648.804460	5260.275160
649.147810	5221.997679
649.491108	5205.084607
649.834354	5252.844499
650.177548	5201.618814
650.520690	5185.257749
650.863781	5189.416701
651.206820	5219.414087
651.549807	5206.047468
651.892742	5192.322927
652.235626	5201.850707
652.578458	5228.941868
652.921238	5175.172921
653.263967	5250.064303
653.606644	5235.323969
653.949269	5248.617492
654.291843	5246.306122
654.634365	5293.261950
654.976836	5294.479389
655.319255	5322.145241
655.661622	5344.921174
656.003938	5344.054096
656.346203	5349.869067
656.688416	5392.245006
657.030577	5411.832409
657.372687	5416.860960
657.714746	5430.504843
658.056753	5498.078990
658.398708	5497.025388
658.740612	5517.003481
659.082465	5573.424075
659.424266	5574.707049
659.766016	5617.695488
660.107715	5622.164471
660.449362	5653.981713
660.790958	5691.538310
661.132503	5703.798396
661.473996	5739.152008
661.815438	5782.871414
662.156829	5810.035672
662.498168	5834.417213
662.839456	5855.043093
663.180693	5883.210541
663.521879	5951.792918
663.863013	5974.178162
664.204097	5997.009548
664.545129	6067.351288
664.886110	6073.713224
665.227040	6135.782431
665.567918	6172.482031
665.908746	6218.611109
666.249522	6223.180915
666.590248	6266.673470
666.930922	6337.463872
667.271545	6364.567636
667.612118	6422.377068
667.952639	6428.643222
668.293109	6442.529080
668.633528	6461.914837
668.973896	6473.769111
669.314213	6564.618265
669.654480	6469.776517
669.994695	6508.328741
670.334859	6561.684313
670.674973	6566.276804
671.015035	6613.719103
671.355047	6616.274968
671.695008	6622.921730
672.034918	6653.234188
672.374777	6696.479726
672.714585	6694.939653
673.054342	6737.010603
673.394049	6743.354895
673.733705	6798.197608
674.073310	6804.178937
674.412864	6844.573703
674.752368	6816.242418
675.091820	6820.285423
675.431223	6871.390120
675.770574	6827.390930
676.109875	6823.292472
676.449125	6827.821948
676.788324	6824.630898
677.127473	6782.038189
677.466571	6796.697864
677.805619	6797.441435
678.144616	6779.240349
678.483562	6798.273225
678.822458	6749.399238
679.161303	6765.619151
679.500098	6795.064531
679.838842	6792.501104
680.177535	6824.149468
680.516179	6862.535334
680.854771	6864.254367
681.193314	7009.679053
681.531805	7074.437715
681.870247	7308.198539
682.208638	7509.869899
682.546978	7708.362811
682.885268	7784.224615
683.223508	7643.188254
683.561697	7598.276614
683.899836	7568.725370
684.237925	7490.461457
684.575963	7483.852504
684.913951	7479.660785
685.251889	7444.002183
685.589776	7561.806387
685.927614	7538.453241
686.265401	7512.594643
686.603137	7579.137873
686.940824	7680.654109
687.278460	7749.680108
687.616046	7810.368039
687.953582	7911.783451
688.291068	7874.723409
688.628504	8017.572065
688.965889	8034.265846
689.303224	8068.442348
689.640510	8045.946199
689.977745	7906.197853
690.314930	7805.888973
690.652065	7808.530538
690.989150	7660.968403
691.326185	7556.629122
691.663170	7468.474464
692.000105	7350.138419
692.336990	7337.638878
692.673825	7203.697941
693.010610	7161.788308
693.347345	7064.983031
693.684030	6960.943698
694.020665	6954.342307
694.357251	6861.131372
694.693786	6868.990531
695.030272	6757.659169
695.366707	6719.069136
695.703093	6688.287851
696.039429	6703.355860
696.375716	6696.000816
696.711952	6606.958916
697.048139	6654.058416
697.384276	6642.559544
697.720363	6658.179560
698.056400	6638.319934
698.392388	6628.519931
698.728326	6610.838084
699.064214	6592.921823
699.400053	6651.129506
699.735842	6535.283791
700.071581	6536.647423
700.407270	6511.600450
700.742910	6474.545448
701.078501	6442.561848
701.414042	6377.223453
701.749533	6350.152457
702.084974	6265.481237
702.420366	6349.214802
702.755709	6298.747811
703.091002	6231.655094
703.426246	6261.753303
703.761440	6241.916363
704.096584	6223.964814
704.431679	6196.556061
704.766725	6200.563778
705.101721	6180.754564
705.436668	6216.292178
705.771565	6165.361401
706.106413	6223.264094
706.441212	6280.564369
706.775961	6248.968937
707.110661	6272.059942
707.445311	6400.833697
707.779913	6334.260219
708.114465	6436.063801
708.448967	6476.907229
708.783421	6561.293624
709.117825	6702.897115
709.452180	6729.118677
709.786485	6783.638755
710.120742	6983.107131
710.454949	6986.600650
710.789107	7045.811523
711.123216	7184.775970
711.457275	7304.417674
711.791286	7421.838750
712.125247	7410.743170
712.459159	7426.988289
712.793023	7623.913402
713.126837	7333.588311
713.460602	7457.880479
713.794318	7334.977149
714.127985	7397.338742
714.461602	7218.269396
714.795171	7194.661672
715.128691	7049.373098
715.462162	6877.258023
715.795584	6875.304576
716.128957	6796.508821
716.462281	6669.869995
716.795556	6743.927066
717.128782	6608.156190
717.461960	6406.588174
717.795088	6480.040306
718.128167	6425.437048
718.461198	6313.911602
718.794180	6281.542353
719.127113	6299.544313
719.459997	6194.451379
719.792833	6019.994688
720.125619	6076.974850
720.458357	5977.311239
720.791046	5975.899716
721.123686	6005.236711
721.456278	5885.940325
721.788821	5898.391975
722.121315	5821.524462
722.453761	5882.275407
722.786158	5850.392629
723.118506	5865.044743
723.450805	5852.714080
723.783056	5917.175315
724.115259	5825.083516
724.447412	5830.865720
724.779518	5869.599425
725.111574	5879.182659
725.443582	5949.940294
725.775542	5932.601245
726.107453	6083.596406
726.439315	6020.186252
726.771129	6056.401902
727.102895	6182.075346
727.434612	6286.361696
727.766281	6296.847296
728.097901	6366.700044
728.429473	6351.281675
728.760996	6343.641807
729.092471	6338.635941
729.423897	6327.376524
729.755276	6354.586152
730.086606	6308.825077
730.417887	6387.454475
730.749120	6520.213261
731.080305	6688.539909
731.411442	6801.166847
731.742530	6800.435880
732.073570	6911.152221
732.404562	6986.134344
732.735506	6855.321442
733.066401	6982.131667
733.397249	6940.368228
733.728048	6777.440657
734.058798	6525.854312
734.389501	6376.177413
734.720156	6242.967444
735.050762	6044.083842
735.381320	5971.435774
735.711831	5947.018945
736.042293	5853.770202
736.372707	5886.580552
736.703073	5768.854486
737.033391	5805.473428
737.363661	5814.282844
737.693883	5830.565771
738.024056	5904.774076
738.354182	5952.735614
738.684260	5974.800744
739.014290	6054.037600
739.344272	6146.764584
739.674207	6161.033570
740.004093	6216.778649
740.333931	6237.283543
740.663722	6248.467342
740.993464	6326.572460
741.323159	6346.406879
741.652806	6123.519824
741.982405	6125.944619
742.311956	6214.132044
742.641460	6099.647440
742.970915	5930.748621
743.300323	5948.107835
743.629683	5899.251492
743.958996	5800.432274
744.288260	5726.637343
744.617477	5691.818094
744.946647	5712.582606
745.275768	5567.767900
745.604842	5536.232962
745.933869	5523.604872
746.262847	5483.404191
746.591778	5483.313450
746.920662	5457.278411
747.249498	5441.035813
747.578286	5488.883925
747.907027	5557.877157
748.235720	5606.799034
748.564365	5576.824333
748.892963	5589.170119
749.221514	5753.065592
749.550017	5619.656497
749.878473	5495.182847
750.206881	5550.136465
750.535242	5505.774311
750.863555	5447.243994
751.191821	5476.908664
751.520039	5483.154654
751.848210	5402.024844
752.176334	5415.804838
752.504411	5469.236028
752.832440	5407.660854
753.160421	5331.902394
753.488356	5376.098190
753.816243	5429.834369
754.144082	5287.938492
754.471875	5254.598821
754.799620	5301.962982
755.127318	5314.054189
755.454969	5269.911325
755.782572	5238.003342
756.110129	5289.216424
756.437638	5288.742556
756.765100	5229.771138
757.092515	5219.343511
757.419882	5263.188947
757.747203	5251.553964
758.074477	5313.171987
758.401703	5309.025638
758.728882	5259.582001
759.056014	5293.977794
759.383099	5426.106436
759.710138	5432.649854
760.037129	5413.881638
760.364073	5421.345066
760.690970	5508.683057
761.017820	5497.411037
761.344623	5448.272390
761.671379	5541.077511
761.998088	5645.051309
762.324751	5855.635429
762.651366	6368.320775
762.977935	7478.009807
763.304456	8906.836644
763.630931	9760.614021
763.957359	9502.630453
764.283740	8710.713074
764.610074	8007.525045
764.936362	7111.480113
765.262602	6565.576084
765.588796	6064.949178
765.914943	5749.040231
766.241044	5602.483806
766.567097	5435.175472
766.893104	5198.659657
767.219064	5029.307135
767.544978	4976.760668
767.870845	4911.074433
768.196665	4812.086336
768.522438	4747.166357
768.848165	4718.167119
769.173846	4667.932021
769.499479	4632.626300
769.825066	4578.874997
770.150607	4524.425495
770.476101	4501.485724
770.801548	4502.345241
771.126949	4439.293009
771.452303	4396.493613
771.777611	4347.110470
772.102872	4369.621742
772.428087	4334.137060
772.753256	4301.215805
773.078378	4266.285650
773.403453	4199.402142
773.728482	4190.869989
774.053465	4145.514728
774.378401	4132.770691
774.703291	4140.559273
775.028135	4075.629212
775.352932	4027.939896
775.677683	4012.823997
776.002388	4033.318807
776.327046	4050.413360
776.651658	3976.421825
776.976224	3915.015530
777.300743	3925.309566
777.625216	3942.429324
777.949643	3946.265642
778.274024	3904.466915
778.598359	3851.582691
778.922647	3872.551370
779.246889	3870.469374
779.571086	3867.933673
779.895236	3855.469420
780.219339	3839.869570
780.543397	3829.225173
780.867409	3874.928274
781.191374	3891.427971
781.515294	3839.385619
781.839167	3832.527129
782.162995	3845.891228
782.486776	3835.138447
782.810511	3849.629244
783.134201	3852.963967
783.457844	3814.691527
783.781441	3755.674739
784.104993	3760.340327
784.428498	3782.213893
784.751958	3782.982669
785.075372	3762.087087
785.398739	3723.544945
785.722061	3732.293867
786.045337	3769.671503
786.368568	3811.944098
786.691752	3728.414699
787.014891	3768.411214
787.337983	3880.539078
787.661030	4024.965616
787.984031	4178.456147
788.306987	4343.062423
788.629897	4427.365639
788.952760	4385.486253
789.275579	4322.244978
789.598351	4267.223305
789.921078	4148.252074
790.243759	3960.179227
790.566395	3928.581275
790.888984	3928.780400
791.211529	3830.412365
791.534027	3770.987244
791.856480	3770.621760
792.178888	3707.680434
792.501249	3653.329233
792.823566	3661.264010
793.145836	3695.803475
793.468062	3649.646671
793.790241	3602.436265
794.112375	3631.642190
794.434464	3687.825849
794.756507	3713.601269
795.078505	3701.752037
795.400457	3723.655850
795.722364	3845.866022
796.044226	3944.385292
796.366042	4014.787526
796.687812	4010.253008
797.009538	4020.489071
797.331218	3973.497955
797.652852	3945.824541
797.974442	3928.813168
798.295986	3932.253755
798.617484	3859.308259
798.938938	3772.509672
799.260346	3809.040393
799.581709	3810.998882
799.903026	3739.921133
800.224299	3707.990465
800.545526	3701.560473
800.866708	3665.107889
801.187845	3601.458281
801.508936	3635.833909
801.829983	3646.642143
802.150984	3568.645411
802.471940	3550.164541
802.792851	3563.460584
803.113717	3561.048392
803.434538	3566.076943
803.755314	3514.833614
804.076045	3484.871516
804.396731	3500.458764
804.717372	3525.271323
805.037967	3517.608769
805.358518	3505.378930
805.679024	3530.239380
805.999485	3538.484187
806.319901	3542.501987
806.640272	3558.066549
806.960598	3573.222778
807.280879	3547.671690
807.601115	3557.638051
807.921306	3571.110535
808.241453	3612.609313
808.561554	3593.888988
808.881611	3530.158722
809.201623	3562.467477
809.521590	3576.779312
809.841513	3551.530693
810.161390	3579.486412
810.481223	3562.142322
810.801011	3506.576204
811.120755	3495.591530
811.440453	3530.998074
811.760107	3536.497973
812.079716	3500.214268
812.399281	3463.348310
812.718801	3485.940241
813.038276	3460.958803
813.357707	3456.567958
813.677093	3477.468582
813.996434	3430.152312
814.315731	3433.507199
814.634983	3435.879062
814.954191	3445.810135
815.273354	3478.449086
815.592473	3481.299858
815.911547	3476.785505
816.230577	3511.675331
816.549562	3559.815830
816.868502	3606.282665
817.187399	3633.663692
817.506250	3629.663537
817.825058	3596.200358
818.143821	3683.082123
818.462539	3786.445942
818.781213	3833.371522
819.099843	3880.362638
819.418429	4097.603601
819.736970	4327.916277
820.055466	4559.340526
820.373919	4905.904730
820.692327	5305.196882
821.010691	5691.891190
821.329011	6914.116420
821.647286	9403.470957
821.965517	13575.953337
822.283704	17390.786016
822.601847	19688.231387
822.919945	18119.033621
823.237999	15775.817093
823.556010	13424.658227
823.873976	11456.586725
824.191897	9448.163306
824.509775	8119.582333
824.827609	7026.335025
825.145398	6477.348330
825.463144	6364.267687
825.780845	6484.400904
826.098502	6626.808459
826.416116	7391.806076
826.733685	8634.571487
827.051210	9740.638449
827.368692	9892.208301
827.686129	8744.377900
828.003522	7277.203005
828.320872	6287.778260
828.638177	5615.817658
828.955439	5081.246143
829.272656	4600.746043
829.589830	4315.015964
829.906960	4146.855674
830.224046	3971.022749
830.541088	3847.262422
830.858086	3802.449085
831.175041	3730.990729
831.491952	3707.297306
831.808819	3720.623596
832.125642	3782.269346
832.442421	3914.430756
832.759157	4167.335362
833.075849	4671.975027
833.392497	5479.250280
833.709101	6224.819290
834.025662	6589.251863
834.342179	6299.375435
834.658653	5663.479247
834.975083	5041.889855
835.291469	4487.161285
835.607811	4079.886466
835.924110	3945.166671
836.240366	3756.188937
836.556578	3555.901374
836.872746	3447.551854
837.188871	3417.793923
837.504952	3354.161958
837.820990	3274.920061
838.136984	3222.388717
838.452935	3244.579877
838.768842	3241.656007
839.084706	3261.611415
839.400526	3405.327149
839.716303	3706.200855
840.032037	4189.075338
840.347727	4481.192559
840.663373	4247.436776
840.978977	3883.336919
841.294537	3586.836414
841.610054	3360.672609
841.925527	3252.411309
842.240957	3186.755322
842.556344	3135.325470
842.871687	3079.378745
843.186987	3031.815458
843.502244	2995.652741
843.817458	2960.475569
844.132629	2928.640683
844.447756	2939.776592
844.762840	2926.699839
845.077881	2897.080539
845.392879	2878.360214
845.707833	2871.156406
846.022745	2870.107846
846.337613	2875.675800
846.652438	2865.222967
846.967221	2860.020497
847.281960	2849.388703
847.596656	2841.262363
847.911309	2843.142714
848.225919	2834.973524
848.540485	2830.900272
848.855009	2831.424552
849.169490	2824.215702
849.483928	2814.806388
849.798323	2809.515697
850.112675	2808.552837
850.426984	2817.079948
850.741251	2818.214208
851.055474	2810.067703
851.369654	2802.619398
851.683792	2803.884728
851.997887	2811.212045
852.311938	2813.634320
852.625947	2805.513021
852.939914	2809.407312
853.253837	2813.636840
853.567718	2796.413738
853.881555	2792.925260
854.195350	2809.190542
854.509103	2809.061993
854.822812	2799.423307
855.136479	2800.897844
855.450103	2799.778708
855.763685	2792.867286
856.077224	2787.556431
856.390720	2800.378606
856.704173	2812.333702
857.017584	2804.726601
857.330953	2802.090077
857.644278	2811.459062
857.957561	2815.955771
858.270802	2821.243941
858.584000	2819.323262
858.897155	2811.073413
859.210268	2807.358083
859.523339	2804.887918
859.836367	2804.600572
860.149352	2801.986734
860.462295	2797.260652
860.775195	2807.431180
861.088054	2807.418577
861.400869	2788.690690
861.713642	2783.447890
862.026373	2797.880714
862.339062	2799.123358
862.651708	2806.715336
862.964312	2810.682724
863.276873	2808.386478
863.589392	2812.421922
863.901869	2820.076914
864.214303	2840.112980
864.526696	2859.208871
864.839045	2858.477904
865.151353	2855.301977
865.463619	2851.100175
865.775842	2851.929445
866.088023	2870.995089
866.400162	2880.094371
866.712258	2853.121678
867.024313	2842.421829
867.336325	2849.481965
867.648296	2867.350334
867.960224	2862.173069
868.272110	2848.156141
868.583954	2852.357943
868.895755	2865.316229
869.207515	2855.554034
869.519233	2857.893130
869.830909	2863.912268
870.142542	2874.438197
870.454134	2876.583208
870.765684	2878.168651
871.077191	2876.651263
871.388657	2880.011192
871.700081	2899.976682
872.011463	2908.523958
872.322803	2912.781213
872.634101	2910.132087
872.945357	2927.216557
873.256571	2949.445525
873.567744	2946.814043
873.878874	2931.365427
874.189963	2957.581947
874.501010	2959.089252
874.812015	2947.582818
875.122979	2950.783951
875.433900	2947.981070
875.744780	2948.573405
876.055618	2957.103038
876.366415	2952.755042
876.677169	2967.971765
876.987882	2965.756178
877.298554	2956.664457
877.609183	2972.571818
877.919771	2997.283554
878.230317	3019.550331
878.540822	3072.674010
878.851285	3109.204731
879.161707	3145.223776
879.472087	3231.240984
879.782425	3436.095832
880.092722	3836.378571
880.402977	4332.360054
880.713191	4914.751955
881.023363	5986.707950
881.333494	7206.571398
881.643583	7778.621372
881.953631	7516.115889
882.263637	6950.609333
882.573602	6412.198978
882.883526	5859.350759
883.193408	5297.002486
883.503248	4834.814378
883.813048	4549.447262
884.122806	4275.899131
884.432522	3974.917040
884.742197	3748.344901
885.051831	3563.775656
885.361424	3429.300357
885.670975	3360.909543
885.980485	3281.758386
886.289954	3208.969166
886.599382	3168.478618
886.908768	3129.752474
887.218113	3087.782348
887.527417	3034.517517
887.836680	2986.808037
888.145901	2980.806543
888.455082	2974.840337
888.764221	2926.246135
889.073319	2899.729666
889.382376	2897.430899
889.691392	2903.019018
890.000366	2899.351579
890.309300	2886.330279
890.618193	2898.794532
890.927044	2916.874630
891.235855	2914.696851
891.544625	2900.450551
891.853353	2910.565626
892.162041	2928.408790
892.470687	2966.061168
892.779293	3011.640760
893.087858	3057.648851
893.396381	3121.825260
893.704864	3227.044223
894.013306	3444.557409
894.321707	3733.380236
894.630068	3937.511679
894.938387	3941.514355
895.246665	3899.191348
895.554903	3792.770069
895.863100	3600.593723
896.171256	3438.734876
896.479371	3312.080927
896.787446	3196.293185
897.095480	3098.474635
897.403473	3035.067002
897.711425	2994.747854
898.019336	2988.315342
898.327207	2965.688123
898.635038	2933.525561
898.942827	2917.265319
899.250576	2906.189904
899.558284	2876.250492
899.865952	2857.663757
900.173579	2839.684482
900.481165	2832.316836
900.788711	2818.977943
901.096216	2795.372740
901.403681	2783.742798
901.711105	2791.453243
902.018489	2790.003911
902.325832	2788.821760
902.633135	2798.457926
902.940397	2826.975733
903.247619	2894.786814
903.554800	3069.593865
903.861941	3380.302862
904.169041	3782.733132
904.476101	4089.444494
904.783121	4069.128644
905.090100	3841.195393
905.397039	3580.048501
905.703938	3340.152592
906.010796	3165.464008
906.317614	3057.810168
906.624391	2967.460088
906.931129	2902.209913
907.237826	2842.837724
907.544483	2796.529685
907.851099	2766.837288
908.157675	2749.044536
908.464211	2729.603326
908.770707	2717.988508
909.077163	2705.050386
909.383578	2690.562110
909.689954	2678.158351
909.996289	2676.928310
910.302584	2681.760256
910.608839	2678.465862
910.915054	2676.850172
911.221229	2671.221723
911.527363	2668.345745
911.833458	2678.294462
912.139513	2681.372087
912.445527	2684.202695
912.751502	2690.110927
913.057436	2700.273893
913.363331	2712.009699
913.669186	2729.043758
913.975000	2759.489807
914.280775	2814.082982
914.586510	2882.040257
914.892205	2954.406020
915.197859	3067.063206
915.503475	3245.026019
915.809050	3441.343673
916.114585	3581.631423
916.420081	3615.898666
916.725536	3565.308167
917.030952	3454.929583
917.336328	3329.379646
917.641665	3209.453117
917.946961	3112.007613
918.252218	3047.616955
918.557435	2973.945533
918.862612	2922.248500
919.167750	2873.762682
919.472848	2835.200376
919.777906	2813.394865
920.082925	2785.550052
920.387904	2757.803541
920.692843	2744.477251
920.997743	2734.089953
921.302603	2719.387428
921.607423	2710.184802
921.912204	2698.499407
922.216946	2689.695032
922.521647	2681.195646
922.826310	2675.070644
923.130932	2665.303409
923.435516	2661.625887
923.740059	2652.687921
924.044564	2646.953609
924.349028	2640.934471
924.653454	2636.465488
924.957840	2628.359313
925.262186	2621.989815
925.566493	2619.494444
925.870761	2615.088475
926.174989	2612.827518
926.479178	2607.289810
926.783328	2604.474326
927.087438	2603.307299
927.391509	2599.163470
927.695541	2597.308326
927.999533	2590.994281
928.303486	2591.715166
928.607400	2590.376739
928.911275	2591.223653
929.215110	2589.325659
929.518906	2590.545618
929.822663	2589.088724
930.126381	2587.130236
930.430060	2587.316759
930.733699	2588.768611
931.037299	2589.194589
931.340861	2593.058633
931.644383	2593.172059
931.947866	2592.458736
932.251309	2587.868765
932.554714	2588.791296
932.858080	2585.282653
933.161407	2586.979002
933.464694	2582.575554
933.767943	2581.290059
934.071153	2582.961202
934.374323	2582.484813
934.677455	2584.980184
934.980548	2580.856520
935.283602	2579.351736
935.586617	2580.584298
935.889593	2580.879205
936.192530	2578.285532
936.495428	2582.257961
936.798287	2583.548496
937.101108	2588.211564
937.403890	2593.232553
937.706632	2593.776998
938.009336	2600.776640
938.312002	2609.591097
938.614628	2616.961264
938.917216	2621.619290
939.219765	2625.271606
939.522275	2621.200874
939.824747	2621.185751
940.127179	2615.950513
940.429573	2615.058228
940.731929	2612.406582
941.034246	2608.902980
941.336524	2606.422732
941.638763	2603.783688
941.940964	2602.064654
942.243126	2598.840837
942.545250	2601.696650
942.847335	2595.596854
943.149381	2591.747933
943.451389	2590.969075
943.753359	2585.748960
944.055290	2586.404310
944.357182	2585.567478
944.659036	2586.033785
944.960851	2585.678384
945.262628	2583.747622
945.564367	2582.015986
945.866067	2583.321644
946.167729	2581.796695
946.469352	2581.196798
946.770937	2582.668815
947.072484	2581.461459
947.373992	2581.925245
947.675462	2579.845769
947.976893	2577.017682
948.278286	2573.894687
948.579641	2573.153637
948.880958	2571.951322
949.182236	2573.050293
949.483476	2572.001733
949.784678	2576.705130
950.085841	2574.723957
950.386967	2575.296127
950.688054	2577.960377
950.989103	2573.914851
951.290114	2578.386355
951.591087	2581.121181
951.892021	2580.017168
952.192917	2583.757704
952.493776	2585.796851
952.794596	2587.397417
953.095378	2586.149732
953.396122	2589.814651
953.696828	2585.348188
953.997496	2583.503126
954.298126	2582.749473
954.598718	2580.256623
954.899272	2579.376942
955.199788	2575.154975
955.500266	2574.446693
955.800706	2572.054666
956.101108	2569.166084
956.401472	2566.673234
956.701798	2565.332287
957.002087	2562.007646
957.302337	2562.045455
957.602550	2562.652914
957.902724	2558.647717
958.202861	2557.826009
958.502960	2556.895916
958.803022	2556.185113
959.103045	2557.057233
959.403031	2555.633107
959.702979	2557.692418
960.002889	2553.253682
960.302762	2553.276368
960.602596	2554.372818
960.902393	2555.383570
961.202153	2553.213353
961.501875	2555.650751
961.801559	2553.881306
962.101205	2551.910215
962.400814	2553.543549
962.700385	2552.149670
962.999918	2549.407282
963.299414	2549.787889
963.598873	2549.447611
963.898293	2546.438042
964.197677	2551.587581
964.497022	2549.092210
964.796331	2551.660678
965.095601	2551.317879
965.394835	2550.533980
965.694030	2552.137067
965.993189	2551.915256
966.292309	2550.405430
966.591393	2552.086655
966.890439	2549.283774
967.189447	2547.836962
967.488419	2549.767724
967.787353	2553.346944
968.086249	2548.033567
968.385108	2551.897612
968.683930	2550.085317
968.982714	2548.988866
969.281462	2551.189330
969.580172	2551.290153
969.878844	2550.465924
970.177480	2550.445760
970.476078	2550.148332
970.774639	2550.944834
971.073162	2552.338713
971.371649	2549.412323
971.670098	2551.093548
971.968510	2550.249155
972.266885	2553.296532
972.565223	2552.898281
972.863524	2552.691594
973.161788	2552.477345
973.460014	2550.102961
973.758204	2552.550441
974.056356	2550.778476
974.354471	2552.381563
974.652550	2552.820143
974.950591	2551.799309
975.248595	2550.662529
975.546563	2550.861655
975.844493	2552.626059
976.142386	2550.309648
976.440243	2549.508105
976.738062	2550.544062
977.035845	2551.285112
977.333590	2552.401727
977.631299	2548.835111
977.928971	2547.012734
978.226606	2546.858979
978.524204	2546.611962
978.821765	2545.074410
979.119290	2550.980122
979.416777	2549.102292
979.714228	2550.080276
980.011642	2547.645399
980.309020	2549.296377
980.606360	2550.854093
980.903664	2548.767055
981.200931	2549.082128
981.498162	2552.021120
981.795356	2553.112530
982.092513	2551.587581
982.389633	2555.870041
982.686717	2559.030845
982.983764	2561.790876
983.280775	2565.357493
983.577749	2565.692729
983.874686	2567.973852
984.171587	2561.344734
984.468451	2559.708880
984.765279	2561.246432
985.062070	2560.276010
985.358824	2557.011862
985.655543	2552.379042
985.952224	2551.201933
986.248869	2551.726213
986.545478	2550.922149
986.842050	2551.446429
987.138586	2550.418033
987.435086	2550.231511
987.731549	2550.090358
988.027975	2546.405275
988.324366	2547.733619
988.620719	2549.180430
988.917037	2546.243958
989.213318	2547.234545
989.509563	2546.836293
989.805772	2549.064483
990.101944	2550.256716
990.398080	2548.774617
990.694180	2546.347302
990.990244	2543.423432
991.286271	2545.134904
991.582262	2548.308310
991.878217	2546.241437
992.174136	2550.339895
992.470019	2547.234545
992.765865	2542.947043
993.061676	2544.482075
993.357450	2542.654656
993.653188	2544.938299
993.948890	2544.855120
994.244556	2550.516336
994.540186	2548.847714
994.835780	2546.425439
995.131337	2549.803013
995.426859	2548.646068
995.722345	2546.891746
996.017795	2550.047508
996.313208	2550.554144
996.608586	2550.690256
996.903928	2551.920297
997.199234	2553.944320
997.494504	2552.126984
997.789738	2550.460883
998.084936	2549.245965
998.380099	2549.533311
998.675225	2550.559186
998.970316	2551.973229
999.265371	2548.270502
999.560390	2547.355532
999.855373	2549.752601
1000.150320	2547.884853
1000.445232	2547.915100
1000.740108	2548.527601
1001.034948	2548.381407
1001.329752	2545.311344
1001.624521	2545.654143
1001.919254	2547.647919
1002.213951	2547.670604
1002.508613	2546.269164
1002.803239	2543.385624
1003.097829	2545.628937
1003.392384	2545.870912
1003.686903	2546.667415
1003.981386	2547.204298
1004.275834	2549.187992
1004.570246	2546.685059
1004.864623	2546.238917
1005.158964	2546.395193
1005.453270	2545.142466
1005.747540	2545.220604
1006.041775	2545.487785
1006.335974	2546.364946
1006.630138	2545.573484
1006.924266	2545.565923
1007.218359	2546.004503
1007.512416	2541.863195
1007.806438	2541.580891
1008.100425	2542.747918
1008.394376	2540.219779
1008.688292	2544.653474
1008.982172	2545.712116
1009.276017	2548.507436
1009.569827	2544.945861
1009.863602	2544.966025
1010.157341	2546.130532
1010.451045	2544.298072
1010.744714	2544.688762
1011.038347	2541.167516
1011.331945	2544.913093
1011.625508	2543.604914
1011.919036	2545.918803
1012.212528	2545.152548
1012.505986	2545.369318
1012.799408	2545.437373
1013.092795	2547.340409
1013.386147	2544.293031
1013.679464	2548.013403
1013.972745	2546.458207
1014.265992	2544.535007
1014.559204	2545.576005
1014.852380	2546.372507
1015.145521	2544.766900
1015.438628	2545.122301
1015.731699	2545.172713
1016.024736	2543.640202
1016.317737	2545.187836
1016.610703	2546.274205
1016.903635	2544.025850
1017.196531	2545.258412
1017.489393	2546.773279
1017.782219	2546.886705
1018.075011	2543.408309
1018.367768	2545.754966
1018.660490	2543.380582
1018.953177	2543.380582
1019.245829	2543.380582
