Dividing Wavelength (nm)	Counts (n)	Blue Motor Position (mm): 40.000000	Red Motor Position (mm): 0.000000	
326.493990	2247.013668
326.888308	2247.013668
327.282561	2247.013668
327.676750	2206.505477
328.070874	2205.222503
328.464933	2205.431711
328.858929	2207.917000
329.252859	2214.200798
329.646726	2223.131202
330.040528	2231.139075
330.434265	2247.283370
330.827938	2265.665938
331.221547	2281.054060
331.615091	2299.038376
332.008571	2319.084524
332.401986	2337.177226
332.795338	2356.825123
333.188625	2376.815818
333.581847	2394.603530
333.975006	2416.542631
334.368100	2435.283121
334.761129	2454.298353
335.154095	2469.194962
335.546996	2496.243273
335.939833	2537.253060
336.332606	2551.002807
336.725315	2566.910168
337.117960	2576.926941
337.510540	2587.241142
337.903056	2597.716659
338.295508	2607.783843
338.687896	2616.820112
339.080220	2623.030813
339.472480	2631.772174
339.864676	2634.438944
340.256807	2639.177629
340.648875	2645.005203
341.040879	2646.121818
341.432818	2649.756490
341.824694	2652.665236
342.216506	2653.050884
342.608253	2655.074908
342.999937	2651.404948
343.391557	2655.117757
343.783113	2655.768066
344.174605	2653.484424
344.566033	2653.393683
344.957397	2651.031902
345.348697	2649.302787
345.739934	2649.721202
346.131106	2648.130718
346.522215	2643.545789
346.913260	2644.700213
347.304241	2640.795839
347.695159	2641.990593
348.086012	2638.875160
348.476802	2635.394243
348.867528	2632.172946
349.258191	2631.895682
349.648789	2629.155815
350.039324	2626.151288
350.429796	2629.271762
350.820203	2625.868983
351.210548	2628.266052
351.600828	2627.701442
351.991045	2623.668519
352.381198	2623.691204
352.771288	2625.390073
353.161314	2623.103910
353.551276	2623.802110
353.941175	2621.089969
354.331010	2619.900257
354.720782	2620.842952
355.110490	2619.388580
355.500135	2620.986625
355.889717	2619.721296
356.279235	2619.839763
356.668689	2621.578961
357.058080	2619.880092
357.447408	2620.777417
357.836672	2621.967130
358.225873	2621.049640
358.615010	2620.716924
359.004084	2624.286061
359.393095	2624.712038
359.782043	2626.105917
360.170927	2625.264044
360.559748	2625.102727
360.948505	2627.940897
361.337199	2626.398304
361.725830	2630.030455
362.114398	2624.001235
362.502903	2628.986937
362.891344	2627.618263
363.279722	2629.430558
363.668037	2630.496762
364.056289	2629.453243
364.444478	2630.481639
364.832603	2631.036166
365.220665	2628.913840
365.608665	2631.641104
365.996601	2632.540950
366.384474	2635.016157
366.772284	2636.745272
367.160031	2632.581279
367.547715	2636.347021
367.935336	2634.600261
368.322893	2634.733852
368.710388	2636.553708
369.097820	2633.975158
369.485189	2632.238481
369.872495	2640.329533
370.259738	2640.221148
370.646918	2639.364152
371.034035	2639.913637
371.421090	2639.429687
371.808081	2644.448155
372.195010	2642.570326
372.581875	2642.270377
372.968678	2643.538227
373.355418	2641.282311
373.742096	2644.775830
374.128710	2644.498567
374.515262	2644.753145
374.901751	2643.664256
375.288177	2647.016623
375.674540	2647.039308
376.060841	2644.997641
376.447079	2646.215080
376.833254	2649.711120
377.219367	2648.097951
377.605417	2651.909063
377.991404	2650.507622
378.377329	2651.566265
378.763191	2649.020482
379.148991	2653.590288
379.534727	2650.994094
379.920402	2652.997952
380.306013	2652.007366
380.691563	2652.120792
381.077049	2655.717655
381.462474	2653.096255
381.847835	2655.868889
382.233134	2656.209167
382.618371	2655.949548
383.003545	2656.867038
383.388657	2657.043478
383.773706	2658.419713
384.158693	2657.280412
384.543618	2660.985661
384.928480	2663.322235
385.313280	2659.803510
385.698017	2658.754950
386.082692	2662.734941
386.467305	2666.185611
386.851856	2665.222750
387.236344	2668.746517
387.620770	2668.476815
388.005133	2672.575273
388.389435	2680.275636
388.773674	2684.575740
389.157851	2697.765919
389.541965	2708.352342
389.926018	2720.806513
390.310008	2740.025912
390.693936	2765.917278
391.077802	2791.876700
391.461606	2821.075063
391.845348	2860.696011
392.229027	2900.790828
392.612645	2945.773044
392.996200	3005.041890
393.379694	3063.662947
393.763125	3137.218423
394.146494	3196.567927
394.529801	3267.915378
394.913047	3350.421422
395.296230	3391.532032
395.679351	3486.157010
396.062410	3571.060123
396.445408	3629.129174
396.828343	3717.886250
397.211217	3808.679951
397.594028	3819.006755
397.976778	3944.019808
398.359466	4035.005073
398.742092	4116.283597
399.124656	4124.556130
399.507158	4260.989918
399.889598	4365.137636
400.271977	4512.462837
400.654294	4561.740115
401.036549	4658.121936
401.418742	4655.558509
401.800874	4867.881827
402.182944	4963.431857
402.564952	5109.045586
402.946898	5206.912026
403.328783	5130.500736
403.710606	5183.997461
404.092367	5503.246172
404.474067	5565.683383
404.855705	5525.515469
405.237282	5499.634186
405.618797	5763.621768
406.000250	5773.797337
406.381642	5987.315409
406.762972	6037.091762
407.144240	6119.935563
407.525447	6130.423684
407.906593	6183.207085
408.287677	6349.028279
408.668700	6284.846829
409.049661	6412.871972
409.430560	6457.816379
409.811399	6326.035577
410.192176	6601.075889
410.572891	6612.720955
410.953545	6825.404715
411.334138	6569.790489
411.714669	6745.935966
412.095139	6547.122940
412.475547	6792.652338
412.855894	6857.889910
413.236180	7042.774228
413.616405	6735.205870
413.996568	6956.547812
414.376670	6981.267110
414.756711	6884.169445
415.136691	6980.558827
415.516609	7189.272679
415.896466	7178.734147
416.276262	7372.367387
416.655997	7359.124276
417.035670	7556.964358
417.415283	7885.393011
417.794834	7938.456196
418.174324	7798.954866
418.553753	7710.069242
418.933121	8037.489663
419.312428	8134.489025
419.691674	7918.684791
420.070859	8391.487048
420.449983	8069.047287
420.829045	8435.793749
421.208047	8214.560192
421.586988	8505.782609
421.965867	8520.898509
422.344686	8638.901838
422.723444	8669.478957
423.102141	8044.282618
423.480777	8794.187020
423.859352	8317.170358
424.237866	8934.830172
424.616319	8803.230850
424.994712	9212.653201
425.373044	8789.506309
425.751314	9240.568591
426.129524	9110.022871
426.507673	9230.463598
426.885762	9386.212566
427.263789	9302.315163
427.641756	9220.214932
428.019662	9320.072628
428.397508	9560.959123
428.775292	9249.914890
429.153016	9632.099886
429.530679	9459.112692
429.908282	9499.756995
430.285824	9223.496723
430.663305	9900.410259
431.040726	9355.338020
431.418086	9338.651800
431.795385	9658.359257
432.172624	9754.534390
432.549802	9663.284464
432.926920	9740.935877
433.303977	9623.444225
433.680974	9827.500051
434.057910	9916.940202
434.434786	9984.395882
434.811601	9821.511160
435.188355	10382.175688
435.565050	10118.808167
435.941683	10041.756651
436.318257	10532.215550
436.694770	10668.828298
437.071222	10736.233566
437.447614	10576.053423
437.823946	10480.972221
438.200218	10613.047931
438.576429	10430.840466
438.952580	10675.011273
439.328670	10718.808818
439.704700	10505.542805
440.080670	10491.472944
440.456580	11046.773684
440.832429	10810.015894
441.208218	10410.766592
441.583947	10727.020858
441.959616	10885.544982
442.335224	10695.551455
442.710773	10825.807308
443.086261	11039.839577
443.461689	10311.213886
443.837057	10972.635955
444.212365	11239.875082
444.587612	10883.251257
444.962800	11110.788777
445.337927	10872.526202
445.712995	10478.184463
446.088002	11553.112218
446.462949	11217.711650
446.837837	11192.326919
447.212664	11157.565643
447.587431	11695.807119
447.962139	12425.478850
448.336786	14698.986302
448.711374	15228.914915
449.085901	13071.664032
449.460369	12703.765666
449.834776	12141.687094
450.209124	13037.293445
450.583412	13443.507102
450.957640	14391.304518
451.331808	13501.898787
451.705917	12516.257428
452.079965	11799.259157
452.453954	12714.634393
452.827883	12347.855163
453.201752	12643.274340
453.575562	12169.647854
453.949311	12588.618150
454.323001	12555.253273
454.696632	12794.405612
455.070202	13070.479361
455.443713	13292.597641
455.817164	13766.546761
456.190556	13743.581784
456.563888	14120.861738
456.937160	14277.903763
457.310373	13622.079894
457.683526	13714.093555
458.056619	13255.013318
458.429653	13430.788270
458.802628	12827.026918
459.175542	13214.888254
459.548398	14166.511907
459.921194	14509.595193
460.293930	14577.827211
460.666607	15443.728563
461.039224	16496.825601
461.411782	17200.547993
461.784280	17038.789969
462.156719	17119.145961
462.529099	16809.538457
462.901419	15738.999026
463.273680	15520.681776
463.645882	15404.757923
464.018024	15126.002280
464.390106	15351.293966
464.762130	16074.049234
465.134094	16850.724684
465.505999	18854.323718
465.877845	22121.336729
466.249631	24933.562047
466.621358	24615.747543
466.993026	23184.584131
467.364634	22618.273511
467.736184	21147.592494
468.107674	20349.124136
468.479105	20476.630040
468.850477	19939.185067
469.221790	19537.241268
469.593043	18844.841308
469.964238	18284.819527
470.335373	17927.391637
470.706449	18409.792251
471.077467	17966.475703
471.448425	19819.558486
471.819324	23889.960021
472.190164	25848.206315
472.560945	22243.002457
472.931667	19894.326359
473.302330	19269.631616
473.672934	18843.139918
474.043479	19128.340677
474.413965	18933.447148
474.784393	18539.155821
475.154761	19268.633467
475.525070	19229.660307
475.895321	18920.955169
476.265513	19514.666981
476.635645	20104.005592
477.005719	19876.314317
477.375734	20070.507125
477.745691	20537.295286
478.115588	21085.498081
478.485427	21614.746138
478.855207	22697.913659
479.224928	24464.961591
479.594591	26704.287500
479.964194	26677.801277
480.333739	26911.163851
480.703226	26480.545968
481.072653	26172.294534
481.442022	26761.943176
481.811333	27685.359052
482.180584	27589.289784
482.549777	26632.264535
482.918912	26300.402856
483.287988	26421.728306
483.657005	26064.509624
484.025964	25840.100140
484.394864	25732.408491
484.763706	25394.557922
485.132489	24852.344017
485.501213	25026.573856
485.869879	24938.464569
486.238487	24767.398054
486.607036	24908.504991
486.975527	24633.104236
487.343959	24940.050012
487.712333	24870.106523
488.080648	24527.802094
488.448905	25027.511510
488.817104	24782.166114
489.185244	25466.412008
489.553326	25420.116572
489.921350	26450.906504
490.289315	28763.172868
490.657222	30514.593223
491.025070	31014.080828
491.392861	30774.469745
491.760593	29930.605797
492.128267	29024.206335
492.495883	27969.715417
492.863440	27097.842819
493.230939	26223.419396
493.598380	26065.550622
493.965763	25676.789440
494.333088	25194.645925
494.700354	25166.191132
495.067563	25027.501428
495.434713	24764.156592
495.801805	24936.344763
496.168839	24721.034562
496.535815	24567.496139
496.902733	24785.445385
497.269593	24479.790145
497.636395	24650.097966
498.003139	24595.414049
498.369825	24346.915412
498.736453	24556.990375
499.103023	24415.938890
499.469535	24428.884573
499.835989	24634.919052
500.202385	24668.568753
500.568723	24189.943963
500.935003	24398.269646
501.301226	24047.491038
501.667390	24886.361723
502.033497	25105.447749
502.399546	24836.212325
502.765537	24391.398553
503.131470	24773.134887
503.497345	24924.356900
503.863163	24149.460977
504.228923	24711.877306
504.594625	24946.588388
504.960269	24486.504962
505.325856	24973.119981
505.691385	24373.608321
506.056856	24985.304450
506.422270	24947.616783
506.787625	24495.326981
507.152924	24937.892398
507.518164	24964.257632
507.883347	24771.178919
508.248472	24446.503406
508.613540	25243.557720
508.978550	25022.656879
509.343503	25023.730645
509.708398	25263.997078
510.073236	25434.688027
510.438016	25640.329295
510.802738	25316.535984
511.167403	25553.346706
511.532010	25281.280674
511.896561	26051.516050
512.261053	26009.795461
512.625488	25827.222512
512.989866	25735.738173
513.354186	25579.555665
513.718449	25704.185591
514.082655	26068.630767
514.446803	25805.989172
514.810894	26272.668948
515.174927	25745.288639
515.538904	25782.164679
515.902822	26285.181092
516.266684	26035.762444
516.630488	25937.659070
516.994235	25903.631281
517.357925	26233.151343
517.721558	26389.026341
518.085133	26504.131007
518.448651	26400.245429
518.812112	26161.314901
519.175516	26364.428031
519.538863	26519.365374
519.902152	26309.620606
520.265385	26572.978045
520.628560	26368.975152
520.991678	26353.236669
521.354739	26420.246207
521.717743	26507.982448
522.080690	26289.511443
522.443580	26623.780273
522.806413	26598.143485
523.169189	26709.502573
523.531908	26748.553872
523.894569	26369.882559
524.257174	26465.137682
524.619722	26608.893745
524.982213	26315.992625
525.344647	26352.583840
525.707025	26507.876584
526.069345	26487.711969
526.431608	26441.224968
526.793815	26631.641952
527.155964	26116.788910
527.518057	26277.818487
527.880093	26206.639915
528.242072	26419.495075
528.603995	26120.801668
528.965860	25930.621619
529.327669	25971.908669
529.689421	25958.955424
530.051117	25803.786188
530.412755	25975.964277
530.774337	25768.835868
531.135862	25647.059236
531.497331	25839.563257
531.858743	25422.208651
532.220098	25879.509360
532.581396	25581.859472
532.942638	25487.710883
533.303824	25596.534271
533.664953	25592.120741
534.026025	25251.540387
534.387040	25496.046431
534.747999	25552.197323
535.108902	25711.810336
535.469748	25211.362391
535.830537	25384.273968
536.191270	25517.065522
536.551947	25360.290678
536.912567	24991.822662
537.273131	25402.291052
537.633638	25075.415075
537.994089	25297.397243
538.354483	24794.438803
538.714821	25318.824667
539.075103	25364.598344
539.435328	25141.708768
539.795497	24718.317380
540.155609	25082.419758
540.515665	25395.165381
540.875665	24605.813950
541.235609	24941.764004
541.595496	24882.941300
541.955328	25232.121862
542.315102	25157.522868
542.674821	24670.617982
543.034483	24555.901486
543.394090	24730.655604
543.753640	24535.656212
544.113134	25166.039897
544.472571	24758.071919
544.831953	25050.282402
545.191278	24701.227869
545.550548	24592.744758
545.909761	24788.785149
546.268918	25031.183991
546.628019	25001.705844
546.987064	24694.099677
547.346053	24435.511170
547.704986	24540.684763
548.063863	24698.639236
548.422684	24719.199582
548.781449	24232.544234
549.140158	24643.431040
549.498811	24229.774120
549.857408	23981.409073
550.215949	24379.874476
550.574434	24064.426794
550.932864	24270.504122
551.291237	24461.616785
551.649555	24297.771723
552.007817	24348.090001
552.366022	24215.961358
552.724173	24236.284770
553.082267	24208.127405
553.440305	24690.041548
553.798288	23930.349746
554.156215	24429.585294
554.514086	24561.295520
554.871902	23936.162196
555.229661	24207.983732
555.587365	24057.139806
555.945014	23948.437406
556.302606	24177.250338
556.660143	24148.256142
557.017625	24397.770572
557.375050	23905.827053
557.732421	24300.171313
558.089735	24117.706749
558.446994	24164.576877
558.804197	24208.104720
559.161345	24120.106338
559.518437	23898.648450
559.875474	24072.202774
560.232455	24264.948771
560.589381	24071.318052
560.946251	24085.145937
561.303065	24383.113417
561.659825	24475.479958
562.016528	24080.054371
562.373177	23808.966323
562.729770	24171.112733
563.086307	24028.984962
563.442789	24202.781262
563.799216	24035.384707
564.155587	24032.614593
564.511904	24026.091340
564.868164	23964.939623
565.224370	23925.187604
565.580520	23872.701631
565.936615	23973.542352
566.292654	23678.801210
566.648638	23934.102885
567.004567	23784.541933
567.360441	23714.059040
567.716260	23438.131484
568.072023	23761.060238
568.427732	23543.206775
568.783385	23312.107679
569.138982	23548.036200
569.494525	23576.455705
569.850013	23344.912988
570.205445	23439.394293
570.560823	23253.463937
570.916145	23020.855016
571.271412	23207.581875
571.626625	22946.520682
571.981782	23059.472775
572.336884	22865.758877
572.691931	23008.320187
573.046923	22735.190472
573.401860	22626.803143
573.756743	22638.609526
574.111570	22539.644114
574.466342	22464.677115
574.821059	22539.888610
575.175722	22254.526535
575.530330	22214.421635
575.884882	22232.572310
576.239380	22153.171616
576.593823	22036.113503
576.948211	22021.156400
577.302544	21874.678113
577.656823	21728.010783
578.011047	21833.907781
578.365216	21713.363710
578.719330	21577.587793
579.073389	21467.289868
579.427394	21629.299949
579.781344	21374.872915
580.135239	21276.827514
580.489080	21223.383721
580.842866	20995.392497
581.196597	21197.613343
581.550273	21169.032521
581.903895	21054.999100
582.257463	21369.816638
582.610975	20904.354300
582.964434	21224.341540
583.317837	20895.675954
583.671186	20994.255717
584.024481	20973.672686
584.377721	20741.159547
584.730906	20815.584622
585.084037	20817.560754
585.437113	20747.687841
585.790135	20944.335691
586.143103	20392.397401
586.496016	20408.748383
586.848874	20654.429016
587.201679	20574.569577
587.554428	20265.020046
587.907124	20594.426682
588.259765	20352.809219
588.612352	20437.556057
588.964884	19993.435444
589.317362	20170.758031
589.669786	20230.810776
590.022155	20242.039946
590.374470	20469.345573
590.726731	20236.184646
591.078937	20012.377580
591.431090	20103.080540
591.783188	19872.735097
592.135232	19832.584828
592.487222	19929.211144
592.839157	19955.062181
593.191038	19827.740279
593.542866	19708.073369
593.894639	19417.387835
594.246358	19646.770418
594.598022	19532.268170
594.949633	19285.614594
595.301190	19267.274877
595.652692	19444.151321
596.004141	19657.006480
596.355535	18989.000664
596.706876	19007.322737
597.058162	18902.668383
597.409395	19138.299476
597.760573	19191.939873
598.111698	18969.715730
598.462768	18920.776208
598.813785	18889.755468
599.164748	18691.771712
599.515657	18742.160566
599.866511	18538.757570
600.217312	18887.781856
600.568060	18408.105985
600.918753	18709.380463
601.269392	18620.013408
601.619978	18410.979443
601.970510	18593.053317
602.320988	18546.289053
602.671412	18758.292258
603.021783	18672.824536
603.372100	18388.175784
603.722363	18537.724133
604.072572	18476.043095
604.422728	18625.286455
604.772830	18381.574393
605.122878	18342.051747
605.472872	18311.693918
605.822813	18304.192681
606.172701	18284.801883
606.522534	18468.269636
606.872314	18501.140480
607.222041	18331.916507
607.571714	18548.721410
607.921333	18378.872334
608.270899	18452.077450
608.620411	18617.112224
608.969870	18404.559534
609.319276	18401.658350
609.668627	18429.482998
610.017926	18566.577177
610.367171	18674.573816
610.716362	18720.390343
611.065500	18531.309265
611.414585	18677.089352
611.763616	18664.615017
612.112594	18607.675184
612.461518	18576.611594
612.810389	18748.028469
613.159207	18617.875959
613.507971	18532.950160
613.856682	18789.159243
614.205340	18715.785249
614.553945	18864.466520
614.902496	18608.789279
615.250994	18818.556732
615.599439	18782.588099
615.947830	18765.251571
616.296169	18837.912242
616.644454	18797.441859
616.992686	18763.585469
617.340864	18983.238625
617.688990	18726.454851
618.037063	18899.883146
618.385082	18754.420652
618.733048	19032.916675
619.080961	18915.170445
619.428821	18949.551114
619.776628	18826.872115
620.124382	18747.720958
620.472083	18810.095155
620.819731	18815.605136
621.167326	18506.902518
621.514868	18540.340492
621.862357	18324.483325
622.209793	18333.552361
622.557176	18169.369542
622.904506	17997.471237
623.251783	17910.019821
623.599007	17662.857089
623.946179	17611.606198
624.293297	17542.123975
624.640363	17287.303730
624.987376	17307.067574
625.334336	17111.523737
625.681243	16952.069520
626.028097	16967.419833
626.374899	16884.961680
626.721647	16751.545023
627.068343	16581.264928
627.414987	16524.935075
627.761577	16496.306363
628.108115	16522.122111
628.454600	16250.713950
628.801032	16351.353025
629.147412	16284.557736
629.493739	16300.528112
629.840014	16111.441993
630.186236	16202.734768
630.532405	15960.623273
630.878521	16165.004252
631.224585	16077.381437
631.570597	15878.419697
631.916556	15921.095585
632.262462	15897.709673
632.608316	15815.317054
632.954117	15754.871099
633.299866	15749.751807
633.645562	15667.144940
633.991206	15418.598411
634.336797	15296.068126
634.682336	15260.659061
635.027823	15139.525175
635.373257	15013.745866
635.718639	14921.366722
636.063968	14868.200193
636.409245	14619.910763
636.754470	14653.363860
637.099642	14499.585983
637.444762	14272.955870
637.789829	14303.497701
638.134845	14143.481395
638.479808	14176.415253
638.824719	14104.029325
639.169577	13963.978510
639.514383	14001.353624
639.859137	13833.450434
640.203839	13920.755657
640.548489	13766.803859
640.893086	13751.793824
641.237632	13630.118014
641.582125	13787.265903
641.926566	13602.111884
642.270955	13618.291467
642.615292	13571.864961
642.959576	13578.622628
643.303809	13611.319551
643.647990	13544.481413
643.992118	13609.235034
644.336195	13377.236093
644.680219	13596.450668
645.024192	13509.750384
645.368112	13749.232918
645.711981	13800.630002
646.055797	13981.153721
646.399562	13960.180000
646.743274	14219.539804
647.086935	14490.007790
647.430544	14455.448160
647.774101	14502.582948
648.117606	14636.198731
648.461059	14616.931441
648.804460	14602.659935
649.147810	14329.419314
649.491108	14230.073295
649.834354	14245.282456
650.177548	13927.339404
650.520690	13746.256116
650.863781	13661.158919
651.206820	13710.118605
651.549807	13544.151217
651.892742	13330.683558
652.235626	13275.389662
652.578458	13274.358746
652.921238	12970.757776
653.263967	13175.385772
653.606644	12999.779699
653.949269	12983.108603
654.291843	12776.234773
654.634365	12947.205505
654.976836	12792.245477
655.319255	12796.699337
655.661622	12747.185124
656.003938	12669.135459
656.346203	12593.800456
656.688416	12677.730627
657.030577	12627.409829
657.372687	12532.348791
657.714746	12519.788756
658.056753	12716.182028
658.398708	12519.060309
658.740612	12526.185980
659.082465	12632.224131
659.424266	12599.585180
659.766016	12638.757466
660.107715	12544.886140
660.449362	12611.598250
660.790958	12561.917679
661.132503	12506.102023
661.473996	12578.863517
661.815438	12593.908841
662.156829	12618.224847
662.498168	12592.963625
662.839456	12592.225096
663.180693	12605.427878
663.521879	12700.773741
663.863013	12674.869772
664.204097	12652.613077
664.545129	12780.585288
664.886110	12744.914084
665.227040	12847.766225
665.567918	12837.749452
665.908746	12865.543854
666.249522	12845.994260
666.590248	12909.933734
666.930922	13030.175336
667.271545	12994.514214
667.612118	13084.869335
667.952639	12974.931852
668.293109	13007.585926
668.633528	12950.938480
668.973896	12934.131273
669.314213	12997.798525
669.654480	12742.033064
669.994695	12825.471722
670.334859	12847.859487
670.674973	12796.240592
671.015035	12823.036845
671.355047	12769.479627
671.695008	12739.313362
672.034918	12744.198240
672.374777	12796.835448
672.714585	12706.833208
673.054342	12741.896953
673.394049	12692.949870
673.733705	12795.474336
674.073310	12690.782174
674.412864	12703.926982
674.752368	12562.371383
675.091820	12593.440014
675.431223	12583.161101
675.770574	12444.320162
676.109875	12369.582536
676.449125	12321.953714
676.788324	12276.114502
677.127473	12104.178389
677.466571	12096.094899
677.805619	11986.971562
678.144616	11911.505489
678.483562	11886.889535
678.822458	11755.411201
679.161303	11733.202398
679.500098	11717.844523
679.838842	11679.292299
680.177535	11713.811600
680.516179	11765.904363
680.854771	11713.703215
681.193314	11931.153386
681.531805	12090.902510
681.870247	12525.500383
682.208638	12933.327209
682.546978	13238.067479
682.885268	13273.378242
683.223508	12969.101757
683.561697	12817.415958
683.899836	12727.945560
684.237925	12516.446471
684.575963	12439.609204
684.913951	12354.471677
685.251889	12307.238586
685.589776	12401.419943
685.927614	12321.444558
686.265401	12299.901187
686.603137	12345.258969
686.940824	12499.283863
687.278460	12630.855458
687.616046	12663.935509
687.953582	12821.169098
688.291068	12759.311619
688.628504	12984.633552
688.965889	13001.871778
689.303224	12956.259418
689.640510	12847.756143
689.977745	12527.973069
690.314930	12311.755460
690.652065	12224.190618
690.989150	11926.036615
691.326185	11705.649972
691.663170	11501.826039
692.000105	11261.032805
692.336990	11141.731379
692.673825	10889.411547
693.010610	10770.750347
693.347345	10559.757894
693.684030	10367.170693
694.020665	10307.306991
694.357251	10110.228123
694.693786	10039.299088
695.030272	9889.891891
695.366707	9768.085011
695.703093	9703.039003
696.039429	9693.826295
696.375716	9610.296896
696.711952	9487.068411
697.048139	9531.843939
697.384276	9486.135797
697.720363	9502.622891
698.056400	9433.123023
698.392388	9384.533862
698.728326	9346.921813
699.064214	9290.944841
699.400053	9325.741405
699.735842	9145.812542
700.071581	9106.113456
700.407270	9034.569400
700.742910	8956.499571
701.078501	8857.763532
701.414042	8726.685970
701.749533	8673.365686
702.084974	8529.622225
702.420366	8650.395669
702.755709	8526.380763
703.091002	8390.118375
703.426246	8423.440402
703.761440	8373.341415
704.096584	8328.235691
704.431679	8257.193230
704.766725	8246.301818
705.101721	8199.862708
705.436668	8254.894464
705.771565	8139.469685
706.106413	8226.144764
706.441212	8260.079291
706.775961	8216.241417
707.110661	8265.967359
707.445311	8398.640446
707.779913	8295.052296
708.114465	8427.309488
708.448967	8462.683264
708.783421	8617.262685
709.117825	8791.880692
709.452180	8824.547369
709.786485	8920.409951
710.120742	9202.671717
710.454949	9203.674906
710.789107	9307.615937
711.123216	9534.051965
711.457275	9696.127581
711.791286	9843.568728
712.125247	9850.583494
712.459159	9827.426954
712.793023	10064.462008
713.126837	9642.754365
713.460602	9805.182863
713.794318	9629.145770
714.127985	9657.414040
714.461602	9322.930962
714.795171	9281.974108
715.128691	9025.568420
715.462162	8781.226214
715.795584	8724.472904
716.128957	8567.370385
716.462281	8401.425683
716.795556	8446.367570
717.128782	8239.970128
717.461960	7983.158628
717.795088	8051.955254
718.128167	7961.433775
718.461198	7800.857902
718.794180	7743.270281
719.127113	7733.949188
719.459997	7569.486584
719.792833	7341.429826
720.125619	7409.487923
720.458357	7263.473422
720.791046	7253.421362
721.123686	7247.608911
721.456278	7087.942966
721.788821	7105.914680
722.121315	7001.232599
722.453761	7072.459062
722.786158	7010.558734
723.118506	7019.897472
723.450805	6985.347924
723.783056	7042.068466
724.115259	6965.851261
724.447412	6963.776826
724.779518	7013.013776
725.111574	7011.360278
725.443582	7091.922957
725.775542	7067.579225
726.107453	7264.902590
726.439315	7174.991090
726.771129	7247.649241
727.102895	7417.825992
727.434612	7525.628546
727.766281	7559.598361
728.097901	7637.267418
728.429473	7641.106257
728.760996	7624.974565
729.092471	7595.080523
729.423897	7534.155658
729.755276	7538.770834
730.086606	7461.701674
730.417887	7559.676499
730.749120	7775.783203
731.080305	7966.250598
731.411442	8073.891835
731.742530	8062.614774
732.073570	8172.610231
732.404562	8260.643900
732.735506	8119.237014
733.066401	8247.030264
733.397249	8176.214656
733.728048	7935.300434
734.058798	7600.013292
734.389501	7373.211780
734.720156	7194.225613
735.050762	6973.823846
735.381320	6884.103910
735.711831	6819.985475
736.042293	6713.418003
736.372707	6730.527679
736.703073	6594.477019
737.033391	6635.554861
737.363661	6646.499206
737.693883	6677.892992
738.024056	6767.534789
738.354182	6798.898328
738.684260	6833.271436
739.014290	6954.584282
739.344272	7062.107053
739.674207	7094.872032
740.004093	7167.769637
740.333931	7177.415885
740.663722	7190.394336
740.993464	7267.987776
741.323159	7243.613797
741.652806	7003.823753
741.982405	7031.194697
742.311956	7077.132212
742.641460	6898.148565
742.970915	6707.451797
743.300323	6697.283790
743.629683	6652.596482
743.958996	6519.807448
744.288260	6425.537871
744.617477	6374.738164
744.946647	6370.874120
745.275768	6208.339758
745.604842	6159.962325
745.933869	6146.169728
746.262847	6106.296722
746.591778	6089.628147
746.920662	6051.960645
747.249498	6045.039141
747.578286	6096.128714
747.907027	6171.993039
748.235720	6225.648560
748.564365	6204.987391
748.892963	6241.913842
749.221514	6385.049844
749.550017	6201.841711
749.878473	6086.348876
750.206881	6146.598226
750.535242	6098.119970
750.863555	6026.722108
751.191821	6037.817688
751.520039	6036.098654
751.848210	5942.522236
752.176334	5971.425692
752.504411	6014.963617
752.832440	5938.779179
753.160421	5871.920877
753.488356	5914.972330
753.816243	5943.469973
754.144082	5799.182068
754.471875	5776.232215
754.799620	5813.824099
755.127318	5827.152910
755.454969	5783.776302
755.782572	5750.217340
756.110129	5792.467251
756.437638	5769.842552
756.765100	5710.175455
757.092515	5715.690478
757.419882	5767.568992
757.747203	5751.180201
758.074477	5813.912319
758.401703	5791.940450
758.728882	5745.609726
759.056014	5815.064223
759.383099	5934.017810
759.710138	5944.858811
760.037129	5930.446152
760.364073	5935.366318
760.690970	6020.231623
761.017820	5991.817159
761.344623	5953.088495
761.671379	6062.156379
761.998088	6184.016191
762.324751	6443.534791
762.651366	7067.795995
762.977935	8420.957634
763.304456	10072.248070
763.630931	10931.459811
763.957359	10500.244552
764.283740	9550.254233
764.610074	8687.249024
764.936362	7688.722476
765.262602	7098.519307
765.588796	6563.292441
765.914943	6229.802470
766.241044	6062.146296
766.567097	5851.047979
766.893104	5591.892342
767.219064	5416.250980
767.544978	5355.663873
767.870845	5273.180514
768.196665	5166.144215
768.522438	5096.483030
768.848165	5062.389707
769.173846	4995.112988
769.499479	4947.753868
769.825066	4898.176641
770.150607	4838.232280
770.476101	4817.613961
770.801548	4810.014422
771.126949	4725.312955
771.452303	4675.007281
771.777611	4634.166373
772.102872	4655.435001
772.428087	4616.860092
772.753256	4574.642949
773.078378	4527.747615
773.403453	4456.569043
773.728482	4445.314667
774.053465	4400.632400
774.378401	4385.902149
774.703291	4379.946025
775.028135	4305.896517
775.352932	4260.127881
775.677683	4248.775202
776.002388	4264.821195
776.327046	4273.774284
776.651658	4203.132595
776.976224	4142.379130
777.300743	4143.077330
777.625216	4167.685722
777.949643	4159.025020
778.274024	4121.730564
778.598359	4078.553081
778.922647	4102.559056
779.246889	4094.583950
779.571086	4082.349070
779.895236	4066.545052
780.219339	4057.281932
780.543397	4050.544430
780.867409	4103.612657
781.191374	4115.035911
781.515294	4051.439235
781.839167	4044.447155
782.162995	4069.216864
782.486776	4055.121798
782.810511	4068.458170
783.134201	4054.242117
783.457844	4012.874408
783.781441	3957.204946
784.104993	3961.598312
784.428498	3978.105570
784.751958	3975.733707
785.075372	3954.563382
785.398739	3923.835028
785.722061	3929.861728
786.045337	3974.153305
786.368568	4000.442923
786.691752	3916.961415
787.014891	3970.896720
787.337983	4104.646093
787.661030	4267.714817
787.984031	4428.487296
788.306987	4595.568778
788.629897	4674.508206
788.952760	4630.725785
789.275579	4569.069953
789.598351	4501.778111
789.921078	4350.117518
790.243759	4150.308865
790.566395	4137.464005
790.888984	4132.995022
791.211529	4023.574257
791.534027	3967.055361
791.856480	3946.747072
792.178888	3887.039646
792.501249	3840.146833
792.823566	3855.078731
793.145836	3876.647308
793.468062	3825.285512
793.790241	3782.286990
794.112375	3811.727328
794.434464	3879.558574
794.756507	3902.755443
795.078505	3877.539592
795.400457	3918.675407
795.722364	4060.435174
796.044226	4164.650948
796.366042	4240.832864
796.687812	4209.509655
797.009538	4214.210531
797.331218	4182.017723
797.652852	4153.865399
797.974442	4126.794403
798.295986	4129.168786
798.617484	4046.022515
798.938938	3962.762818
799.260346	4004.274200
799.581709	3995.469824
799.903026	3918.569543
800.224299	3885.134090
800.545526	3880.665107
800.866708	3841.079447
801.187845	3783.350673
801.508936	3816.133297
801.829983	3805.899755
802.150984	3730.121130
802.471940	3724.593505
802.792851	3736.011718
803.113717	3733.491141
803.434538	3732.387129
803.755314	3674.766740
804.076045	3655.396107
804.396731	3671.895803
804.717372	3702.425031
805.037967	3680.664890
805.358518	3672.034435
805.679024	3702.377140
805.999485	3716.305848
806.319901	3719.322978
806.640272	3732.359402
806.960598	3743.941453
807.280879	3716.764593
807.601115	3731.449474
807.921306	3751.886312
808.241453	3791.237559
808.561554	3759.692538
808.881611	3694.507899
809.201623	3736.387284
809.521590	3747.596290
809.841513	3716.482288
810.161390	3749.401023
810.481223	3720.553020
810.801011	3674.103828
811.120755	3665.647293
811.440453	3699.342365
811.760107	3699.740616
812.079716	3655.529697
812.399281	3625.867548
812.718801	3652.147083
813.038276	3623.072228
813.357707	3625.600367
813.677093	3636.403559
813.996434	3584.487237
814.315731	3595.792024
814.634983	3597.243876
814.954191	3616.619551
815.273354	3644.169457
815.592473	3635.223929
815.911547	3644.945795
816.230577	3692.869524
816.549562	3744.742997
816.868502	3782.302113
817.187399	3803.820279
817.506250	3803.467398
817.825058	3780.026033
818.143821	3875.573542
818.462539	3977.074654
818.781213	4018.346581
819.099843	4080.879573
819.418429	4341.986137
819.736970	4585.509156
820.055466	4838.002908
820.373919	5204.583013
820.692327	5623.694461
821.010691	6100.567450
821.329011	7553.886734
821.647286	10406.126210
821.965517	15083.601135
822.283704	19091.875490
822.601847	21136.549846
822.919945	19248.506661
823.237999	16614.269362
823.556010	14112.755563
823.873976	11982.041313
824.191897	9867.509168
824.509775	8530.534674
824.827609	7395.849081
825.145398	6865.086158
825.463144	6749.978971
825.780845	6850.862542
826.098502	7061.915489
826.416116	7994.269331
826.733685	9351.438687
827.051210	10439.531416
827.368692	10421.547099
827.686129	9111.366338
828.003522	7607.880012
828.320872	6582.975627
828.638177	5870.806782
828.955439	5303.283764
829.272656	4801.141991
829.589830	4525.191750
829.906960	4350.117518
830.224046	4159.183816
830.541088	4034.521123
830.858086	3985.722753
831.175041	3906.221237
831.491952	3895.526429
831.808819	3903.609919
832.125642	3982.438442
832.442421	4137.108603
832.759157	4428.580557
833.075849	4996.315303
833.392497	5885.201796
833.709101	6670.951323
834.025662	6989.869839
834.342179	6583.643579
834.658653	5905.825157
834.975083	5257.676445
835.291469	4675.977703
835.607811	4267.225825
835.924110	4128.964619
836.240366	3924.707148
836.556578	3718.743246
836.872746	3611.235599
837.188871	3568.715987
837.504952	3494.704287
837.820990	3416.576484
838.136984	3374.066954
838.452935	3398.710635
838.768842	3394.655027
839.084706	3419.994387
839.400526	3585.475303
839.716303	3937.337759
840.032037	4486.465606
840.347727	4726.174992
840.663373	4427.272378
840.978977	4034.183365
841.294537	3729.732961
841.610054	3502.190400
841.925527	3396.953793
842.240957	3321.371773
842.556344	3271.252622
842.871687	3211.020916
843.186987	3157.025117
843.502244	3122.984725
843.817458	3086.620362
844.132629	3058.422668
844.447756	3063.993143
844.762840	3048.168961
845.077881	3016.525638
845.392879	2998.347238
845.707833	2996.751713
846.022745	2994.629387
846.337613	2995.972854
846.652438	2984.728561
846.967221	2980.330154
847.281960	2966.267855
847.596656	2963.553194
847.911309	2961.259469
848.225919	2958.186886
848.540485	2952.155145
848.855009	2952.404682
849.169490	2940.099226
849.483928	2931.025149
849.798323	2932.953390
850.112675	2926.203285
850.426984	2938.521344
850.741251	2938.639812
851.055474	2923.458377
851.369654	2920.179106
851.683792	2923.382759
851.997887	2933.981785
852.311938	2936.895572
852.625947	2923.533994
852.939914	2927.955086
853.253837	2932.943308
853.567718	2915.964702
853.881555	2915.654671
854.195350	2932.149326
854.509103	2925.913419
854.822812	2918.742377
855.136479	2915.702562
855.450103	2919.327151
855.763685	2910.633681
856.077224	2907.490522
856.390720	2921.245310
856.704173	2931.574634
857.017584	2924.572472
857.330953	2922.578695
857.644278	2932.000612
857.957561	2940.623506
858.270802	2942.387909
858.584000	2939.751386
858.897155	2929.744696
859.210268	2927.972730
859.523339	2927.488779
859.836367	2927.834098
860.149352	2921.540218
860.462295	2915.891605
860.775195	2920.915115
861.088054	2919.732964
861.400869	2904.801066
861.713642	2902.093967
862.026373	2920.196750
862.339062	2919.601894
862.651708	2928.459201
862.964312	2929.016249
863.276873	2922.394693
863.589392	2929.686722
863.901869	2945.740277
864.214303	2969.650469
864.526696	2985.096565
864.839045	2978.958960
865.151353	2977.449134
865.463619	2977.439052
865.775842	2979.548775
866.088023	2999.393277
866.400162	3000.981241
866.712258	2973.181798
867.024313	2963.764922
867.336325	2972.781026
867.648296	2995.980416
867.960224	2986.719816
868.272110	2973.302785
868.583954	2977.953250
868.895755	2990.961947
869.207515	2981.096409
869.519233	2989.096720
869.830909	2997.341528
870.142542	3006.377796
870.454134	3004.384019
870.765684	3006.410563
871.077191	3006.040038
871.388657	3014.274763
871.700081	3027.492669
872.011463	3037.426262
872.322803	3040.551778
872.634101	3039.382230
872.945357	3058.831002
873.256571	3084.440063
873.567744	3076.868250
873.878874	3069.424986
874.189963	3093.413317
874.501010	3094.892896
874.812015	3083.827563
875.122979	3083.313365
875.433900	3079.494691
875.744780	3087.860486
876.055618	3093.176383
876.366415	3092.316866
876.677169	3101.637959
876.987882	3094.492124
877.298554	3094.025817
877.609183	3117.772172
877.919771	3142.065493
878.230317	3167.800583
878.540822	3220.626834
878.851285	3259.111003
879.161707	3306.802839
879.472087	3417.985487
879.782425	3660.114627
880.092722	4109.785550
880.402977	4651.558353
880.713191	5301.284946
881.023363	6500.638461
881.333494	7802.352604
881.643583	8331.857760
881.953631	8013.087958
882.263637	7350.866866
882.573602	6738.752322
882.883526	6153.365975
883.193408	5585.948822
883.503248	5132.791941
883.813048	4813.641532
884.122806	4495.448942
884.432522	4173.442720
884.742197	3932.457922
885.051831	3740.941967
885.361424	3610.938171
885.670975	3537.382695
885.980485	3446.674693
886.289954	3364.937425
886.599382	3320.028306
886.908768	3281.334929
887.218113	3238.490163
887.527417	3181.399096
887.836680	3129.205509
888.145901	3124.469345
888.455082	3110.943929
888.764221	3058.152966
889.073319	3031.185314
889.382376	3029.536857
889.691392	3033.237063
890.000366	3033.116076
890.309300	3021.279447
890.618193	3031.742361
890.927044	3050.717264
891.235855	3048.967984
891.544625	3034.507434
891.853353	3047.763148
892.162041	3066.763257
892.470687	3108.168774
892.779293	3162.557783
893.087858	3208.182746
893.396381	3281.483643
893.704864	3409.181112
894.013306	3661.818537
894.321707	3971.796566
894.630068	4170.014735
894.938387	4159.763549
895.246665	4118.577322
895.554903	3988.588649
895.863100	3787.789409
896.171256	3614.686269
896.479371	3469.359886
896.787446	3344.946729
897.095480	3244.516862
897.403473	3179.135617
897.711425	3143.545071
898.019336	3134.541571
898.327207	3097.428596
898.635038	3065.379460
898.942827	3050.175340
899.250576	3042.144782
899.558284	3009.052128
899.865952	2986.954230
900.173579	2967.197948
900.481165	2959.369036
900.788711	2943.320523
901.096216	2922.213212
901.403681	2910.255595
901.711105	2919.478386
902.018489	2914.863209
902.325832	2914.689290
902.633135	2926.110024
902.940397	2962.245014
903.247619	3049.272974
903.554800	3253.739653
903.861941	3616.753142
904.169041	4054.287487
904.476101	4350.997199
904.783121	4286.843476
905.090100	4028.103734
905.397039	3748.256681
905.703938	3494.207733
906.010796	3309.383909
906.317614	3200.172352
906.624391	3097.824327
906.931129	3027.343955
907.237826	2963.903554
907.544483	2915.387489
907.851099	2886.935217
908.157675	2866.866384
908.464211	2843.949298
908.770707	2831.530416
909.077163	2821.254024
909.383578	2802.884059
909.689954	2791.937193
909.996289	2791.533901
910.302584	2793.136988
910.608839	2792.128757
910.915054	2784.209105
911.221229	2778.638630
911.527363	2784.914866
911.833458	2789.154477
912.139513	2795.198820
912.445527	2794.195630
912.751502	2805.918834
913.057436	2817.480720
913.363331	2827.888182
913.669186	2851.914321
913.975000	2887.986298
914.280775	2950.635237
914.586510	3021.876823
914.892205	3104.362703
915.197859	3238.260790
915.503475	3442.878704
915.809050	3667.802386
916.114585	3805.899755
916.420081	3820.448525
916.725536	3754.754728
917.030952	3636.882469
917.336328	3503.173425
917.641665	3371.453116
917.946961	3271.749175
918.252218	3196.807382
918.557435	3113.945937
918.862612	3054.440157
919.167750	3004.754544
919.472848	2964.009418
919.777906	2938.942281
920.082925	2910.099319
920.387904	2880.238044
920.692843	2861.570652
920.997743	2849.996162
921.302603	2837.685665
921.607423	2827.371464
921.912204	2811.585091
922.216946	2802.357258
922.521647	2793.847791
922.826310	2785.716410
923.130932	2779.795574
923.435516	2769.814090
923.740059	2762.832092
924.044564	2750.508991
924.349028	2750.138466
924.653454	2740.892990
924.957840	2733.540467
925.262186	2728.544684
925.566493	2725.676267
925.870761	2719.989846
926.174989	2717.779300
926.479178	2712.639843
926.783328	2703.215406
927.087438	2704.929399
927.391509	2705.138607
927.695541	2699.021166
927.999533	2695.988912
928.303486	2695.585620
928.607400	2695.089066
928.911275	2692.596216
929.215110	2693.463294
929.518906	2692.175279
929.822663	2693.546473
930.126381	2692.790300
930.430060	2691.817357
930.733699	2693.072605
931.037299	2692.434899
931.340861	2695.973789
931.644383	2694.930270
931.947866	2694.479087
932.251309	2693.470856
932.554714	2692.046730
932.858080	2691.212419
933.161407	2689.087573
933.464694	2685.803261
933.767943	2683.048270
934.071153	2686.037675
934.374323	2687.232428
934.677455	2687.562624
934.980548	2684.192612
935.283602	2682.226562
935.586617	2685.059691
935.889593	2684.520287
936.192530	2681.677077
936.495428	2683.978363
936.798287	2685.042047
937.101108	2689.183355
937.403890	2693.317101
937.706632	2698.113759
938.009336	2704.274049
938.312002	2713.448949
938.614628	2720.536811
938.917216	2729.252966
939.219765	2730.087277
939.522275	2728.363202
939.824747	2725.572924
940.127179	2721.655947
940.429573	2721.807182
940.731929	2717.721327
941.034246	2714.633620
941.336524	2711.402240
941.638763	2706.540047
941.940964	2705.783874
942.243126	2705.514172
942.545250	2702.885211
942.847335	2700.949408
943.149381	2697.150898
943.451389	2693.324662
943.753359	2689.193437
944.055290	2690.804086
944.357182	2688.235618
944.659036	2687.658406
944.960851	2689.004394
945.262628	2685.165555
945.564367	2685.639423
945.866067	2687.381142
946.167729	2685.581450
946.469352	2686.491378
946.770937	2684.699248
947.072484	2683.842252
947.373992	2684.180009
947.675462	2681.858558
947.976893	2680.260512
948.278286	2678.405368
948.579641	2677.354287
948.880958	2674.947136
949.182236	2678.107940
949.483476	2677.124915
949.784678	2677.124915
950.085841	2678.730522
950.386967	2678.249092
950.688054	2680.431912
950.989103	2678.594411
951.290114	2677.500481
951.591087	2682.014834
951.892021	2684.535411
952.192917	2687.391224
952.493776	2686.708148
952.794596	2690.854497
953.095378	2689.082532
953.396122	2689.682429
953.696828	2686.158662
953.997496	2686.579599
954.298126	2681.417457
954.598718	2678.846469
954.899272	2677.162723
955.199788	2674.828669
955.500266	2672.421518
955.800706	2670.909172
956.101108	2669.444717
956.401472	2666.498162
956.701798	2665.563028
957.002087	2660.549601
957.302337	2662.747544
957.602550	2660.463901
957.902724	2659.150681
958.202861	2656.189003
958.502960	2658.631442
958.803022	2657.040958
959.103045	2657.353509
959.403031	2654.543066
959.702979	2654.603560
960.002889	2652.398055
960.302762	2651.841007
960.602596	2653.383601
960.902393	2650.752118
961.202153	2653.494506
961.501875	2649.756490
961.801559	2654.127171
962.101205	2649.350678
962.400814	2651.760349
962.700385	2647.215749
962.999918	2647.750111
963.299414	2648.493681
963.598873	2646.683907
963.898293	2645.209370
964.197677	2650.767242
964.497022	2649.043167
964.796331	2649.615338
965.095601	2650.323620
965.394835	2648.730616
965.694030	2648.889412
965.993189	2650.023672
966.292309	2647.132570
966.591393	2646.998979
966.890439	2647.498053
967.189447	2645.834473
967.488419	2647.994607
967.787353	2647.150214
968.086249	2647.102323
968.385108	2647.208187
968.683930	2649.191881
968.982714	2648.029895
969.281462	2646.620893
969.580172	2649.053249
969.878844	2647.704741
970.177480	2650.127015
970.476078	2649.282622
970.774639	2650.084165
971.073162	2648.244144
971.371649	2647.558547
971.670098	2648.229021
971.968510	2648.052580
972.266885	2650.920997
972.565223	2651.498209
972.863524	2649.605256
973.161788	2647.230872
973.460014	2649.741367
973.758204	2649.133908
974.056356	2648.866727
974.354471	2647.911428
974.652550	2648.760862
974.950591	2648.944865
975.248595	2647.437560
975.546563	2647.518218
975.844493	2647.908908
976.142386	2647.782879
976.440243	2646.759524
976.738062	2645.650471
977.035845	2649.738846
977.333590	2646.076448
977.631299	2646.603249
977.928971	2645.078300
978.226606	2639.633853
978.524204	2641.635192
978.821765	2643.354225
979.119290	2647.419916
979.416777	2644.206180
979.714228	2646.429329
980.011642	2646.941006
980.309020	2646.467137
980.606360	2645.584936
980.903664	2647.276243
981.200931	2648.324803
981.498162	2646.336067
981.795356	2648.546613
982.092513	2649.718682
982.389633	2653.166831
982.686717	2655.087511
982.983764	2657.653458
983.280775	2665.121927
983.577749	2666.462874
983.874686	2665.845333
984.171587	2661.653613
984.468451	2658.802841
984.765279	2657.489620
985.062070	2655.485762
985.358824	2651.490647
985.655543	2650.026192
985.952224	2647.145173
986.248869	2648.002169
986.545478	2647.553506
986.842050	2648.760862
987.138586	2646.421767
987.435086	2644.480923
987.731549	2644.329688
988.027975	2643.843217
988.324366	2643.888587
988.620719	2642.777013
988.917037	2643.611324
989.213318	2646.033598
989.509563	2643.646612
989.805772	2644.007054
990.101944	2642.958494
990.398080	2643.530665
990.694180	2642.688793
990.990244	2642.736684
991.286271	2645.020326
991.582262	2642.550161
991.878217	2640.871457
992.174136	2643.714667
992.470019	2643.870943
992.765865	2640.384985
993.061676	2639.969090
993.357450	2639.354069
993.653188	2636.742752
993.948890	2644.934627
994.244556	2641.408340
994.540186	2643.543268
994.835780	2642.822383
995.131337	2644.196098
995.426859	2645.214411
995.722345	2644.985038
996.017795	2644.808598
996.313208	2646.462096
996.608586	2648.193733
996.903928	2650.749598
997.199234	2649.128867
997.494504	2648.097951
997.789738	2646.341109
998.084936	2647.324134
998.380099	2645.411016
998.675225	2642.356077
998.970316	2645.032929
999.265371	2645.484112
999.560390	2645.254740
999.855373	2642.048566
1000.150320	2641.199132
1000.445232	2642.023360
1000.740108	2641.239461
1001.034948	2641.952784
1001.329752	2643.182826
1001.624521	2641.922537
1001.919254	2641.365490
1002.213951	2643.313896
1002.508613	2640.004378
1002.803239	2641.052938
1003.097829	2642.887918
1003.392384	2638.749131
1003.686903	2641.433545
1003.981386	2639.890952
1004.275834	2639.928761
1004.570246	2638.892804
1004.864623	2641.998155
1005.158964	2640.049749
1005.453270	2640.135448
1005.747540	2642.030922
1006.041775	2638.217289
1006.335974	2641.519245
1006.630138	2641.080665
1006.924266	2641.655356
1007.218359	2644.450676
1007.512416	2636.793163
1007.806438	2636.548667
1008.100425	2637.357773
1008.394376	2634.494397
1008.688292	2640.979842
1008.982172	2640.952115
1009.276017	2641.685603
1009.569827	2640.327012
1009.863602	2641.499080
1010.157341	2639.389357
1010.451045	2639.066724
1010.744714	2640.319450
1011.038347	2639.159985
1011.331945	2639.659059
1011.625508	2639.820376
1011.919036	2638.582773
1012.212528	2639.142341
1012.505986	2640.881539
1012.799408	2640.518576
1013.092795	2640.437917
1013.386147	2640.621920
1013.679464	2639.863226
1013.972745	2640.140489
1014.265992	2639.149903
1014.559204	2639.220479
1014.852380	2638.469347
1015.145521	2637.561939
1015.438628	2638.202166
1015.731699	2639.036477
1016.024736	2637.357772
1016.317737	2637.745941
1016.610703	2640.977321
1016.903635	2639.190232
1017.196531	2639.936323
1017.489393	2638.391209
1017.782219	2641.229379
1018.075011	2637.798873
1018.367768	2639.444810
1018.660490	2636.329377
1018.953177	2636.329377
1019.245829	2636.329377
