Dividing Wavelength (nm)	Counts (n)	Blue Motor Position (mm): 13.400000	Red Motor Position (mm): 0.000000	
326.493990	2166.761020
326.888308	2166.761020
327.282561	2166.761020
327.676750	2128.407921
328.070874	2124.773249
328.464933	2125.552108
328.858929	2127.707201
329.252859	2132.249281
329.646726	2140.758748
330.040528	2156.535039
330.434265	2166.587100
330.827938	2185.609894
331.221547	2204.136134
331.615091	2221.633979
332.008571	2238.237020
332.401986	2256.848960
332.795338	2277.671446
333.188625	2291.307767
333.581847	2311.648823
333.975006	2331.521051
334.368100	2351.317662
334.761129	2366.375589
335.154095	2384.985008
335.546996	2404.033008
335.939833	2430.204158
336.332606	2445.120932
336.725315	2458.391770
337.117960	2471.695375
337.510540	2480.993783
337.903056	2492.109527
338.295508	2502.980776
338.687896	2514.071314
339.080220	2516.722961
339.472480	2525.658406
339.864676	2532.355579
340.256807	2536.358255
340.648875	2540.396219
341.040879	2543.224307
341.432818	2547.768907
341.824694	2550.695297
342.216506	2548.008362
342.608253	2550.975081
342.999937	2548.923331
343.391557	2551.554813
343.783113	2549.687066
344.174605	2549.775286
344.566033	2548.532642
344.957397	2546.559030
345.348697	2545.933927
345.739934	2544.822352
346.131106	2543.282280
346.522215	2543.340253
346.913260	2537.832793
347.304241	2537.305992
347.695159	2533.368851
348.086012	2532.557225
348.476802	2534.208203
348.867528	2528.103366
349.258191	2524.400638
349.648789	2521.791841
350.039324	2517.786644
350.429796	2525.537418
350.820203	2522.295957
351.210548	2522.669002
351.600828	2516.959895
351.991045	2519.803106
352.381198	2518.794875
352.771288	2521.398631
353.161314	2517.958044
353.551276	2517.479134
353.941175	2514.860255
354.331010	2514.139370
354.720782	2516.039885
355.110490	2514.837569
355.500135	2516.112981
355.889717	2515.301356
356.279235	2515.863444
356.668689	2516.591891
357.058080	2513.536952
357.447408	2517.317817
357.836672	2514.562827
358.225873	2517.955523
358.615010	2516.808661
359.004084	2516.334792
359.393095	2515.450070
359.782043	2519.535925
360.170927	2518.270595
360.559748	2519.914011
360.948505	2519.198167
361.337199	2518.910822
361.725830	2519.301511
362.114398	2523.001718
362.502903	2518.681449
362.891344	2523.089938
363.279722	2520.927283
363.668037	2524.909795
364.056289	2525.665968
364.444478	2525.837367
364.832603	2525.086235
365.220665	2528.209230
365.608665	2526.061698
365.996601	2525.166894
366.384474	2525.363499
366.772284	2527.667306
367.160031	2529.232584
367.547715	2528.983047
367.935336	2525.209743
368.322893	2524.448529
368.710388	2521.796882
369.097820	2526.134795
369.485189	2525.305525
369.872495	2527.352234
370.259738	2527.863911
370.646918	2528.957841
371.034035	2531.261649
371.421090	2530.021525
371.808081	2533.141999
372.195010	2529.003212
372.581875	2532.756351
372.968678	2531.405322
373.355418	2531.072605
373.742096	2533.998995
374.128710	2530.036648
374.515262	2533.497400
374.901751	2533.278110
375.288177	2533.686444
375.674540	2532.758871
376.060841	2532.020342
376.447079	2533.777184
376.833254	2533.734335
377.219367	2533.767102
377.605417	2535.440765
377.991404	2532.821886
378.377329	2535.428162
378.763191	2535.034952
379.148991	2533.706608
379.534727	2534.150230
379.920402	2535.332380
380.306013	2537.031249
380.691563	2533.910775
381.077049	2533.711649
381.462474	2533.535209
381.847835	2536.862371
382.233134	2536.312885
382.618371	2536.368338
383.003545	2538.190715
383.388657	2539.506456
383.773706	2536.975797
384.158693	2537.305992
384.543618	2539.130890
384.928480	2538.049562
385.313280	2538.016795
385.698017	2538.747762
386.082692	2538.755324
386.467305	2538.024357
386.851856	2539.040149
387.236344	2539.070396
387.620770	2535.919675
388.005133	2536.257432
388.389435	2536.249870
388.773674	2536.207021
389.157851	2536.993441
389.541965	2540.229861
389.926018	2540.270191
390.310008	2540.794471
390.693936	2544.063659
391.077802	2540.771785
391.461606	2539.937474
391.845348	2542.347146
392.229027	2544.550130
392.612645	2539.589635
392.996200	2542.090047
393.379694	2543.337733
393.763125	2542.082485
394.146494	2542.516025
394.529801	2541.825387
394.913047	2541.076775
395.296230	2542.062321
395.679351	2544.202291
396.062410	2544.146838
396.445408	2544.043494
396.828343	2545.094575
397.211217	2545.848227
397.594028	2543.811601
397.976778	2545.684390
398.359466	2543.458720
398.742092	2544.139276
399.124656	2544.046015
399.507158	2548.502395
399.889598	2545.777651
400.271977	2547.589946
400.654294	2544.983669
401.036549	2547.587425
401.418742	2545.379400
401.800874	2544.761859
402.182944	2545.553320
402.564952	2547.095913
402.946898	2548.565409
403.328783	2547.116077
403.710606	2547.683207
404.092367	2547.408464
404.474067	2546.614483
404.855705	2547.315203
405.237282	2548.358722
405.618797	2549.893753
406.000250	2551.136398
406.381642	2549.029195
406.762972	2545.283618
407.144240	2544.114070
407.525447	2547.310162
407.906593	2546.168341
408.287677	2548.676315
408.668700	2547.400903
409.049661	2548.852755
409.430560	2550.385266
409.811399	2548.124308
410.192176	2550.576830
410.572891	2548.562889
410.953545	2550.811243
411.334138	2550.085317
411.714669	2551.585060
412.095139	2550.740667
412.475547	2551.320400
412.855894	2552.696635
413.236180	2552.492468
413.616405	2551.632951
413.996568	2548.749411
414.376670	2549.104813
414.756711	2552.628579
415.136691	2553.553631
415.516609	2552.205122
415.896466	2554.967675
416.276262	2551.088507
416.655997	2554.075390
417.035670	2554.786193
417.415283	2556.583364
417.794834	2555.159238
418.174324	2553.599001
418.553753	2554.110678
418.933121	2554.420709
419.312428	2554.816440
419.691674	2554.072870
420.070859	2555.630586
420.449983	2554.987839
420.829045	2555.123950
421.208047	2554.511450
421.586988	2554.607232
421.965867	2554.524053
422.344686	2555.370967
422.723444	2557.357182
423.102141	2556.739640
423.480777	2555.849877
423.859352	2554.332489
424.237866	2556.979095
424.616319	2555.149156
424.994712	2556.036399
425.373044	2558.612429
425.751314	2554.539177
426.129524	2550.980122
426.507673	2554.113199
426.885762	2552.419371
427.263789	2556.785011
427.641756	2555.469269
428.019662	2557.889023
428.397508	2554.297201
428.775292	2557.074877
429.153016	2557.697459
429.530679	2555.673436
429.908282	2556.613611
430.285824	2559.474466
430.663305	2555.998591
431.040726	2556.351471
431.418086	2556.306101
431.795385	2557.785680
432.172624	2555.325597
432.549802	2559.144271
432.926920	2557.251317
433.303977	2558.713252
433.680974	2558.471277
434.057910	2558.239383
434.434786	2556.238045
434.811601	2554.657644
435.188355	2557.909188
435.565050	2558.443550
435.941683	2559.030845
436.318257	2557.805844
436.694770	2558.156204
437.071222	2559.083777
437.447614	2557.886503
437.823946	2563.809858
438.200218	2559.406411
438.576429	2561.750547
438.952580	2560.318859
439.328670	2559.923129
439.704700	2558.856925
440.080670	2560.298695
440.456580	2559.396328
440.832429	2560.119734
441.208218	2557.483210
441.583947	2562.519323
441.959616	2561.407749
442.335224	2558.163766
442.710773	2561.289282
443.086261	2560.676781
443.461689	2560.465053
443.837057	2562.249621
444.212365	2561.669889
444.587612	2561.720300
444.962800	2556.989177
445.337927	2557.153015
445.712995	2557.720145
446.088002	2560.560835
446.462949	2560.704508
446.837837	2561.523695
447.212664	2561.841288
447.587431	2562.743654
447.962139	2564.404715
448.336786	2563.910682
448.711374	2564.331618
449.085901	2560.732234
449.460369	2561.932029
449.834776	2563.207441
450.209124	2563.913202
450.583412	2563.487225
450.957640	2561.440516
451.331808	2565.483522
451.705917	2562.078222
452.079965	2561.856411
452.453954	2561.717780
452.827883	2561.742985
453.201752	2564.543346
453.575562	2563.588048
453.949311	2561.165773
454.323001	2566.070816
454.696632	2562.809189
455.070202	2563.993861
455.443713	2564.646690
455.817164	2567.497463
456.190556	2564.830692
456.563888	2569.866805
456.937160	2566.153995
457.310373	2564.029149
457.683526	2564.800445
458.056619	2564.722307
458.429653	2563.492266
458.802628	2565.612071
459.175542	2563.489745
459.548398	2564.654252
459.921194	2566.378326
460.293930	2567.023594
460.666607	2566.572411
461.039224	2568.051989
461.411782	2566.859757
461.784280	2565.836402
462.156719	2568.278841
462.529099	2567.005950
462.901419	2568.823286
463.273680	2566.385888
463.645882	2564.805486
464.018024	2567.368913
464.390106	2563.794735
464.762130	2566.761454
465.134094	2569.599624
465.505999	2570.081054
465.877845	2569.854202
466.249631	2568.770354
466.621358	2571.222875
466.993026	2569.612227
467.364634	2575.003741
467.736184	2572.508369
468.107674	2571.845458
468.479105	2568.815724
468.850477	2570.018039
469.221790	2569.723132
469.593043	2571.585838
469.964238	2571.583318
470.335373	2567.429407
470.706449	2568.719942
471.077467	2569.967628
471.448425	2573.209090
471.819324	2571.520303
472.190164	2577.352918
472.560945	2571.628688
472.931667	2571.059038
473.302330	2570.244891
473.672934	2575.555747
474.043479	2575.013823
474.413965	2573.945098
474.784393	2572.291600
475.154761	2572.147927
475.525070	2572.589028
475.895321	2573.090623
476.265513	2574.366035
476.635645	2573.940057
477.005719	2573.141034
477.375734	2573.181363
477.745691	2573.783781
478.115588	2573.733370
478.485427	2575.807805
478.855207	2574.676066
479.224928	2577.055490
479.594591	2579.006417
479.964194	2575.775037
480.333739	2578.867785
480.703226	2579.676890
481.072653	2577.327712
481.442022	2578.958526
481.811333	2575.676735
482.180584	2576.057342
482.549777	2575.969122
482.918912	2575.638926
483.287988	2579.092116
483.657005	2578.509863
484.025964	2580.816191
484.394864	2575.681776
484.763706	2580.511201
485.132489	2577.557085
485.501213	2576.725295
485.869879	2575.787640
486.238487	2580.730491
486.607036	2579.442477
486.975527	2578.807291
487.343959	2577.194122
487.712333	2579.787796
488.080648	2579.089596
488.448905	2578.603124
488.817104	2578.444328
489.185244	2579.765110
489.553326	2579.623958
489.921350	2580.085224
490.289315	2580.899370
490.657222	2582.320975
491.025070	2580.695203
491.392861	2583.747622
491.760593	2582.764597
492.128267	2583.808116
492.495883	2581.532035
492.863440	2580.894329
493.230939	2583.755184
493.598380	2582.754515
493.965763	2580.884247
494.333088	2583.654361
494.700354	2581.443815
495.067563	2578.419122
495.434713	2579.308886
495.801805	2581.138825
496.168839	2579.639082
496.535815	2581.476582
496.902733	2582.464648
497.269593	2581.252251
497.636395	2582.570512
498.003139	2582.918352
498.369825	2580.899370
498.736453	2582.351222
499.103023	2582.890626
499.469535	2583.228383
499.835989	2583.006572
500.202385	2581.254771
500.568723	2577.867116
500.935003	2579.497929
501.301226	2579.807960
501.667390	2586.144691
502.033497	2584.322313
502.399546	2581.857189
502.765537	2582.638568
503.131470	2583.440112
503.497345	2580.818712
503.863163	2584.410534
504.228923	2585.663260
504.594625	2584.251737
504.960269	2583.611511
505.325856	2587.099989
505.691385	2584.186202
506.056856	2588.042685
506.422270	2585.325503
506.787625	2585.670822
507.152924	2585.726275
507.518164	2585.648137
507.883347	2585.305338
508.248472	2587.732654
508.613540	2588.181317
508.978550	2588.748447
509.343503	2590.376739
509.708398	2589.716348
510.073236	2590.422110
510.438016	2589.602922
510.802738	2594.785228
511.167403	2591.848756
511.532010	2593.991247
511.896561	2594.230701
512.261053	2593.562748
512.625488	2594.601226
512.989866	2593.953438
513.354186	2595.614498
513.718449	2594.228181
514.082655	2601.709253
514.446803	2598.840837
514.810894	2600.758996
515.174927	2602.977103
515.538904	2599.707915
515.902822	2602.528441
516.266684	2600.635487
516.630488	2604.403750
516.994235	2601.623553
517.357925	2603.728235
517.721558	2608.587907
518.085133	2606.957094
518.448651	2602.941815
518.812112	2600.471650
519.175516	2604.567587
519.538863	2605.038935
519.902152	2606.805860
520.265385	2612.930862
520.628560	2612.119236
520.991678	2610.803495
521.354739	2611.625203
521.717743	2613.339195
522.080690	2613.830707
522.443580	2615.703496
522.806413	2616.925976
523.169189	2617.551079
523.531908	2620.759773
523.894569	2616.994032
524.257174	2620.389249
524.619722	2620.444701
524.982213	2622.859414
525.344647	2624.538118
525.707025	2623.481997
526.069345	2623.396297
526.431608	2621.712552
526.793815	2623.562655
527.155964	2623.996194
527.518057	2626.173973
527.880093	2629.312091
528.242072	2628.074488
528.603995	2630.577421
528.965860	2630.862246
529.327669	2630.973151
529.689421	2631.643625
530.051117	2633.813841
530.412755	2635.449696
530.774337	2635.386681
531.135862	2633.463481
531.497331	2638.055972
531.858743	2635.648821
532.220098	2638.615540
532.581396	2640.200983
532.942638	2638.507156
533.303824	2642.900521
533.664953	2643.467651
534.026025	2640.846251
534.387040	2643.356746
534.747999	2645.486633
535.108902	2646.051242
535.469748	2646.847745
535.830537	2646.336067
536.191270	2651.188178
536.551947	2647.203146
536.912567	2647.182981
537.273131	2651.415030
537.633638	2648.372694
537.994089	2652.249341
538.354483	2654.953920
538.714821	2659.775784
539.075103	2656.715803
539.435328	2657.086328
539.795497	2661.330980
540.155609	2662.692091
540.515665	2665.502534
540.875665	2662.465239
541.235609	2661.683860
541.595496	2664.980775
541.955328	2664.461536
542.315102	2670.326919
542.674821	2667.750889
543.034483	2670.226096
543.394090	2673.417146
543.753640	2672.449244
544.113134	2677.503001
544.472571	2678.024761
544.831953	2679.675738
545.191278	2678.622137
545.550548	2680.694052
545.909761	2684.474917
546.268918	2685.200843
546.628019	2688.356605
546.987064	2692.757533
547.346053	2689.329548
547.704986	2690.552028
548.063863	2696.924046
548.422684	2695.759540
548.781449	2696.578727
549.140158	2697.229036
549.498811	2701.289686
549.857408	2700.525951
550.215949	2705.362938
550.574434	2705.947712
550.932864	2710.031046
551.291237	2712.080275
551.649555	2717.993549
552.007817	2717.527242
552.366022	2717.549927
552.724173	2716.816439
553.082267	2719.989846
553.440305	2726.676936
553.798288	2727.344889
554.156215	2734.427710
554.514086	2737.291086
554.871902	2732.839747
555.229661	2741.762589
555.587365	2740.020871
555.945014	2747.824577
556.302606	2753.480751
556.660143	2754.171389
557.017625	2763.951228
557.375050	2761.907040
557.732421	2766.741507
558.089735	2771.215531
558.446994	2776.662497
558.804197	2784.539300
559.161345	2791.042389
559.518437	2784.917387
559.875474	2794.740075
560.232455	2799.962710
560.589381	2803.826755
560.946251	2805.933957
561.303065	2818.728406
561.659825	2827.676454
562.016528	2828.198213
562.373177	2830.353306
562.729770	2837.186590
563.086307	2848.115812
563.442789	2857.762060
563.799216	2861.885724
564.155587	2869.986858
564.511904	2881.901625
564.868164	2881.044629
565.224370	2894.330590
565.580520	2894.749006
565.936615	2912.128383
566.292654	2910.928589
566.648638	2927.763522
567.004567	2931.229315
567.360441	2942.115687
567.716260	2948.860751
568.072023	2967.976806
568.427732	2974.502580
568.783385	2981.073724
569.138982	2997.462515
569.494525	3011.761748
569.850013	3024.820857
570.205445	3031.568442
570.560823	3035.598844
570.916145	3053.663819
571.271412	3060.348389
571.626625	3082.456369
571.981782	3095.608739
572.336884	3102.847836
572.691931	3117.240331
573.046923	3120.842235
573.401860	3142.229330
573.756743	3169.368382
574.111570	3181.086544
574.466342	3194.135571
574.821059	3215.111812
575.175722	3218.905280
575.530330	3242.898652
575.884882	3259.325252
576.239380	3281.299641
576.593823	3294.373874
576.948211	3308.247129
577.302544	3321.651557
577.656823	3330.730675
578.011047	3359.533308
578.365216	3378.014178
578.719330	3399.474370
579.073389	3412.604055
579.427394	3453.714665
579.781344	3454.498564
580.135239	3479.119559
580.489080	3494.719410
580.842866	3505.459588
581.196597	3561.570151
581.550273	3566.165163
581.903895	3607.477419
582.257463	3643.471257
582.610975	3653.223369
582.964434	3698.306408
583.317837	3715.073286
583.671186	3749.980756
584.024481	3788.391827
584.377721	3795.489772
584.730906	3828.405986
585.084037	3863.583158
585.437113	3889.834966
585.790135	3927.504988
586.143103	3933.418262
586.496016	3951.309317
586.848874	4016.924975
587.201679	4038.934653
587.554428	4052.507960
587.907124	4112.807721
588.259765	4135.873521
588.612352	4192.934341
588.964884	4189.095503
589.317362	4238.962596
589.669786	4280.942805
590.022155	4317.932271
590.374470	4378.889904
590.726731	4401.459149
591.078937	4412.413577
591.431090	4462.315959
591.783188	4467.248728
592.135232	4494.798633
592.487222	4567.996187
592.839157	4594.273202
593.191038	4639.681395
593.542866	4643.321108
593.894639	4670.003935
594.246358	4733.358636
594.598022	4754.660032
594.949633	4774.194503
595.301190	4799.352381
595.652692	4865.842680
596.004141	4927.427936
596.355535	4889.707502
596.706876	4933.575623
597.058162	4967.711796
597.409395	5020.414539
597.760573	5087.386268
598.111698	5098.108802
598.462768	5135.375532
598.813785	5173.988250
599.164748	5189.938461
599.515657	5234.958485
599.866511	5248.831741
600.217312	5347.255228
600.568060	5315.117873
600.918753	5425.980407
601.269392	5467.706038
601.619978	5460.666066
601.970510	5564.171037
602.320988	5587.761117
602.671412	5674.015259
603.021783	5704.715886
603.372100	5707.246545
603.722363	5784.948370
604.072572	5827.586449
604.422728	5886.822527
604.772830	5918.758237
605.122878	5926.168733
605.472872	5999.981308
605.822813	6056.943826
606.172701	6099.108036
606.522534	6191.701430
606.872314	6250.723259
607.222041	6243.363174
607.571714	6357.593200
607.921333	6383.978599
608.270899	6453.317150
608.620411	6563.055507
608.969870	6534.951074
609.319276	6599.934068
609.668627	6679.077663
610.017926	6764.522700
610.367171	6842.113619
610.716362	6936.499143
611.065500	6924.191166
611.414585	7025.818307
611.763616	7074.707417
612.112594	7132.123638
612.461518	7162.478946
612.810389	7275.390710
613.159207	7280.283150
613.507971	7316.173645
613.856682	7496.490677
614.205340	7529.936212
614.553945	7660.786922
614.902496	7595.816531
615.250994	7772.398068
615.599439	7805.377296
615.947830	7856.300512
616.296169	7913.532732
616.644454	7989.165163
616.992686	8009.183585
617.340864	8161.174373
617.688990	8155.394690
618.037063	8293.018190
618.385082	8298.918861
618.733048	8447.612735
619.080961	8456.212943
619.428821	8553.436636
619.776628	8590.287471
620.124382	8604.362372
620.472083	8696.025673
620.819731	8771.078371
621.167326	8704.792239
621.514868	8762.987319
621.862357	8742.197601
622.209793	8803.387126
622.557176	8794.010580
622.904506	8758.377184
623.251783	8778.745966
623.599007	8772.179863
623.946179	8806.863002
624.293297	8834.599430
624.640363	8799.016446
624.987376	8835.090943
625.334336	8803.959297
625.681243	8797.672978
626.028097	8835.302671
626.374899	8908.759844
626.721647	8857.239252
627.068343	8845.364814
627.414987	8865.090849
627.761577	8938.162374
628.108115	9012.872274
628.454600	8911.454341
628.801032	8986.436463
629.147412	9013.789764
629.493739	9076.854599
629.840014	9051.936175
630.186236	9131.677147
630.532405	9071.548784
630.878521	9222.906908
631.224585	9211.339981
631.570597	9198.164925
631.916556	9230.294719
632.262462	9270.487839
632.608316	9307.041245
632.954117	9309.796236
633.299866	9368.684474
633.645562	9382.993790
633.991206	9287.216908
634.336797	9243.142100
634.682336	9307.527717
635.027823	9278.931771
635.373257	9287.632803
635.718639	9248.631916
636.063968	9259.031817
636.409245	9188.712762
636.754470	9240.712263
637.099642	9207.980052
637.444762	9110.408519
637.789829	9195.488072
638.134845	9145.689034
638.479808	9197.307929
638.824719	9214.157986
639.169577	9164.709308
639.514383	9233.919309
639.859137	9164.656375
640.203839	9252.627031
640.548489	9184.904170
640.893086	9245.602183
641.237632	9166.186366
641.582125	9328.720727
641.926566	9270.069423
642.270955	9297.420203
642.615292	9315.278491
642.959576	9356.731899
643.303809	9434.620246
643.647990	9402.364423
643.992118	9501.039969
644.336195	9373.536585
644.680219	9528.521819
645.024192	9544.280466
645.368112	9710.522596
645.711981	9792.912694
646.055797	9935.635321
646.399562	9956.745153
646.743274	10141.102670
647.086935	10369.419048
647.430544	10381.396829
647.774101	10408.717363
648.117606	10570.982023
648.461059	10560.461135
648.804460	10632.882351
649.147810	10489.751390
649.491108	10431.979767
649.834354	10508.111273
650.177548	10337.004429
650.520690	10244.158978
650.863781	10218.857427
651.206820	10276.709708
651.549807	10202.811434
651.892742	10107.589079
652.235626	10085.350029
652.578458	10124.373601
652.921238	9936.240260
653.263967	10101.315363
653.606644	10015.794708
653.949269	10013.800932
654.291843	9928.938148
654.634365	10048.715964
654.976836	9979.997475
655.319255	10010.259522
655.661622	10006.526547
656.003938	9978.301127
656.346203	9960.024423
656.688416	10029.272233
657.030577	10027.956492
657.372687	10007.897741
657.714746	10012.926292
658.056753	10166.361371
658.398708	10076.422145
658.740612	10098.900650
659.082465	10203.628101
659.424266	10184.244864
659.766016	10238.228060
660.107715	10188.965905
660.449362	10264.999108
660.790958	10268.452298
661.132503	10249.610986
661.473996	10314.909051
661.815438	10359.228355
662.156829	10388.000741
662.498168	10405.009594
662.839456	10419.386965
663.180693	10453.155134
663.521879	10559.641947
663.863013	10565.346013
664.204097	10572.030583
664.545129	10684.513848
664.886110	10670.007928
665.227040	10767.019893
665.567918	10796.785386
665.908746	10854.753614
666.249522	10839.894813
666.590248	10896.023020
666.930922	11011.898982
667.271545	11022.553461
667.612118	11106.481111
667.952639	11065.040305
668.293109	11072.644886
668.633528	11075.641852
668.973896	11067.467621
669.314213	11183.517503
669.654480	10980.701802
669.994695	11035.882272
670.334859	11094.387382
670.674973	11066.499719
671.015035	11129.798968
671.355047	11090.646846
671.695008	11081.000598
672.034918	11108.769794
672.374777	11156.252423
672.714585	11100.522467
673.054342	11148.426031
673.394049	11119.225147
673.733705	11212.065557
674.073310	11170.453353
674.412864	11198.719102
674.752368	11113.891607
675.091820	11119.439397
675.431223	11155.839048
675.770574	11060.299100
676.109875	11004.584268
676.449125	11005.395894
676.788324	10955.059973
677.127473	10839.151243
677.466571	10846.186173
677.805619	10779.300144
678.144616	10724.346526
678.483562	10704.658299
678.822458	10602.060736
679.161303	10597.445560
679.500098	10615.815524
679.838842	10575.458567
680.177535	10607.865625
680.516179	10669.241673
680.854771	10644.683692
681.193314	10859.197391
681.531805	10980.669034
681.870247	11345.555311
682.208638	11695.902901
682.546978	11996.123777
682.885268	12088.006367
683.223508	11823.986017
683.561697	11694.088085
683.899836	11612.373502
684.237925	11452.760489
684.575963	11397.905173
684.913951	11340.882162
685.251889	11276.990578
685.589776	11388.528627
685.927614	11335.233549
686.265401	11292.282918
686.603137	11341.295536
686.940824	11487.733494
687.278460	11594.794998
687.616046	11652.112918
687.953582	11805.918522
688.291068	11734.707182
688.628504	11929.320927
688.965889	11950.529061
689.303224	11949.092332
689.640510	11879.463915
689.977745	11618.957249
690.314930	11419.872001
690.652065	11358.513597
690.989150	11101.316448
691.326185	10910.468446
691.663170	10735.071580
692.000105	10524.109374
692.336990	10441.394122
692.673825	10211.235202
693.010610	10110.049162
693.347345	9920.121170
693.684030	9737.238191
694.020665	9698.668323
694.357251	9517.043112
694.693786	9494.834308
695.030272	9321.355602
695.366707	9215.922389
695.703093	9159.872320
696.039429	9160.865428
696.375716	9108.805432
696.711952	8980.916400
697.048139	9019.229169
697.384276	8979.545206
697.720363	8996.004573
698.056400	8946.140000
698.392388	8898.367506
698.728326	8866.683854
699.064214	8809.857447
699.400053	8865.655458
699.735842	8690.314045
700.071581	8649.959609
700.407270	8590.731092
700.742910	8522.703242
701.078501	8441.676776
701.414042	8329.485897
701.749533	8263.703881
702.084974	8140.853482
702.420366	8243.877023
702.755709	8139.661249
703.091002	8021.456274
703.426246	8048.292856
703.761440	8004.276021
704.096584	7963.067109
704.431679	7896.634784
704.766725	7889.219247
705.101721	7844.070673
705.436668	7892.780822
705.771565	7783.506250
706.106413	7870.481278
706.441212	7917.777383
706.775961	7868.953808
707.110661	7900.445896
707.445311	8054.203609
707.779913	7959.422355
708.114465	8081.057836
708.448967	8127.154146
708.783421	8257.563755
709.117825	8436.476826
709.452180	8472.654666
709.786485	8556.320176
710.120742	8818.949168
710.454949	8823.715579
710.789107	8922.128984
711.123216	9120.581567
711.457275	9276.517059
711.791286	9438.355741
712.125247	9429.808465
712.459159	9419.935365
712.793023	9675.670579
713.126837	9261.708669
713.460602	9407.322398
713.794318	9239.671265
714.127985	9273.147047
714.461602	8986.310435
714.795171	8940.171274
715.128691	8704.419194
715.462162	8449.152807
715.795584	8402.665807
716.128957	8283.137529
716.462281	8109.005993
716.795556	8156.970051
717.128782	7967.057182
717.461960	7695.472581
717.795088	7768.730628
718.128167	7675.607914
718.461198	7518.941455
718.794180	7460.942980
719.127113	7453.963503
719.459997	7319.399983
719.792833	7088.444561
720.125619	7144.482027
720.458357	7011.229208
720.791046	6993.733883
721.123686	6998.649008
721.456278	6848.725093
721.788821	6861.867381
722.121315	6752.106338
722.453761	6817.016235
722.786158	6769.284070
723.118506	6783.737058
723.450805	6757.386947
723.783056	6823.700805
724.115259	6720.095011
724.447412	6719.066616
724.779518	6765.200735
725.111574	6774.378156
725.443582	6852.526123
725.775542	6829.145251
726.107453	7010.727613
726.439315	6927.619150
726.771129	6974.711089
727.102895	7139.511449
727.434612	7254.391784
727.766281	7278.417923
728.097901	7367.391768
728.429473	7351.421393
728.760996	7324.874676
729.092471	7306.189640
729.423897	7262.800428
729.755276	7275.952799
730.086606	7211.433591
730.417887	7308.853889
730.749120	7476.734395
731.080305	7669.356883
731.411442	7802.937378
731.742530	7804.918551
732.073570	7908.917555
732.404562	7995.764033
732.735506	7836.387954
733.066401	7978.883729
733.397249	7917.394255
733.728048	7688.233484
734.058798	7358.983123
734.389501	7149.190465
734.720156	6973.856613
735.050762	6733.138997
735.381320	6635.948071
735.711831	6590.539878
736.042293	6488.360731
736.372707	6509.296642
736.703073	6376.018617
737.033391	6407.737557
737.363661	6412.158649
737.693883	6435.373162
738.024056	6521.037490
738.354182	6569.465334
738.684260	6609.487055
739.014290	6711.328445
739.344272	6822.133006
739.674207	6849.216605
740.004093	6909.957468
740.333931	6932.493946
740.663722	6941.825122
740.993464	7015.103334
741.323159	7017.260948
741.652806	6764.565550
741.982405	6754.279075
742.311956	6824.068809
742.641460	6688.464291
742.970915	6491.778633
743.300323	6478.452343
743.629683	6416.489000
743.958996	6289.777078
744.288260	6207.676846
744.617477	6147.414893
744.946647	6166.369632
745.275768	6005.733264
745.604842	5955.404905
745.933869	5935.789775
746.262847	5889.834617
746.591778	5883.470160
746.920662	5842.735116
747.249498	5829.209701
747.578286	5874.199478
747.907027	5952.728052
748.235720	6006.744016
748.564365	5980.703935
748.892963	5996.848231
749.221514	6155.410163
749.550017	6012.513616
749.878473	5880.904213
750.206881	5927.013126
750.535242	5867.131780
750.863555	5800.487727
751.191821	5824.904555
751.520039	5830.240617
751.848210	5739.905660
752.176334	5753.615078
752.504411	5807.056350
752.832440	5733.740329
753.160421	5656.086395
753.488356	5707.838881
753.816243	5747.658955
754.144082	5599.018013
754.471875	5560.473351
754.799620	5610.169045
755.127318	5619.979131
755.454969	5567.036933
755.782572	5536.921080
756.110129	5575.339713
756.437638	5576.128654
756.765100	5514.336711
757.092515	5503.374722
757.419882	5548.135127
757.747203	5535.020565
758.074477	5600.762252
758.401703	5593.482826
758.728882	5537.037027
759.056014	5584.532257
759.383099	5721.762547
759.710138	5725.334205
760.037129	5708.617739
760.364073	5721.031580
760.690970	5803.293129
761.017820	5788.207476
761.344623	5734.869547
761.671379	5824.430687
761.998088	5945.156239
762.324751	6160.789074
762.651366	6721.415793
762.977935	7972.010116
763.304456	9573.342718
763.630931	10503.705304
763.957359	10169.423872
764.283740	9251.175178
764.610074	8451.882592
764.936362	7481.273954
765.262602	6883.995526
765.588796	6344.153484
765.914943	6000.021637
766.241044	5842.094890
766.567097	5662.624772
766.893104	5404.041306
767.219064	5218.030291
767.544978	5163.744625
767.870845	5090.090847
768.196665	4979.208148
768.522438	4907.729627
768.848165	4879.196697
769.173846	4819.088499
769.499479	4776.959576
769.825066	4720.544023
770.150607	4661.754087
770.476101	4630.758553
770.801548	4631.991115
771.126949	4559.411102
771.452303	4509.203731
771.777611	4463.722441
772.102872	4477.542764
772.428087	4445.138227
772.753256	4405.043410
773.078378	4364.681412
773.403453	4295.909991
773.728482	4281.426756
774.053465	4235.753902
774.378401	4218.417374
774.703291	4227.211667
775.028135	4158.470493
775.352932	4108.008543
775.677683	4094.677212
776.002388	4116.114718
776.327046	4129.720793
776.651658	4053.044842
776.976224	3988.886077
777.300743	3996.304135
777.625216	4018.971684
777.949643	4015.697454
778.274024	3969.961586
778.598359	3920.926282
778.922647	3945.665745
779.246889	3936.132923
779.571086	3937.370526
779.895236	3922.022733
780.219339	3906.400198
780.543397	3891.992580
780.867409	3943.727421
781.191374	3963.375318
781.515294	3909.016557
781.839167	3891.788413
782.162995	3914.559305
782.486776	3898.432654
782.810511	3907.133686
783.134201	3912.560488
783.457844	3871.989282
783.781441	3813.630364
784.104993	3817.983400
784.428498	3833.759691
784.751958	3834.447809
785.075372	3814.482319
785.398739	3776.356072
785.722061	3783.975777
786.045337	3824.975481
786.368568	3860.714741
786.691752	3781.717340
787.014891	3818.941220
787.337983	3937.045372
787.661030	4091.236624
787.984031	4251.232765
788.306987	4424.570319
788.629897	4502.244418
788.952760	4458.144404
789.275579	4393.231986
789.598351	4334.507585
789.921078	4203.908933
790.243759	4007.029190
790.566395	3979.625478
790.888984	3978.634891
791.211529	3872.614385
791.534027	3814.341167
791.856480	3810.978717
792.178888	3747.954212
792.501249	3693.315666
792.823566	3704.078529
793.145836	3732.785380
793.468062	3686.197557
793.790241	3639.617295
794.112375	3667.051254
794.434464	3728.293712
794.756507	3756.740943
795.078505	3739.510279
795.400457	3762.923918
795.722364	3893.608270
796.044226	3999.815299
796.366042	4069.171494
796.687812	4059.381573
797.009538	4067.530598
797.331218	4019.231303
797.652852	3993.022344
797.974442	3974.632215
798.295986	3977.891321
798.617484	3900.139085
798.938938	3812.097853
799.260346	3849.987166
799.581709	3848.086651
799.903026	3780.212555
800.224299	3738.237388
800.545526	3735.424424
800.866708	3698.165256
801.187845	3636.489259
801.508936	3667.789783
801.829983	3677.055424
802.150984	3595.943259
802.471940	3579.322574
802.792851	3593.722630
803.113717	3594.700614
803.434538	3597.001901
803.755314	3543.608520
804.076045	3513.550640
804.396731	3531.114020
804.717372	3556.970098
805.037967	3543.527862
805.358518	3534.960421
805.679024	3562.966551
805.999485	3571.755802
806.319901	3576.008016
806.640272	3589.178030
806.960598	3608.468005
807.280879	3580.703851
807.601115	3591.481837
807.921306	3606.317953
808.241453	3650.478461
808.561554	3624.970222
808.881611	3561.885223
809.201623	3593.783124
809.521590	3608.064713
809.841513	3576.912903
810.161390	3608.480608
810.481223	3592.099379
810.801011	3532.618805
811.120755	3518.400230
811.440453	3558.202660
811.760107	3564.950245
812.079716	3525.467928
812.399281	3491.170438
812.718801	3509.326153
813.038276	3486.106599
813.357707	3480.102584
813.677093	3503.528826
813.996434	3454.806074
814.315731	3456.152063
814.634983	3458.907053
814.954191	3473.735607
815.273354	3505.603261
815.592473	3501.267869
815.911547	3500.637725
816.230577	3540.268756
816.549562	3588.815067
816.868502	3632.514309
817.187399	3655.413751
817.506250	3652.663801
817.825058	3622.787403
818.143821	3707.007440
818.462539	3810.507369
818.781213	3855.023278
819.099843	3913.135179
819.418429	4131.351606
819.736970	4372.061661
820.055466	4601.792083
820.373919	4952.815187
820.692327	5358.696127
821.010691	5752.657259
821.329011	7014.936976
821.647286	9574.449251
821.965517	13925.759002
822.283704	17905.197957
822.601847	20207.646674
822.919945	18510.181789
823.237999	16048.470419
823.556010	13620.237352
823.873976	11605.104158
824.191897	9560.512981
824.509775	8211.427115
824.827609	7100.946622
825.145398	6546.046654
825.463144	6434.014572
825.780845	6548.105965
826.098502	6704.190171
826.416116	7495.933629
826.733685	8769.931509
827.051210	9884.502898
827.368692	10013.826138
827.686129	8841.987241
828.003522	7345.137594
828.320872	6348.544329
828.638177	5660.235265
828.955439	5123.551506
829.272656	4636.755005
829.589830	4349.505018
829.906960	4179.033359
830.224046	3997.755988
830.541088	3871.916185
830.858086	3826.450018
831.175041	3756.115840
831.491952	3732.757653
831.808819	3744.753079
832.125642	3807.686844
832.442421	3944.473512
832.759157	4198.557748
833.075849	4716.006985
833.392497	5540.026431
833.709101	6296.892666
834.025662	6656.294168
834.342179	6352.088260
834.658653	5702.248241
834.975083	5077.767747
835.291469	4518.431563
835.607811	4104.993933
835.924110	3969.051658
836.240366	3780.935961
836.556578	3576.607913
836.872746	3467.817293
837.188871	3431.894030
837.504952	3368.584700
837.820990	3289.186527
838.136984	3236.947570
838.452935	3260.701487
838.768842	3257.921290
839.084706	3279.668828
839.400526	3423.470262
839.716303	3738.393663
840.032037	4229.412130
840.347727	4513.463506
840.663373	4274.449799
840.978977	3901.543046
841.294537	3602.930298
841.610054	3380.043242
841.925527	3266.869338
842.240957	3200.973896
842.556344	3149.506236
842.871687	3097.234512
843.186987	3046.762479
843.502244	3010.483816
843.817458	2976.566933
844.132629	2941.661983
844.447756	2950.239507
844.762840	2939.922785
845.077881	2910.621078
845.392879	2890.842111
845.707833	2887.648540
846.022745	2882.297356
846.337613	2885.742984
846.652438	2876.714278
846.967221	2871.521889
847.281960	2862.599047
847.596656	2855.798530
847.911309	2856.466483
848.225919	2850.480113
848.540485	2841.133814
848.855009	2845.007941
849.169490	2835.129800
849.483928	2825.400373
849.798323	2822.365598
850.112675	2821.511122
850.426984	2832.405056
850.741251	2829.697956
851.055474	2821.465752
851.369654	2815.265133
851.683792	2819.446770
851.997887	2826.098572
852.311938	2825.680157
852.625947	2820.593632
852.939914	2821.657316
853.253837	2824.228304
853.567718	2810.438228
853.881555	2808.136941
854.195350	2823.741833
854.509103	2820.565906
854.822812	2815.910401
855.136479	2813.402427
855.450103	2814.884526
855.763685	2808.290697
856.077224	2798.697381
856.390720	2816.386790
856.704173	2825.539004
857.017584	2819.842501
857.330953	2811.529638
857.644278	2822.937769
857.957561	2825.400373
858.270802	2833.914882
858.584000	2834.900427
858.897155	2823.993891
859.210268	2819.562717
859.523339	2817.740339
859.836367	2818.604897
860.149352	2812.600883
860.462295	2807.804225
860.775195	2816.265802
861.088054	2817.316882
861.400869	2800.406332
861.713642	2796.443985
862.026373	2811.764052
862.339062	2812.868064
862.651708	2820.502892
862.964312	2821.559013
863.276873	2815.388641
863.589392	2825.039930
863.901869	2833.892196
864.214303	2854.001359
864.526696	2870.312012
864.839045	2869.331508
865.151353	2870.344780
865.463619	2866.072402
865.775842	2866.848740
866.088023	2884.049157
866.400162	2891.041237
866.712258	2863.531660
867.024313	2852.431040
867.336325	2861.686598
867.648296	2880.127139
867.960224	2873.576159
868.272110	2860.015456
868.583954	2865.936291
868.895755	2881.122767
869.207515	2868.809748
869.519233	2869.175232
869.830909	2879.320554
870.142542	2892.488048
870.454134	2889.307080
870.765684	2893.624828
871.077191	2892.621639
871.388657	2896.800755
871.700081	2911.462951
872.011463	2921.998963
872.322803	2922.024168
872.634101	2922.616504
872.945357	2938.360028
873.256571	2962.252576
873.567744	2958.809468
873.878874	2948.802778
874.189963	2970.656180
874.501010	2976.609782
874.812015	2963.253245
875.122979	2966.918164
875.433900	2958.350723
875.744780	2964.435396
876.055618	2971.031746
876.366415	2971.455203
876.677169	2981.315699
876.987882	2979.815956
877.298554	2970.290696
877.609183	2987.717965
877.919771	3010.115811
878.230317	3034.146992
878.540822	3086.726226
878.851285	3123.269551
879.161707	3161.844460
879.472087	3254.299221
879.782425	3455.693318
880.092722	3858.166438
880.402977	4359.839383
880.713191	4951.766627
881.023363	6036.272574
881.333494	7275.196626
881.643583	7858.001901
881.953631	7578.137204
882.263637	7000.983062
882.573602	6448.379339
882.883526	5887.014091
883.193408	5322.961908
883.503248	4865.628431
883.813048	4574.925253
884.122806	4300.391577
884.432522	3997.019979
884.742197	3771.652676
885.051831	3579.027667
885.361424	3448.829787
885.670975	3376.917727
885.980485	3301.255049
886.289954	3225.168914
886.599382	3183.231555
886.908768	3145.450627
887.218113	3101.756427
887.527417	3050.734908
887.836680	3002.662465
888.145901	2995.894716
888.455082	2988.864827
888.764221	2941.616613
889.073319	2912.319947
889.382376	2907.031777
889.691392	2912.216604
890.000366	2911.893970
890.309300	2899.757392
890.618193	2913.708785
890.927044	2929.769901
891.235855	2932.739141
891.544625	2912.934968
891.853353	2923.002152
892.162041	2944.104422
892.470687	2980.569609
892.779293	3028.710107
893.087858	3071.610327
893.396381	3138.763537
893.704864	3246.692120
894.013306	3466.670430
894.321707	3751.742639
894.630068	3959.728044
894.938387	3964.824650
895.246665	3920.767486
895.554903	3807.797749
895.863100	3618.890591
896.171256	3462.566931
896.479371	3326.168431
896.787446	3207.250132
897.095480	3112.559619
897.403473	3049.464538
897.711425	3012.280987
898.019336	3004.560460
898.327207	2981.638333
898.635038	2946.425874
898.942827	2931.569593
899.250576	2921.280598
899.558284	2889.286915
899.865952	2869.777650
900.173579	2852.927593
900.481165	2846.545492
900.788711	2834.333297
901.096216	2809.964360
901.403681	2799.438430
901.711105	2805.283648
902.018489	2804.187197
902.325832	2804.318267
902.633135	2809.792960
902.940397	2839.409739
903.247619	2914.843045
903.554800	3086.098603
903.861941	3403.711460
904.169041	3807.593582
904.476101	4108.487453
904.783121	4087.027261
905.090100	3859.298177
905.397039	3599.436778
905.703938	3357.872248
906.010796	3179.022192
906.317614	3068.184862
906.624391	2980.569609
906.931129	2912.294742
907.237826	2855.801051
907.544483	2807.741211
907.851099	2778.600821
908.157675	2759.459560
908.464211	2738.347207
908.770707	2728.161556
909.077163	2717.312993
909.383578	2703.401929
909.689954	2691.981195
909.996289	2689.427851
910.302584	2688.931297
910.608839	2691.366174
910.915054	2686.287212
911.221229	2681.281346
911.527363	2682.224042
911.833458	2685.732685
912.139513	2690.095803
912.445527	2695.492359
912.751502	2703.865715
913.057436	2713.678321
913.363331	2723.470762
913.669186	2742.120511
913.975000	2773.047990
914.280775	2827.857935
914.586510	2895.807648
914.892205	2966.865232
915.197859	3084.543407
915.503475	3262.637290
915.809050	3462.594657
916.114585	3604.117490
916.420081	3630.845687
916.725536	3580.900456
917.030952	3469.748054
917.336328	3348.641895
917.641665	3223.485168
917.946961	3127.272227
918.252218	3063.214285
918.557435	2988.360712
918.862612	2932.063626
919.167750	2886.862120
919.472848	2847.525997
919.777906	2822.088335
920.082925	2799.624953
920.387904	2769.143616
920.692843	2754.667943
920.997743	2744.499936
921.302603	2731.859242
921.607423	2722.802810
921.912204	2711.626572
922.216946	2699.396732
922.521647	2695.215095
922.826310	2683.988446
923.130932	2677.661797
923.435516	2669.553102
923.740059	2664.635456
924.044564	2656.536842
924.349028	2651.473003
924.653454	2646.741880
924.957840	2639.409522
925.262186	2632.939201
925.566493	2629.153295
925.870761	2626.877214
926.174989	2622.650206
926.479178	2619.512088
926.783328	2613.429936
927.087438	2612.585542
927.391509	2611.781478
927.695541	2609.029008
927.999533	2606.296703
928.303486	2600.484253
928.607400	2601.931064
928.911275	2602.936774
929.215110	2602.684716
929.518906	2598.903851
929.822663	2599.700353
930.126381	2598.944180
930.430060	2599.929726
930.733699	2597.517534
931.037299	2602.034408
931.340861	2600.310333
931.644383	2601.101794
931.947866	2602.553646
932.251309	2599.375199
932.554714	2598.629108
932.858080	2598.467791
933.161407	2594.180290
933.464694	2594.190372
933.767943	2589.955803
934.071153	2590.147367
934.374323	2592.554518
934.677455	2590.858169
934.980548	2590.129723
935.283602	2587.498240
935.586617	2589.270206
935.889593	2594.049220
936.192530	2592.178952
936.495428	2590.865731
936.798287	2594.500403
937.101108	2599.730600
937.403890	2600.716146
937.706632	2604.542382
938.009336	2609.328957
938.312002	2621.359671
938.614628	2627.086422
938.917216	2633.229067
939.219765	2633.687812
939.522275	2634.549850
939.824747	2631.031124
940.127179	2628.283696
940.429573	2627.270424
940.731929	2622.372943
941.034246	2622.446039
941.336524	2617.664505
941.638763	2614.380193
941.940964	2611.564709
942.243126	2612.391458
942.545250	2611.380707
942.847335	2609.117229
943.149381	2606.526076
943.451389	2600.244798
943.753359	2600.232195
944.055290	2594.686926
944.357182	2595.246494
944.659036	2595.135588
944.960851	2595.291864
945.262628	2592.514188
945.564367	2594.036617
945.866067	2592.718355
946.167729	2592.814137
946.469352	2593.456884
946.770937	2595.322111
947.072484	2592.584765
947.373992	2591.246338
947.675462	2591.490834
947.976893	2584.521439
948.278286	2582.535224
948.579641	2586.553024
948.880958	2585.461614
949.182236	2585.864907
949.483476	2586.386666
949.784678	2586.517736
950.085841	2584.065215
950.386967	2585.595205
950.688054	2587.112592
950.989103	2586.104361
951.290114	2584.962540
951.591087	2591.435382
951.892021	2591.102665
952.192917	2594.061823
952.493776	2598.097266
952.794596	2597.840167
953.095378	2595.765733
953.396122	2596.605085
953.696828	2596.221957
953.997496	2593.161977
954.298126	2589.978488
954.598718	2587.556214
954.899272	2587.498240
955.199788	2584.758373
955.500266	2583.704772
955.800706	2579.989442
956.101108	2577.990624
956.401472	2575.699420
956.701798	2577.078175
957.002087	2572.969635
957.302337	2572.929306
957.602550	2571.338822
957.902724	2566.988306
958.202861	2569.670200
958.502960	2566.978224
958.803022	2564.298850
959.103045	2565.904458
959.403031	2564.250959
959.702979	2564.505538
960.002889	2563.245249
960.302762	2566.345559
960.602596	2562.300033
960.902393	2562.723490
961.202153	2561.369940
961.501875	2564.296330
961.801559	2561.841288
962.101205	2563.799776
962.400814	2562.632749
962.700385	2560.288612
962.999918	2559.671071
963.299414	2556.981616
963.598873	2559.197203
963.898293	2556.537994
964.197677	2558.312480
964.497022	2561.679971
964.796331	2559.391287
965.095601	2557.276523
965.394835	2560.026473
965.694030	2558.446071
965.993189	2561.450598
966.292309	2560.139898
966.591393	2558.867007
966.890439	2561.090156
967.189447	2560.333983
967.488419	2559.512275
967.787353	2558.430947
968.086249	2558.955227
968.385108	2562.075702
968.683930	2557.785680
968.982714	2560.205433
969.281462	2561.521175
969.580172	2559.600495
969.878844	2560.008828
970.177480	2563.151988
970.476078	2559.179559
970.774639	2560.911195
971.073162	2557.994887
971.371649	2558.315001
971.670098	2559.678633
971.968510	2560.104610
972.266885	2562.380691
972.565223	2561.127965
972.863524	2559.834909
973.161788	2559.592933
973.460014	2564.548388
973.758204	2561.937070
974.056356	2560.911195
974.354471	2559.779456
974.652550	2560.918757
974.950591	2563.353634
975.248595	2560.689384
975.546563	2562.705846
975.844493	2557.422717
976.142386	2559.726524
976.440243	2557.407593
976.738062	2558.811554
977.035845	2558.559497
977.333590	2563.552760
977.631299	2557.352140
977.928971	2556.371636
978.226606	2556.497665
978.524204	2555.600339
978.821765	2551.683363
979.119290	2558.594785
979.416777	2560.071843
979.714228	2558.168807
980.011642	2556.734599
980.309020	2555.935576
980.606360	2557.158056
980.903664	2558.793910
981.200931	2559.161915
981.498162	2562.945301
981.795356	2561.579148
982.092513	2560.006308
982.389633	2564.341700
982.686717	2567.202555
982.983764	2570.136507
983.280775	2574.665983
983.577749	2576.420305
983.874686	2579.069431
984.171587	2571.137176
984.468451	2570.640622
984.765279	2568.309088
985.062070	2569.050138
985.358824	2565.584345
985.655543	2564.687019
985.952224	2562.095866
986.248869	2560.797769
986.545478	2560.961607
986.842050	2557.662171
987.138586	2557.561348
987.435086	2559.708880
987.731549	2557.402552
988.027975	2558.531770
988.324366	2559.724003
988.620719	2556.089331
988.917037	2555.159238
989.213318	2556.336348
989.509563	2556.790052
989.805772	2557.291647
990.101944	2559.229970
990.398080	2558.597305
990.694180	2556.001111
990.990244	2557.929352
991.286271	2554.345092
991.582262	2556.762325
991.878217	2555.769218
992.174136	2557.364743
992.470019	2557.052192
992.765865	2555.363405
993.061676	2550.964998
993.357450	2552.580688
993.653188	2552.084135
993.948890	2554.904660
994.244556	2555.343241
994.540186	2557.561348
994.835780	2556.958930
995.131337	2558.599826
995.426859	2558.924980
995.722345	2559.393808
996.017795	2557.195865
996.313208	2561.153170
996.608586	2560.160063
996.903928	2561.271637
997.199234	2561.571586
997.494504	2559.595454
997.789738	2562.058058
998.084936	2562.690722
998.380099	2557.510937
998.675225	2556.626214
998.970316	2558.428427
999.265371	2557.082439
999.560390	2556.875751
999.855373	2556.696790
1000.150320	2556.830381
1000.445232	2554.894578
1000.740108	2555.960782
1001.034948	2554.824002
1001.329752	2554.939948
1001.624521	2553.888868
1001.919254	2554.168652
1002.213951	2555.189485
1002.508613	2553.099927
1002.803239	2553.813250
1003.097829	2553.510781
1003.392384	2553.185627
1003.686903	2553.223435
1003.981386	2554.428271
1004.275834	2552.658826
1004.570246	2554.937428
1004.864623	2555.287788
1005.158964	2554.077911
1005.453270	2555.857438
1005.747540	2555.315514
1006.041775	2552.817623
1006.335974	2553.281409
1006.630138	2553.566234
1006.924266	2552.008517
1007.218359	2555.340720
1007.512416	2550.314690
1007.806438	2549.901315
1008.100425	2551.983312
1008.394376	2546.801005
1008.688292	2551.511964
1008.982172	2555.348282
1009.276017	2554.455997
1009.569827	2552.865513
1009.863602	2549.679504
1010.157341	2554.856769
1010.451045	2552.260575
1010.744714	2552.873075
1011.038347	2555.693601
1011.331945	2552.494989
1011.625508	2553.593960
1011.919036	2552.454659
1012.212528	2554.587067
1012.505986	2555.733930
1012.799408	2553.495658
1013.092795	2551.302756
1013.386147	2551.416182
1013.679464	2555.575134
1013.972745	2554.569423
1014.265992	2552.905843
1014.559204	2554.332489
1014.852380	2552.109340
1015.145521	2554.496327
1015.438628	2554.788714
1015.731699	2554.350133
1016.024736	2550.594474
1016.317737	2552.278219
1016.610703	2553.170503
1016.903635	2553.520863
1017.196531	2554.239228
1017.489393	2551.978270
1017.782219	2554.007335
1018.075011	2554.791234
1018.367768	2552.005997
1018.660490	2551.736295
1018.953177	2551.736295
1019.245829	2551.736295
