Dividing Wavelength (nm)	Counts (n)	Blue Motor Position (mm): 23.100000	Red Motor Position (mm): 0.000000	
326.493990	2193.615246
326.888308	2193.615246
327.282561	2193.615246
327.676750	2156.396408
328.070874	2149.661426
328.464933	2151.118319
328.858929	2151.680408
329.252859	2161.608961
329.646726	2166.662717
330.040528	2182.096210
330.434265	2192.859073
330.827938	2211.581919
331.221547	2224.497355
331.615091	2242.098543
332.008571	2266.606113
332.401986	2281.401899
332.795338	2299.174487
333.188625	2317.546973
333.581847	2337.890549
333.975006	2357.271265
334.368100	2374.108719
334.761129	2391.790566
335.154095	2411.708165
335.546996	2436.082143
335.939833	2470.644294
336.332606	2483.438743
336.725315	2499.194869
337.117960	2512.959740
337.510540	2520.433250
337.903056	2535.004705
338.295508	2539.337577
338.687896	2549.596325
339.080220	2559.212326
339.472480	2566.615261
339.864676	2568.730025
340.256807	2574.918041
340.648875	2580.365008
341.040879	2582.109247
341.432818	2584.624783
341.824694	2590.356575
342.216506	2588.937490
342.608253	2587.052098
342.999937	2590.139805
343.391557	2590.956472
343.783113	2589.733992
344.174605	2588.508992
344.566033	2585.038157
344.957397	2586.323652
345.348697	2584.944896
345.739934	2584.130750
346.131106	2581.224524
346.522215	2580.236458
346.913260	2579.455079
347.304241	2576.296797
347.695159	2573.448545
348.086012	2572.299162
348.476802	2569.776064
348.867528	2568.576269
349.258191	2561.463201
349.648789	2563.512430
350.039324	2559.164435
350.429796	2563.144426
350.820203	2560.021431
351.210548	2558.877089
351.600828	2559.615618
351.991045	2558.882131
352.381198	2557.710062
352.771288	2559.124106
353.161314	2553.213353
353.551276	2557.163097
353.941175	2556.802655
354.331010	2554.997922
354.720782	2554.980278
355.110490	2552.835267
355.500135	2553.689742
355.889717	2555.675957
356.279235	2555.212171
356.668689	2551.663198
357.058080	2554.919784
357.447408	2554.440874
357.836672	2555.131512
358.225873	2556.543035
358.615010	2554.856769
359.004084	2556.548076
359.393095	2554.365257
359.782043	2557.977243
360.170927	2557.311811
360.559748	2560.215516
360.948505	2557.722665
361.337199	2559.885320
361.725830	2559.965979
362.114398	2559.154353
362.502903	2562.053016
362.891344	2561.717780
363.279722	2561.959755
363.668037	2562.594940
364.056289	2562.128634
364.444478	2564.939077
364.832603	2564.850857
365.220665	2565.130641
365.608665	2566.002760
365.996601	2565.917061
366.384474	2563.996381
366.772284	2568.881259
367.160031	2565.148285
367.547715	2567.469736
367.935336	2566.799263
368.322893	2565.115517
368.710388	2562.395815
369.097820	2563.363716
369.485189	2567.023594
369.872495	2566.751372
370.259738	2568.626681
370.646918	2571.991651
371.034035	2566.970662
371.421090	2570.451579
371.808081	2569.902093
372.195010	2573.088102
372.581875	2570.794377
372.968678	2572.742783
373.355418	2569.382854
373.742096	2573.935016
374.128710	2571.563153
374.515262	2571.555591
374.901751	2571.613565
375.288177	2569.481157
375.674540	2573.859399
376.060841	2572.415108
376.447079	2571.542988
376.833254	2574.176991
377.219367	2572.483164
377.605417	2573.390571
377.991404	2575.603638
378.377329	2572.591548
378.763191	2575.964080
379.148991	2575.553226
379.534727	2574.983576
379.920402	2571.336301
380.306013	2576.823597
380.691563	2577.312589
381.077049	2574.703792
381.462474	2577.499112
381.847835	2574.764286
382.233134	2577.909966
382.618371	2575.369224
383.003545	2576.553895
383.388657	2576.783268
383.773706	2575.006261
384.158693	2580.168403
384.543618	2578.842579
384.928480	2578.761921
385.313280	2579.729822
385.698017	2578.759400
386.082692	2579.238310
386.467305	2579.291242
386.851856	2580.428022
387.236344	2577.660429
387.620770	2578.761921
388.005133	2579.177816
388.389435	2576.342167
388.773674	2575.107084
389.157851	2580.612024
389.541965	2580.924576
389.926018	2581.166551
390.310008	2582.076479
390.693936	2580.586818
391.077802	2583.331727
391.461606	2581.408527
391.845348	2582.999011
392.229027	2583.722416
392.612645	2584.695359
392.996200	2583.699731
393.379694	2583.379618
393.763125	2585.527149
394.146494	2585.418764
394.529801	2583.795513
394.913047	2581.927765
395.296230	2587.185689
395.679351	2586.006059
396.062410	2584.932293
396.445408	2586.253075
396.828343	2586.522777
397.211217	2587.140318
397.594028	2587.218456
397.976778	2589.010587
398.359466	2587.372212
398.742092	2589.890268
399.124656	2589.161821
399.507158	2587.949424
399.889598	2587.425144
400.271977	2586.356419
400.654294	2590.182655
401.036549	2588.410689
401.418742	2589.247521
401.800874	2588.899681
402.182944	2589.892788
402.564952	2590.170052
402.946898	2590.928746
403.328783	2590.260793
403.710606	2590.434712
404.092367	2591.654672
404.474067	2590.729620
404.855705	2590.971595
405.237282	2591.528643
405.618797	2590.734661
406.000250	2591.674836
406.381642	2591.604260
406.762972	2591.334558
407.144240	2586.999166
407.525447	2588.209043
407.906593	2586.270719
408.287677	2593.996288
408.668700	2590.656523
409.049661	2592.786411
409.430560	2591.669795
409.811399	2594.623911
410.192176	2594.770105
410.572891	2593.224991
410.953545	2596.138778
411.334138	2594.926381
411.714669	2593.628283
412.095139	2593.167018
412.475547	2595.498552
412.855894	2595.377564
413.236180	2596.292533
413.616405	2596.204313
413.996568	2598.992071
414.376670	2594.901175
414.756711	2595.932091
415.136691	2598.195569
415.516609	2599.171032
415.896466	2600.149016
416.276262	2597.295723
416.655997	2599.833944
417.035670	2597.497369
417.415283	2601.449634
417.794834	2599.150867
418.174324	2597.459560
418.553753	2598.621546
418.933121	2600.300251
419.312428	2600.920312
419.691674	2599.798656
420.070859	2601.033738
420.449983	2600.325456
420.829045	2601.111876
421.208047	2599.602051
421.586988	2601.235385
421.965867	2601.255549
422.344686	2602.656990
422.723444	2605.283431
423.102141	2601.356372
423.480777	2601.502566
423.859352	2602.162957
424.237866	2602.120107
424.616319	2605.608586
424.994712	2602.760334
425.373044	2603.992896
425.751314	2602.898965
426.129524	2602.019284
426.507673	2599.760847
426.885762	2598.881166
427.263789	2605.212855
427.641756	2604.181939
428.019662	2604.373503
428.397508	2605.180087
428.775292	2606.478185
429.153016	2605.417022
429.530679	2605.994234
429.908282	2608.587908
430.285824	2604.857454
430.663305	2608.257712
431.040726	2607.985490
431.418086	2604.895262
431.795385	2606.699995
432.172624	2606.644543
432.549802	2608.270315
432.926920	2607.458689
433.303977	2608.860130
433.680974	2605.840479
434.057910	2607.675459
434.434786	2608.681169
434.811601	2609.409616
435.188355	2611.121087
435.565050	2609.248299
435.941683	2608.585387
436.318257	2608.855089
436.694770	2612.595625
437.071222	2611.657970
437.447614	2612.285594
437.823946	2613.830707
438.200218	2612.252826
438.576429	2612.411623
438.952580	2612.396499
439.328670	2612.464555
439.704700	2610.821139
440.080670	2610.748042
440.456580	2615.093517
440.832429	2614.788527
441.208218	2613.578650
441.583947	2612.958588
441.959616	2613.016561
442.335224	2612.073865
442.710773	2615.317848
443.086261	2615.884978
443.461689	2615.151490
443.837057	2617.379680
444.212365	2615.065790
444.587612	2612.504884
444.962800	2612.658639
445.337927	2613.936572
445.712995	2610.780809
446.088002	2617.220883
446.462949	2619.242386
446.837837	2618.259361
447.212664	2618.372787
447.587431	2620.048971
447.962139	2622.138529
448.336786	2623.315638
448.711374	2626.433592
449.085901	2624.918725
449.460369	2624.744806
449.834776	2622.456122
450.209124	2623.035854
450.583412	2625.344703
450.957640	2628.805455
451.331808	2628.991978
451.705917	2628.238325
452.079965	2626.496607
452.453954	2624.981740
452.827883	2630.196813
453.201752	2628.737399
453.575562	2630.358130
453.949311	2628.003912
454.323001	2628.744961
454.696632	2632.155302
455.070202	2633.319808
455.443713	2637.635036
455.817164	2636.281486
456.190556	2637.070427
456.563888	2639.464975
456.937160	2639.132259
457.310373	2637.932464
457.683526	2642.293062
458.056619	2641.831797
458.429653	2642.676190
458.802628	2645.819349
459.175542	2649.199443
459.548398	2652.198929
459.921194	2656.451143
460.293930	2658.492810
460.666607	2666.999757
461.039224	2673.185253
461.411782	2682.632375
461.784280	2685.904084
462.156719	2690.978005
462.529099	2695.174766
462.901419	2691.565300
463.273680	2694.368181
463.645882	2699.610981
464.018024	2703.790098
464.390106	2712.624720
464.762130	2729.578120
465.134094	2750.531676
465.505999	2792.133798
465.877845	2858.631659
466.249631	2910.028743
466.621358	2918.334044
466.993026	2913.587798
467.364634	2923.770928
467.736184	2923.773449
468.107674	2935.917588
468.479105	2968.722897
468.850477	2989.500013
469.221790	3013.064886
469.593043	3027.568286
469.964238	3043.284083
470.335373	3072.293403
470.706449	3119.450877
471.077467	3142.811583
471.448425	3254.263933
471.819324	3485.327740
472.190164	3641.008653
472.560945	3542.149106
472.931667	3481.776248
473.302330	3511.859333
473.672934	3550.222514
474.043479	3639.057727
474.413965	3697.383877
474.784393	3744.594283
475.154761	3874.739231
475.525070	3948.357721
475.895321	3997.821523
476.265513	4129.201554
476.635645	4266.711628
477.005719	4338.422041
477.375734	4454.260195
477.745691	4613.749700
478.115588	4764.812916
478.485427	4948.683961
478.855207	5188.594993
479.224928	5558.905552
479.594591	6054.506428
479.964194	6180.091652
480.333739	6371.524428
480.703226	6400.894191
481.072653	6519.802407
481.442022	6804.710778
481.811333	7140.197046
482.180584	7317.459139
482.549777	7262.422342
482.918912	7402.687407
483.287988	7600.101512
483.657005	7724.852425
484.025964	7822.076118
484.394864	7982.767938
484.763706	8095.614167
485.132489	8177.235489
485.501213	8357.396245
485.869879	8554.021410
486.238487	8620.433571
486.607036	8913.886698
486.975527	8998.331066
487.343959	9266.966593
487.712333	9491.877672
488.080648	9522.026292
488.448905	9907.646835
488.817104	10007.194500
489.185244	10421.302603
489.553326	10664.560962
489.921350	11172.878148
490.289315	12239.578740
490.657222	13219.725241
491.025070	13662.406604
491.392861	13834.438500
491.760593	13747.715530
492.128267	13685.986602
492.495883	13451.399028
492.863440	13341.045650
493.230939	13148.518943
493.598380	13325.125686
493.965763	13337.859640
494.333088	13349.807175
494.700354	13533.680741
495.067563	13721.882137
495.434713	13803.712667
495.801805	14019.768959
496.168839	14205.104460
496.535815	14318.359022
496.902733	14623.489982
497.269593	14602.493577
497.636395	14970.230626
498.003139	15153.388348
498.369825	15251.020375
498.736453	15518.088103
499.103023	15637.019004
499.469535	15855.885740
499.835989	16180.410018
500.202385	16417.724856
500.568723	16285.137469
500.935003	16618.269518
501.301226	16567.565593
501.667390	17233.287767
502.033497	17671.144746
502.399546	17617.441334
502.765537	17589.294051
503.131470	18011.092435
503.497345	18307.166962
503.863163	17879.314153
504.228923	18547.370381
504.594625	18867.521459
504.960269	18639.194998
505.325856	19210.082986
505.691385	18939.115926
506.056856	19520.555049
506.422270	19710.465396
506.787625	19505.681124
507.152924	20035.685354
507.518164	20151.606687
507.883347	20141.693258
508.248472	20038.009326
508.613540	20821.334058
508.978550	20800.723300
509.343503	20921.406003
509.708398	21291.424175
510.073236	21531.110875
510.438016	21838.197803
510.802738	21721.011141
511.167403	22039.402856
511.532010	21891.548334
511.896561	22694.445346
512.261053	22803.931645
512.625488	22753.005909
512.989866	22766.498557
513.354186	22734.739288
513.718449	22924.077465
514.082655	23367.502398
514.446803	23242.121341
514.810894	23737.674325
515.174927	23353.825748
515.538904	23473.089366
515.902822	24002.965047
516.266684	23871.910170
516.630488	23843.498227
516.994235	23925.926133
517.357925	24247.032510
517.721558	24509.815257
518.085133	24660.659183
518.448651	24655.786908
518.812112	24445.094403
519.175516	24664.296376
519.538863	24910.292080
519.902152	24747.435085
520.265385	25097.094557
520.628560	24925.556694
520.991678	24997.136038
521.354739	25106.294663
521.717743	25208.405754
522.080690	25047.650920
522.443580	25413.822691
522.806413	25451.202847
523.169189	25585.877272
523.531908	25663.669837
523.894569	25301.394878
524.257174	25393.305195
524.619722	25645.625027
524.982213	25341.557751
525.344647	25454.393897
525.707025	25572.152731
526.069345	25612.338288
526.431608	25581.756129
526.793815	25789.895289
527.155964	25259.122283
527.518057	25439.227586
527.880093	25385.322528
528.242072	25633.344777
528.603995	25343.911970
528.965860	25167.126266
529.327669	25243.466979
529.689421	25231.842078
530.051117	25079.440436
530.412755	25272.541834
530.774337	25086.641724
531.135862	24957.348731
531.497331	25171.774210
531.858743	24710.470824
532.220098	25210.538162
532.581396	24894.299020
532.942638	24861.776016
533.303824	24952.184069
533.664953	24985.397711
534.026025	24650.975127
534.387040	24895.851695
534.747999	24964.852488
535.108902	25132.478416
535.469748	24622.023780
535.830537	24820.433513
536.191270	24947.503357
536.551947	24841.402193
536.912567	24514.853890
537.273131	24813.118799
537.633638	24548.811103
537.994089	24744.760753
538.354483	24304.872189
538.714821	24805.002541
539.075103	24850.383008
539.435328	24649.004035
539.795497	24190.909344
540.155609	24594.708288
540.515665	24890.072012
540.875665	24129.795436
541.235609	24402.773917
541.595496	24384.600557
541.955328	24739.281018
542.315102	24653.427648
542.674821	24233.071034
543.034483	24100.060190
543.394090	24268.863227
543.753640	24056.981010
544.113134	24684.070302
544.472571	24293.025477
544.831953	24584.341155
545.191278	24184.514641
545.550548	24125.502894
545.909761	24345.385422
546.268918	24562.591097
546.628019	24519.890003
546.987064	24231.994748
547.346053	23995.395754
547.704986	24132.694100
548.063863	24281.007366
548.422684	24271.633341
548.781449	23835.679397
549.140158	24223.397060
549.498811	23806.622187
549.857408	23544.618298
550.215949	23992.340815
550.574434	23661.948633
550.932864	23894.486978
551.291237	24025.529251
551.649555	23900.037288
552.007817	23951.482263
552.366022	23831.510363
552.724173	23877.047106
553.082267	23807.295181
553.440305	24270.398258
553.798288	23555.078692
554.156215	24078.027827
554.514086	24152.704960
554.871902	23532.126318
555.229661	23818.489063
555.587365	23676.973792
555.945014	23511.142516
556.302606	23792.398571
556.660143	23721.199835
557.017625	23981.701460
557.375050	23520.209031
557.732421	23911.755450
558.089735	23705.748698
558.446994	23781.918012
558.804197	23792.857316
559.161345	23773.070787
559.518437	23495.406554
559.875474	23707.538308
560.232455	23876.774883
560.589381	23717.240008
560.946251	23676.787269
561.303065	24013.339741
561.659825	24099.488019
562.016528	23703.588564
562.373177	23442.860087
562.729770	23798.329488
563.086307	23665.898377
563.442789	23836.543955
563.799216	23659.962418
564.155587	23690.037942
564.511904	23659.843951
564.868164	23583.851078
565.224370	23584.234205
565.580520	23482.581858
565.936615	23615.900213
566.292654	23286.664976
566.648638	23602.140384
567.004567	23414.916971
567.360441	23363.305638
567.716260	23097.515843
568.072023	23425.997427
568.427732	23190.409184
568.783385	22973.536225
569.138982	23191.813146
569.494525	23244.193255
569.850013	22987.033915
570.205445	23094.738167
570.560823	22882.351835
570.916145	22665.665398
571.271412	22825.976611
571.626625	22580.374116
571.981782	22701.578578
572.336884	22500.073577
572.691931	22640.774701
573.046923	22375.151264
573.401860	22261.881578
573.756743	22253.893870
574.111570	22165.898009
574.466342	22112.660904
574.821059	22206.658258
575.175722	21889.370556
575.530330	21880.740100
575.884882	21910.896283
576.239380	21815.104277
576.593823	21705.103780
576.948211	21690.847397
577.302544	21530.848735
577.656823	21401.706977
578.011047	21497.045278
578.365216	21374.373841
578.719330	21253.055953
579.073389	21151.075931
579.427394	21302.839868
579.781344	21077.810322
580.135239	20968.268569
580.489080	20944.514652
580.842866	20702.146057
581.196597	20883.501567
581.550273	20880.547451
581.903895	20767.965883
582.257463	21086.599573
582.610975	20607.596697
582.964434	20912.934344
583.317837	20631.897579
583.671186	20719.321269
584.024481	20682.563695
584.377721	20465.872218
584.730906	20507.996099
585.084037	20544.284845
585.437113	20437.961870
585.790135	20642.007613
586.143103	20118.435895
586.496016	20126.083325
586.848874	20371.811849
587.201679	20315.426543
587.554428	19971.140941
587.907124	20305.460182
588.259765	20080.216387
588.612352	20169.971611
588.964884	19728.111955
589.317362	19901.724253
589.669786	19954.124526
590.022155	20015.235914
590.374470	20183.789413
590.726731	19988.865638
591.078937	19741.667618
591.431090	19845.038998
591.783188	19587.972920
592.135232	19561.547191
592.487222	19664.381688
592.839157	19698.636329
593.191038	19569.857533
593.542866	19465.893818
593.894639	19174.590743
594.246358	19405.747811
594.598022	19316.562238
594.949633	19064.754082
595.301190	19016.066619
595.652692	19178.742133
596.004141	19433.103632
596.355535	18755.837216
596.706876	18773.640051
597.058162	18652.622112
597.409395	18873.364156
597.760573	18968.788157
598.111698	18751.002749
598.462768	18686.808696
598.813785	18644.783117
599.164748	18462.590776
599.515657	18494.450868
599.866511	18287.738355
600.217312	18647.018869
600.568060	18181.420420
600.918753	18489.936515
601.269392	18400.259429
601.619978	18168.320982
601.970510	18384.493221
602.320988	18328.105394
602.671412	18533.978556
603.021783	18430.796219
603.372100	18170.304676
603.722363	18305.359708
604.072572	18242.357888
604.422728	18380.803096
604.772830	18151.546543
605.122878	18089.648735
605.472872	18085.361234
605.822813	18068.622082
606.172701	18037.467752
606.522534	18246.163959
606.872314	18265.045601
607.222041	18088.408611
607.571714	18316.997212
607.921333	18136.672618
608.270899	18205.537300
608.620411	18399.281446
608.969870	18153.139547
609.319276	18165.039191
609.668627	18202.318524
610.017926	18334.041353
610.367171	18447.580741
610.716362	18484.771853
611.065500	18313.914546
611.414585	18430.471064
611.763616	18421.812883
612.112594	18380.868631
612.461518	18348.270010
612.810389	18538.911325
613.159207	18384.709990
613.507971	18291.546947
613.856682	18573.450790
614.205340	18512.291512
614.553945	18656.715528
614.902496	18382.562459
615.250994	18632.659142
615.599439	18573.349967
615.947830	18558.077792
616.296169	18603.075131
616.644454	18567.439214
616.992686	18537.414102
617.340864	18742.768025
617.688990	18506.993259
618.037063	18682.077573
618.385082	18535.080048
618.733048	18821.115117
619.080961	18684.189817
619.428821	18718.872955
619.776628	18618.264127
620.124382	18534.119708
620.472083	18572.228311
620.819731	18596.206559
621.167326	18304.112023
621.514868	18328.599428
621.862357	18088.073375
622.209793	18103.940406
622.557176	17930.612934
622.904506	17771.922452
623.251783	17670.227256
623.599007	17444.950693
623.946179	17385.460037
624.293297	17326.846541
624.640363	17078.829333
624.987376	17100.922190
625.334336	16896.674801
625.681243	16730.397382
626.028097	16747.633087
626.374899	16674.793456
626.721647	16541.210440
627.068343	16378.938219
627.414987	16307.321067
627.761577	16287.111081
628.108115	16328.914849
628.454600	16048.304061
628.801032	16138.770088
629.147412	16072.620067
629.493739	16098.501351
629.840014	15895.804116
630.186236	16009.714029
630.532405	15772.837771
630.878521	15971.744058
631.224585	15855.575709
631.570597	15691.607139
631.916556	15713.999944
632.262462	15701.613829
632.608316	15612.216527
632.954117	15557.041098
633.299866	15552.919955
633.645562	15478.918337
633.991206	15225.373505
634.336797	15096.166211
634.682336	15078.247430
635.027823	14957.589933
635.373257	14849.898284
635.718639	14736.744545
636.063968	14696.332135
636.409245	14449.625627
636.754470	14468.724039
637.099642	14312.044977
637.444762	14095.119086
637.789829	14138.236075
638.134845	13983.575995
638.479808	13999.309437
638.824719	13947.985449
639.169577	13797.227223
639.514383	13843.487371
639.859137	13665.363241
640.203839	13753.611160
640.548489	13587.847939
640.893086	13573.336978
641.237632	13449.334675
641.582125	13597.191718
641.926566	13433.192901
642.270955	13443.330661
642.615292	13405.035536
642.959576	13412.783789
643.303809	13449.899285
643.647990	13388.603895
643.992118	13432.421604
644.336195	13209.373232
644.680219	13412.766145
645.024192	13336.506091
645.368112	13574.864447
645.711981	13634.397954
646.055797	13815.077949
646.399562	13783.091827
646.743274	14048.634606
647.086935	14319.125278
647.430544	14291.388849
647.774101	14312.118074
648.117606	14466.778153
648.461059	14432.984778
648.804460	14430.128965
649.147810	14160.633921
649.491108	14062.560794
649.834354	14076.953288
650.177548	13778.660653
650.520690	13588.286519
650.863781	13506.995393
651.206820	13546.722206
651.549807	13376.668963
651.892742	13189.153164
652.235626	13125.571611
652.578458	13124.424748
652.921238	12817.761278
653.263967	13010.071214
653.606644	12838.341788
653.949269	12811.701811
654.291843	12620.594189
654.634365	12771.377621
654.976836	12621.645269
655.319255	12640.075728
655.661622	12590.480856
656.003938	12511.967406
656.346203	12447.049947
656.688416	12512.683250
657.030577	12466.859161
657.372687	12389.404353
657.714746	12362.749252
658.056753	12547.036192
658.398708	12373.668391
658.740612	12377.232487
659.082465	12471.350829
659.424266	12436.181219
659.766016	12462.803553
660.107715	12364.927030
660.449362	12446.296295
660.790958	12403.978329
661.132503	12356.067203
661.473996	12408.714493
661.815438	12421.692943
662.156829	12431.750045
662.498168	12417.929722
662.839456	12420.866194
663.180693	12434.434460
663.521879	12524.940815
663.863013	12502.217814
664.204097	12481.450781
664.545129	12600.530397
664.886110	12569.108885
665.227040	12646.268785
665.567918	12661.520796
665.908746	12699.309286
666.249522	12676.324145
666.590248	12725.906413
666.930922	12838.999659
667.271545	12816.939569
667.612118	12901.083989
667.952639	12807.976398
668.293109	12815.580978
668.633528	12779.836677
668.973896	12749.733427
669.314213	12833.875326
669.654480	12576.786562
669.994695	12641.792241
670.334859	12668.414574
670.674973	12613.120678
671.015035	12644.476655
671.355047	12590.521186
671.695008	12550.459136
672.034918	12563.525807
672.374777	12600.847989
672.714585	12517.348838
673.054342	12554.567676
673.394049	12502.290911
673.733705	12601.140376
674.073310	12512.199299
674.412864	12532.152186
674.752368	12399.733677
675.091820	12409.659709
675.431223	12400.769634
675.770574	12274.702979
676.109875	12197.477544
676.449125	12155.721666
676.788324	12101.299890
677.127473	11941.770056
677.466571	11920.962693
677.805619	11824.595997
678.144616	11741.182544
678.483562	11711.217926
678.822458	11578.257493
679.161303	11557.797970
679.500098	11553.891076
679.838842	11505.392656
680.177535	11527.687158
680.516179	11591.195615
680.854771	11526.767148
681.193314	11747.176476
681.531805	11896.092161
681.870247	12302.646095
682.208638	12715.919888
682.546978	13034.616592
682.885268	13092.194131
683.223508	12781.946400
683.561697	12620.750465
683.899836	12520.247501
684.237925	12327.559477
684.575963	12238.933472
684.913951	12171.460149
685.251889	12113.998557
685.589776	12206.160931
685.927614	12139.610139
686.265401	12091.557860
686.603137	12137.533183
686.940824	12307.062146
687.278460	12418.801842
687.616046	12462.115435
687.953582	12634.265798
688.291068	12558.739231
688.628504	12794.541723
688.965889	12795.852423
689.303224	12770.820573
689.640510	12670.340295
689.977745	12363.631454
690.314930	12138.122998
690.652065	12049.595296
690.989150	11762.461255
691.326185	11536.748632
691.663170	11331.850934
692.000105	11089.817577
692.336990	10977.581327
692.673825	10728.208049
693.010610	10608.130285
693.347345	10405.062526
693.684030	10203.403769
694.020665	10145.319595
694.357251	9950.587383
694.693786	9897.718283
695.030272	9729.298374
695.366707	9608.270352
695.703093	9544.209890
696.039429	9536.504486
696.375716	9469.754568
696.711952	9336.519392
697.048139	9377.637564
697.384276	9329.116458
697.720363	9345.112039
698.056400	9283.554509
698.392388	9240.992048
698.728326	9196.889513
699.064214	9126.530129
699.400053	9178.431328
699.735842	8994.005756
700.071581	8954.531001
700.407270	8881.348570
700.742910	8797.453688
701.078501	8714.158703
701.414042	8589.987522
701.749533	8523.834981
702.084974	8385.077221
702.420366	8491.828695
702.755709	8377.230665
703.091002	8248.434226
703.426246	8268.122452
703.761440	8224.289619
704.096584	8180.849997
704.431679	8114.145449
704.766725	8105.822504
705.101721	8053.371819
705.436668	8088.420441
705.771565	7989.825554
706.106413	8071.832524
706.441212	8116.708876
706.775961	8068.613747
707.110661	8099.528623
707.445311	8246.984894
707.779913	8144.697362
708.114465	8277.461189
708.448967	8316.441912
708.783421	8444.121736
709.117825	8628.675857
709.452180	8667.628853
709.786485	8757.454653
710.120742	9040.273466
710.454949	9035.227271
710.789107	9137.308116
711.123216	9342.636833
711.457275	9508.657152
711.791286	9673.964148
712.125247	9666.961986
712.459159	9660.990739
712.793023	9912.420808
713.126837	9493.203495
713.460602	9637.985433
713.794318	9463.503537
714.127985	9497.120472
714.461602	9180.273870
714.795171	9124.591805
715.128691	8882.858396
715.462162	8624.632852
715.795584	8574.932116
716.128957	8432.801825
716.462281	8260.825382
716.795556	8310.276580
717.128782	8101.991227
717.461960	7835.664549
717.795088	7908.680621
718.128167	7817.486148
718.461198	7651.675036
718.794180	7589.295798
719.127113	7587.697753
719.459997	7438.366173
719.792833	7206.873868
720.125619	7268.214628
720.458357	7128.095757
720.791046	7112.253931
721.123686	7117.582430
721.456278	6955.910106
721.788821	6972.349308
722.121315	6869.272836
722.453761	6928.271980
722.786158	6878.115020
723.118506	6888.940898
723.450805	6856.012081
723.783056	6925.242246
724.115259	6828.580642
724.447412	6827.642987
724.779518	6875.418002
725.111574	6871.942127
725.443582	6957.374561
725.775542	6934.800274
726.107453	7126.333873
726.439315	7036.636623
726.771129	7092.467402
727.102895	7264.660614
727.434612	7374.154476
727.766281	7408.507419
728.097901	7497.640060
728.429473	7479.093655
728.760996	7453.209850
729.092471	7430.310409
729.423897	7381.451546
729.755276	7392.163998
730.086606	7314.290774
730.417887	7407.816781
730.749120	7604.721729
731.080305	7797.175339
731.411442	7921.797703
731.742530	7917.079183
732.073570	8020.705142
732.404562	8109.192515
732.735506	7952.997404
733.066401	8090.973785
733.397249	8033.577728
733.728048	7805.238665
734.058798	7461.552960
734.389501	7243.661688
734.720156	7066.802887
735.050762	6834.730850
735.381320	6734.600931
735.711831	6684.562438
736.042293	6579.923208
736.372707	6602.177382
736.703073	6457.778571
737.033391	6495.186453
737.363661	6511.378639
737.693883	6537.186826
738.024056	6623.085567
738.354182	6666.857906
738.684260	6707.053546
739.014290	6812.360729
739.344272	6929.736435
739.674207	6946.316790
740.004093	7018.007039
740.333931	7031.971035
740.663722	7044.631893
740.993464	7120.148377
741.323159	7115.974302
741.652806	6862.968873
741.982405	6865.761672
742.311956	6929.055879
742.641460	6771.943278
742.970915	6577.752991
743.300323	6569.377114
743.629683	6516.490369
743.958996	6384.659155
744.288260	6297.137162
744.617477	6240.129274
744.946647	6250.017497
745.275768	6083.538433
745.604842	6035.168562
745.933869	6021.133989
746.262847	5979.998174
746.591778	5967.125588
746.920662	5926.224186
747.249498	5914.652217
747.578286	5961.608045
747.907027	6040.035796
748.235720	6101.694148
748.564365	6066.219549
748.892963	6094.825576
749.221514	6247.375933
749.550017	6089.464309
749.878473	5960.935051
750.206881	6016.382702
750.535242	5959.014371
750.863555	5891.513321
751.191821	5905.189971
751.520039	5913.069295
751.848210	5818.968597
752.176334	5830.091903
752.504411	5886.893103
752.832440	5813.577083
753.160421	5744.757771
753.488356	5791.574967
753.816243	5816.934491
754.144082	5678.224622
754.471875	5644.597606
754.799620	5688.717784
755.127318	5703.115319
755.454969	5653.976672
755.782572	5623.303772
756.110129	5666.022509
756.437638	5649.865611
756.765100	5587.146096
757.092515	5589.896045
757.419882	5635.911697
757.747203	5619.752279
758.074477	5679.126989
758.401703	5672.981822
758.728882	5618.587772
759.056014	5668.785062
759.383099	5807.999046
759.710138	5812.074819
760.037129	5796.951357
760.364073	5804.840763
760.690970	5884.165839
761.017820	5867.484661
761.344623	5823.394730
761.671379	5919.043062
761.998088	6037.462287
762.324751	6271.969202
762.651366	6860.533996
762.977935	8140.974470
763.304456	9762.209547
763.630931	10687.525938
763.957359	10308.920161
764.283740	9376.919199
764.610074	8553.114002
764.936362	7571.162768
765.262602	6968.686910
765.588796	6435.358039
765.914943	6091.861378
766.241044	5931.560247
766.567097	5737.589250
766.893104	5478.864632
767.219064	5298.444256
767.544978	5232.684925
767.870845	5157.480992
768.196665	5051.808325
768.522438	4982.351307
768.848165	4947.940391
769.173846	4880.557808
769.499479	4842.650852
769.825066	4786.999034
770.150607	4727.861258
770.476101	4702.199264
770.801548	4700.417217
771.126949	4628.321155
771.452303	4570.173966
771.777611	4522.250237
772.102872	4547.284607
772.428087	4508.321529
772.753256	4469.010611
773.078378	4428.507460
773.403453	4356.923076
773.728482	4342.830530
774.053465	4298.458294
774.378401	4284.892549
774.703291	4287.977735
775.028135	4214.283628
775.352932	4165.654137
775.677683	4156.043177
776.002388	4171.136392
776.327046	4185.254143
776.651658	4107.461578
776.976224	4047.020664
777.300743	4052.392013
777.625216	4073.378337
777.949643	4072.894386
778.274024	4024.955533
778.598359	3982.166219
778.922647	4001.367974
779.246889	3997.297243
779.571086	3992.747601
779.895236	3977.601455
780.219339	3959.833908
780.543397	3951.631951
780.867409	4007.535826
781.191374	4022.071993
781.515294	3960.963126
781.839167	3952.879636
782.162995	3972.880414
782.486776	3955.440542
782.810511	3964.532263
783.134201	3964.166780
783.457844	3923.036005
783.781441	3866.726317
784.104993	3871.205382
784.428498	3891.329668
784.751958	3888.494019
785.075372	3869.662789
785.398739	3827.811130
785.722061	3838.952080
786.045337	3883.193246
786.368568	3917.362187
786.691752	3827.853980
787.014891	3875.127400
787.337983	4000.440402
787.661030	4156.093589
787.984031	4319.381603
788.306987	4493.412316
788.629897	4569.322011
788.952760	4529.794323
789.275579	4461.259837
789.598351	4396.039909
789.921078	4263.376904
790.243759	4060.893919
790.566395	4040.424314
790.888984	4036.872821
791.211529	3932.858694
791.534027	3869.456102
791.856480	3865.713045
792.178888	3800.208292
792.501249	3751.959408
792.823566	3764.146398
793.145836	3788.961478
793.468062	3740.929364
793.790241	3692.168803
794.112375	3726.451170
794.434464	3783.950571
794.756507	3812.231444
795.078505	3789.271509
795.400457	3822.311231
795.722364	3959.629741
796.044226	4064.536153
796.366042	4133.766318
796.687812	4121.095378
797.009538	4127.522849
797.331218	4081.920572
797.652852	4057.682704
797.974442	4035.579765
798.295986	4036.421638
798.617484	3958.492961
798.938938	3868.145402
799.260346	3908.898089
799.581709	3907.657966
799.903026	3830.336748
800.224299	3795.641007
800.545526	3788.396868
800.866708	3751.949326
801.187845	3689.171837
801.508936	3723.910428
801.829983	3727.850090
802.150984	3645.069303
802.471940	3634.684526
802.792851	3646.775733
803.113717	3644.328253
803.434538	3650.664984
803.755314	3593.992332
804.076045	3563.326993
804.396731	3583.935230
804.717372	3614.260291
805.037967	3600.742437
805.358518	3588.759614
805.679024	3613.030250
805.999485	3626.522898
806.319901	3630.913743
806.640272	3647.219355
806.960598	3659.091272
807.280879	3632.063126
807.601115	3647.060559
807.921306	3660.389369
808.241453	3703.902089
808.561554	3681.181608
808.881611	3613.783902
809.201623	3647.746156
809.521590	3665.117972
809.841513	3634.724855
810.161390	3663.134278
810.481223	3645.434787
810.801011	3584.938420
811.120755	3580.025815
811.440453	3612.697533
811.760107	3615.881022
812.079716	3576.532296
812.399281	3547.026422
812.718801	3565.769432
813.038276	3538.819424
813.357707	3536.782798
813.677093	3555.848442
813.996434	3504.874814
814.315731	3509.439579
814.634983	3515.042822
814.954191	3528.190151
815.273354	3556.405489
815.592473	3553.103533
815.911547	3556.256775
816.230577	3595.958382
816.549562	3648.824962
816.868502	3691.833567
817.187399	3714.944736
817.506250	3710.901731
817.825058	3683.757638
818.143821	3768.343158
818.462539	3875.301320
818.781213	3919.366045
819.099843	3974.062565
819.418429	4212.040314
819.736970	4454.567705
820.055466	4694.277091
820.373919	5058.223193
820.692327	5465.437518
821.010691	5889.839658
821.329011	7222.738379
821.647286	9906.308409
821.965517	14398.266352
822.283704	18419.375485
822.601847	20641.327057
822.919945	18873.452376
823.237999	16333.993812
823.556010	13852.672353
823.873976	11782.492280
824.191897	9707.674344
824.509775	8352.128240
824.827609	7222.813996
825.145398	6676.567168
825.463144	6558.609209
825.780845	6672.965264
826.098502	6852.894127
826.416116	7702.308385
826.733685	9009.204835
827.051210	10122.359660
827.368692	10204.979130
827.686129	8975.983631
828.003522	7467.282231
828.320872	6452.535771
828.638177	5754.207414
828.955439	5203.053022
829.272656	4704.457701
829.589830	4420.469341
829.906960	4245.294286
830.224046	4064.377356
830.541088	3936.011935
830.858086	3896.048188
831.175041	3818.885767
831.491952	3798.811892
831.808819	3808.934529
832.125642	3879.296434
832.442421	4019.793392
832.759157	4291.277170
833.075849	4826.272143
833.392497	5678.726217
833.709101	6445.354647
834.025662	6796.791126
834.342179	6456.442665
834.658653	5796.827849
834.975083	5154.259694
835.291469	4587.323971
835.607811	4174.100590
835.924110	4034.747975
836.240366	3841.371834
836.556578	3631.259062
836.872746	3523.907691
837.188871	3488.685149
837.504952	3422.013369
837.820990	3338.927592
838.136984	3291.598719
838.452935	3313.782316
838.768842	3313.573108
839.084706	3331.000377
839.400526	3486.363698
839.716303	3813.728667
840.032037	4328.117923
840.347727	4602.628914
840.663373	4342.911189
840.978977	3962.495637
841.294537	3654.728154
841.610054	3429.111313
841.925527	3320.741629
842.240957	3249.240423
842.556344	3198.803679
842.871687	3139.557519
843.186987	3087.109354
843.502244	3049.525032
843.817458	3016.939013
844.132629	2984.224445
844.447756	2995.587206
844.762840	2982.150010
845.077881	2949.758076
845.392879	2933.490273
845.707833	2929.835436
846.022745	2924.106165
846.337613	2927.314859
846.652438	2917.323293
846.967221	2913.169382
847.281960	2897.229253
847.596656	2896.951990
847.911309	2896.533574
848.225919	2890.852194
848.540485	2885.904301
848.855009	2886.625186
849.169490	2873.268649
849.483928	2862.273893
849.798323	2865.512834
850.112675	2862.283975
850.426984	2872.666231
850.741251	2872.446941
851.055474	2862.155425
851.369654	2853.250227
851.683792	2859.261803
851.997887	2865.780015
852.311938	2869.404605
852.625947	2856.763911
852.939914	2862.006711
853.253837	2867.428472
853.567718	2853.419106
853.881555	2850.361646
854.195350	2866.712628
854.509103	2862.604088
854.822812	2854.598736
855.136479	2851.745443
855.450103	2852.952799
855.763685	2845.880060
856.077224	2839.545850
856.390720	2855.019672
856.704173	2865.548122
857.017584	2855.823736
857.330953	2853.492203
857.644278	2863.483769
857.957561	2873.167826
858.270802	2875.632950
858.584000	2874.382744
858.897155	2864.252545
859.210268	2861.714324
859.523339	2857.716689
859.836367	2856.945393
860.149352	2854.271061
860.462295	2848.592201
860.775195	2857.628469
861.088054	2856.947913
861.400869	2838.870336
861.713642	2837.940243
862.026373	2849.572705
862.339062	2855.206195
862.651708	2860.106196
862.964312	2864.938142
863.276873	2858.702235
863.589392	2868.731611
863.901869	2877.541027
864.214303	2900.397618
864.526696	2913.900349
864.839045	2909.630492
865.151353	2912.985380
865.463619	2910.762231
865.775842	2910.119484
866.088023	2927.675302
866.400162	2935.821807
866.712258	2908.990265
867.024313	2895.515261
867.336325	2905.917682
867.648296	2926.377205
867.960224	2918.959147
868.272110	2902.784605
868.583954	2909.176788
868.895755	2924.206988
869.207515	2910.653846
869.519233	2918.182809
869.830909	2925.134560
870.142542	2932.930705
870.454134	2934.248967
870.765684	2936.083947
871.077191	2939.159050
871.388657	2945.238682
871.700081	2956.785445
872.011463	2968.710294
872.322803	2969.514358
872.634101	2968.584265
872.945357	2986.434991
873.256571	3010.874505
873.567744	3007.406191
873.878874	2995.551918
874.189963	3019.711648
874.501010	3022.166690
874.812015	3011.885256
875.122979	3012.384331
875.433900	3007.809483
875.744780	3012.709485
876.055618	3022.645599
876.366415	3019.517563
876.677169	3030.091383
876.987882	3027.475025
877.298554	3018.017820
877.609183	3039.367107
877.919771	3060.623132
878.230317	3092.193358
878.540822	3140.535502
878.851285	3180.484126
879.161707	3218.885116
879.472087	3318.619303
879.782425	3539.928478
880.092722	3964.365905
880.402977	4486.561388
880.713191	5100.228608
881.023363	6235.347740
881.333494	7512.675301
881.643583	8077.652536
881.953631	7795.370606
882.263637	7171.187540
882.573602	6596.589262
882.883526	6019.437641
883.193408	5447.811124
883.503248	4988.287266
883.813048	4690.092933
884.122806	4386.754104
884.432522	4079.528544
884.742197	3845.450127
885.051831	3652.532731
885.361424	3515.587266
885.670975	3446.130249
885.980485	3362.134543
886.289954	3283.827780
886.599382	3244.834455
886.908768	3205.155533
887.218113	3159.752381
887.527417	3104.990327
887.836680	3053.121895
888.145901	3047.937068
888.455082	3040.892056
888.764221	2989.164776
889.073319	2960.347020
889.382376	2960.863738
889.691392	2961.108234
890.000366	2961.685446
890.309300	2948.911163
890.618193	2964.221147
890.927044	2980.804022
891.235855	2977.895277
891.544625	2961.534212
891.853353	2973.925368
892.162041	2989.895743
892.470687	3029.698173
892.779293	3080.066862
893.087858	3127.589819
893.396381	3196.885520
893.704864	3314.883808
894.013306	3549.483985
894.321707	3848.747042
894.630068	4053.054925
894.938387	4048.744738
895.246665	4009.370806
895.554903	3892.163979
895.863100	3692.947662
896.171256	3528.474976
896.479371	3392.280643
896.787446	3267.547374
897.095480	3168.440810
897.403473	3102.202569
897.711425	3064.832495
898.019336	3054.417471
898.327207	3027.767412
898.635038	2993.923625
898.942827	2979.314361
899.250576	2965.022690
899.558284	2934.566559
899.865952	2918.384455
900.173579	2897.909809
900.481165	2891.464694
900.788711	2880.051522
901.096216	2854.946575
901.403681	2841.385872
901.711105	2852.330217
902.018489	2849.071111
902.325832	2847.397447
902.633135	2857.041175
902.940397	2887.063767
903.247619	2965.612505
903.554800	3153.823984
903.861941	3490.111795
904.169041	3910.770878
904.476101	4213.547619
904.783121	4179.935726
905.090100	3938.005712
905.397039	3665.342303
905.703938	3416.324427
906.010796	3236.473701
906.317614	3126.505971
906.624391	3033.597506
906.931129	2960.170580
907.237826	2899.152453
907.544483	2851.604290
907.851099	2823.537666
908.157675	2803.466312
908.464211	2783.205915
908.770707	2768.523554
909.077163	2753.052253
909.383578	2741.281159
909.689954	2732.857391
909.996289	2730.278841
910.302584	2732.275138
910.608839	2732.340673
910.915054	2727.745661
911.221229	2716.095554
911.527363	2719.886502
911.833458	2725.487224
912.139513	2732.139027
912.445527	2734.621795
912.751502	2747.585122
913.057436	2751.660895
913.363331	2764.621701
913.669186	2784.922428
913.975000	2819.091369
914.280775	2877.629247
914.586510	2946.975359
914.892205	3022.690970
915.197859	3147.782161
915.503475	3336.724607
915.809050	3548.853841
916.114585	3693.348433
916.420081	3718.224007
916.725536	3662.854494
917.030952	3544.745300
917.336328	3419.906166
917.641665	3289.793986
917.946961	3186.495702
918.252218	3117.028602
918.557435	3043.712581
918.862612	2984.224445
919.167750	2937.102260
919.472848	2897.360323
919.777906	2868.897969
920.082925	2844.889473
920.387904	2814.433342
920.692843	2797.684109
920.997743	2787.531225
921.302603	2773.572270
921.607423	2763.255549
921.912204	2752.401944
922.216946	2741.840727
922.521647	2731.264386
922.826310	2721.746688
923.130932	2714.797457
923.435516	2706.076261
923.740059	2703.298585
924.044564	2691.197296
924.349028	2688.235618
924.653454	2682.095492
924.957840	2677.301355
925.262186	2670.710046
925.566493	2665.873059
925.870761	2663.763336
926.174989	2656.378046
926.479178	2654.026348
926.783328	2650.608445
927.087438	2651.399907
927.391509	2646.154586
927.695541	2646.474699
927.999533	2637.907258
928.303486	2635.588327
928.607400	2637.987917
928.911275	2636.404994
929.215110	2634.113790
929.518906	2637.325005
929.822663	2634.287710
930.126381	2633.844088
930.430060	2634.363327
930.733699	2634.388533
931.037299	2637.854326
931.340861	2637.254429
931.644383	2639.681744
931.947866	2636.904069
932.251309	2632.263687
932.554714	2635.154788
932.858080	2633.604633
933.161407	2632.051958
933.464694	2630.617750
933.767943	2626.685650
934.071153	2627.552728
934.374323	2628.629015
934.677455	2628.132461
934.980548	2625.463170
935.283602	2626.695732
935.586617	2629.198665
935.889593	2627.280506
936.192530	2623.716410
936.495428	2628.346710
936.798287	2627.169601
937.101108	2632.200672
937.403890	2636.049593
937.706632	2640.574029
938.009336	2645.963022
938.312002	2655.518529
938.614628	2663.385250
938.917216	2670.541168
939.219765	2672.340860
939.522275	2670.568894
939.824747	2668.721311
940.127179	2664.925322
940.429573	2663.667554
940.731929	2658.686894
941.034246	2656.897285
941.336524	2654.994249
941.638763	2651.704896
941.940964	2649.879999
942.243126	2646.260450
942.545250	2646.986376
942.847335	2643.641571
943.149381	2639.477578
943.451389	2635.605972
943.753359	2631.174797
944.055290	2633.256794
944.357182	2630.448871
944.659036	2632.051958
944.960851	2629.995167
945.262628	2627.414097
945.564367	2630.295116
945.866067	2629.496093
946.167729	2629.929632
946.469352	2630.015332
946.770937	2629.168418
947.072484	2626.138685
947.373992	2628.681947
947.675462	2627.945938
947.976893	2621.926801
948.278286	2620.109465
948.579641	2621.082407
948.880958	2615.620317
949.182236	2618.839094
949.483476	2619.890174
949.784678	2621.266409
950.085841	2620.656430
950.386967	2619.837242
950.688054	2621.132819
950.989103	2619.338168
951.290114	2622.438478
951.591087	2626.804117
951.892021	2627.711525
952.192917	2630.169087
952.493776	2629.329735
952.794596	2632.798049
953.095378	2630.653038
953.396122	2631.371402
953.696828	2631.255456
953.997496	2629.105404
954.298126	2624.911164
954.598718	2623.847480
954.899272	2620.631224
955.199788	2619.421347
955.500266	2615.456480
955.800706	2615.678290
956.101108	2611.904987
956.401472	2610.884153
956.701798	2608.925665
957.002087	2607.710747
957.302337	2606.652104
957.602550	2602.931733
957.902724	2601.689088
958.202861	2600.922833
958.502960	2600.448965
958.803022	2602.049531
959.103045	2599.375199
959.403031	2596.844540
959.702979	2597.908223
960.002889	2599.002153
960.302762	2596.506782
960.602596	2597.605754
960.902393	2595.249014
961.202153	2596.801690
961.501875	2593.285485
961.801559	2593.870259
962.101205	2593.293047
962.400814	2594.104672
962.700385	2594.747420
962.999918	2593.033427
963.299414	2590.268354
963.598873	2593.703901
963.898293	2587.722572
964.197677	2592.277254
964.497022	2593.787080
964.796331	2590.182655
965.095601	2591.442943
965.394835	2593.625763
965.694030	2594.399580
965.993189	2593.824888
966.292309	2591.967223
966.591393	2589.464290
966.890439	2590.628797
967.189447	2592.801534
967.488419	2590.626276
967.787353	2589.784404
968.086249	2588.899681
968.385108	2593.429158
968.683930	2591.778180
968.982714	2592.849425
969.281462	2592.428489
969.580172	2594.185331
969.878844	2592.413365
970.177480	2592.917481
970.476078	2590.323807
970.774639	2590.394383
971.073162	2592.804055
971.371649	2590.185175
971.670098	2590.349013
971.968510	2589.146698
972.266885	2592.289857
972.565223	2594.331524
972.863524	2592.977975
973.161788	2593.214909
973.460014	2592.615012
973.758204	2593.167018
974.056356	2592.415886
974.354471	2592.884713
974.652550	2587.614187
974.950591	2592.751123
975.248595	2591.558890
975.546563	2591.004363
975.844493	2592.219281
976.142386	2591.654672
976.440243	2591.911771
976.738062	2590.028900
977.035845	2590.739702
977.333590	2589.360947
977.631299	2592.572162
977.928971	2588.463621
978.226606	2585.718713
978.524204	2587.692325
978.821765	2587.016810
979.119290	2588.007397
979.416777	2588.395566
979.714228	2590.656523
980.011642	2590.338931
980.309020	2590.601071
980.606360	2590.071749
980.903664	2589.653334
981.200931	2588.902202
981.498162	2591.019486
981.795356	2588.829105
982.092513	2592.753643
982.389633	2594.966710
982.686717	2599.264293
982.983764	2601.845364
983.280775	2607.705706
983.577749	2607.660335
983.874686	2608.474482
984.171587	2603.985334
984.468451	2602.084819
984.765279	2599.216402
985.062070	2596.985692
985.358824	2596.073243
985.655543	2593.804724
985.952224	2591.649631
986.248869	2590.477562
986.545478	2588.342634
986.842050	2590.636359
987.138586	2591.440423
987.435086	2589.625607
987.731549	2588.173755
988.027975	2586.711820
988.324366	2586.220308
988.620719	2585.910277
988.917037	2585.779207
989.213318	2585.743919
989.509563	2586.668971
989.805772	2590.795155
990.101944	2586.668971
990.398080	2585.522108
990.694180	2585.017993
990.990244	2585.229721
991.286271	2584.702921
991.582262	2585.338106
991.878217	2588.040164
992.174136	2586.270719
992.470019	2584.990266
992.765865	2584.599577
993.061676	2581.285018
993.357450	2584.241655
993.653188	2583.959350
993.948890	2589.108889
994.244556	2585.998497
994.540186	2589.605443
994.835780	2589.426482
995.131337	2586.968919
995.426859	2588.793817
995.722345	2587.541090
996.017795	2589.854980
996.313208	2589.277768
996.608586	2591.175762
996.903928	2592.925042
997.199234	2593.678695
997.494504	2593.494693
997.789738	2588.861872
998.084936	2588.559403
998.380099	2587.747777
998.675225	2590.432192
998.970316	2588.461101
999.265371	2590.293560
999.560390	2584.670153
999.855373	2585.897674
1000.150320	2586.237952
1000.445232	2586.081676
1000.740108	2585.086048
1001.034948	2588.355237
1001.329752	2585.249886
1001.624521	2584.304669
1001.919254	2585.038157
1002.213951	2587.548652
1002.508613	2587.178127
1002.803239	2581.892477
1003.097829	2583.853486
1003.392384	2584.352560
1003.686903	2582.310893
1003.981386	2585.103692
1004.275834	2581.922724
1004.570246	2580.397775
1004.864623	2583.263671
1005.158964	2584.561768
1005.453270	2584.707962
1005.747540	2584.100503
1006.041775	2584.720565
1006.335974	2585.706110
1006.630138	2586.028744
1006.924266	2588.168714
1007.218359	2583.379618
1007.512416	2581.141345
1007.806438	2578.590522
1008.100425	2582.008424
1008.394376	2579.306365
1008.688292	2582.769638
1008.982172	2583.651840
1009.276017	2582.734350
1009.569827	2583.193095
1009.863602	2583.699731
1010.157341	2583.833322
1010.451045	2582.759556
1010.744714	2581.463979
1011.038347	2585.786769
1011.331945	2585.194433
1011.625508	2584.244176
1011.919036	2581.796695
1012.212528	2579.790316
1012.505986	2583.921542
1012.799408	2584.155955
1013.092795	2584.793661
1013.386147	2585.703590
1013.679464	2585.408682
1013.972745	2581.799216
1014.265992	2581.579926
1014.559204	2585.572520
1014.852380	2583.540935
1015.145521	2583.324165
1015.438628	2583.924062
1015.731699	2581.786613
1016.024736	2581.726119
1016.317737	2581.834504
1016.610703	2583.787951
1016.903635	2584.629824
1017.196531	2580.765779
1017.489393	2584.077817
1017.782219	2581.907601
1018.075011	2584.334916
1018.367768	2582.182344
1018.660490	2582.144535
1018.953177	2582.144535
1019.245829	2582.144535
