Dividing Wavelength (nm)	Counts (n)	Blue Motor Position (mm): 4.900000	Red Motor Position (mm): 0.000000	
326.493990	2159.751295
326.888308	2159.751295
327.282561	2159.751295
327.676750	2120.142950
328.070874	2115.253030
328.464933	2117.748402
328.858929	2119.812754
329.252859	2123.767539
329.646726	2132.093005
330.040528	2146.394758
330.434265	2154.422796
330.827938	2173.606907
331.221547	2189.627694
331.615091	2210.213245
332.008571	2230.755947
332.401986	2248.924266
332.795338	2266.144847
333.188625	2287.453805
333.581847	2302.410908
333.975006	2317.917497
334.368100	2341.827690
334.761129	2356.426872
335.154095	2371.169726
335.546996	2390.159753
335.939833	2407.710530
336.332606	2423.650658
336.725315	2433.864036
337.117960	2448.906839
337.510540	2461.184569
337.903056	2469.842751
338.295508	2477.669142
338.687896	2485.324134
339.080220	2492.926194
339.472480	2501.173522
339.864676	2507.359018
340.256807	2513.075686
340.648875	2515.165244
341.040879	2517.196829
341.432818	2522.558097
341.824694	2526.873324
342.216506	2526.308715
342.608253	2528.224353
342.999937	2525.431554
343.391557	2528.052954
343.783113	2525.277799
344.174605	2526.023890
344.566033	2524.403159
344.957397	2525.232429
345.348697	2522.883251
345.739934	2521.635565
346.131106	2520.216481
346.522215	2517.970647
346.913260	2516.571726
347.304241	2511.878412
347.695159	2512.354801
348.086012	2509.932527
348.476802	2508.044615
348.867528	2501.964983
349.258191	2500.525734
349.648789	2503.137051
350.039324	2496.394508
350.429796	2502.925323
350.820203	2500.061948
351.210548	2498.920126
351.600828	2493.541215
351.991045	2496.641525
352.381198	2494.173880
352.771288	2495.106493
353.161314	2494.650269
353.551276	2492.427120
353.941175	2491.786893
354.331010	2489.503251
354.720782	2492.880824
355.110490	2493.639518
355.500135	2490.740854
355.889717	2490.602222
356.279235	2490.723210
356.668689	2491.413848
357.058080	2494.189003
357.447408	2492.714466
357.836672	2491.464260
358.225873	2492.550628
358.615010	2495.275372
359.004084	2495.814775
359.393095	2494.005001
359.782043	2494.599857
360.170927	2495.827378
360.559748	2495.141781
360.948505	2496.286123
361.337199	2497.339724
361.725830	2496.510455
362.114398	2496.563387
362.502903	2498.368120
362.891344	2498.063130
363.279722	2497.175887
363.668037	2501.720487
364.056289	2499.880466
364.444478	2501.435662
364.832603	2503.137051
365.220665	2500.702174
365.608665	2499.209993
365.996601	2501.768378
366.384474	2502.590086
366.772284	2501.118069
367.160031	2502.181753
367.547715	2503.895745
367.935336	2504.150323
368.322893	2500.704695
368.710388	2504.745179
369.097820	2500.858450
369.485189	2499.194869
369.872495	2502.700992
370.259738	2505.299706
370.646918	2506.804491
371.034035	2507.953874
371.421090	2507.832886
371.808081	2504.437669
372.195010	2506.743997
372.581875	2506.721312
372.968678	2510.408916
373.355418	2508.846158
373.742096	2511.427229
374.128710	2508.788185
374.515262	2507.099398
374.901751	2509.191477
375.288177	2509.619975
375.674540	2509.451097
376.060841	2511.301200
376.447079	2511.616272
376.833254	2508.286590
377.219367	2509.907321
377.605417	2511.991838
377.991404	2509.428411
378.377329	2509.801457
378.763191	2511.119718
379.148991	2511.903618
379.534727	2513.630213
379.920402	2512.508556
380.306013	2511.207939
380.691563	2511.906138
381.077049	2511.525531
381.462474	2512.342198
381.847835	2513.373114
382.233134	2510.981087
382.618371	2511.459996
383.003545	2514.212466
383.388657	2514.605676
383.773706	2514.325892
384.158693	2513.980573
384.543618	2513.360511
384.928480	2516.085255
385.313280	2513.060563
385.698017	2513.521828
386.082692	2512.564009
386.467305	2515.714730
386.851856	2516.599453
387.236344	2517.542148
387.620770	2514.033505
388.005133	2514.540141
388.389435	2515.729854
388.773674	2510.847496
389.157851	2517.794206
389.541965	2515.369411
389.926018	2517.345543
390.310008	2515.470234
390.693936	2516.518794
391.077802	2516.775893
391.461606	2517.852179
391.845348	2517.436284
392.229027	2519.208250
392.612645	2515.807992
392.996200	2516.831346
393.379694	2517.138856
393.763125	2520.201357
394.146494	2520.455935
394.529801	2517.912673
394.913047	2518.900739
395.296230	2521.103724
395.679351	2519.969464
396.062410	2519.651871
396.445408	2520.443333
396.828343	2520.503826
397.211217	2522.411903
397.594028	2521.688498
397.976778	2519.309073
398.359466	2521.141532
398.742092	2520.511388
399.124656	2522.124557
399.507158	2519.291429
399.889598	2521.285205
400.271977	2523.052130
400.654294	2520.624814
401.036549	2522.122037
401.418742	2521.524660
401.800874	2524.093128
402.182944	2520.967613
402.564952	2522.316121
402.946898	2523.694877
403.328783	2522.996677
403.710606	2524.657737
404.092367	2522.376615
404.474067	2523.924249
404.855705	2523.778056
405.237282	2522.396780
405.618797	2525.176976
406.000250	2525.113962
406.381642	2523.783097
406.762972	2524.141019
407.144240	2522.248066
407.525447	2524.960206
407.906593	2519.493075
408.287677	2524.849301
408.668700	2523.838550
409.049661	2524.687984
409.430560	2526.288550
409.811399	2525.124044
410.192176	2526.459950
410.572891	2527.241328
410.953545	2528.259642
411.334138	2525.532377
411.714669	2527.349713
412.095139	2525.872655
412.475547	2528.267203
412.855894	2527.352234
413.236180	2526.094466
413.616405	2528.098325
413.996568	2527.979858
414.376670	2528.138654
414.756711	2530.044210
415.136691	2527.531195
415.516609	2529.915661
415.896466	2528.141174
416.276262	2529.141843
416.655997	2528.546987
417.035670	2527.954652
417.415283	2530.490352
417.794834	2528.574714
418.174324	2531.410363
418.553753	2529.678726
418.933121	2525.169414
419.312428	2528.375588
419.691674	2528.945238
420.070859	2528.978006
420.449983	2529.426669
420.829045	2530.787780
421.208047	2528.892306
421.586988	2530.427338
421.965867	2534.150230
422.344686	2530.389529
422.723444	2529.809796
423.102141	2533.401618
423.480777	2528.229395
423.859352	2533.368851
424.237866	2531.513706
424.616319	2531.675023
424.994712	2530.576052
425.373044	2532.927750
425.751314	2529.910619
426.129524	2530.167718
426.507673	2529.472039
426.885762	2531.208717
427.263789	2533.000847
427.641756	2532.655528
428.019662	2532.285003
428.397508	2530.419776
428.775292	2532.093439
429.153016	2531.019673
429.530679	2532.847092
429.908282	2535.304654
430.285824	2533.749458
430.663305	2531.531350
431.040726	2533.575538
431.418086	2533.948584
431.795385	2533.373892
432.172624	2532.937832
432.549802	2535.813811
432.926920	2533.716691
433.303977	2534.278779
433.680974	2531.765764
434.057910	2536.078471
434.434786	2533.885569
434.811601	2534.624098
435.188355	2532.874818
435.565050	2535.216434
435.941683	2534.513193
436.318257	2535.138296
436.694770	2534.319108
437.071222	2530.540764
437.447614	2534.702236
437.823946	2535.954963
438.200218	2535.261804
438.576429	2535.919675
438.952580	2536.980838
439.328670	2536.108718
439.704700	2534.356917
440.080670	2536.000333
440.456580	2537.613502
440.832429	2535.624767
441.208218	2536.305323
441.583947	2536.113759
441.959616	2534.414890
442.335224	2537.411856
442.710773	2535.634850
443.086261	2536.436393
443.461689	2536.484284
443.837057	2537.253060
444.212365	2536.103677
444.587612	2533.084026
444.962800	2534.208203
445.337927	2536.517052
445.712995	2529.396422
446.088002	2538.228523
446.462949	2535.521424
446.837837	2537.684079
447.212664	2536.862371
447.587431	2536.325488
447.962139	2537.273225
448.336786	2540.537372
448.711374	2537.951260
449.085901	2537.981507
449.460369	2538.611651
449.834776	2538.294058
450.209124	2536.149047
450.583412	2539.750952
450.957640	2536.673327
451.331808	2538.946888
451.705917	2538.357073
452.079965	2538.498225
452.453954	2539.582073
452.827883	2540.789429
453.201752	2537.192566
453.575562	2539.975283
453.949311	2539.650129
454.323001	2537.532844
454.696632	2540.305479
455.070202	2539.153575
455.443713	2538.679707
455.817164	2538.909079
456.190556	2536.035621
456.563888	2539.965201
456.937160	2539.791281
457.310373	2539.624923
457.683526	2541.023843
458.056619	2540.418905
458.429653	2537.487474
458.802628	2538.644418
459.175542	2539.534182
459.548398	2540.282793
459.921194	2541.611137
460.293930	2540.852444
460.666607	2541.684234
461.039224	2541.837989
461.411782	2539.980324
461.784280	2541.124666
462.156719	2540.469316
462.529099	2541.520397
462.901419	2539.725746
463.273680	2537.477391
463.645882	2536.075951
464.018024	2538.669624
464.390106	2535.617206
464.762130	2538.674665
465.134094	2539.687937
465.505999	2546.125491
465.877845	2542.410160
466.249631	2542.115253
466.621358	2542.324461
466.993026	2540.948226
467.364634	2545.492826
467.736184	2544.782023
468.107674	2541.757331
468.479105	2541.197763
468.850477	2541.064172
469.221790	2542.284132
469.593043	2540.897814
469.964238	2543.549461
470.335373	2541.343956
470.706449	2541.611138
471.077467	2541.873278
471.448425	2541.157434
471.819324	2540.272711
472.190164	2544.766900
472.560945	2543.156251
472.931667	2542.437887
473.302330	2542.077444
473.672934	2541.999306
474.043479	2541.487629
474.413965	2541.601055
474.784393	2543.559543
475.154761	2539.672814
475.525070	2542.994934
475.895321	2541.822866
476.265513	2543.093237
476.635645	2543.085675
477.005719	2542.286652
477.375734	2547.010213
477.745691	2543.496529
478.115588	2546.483413
478.485427	2542.694986
478.855207	2545.094575
479.224928	2543.783875
479.594591	2542.581560
479.964194	2544.046015
480.333739	2544.008206
480.703226	2546.611962
481.072653	2544.262784
481.442022	2542.417722
481.811333	2542.049718
482.180584	2540.396219
482.549777	2541.898483
482.918912	2537.532844
483.287988	2543.015099
483.657005	2547.085831
484.025964	2544.282949
484.394864	2546.853938
484.763706	2546.130532
485.132489	2545.137425
485.501213	2545.964174
485.869879	2545.034081
486.238487	2545.850748
486.607036	2548.520039
486.975527	2542.228679
487.343959	2546.546427
487.712333	2543.582229
488.080648	2544.945861
488.448905	2545.044163
488.817104	2542.831097
489.185244	2543.519214
489.553326	2546.158258
489.921350	2545.969215
490.289315	2544.441745
490.657222	2543.710778
491.025070	2544.477033
491.392861	2542.069882
491.760593	2545.666746
492.128267	2546.523742
492.495883	2545.397044
492.863440	2546.869061
493.230939	2547.085831
493.598380	2545.084493
493.965763	2546.954761
494.333088	2544.958464
494.700354	2544.517363
495.067563	2547.166489
495.434713	2545.288659
495.801805	2542.286652
496.168839	2546.276725
496.535815	2545.102137
496.902733	2547.264792
497.269593	2545.520552
497.636395	2546.674977
498.003139	2545.023999
498.369825	2544.592980
498.736453	2545.709596
499.103023	2546.327137
499.469535	2544.378731
499.835989	2547.703372
500.202385	2543.473844
500.568723	2544.109029
500.935003	2543.199101
501.301226	2537.023687
501.667390	2544.451828
502.033497	2549.135060
502.399546	2547.557178
502.765537	2546.077600
503.131470	2545.873433
503.497345	2544.605583
503.863163	2545.981818
504.228923	2545.800336
504.594625	2548.635985
504.960269	2546.112888
505.325856	2546.478372
505.691385	2548.484751
506.056856	2547.680687
506.422270	2549.200595
506.787625	2546.581715
507.152924	2546.753114
507.518164	2546.133052
507.883347	2547.232024
508.248472	2549.014072
508.613540	2546.450645
508.978550	2549.747560
509.343503	2543.919986
509.708398	2546.579195
510.073236	2546.223793
510.438016	2548.693959
510.802738	2548.048691
511.167403	2547.249668
511.532010	2545.593649
511.896561	2546.851417
512.261053	2545.321427
512.625488	2548.124308
512.989866	2547.214380
513.354186	2544.918134
513.718449	2548.837632
514.082655	2547.012734
514.446803	2548.141952
514.810894	2548.754453
515.174927	2551.191850
515.538904	2548.033567
515.902822	2550.299566
516.266684	2545.765048
516.630488	2548.399051
516.994235	2546.543907
517.357925	2547.539534
517.721558	2549.490461
518.085133	2543.937630
518.448651	2546.327137
518.812112	2542.442928
519.175516	2546.067518
519.538863	2542.878988
519.902152	2550.302087
520.265385	2548.250337
520.628560	2546.085162
520.991678	2549.382076
521.354739	2546.881664
521.717743	2546.349822
522.080690	2549.180430
522.443580	2546.798485
522.806413	2548.472148
523.169189	2546.770758
523.531908	2547.272353
523.894569	2550.105482
524.257174	2546.460727
524.619722	2547.211859
524.982213	2548.222611
525.344647	2546.523742
525.707025	2550.347457
526.069345	2545.475182
526.431608	2548.482230
526.793815	2545.944009
527.155964	2547.650440
527.518057	2550.602035
527.880093	2544.416540
528.242072	2550.949875
528.603995	2548.635985
528.965860	2548.557847
529.327669	2546.516180
529.689421	2546.274205
530.051117	2549.170348
530.412755	2547.579864
530.774337	2547.078269
531.135862	2549.200595
531.497331	2544.850079
531.858743	2544.839997
532.220098	2547.287477
532.581396	2547.108516
532.942638	2551.577499
533.303824	2550.750749
533.664953	2549.266130
534.026025	2552.714279
534.387040	2551.128836
534.747999	2547.721016
535.108902	2545.139945
535.469748	2547.347971
535.830537	2549.326623
536.191270	2549.308979
536.551947	2545.046684
536.912567	2542.200953
537.273131	2547.272353
537.633638	2542.911755
537.994089	2550.564227
538.354483	2548.273022
538.714821	2551.406099
539.075103	2546.357384
539.435328	2547.978115
539.795497	2549.114895
540.155609	2546.243958
540.515665	2547.698331
540.875665	2549.767724
541.235609	2547.194215
541.595496	2549.750080
541.955328	2547.675646
542.315102	2548.227652
542.674821	2548.341078
543.034483	2551.209494
543.394090	2549.871068
543.753640	2549.898794
544.113134	2548.595656
544.472571	2546.324616
544.831953	2549.626572
545.191278	2552.522715
545.550548	2549.530790
545.909761	2549.734957
546.268918	2548.492312
546.628019	2549.876109
546.987064	2546.339740
547.346053	2548.648588
547.704986	2547.559699
548.063863	2548.462066
548.422684	2550.115564
548.781449	2546.299411
549.140158	2547.332847
549.498811	2547.844524
549.857408	2548.439380
550.215949	2545.792775
550.574434	2548.315872
550.932864	2550.571788
551.291237	2548.273022
551.649555	2551.741336
552.007817	2549.818136
552.366022	2549.475338
552.724173	2549.003990
553.082267	2549.795451
553.440305	2547.088351
553.798288	2551.965667
554.156215	2548.013403
554.514086	2545.240768
554.871902	2545.699513
555.229661	2547.748742
555.587365	2546.601880
555.945014	2551.771583
556.302606	2550.102961
556.660143	2549.714792
557.017625	2549.775286
557.375050	2549.767724
557.732421	2546.480892
558.089735	2551.668239
558.446994	2549.767724
558.804197	2549.009031
559.161345	2548.343598
559.518437	2547.882333
559.875474	2549.172868
560.232455	2549.601366
560.589381	2549.316541
560.946251	2549.187992
561.303065	2552.051367
561.659825	2549.319062
562.016528	2550.347457
562.373177	2551.612787
562.729770	2552.174875
563.086307	2549.843342
563.442789	2549.487940
563.799216	2548.774617
564.155587	2550.460883
564.511904	2546.838814
564.868164	2552.124464
565.224370	2550.554144
565.580520	2548.825029
565.936615	2551.028013
566.292654	2550.213867
566.648638	2549.334185
567.004567	2550.327293
567.360441	2550.047508
567.716260	2549.550955
568.072023	2552.545400
568.427732	2550.286963
568.783385	2548.968702
569.138982	2548.883002
569.494525	2548.915769
569.850013	2550.148332
570.205445	2550.642365
570.560823	2550.619679
570.916145	2550.556665
571.271412	2548.109185
571.626625	2550.907025
571.981782	2552.046326
572.336884	2546.899308
572.691931	2546.163299
573.046923	2546.178423
573.401860	2547.416026
573.756743	2551.698486
574.111570	2548.467107
574.466342	2551.126315
574.821059	2547.658002
575.175722	2549.840821
575.530330	2549.866027
575.884882	2550.128167
576.239380	2548.799823
576.593823	2549.979453
576.948211	2549.843342
577.302544	2552.069011
577.656823	2548.373845
578.011047	2549.009031
578.365216	2548.630944
578.719330	2552.305945
579.073389	2547.655481
579.427394	2551.514484
579.781344	2551.269988
580.135239	2551.796789
580.489080	2550.410472
580.842866	2551.630431
581.196597	2550.644885
581.550273	2549.578681
581.903895	2547.577343
582.257463	2550.244113
582.610975	2552.046326
582.964434	2551.975750
583.317837	2548.958619
583.671186	2548.988866
584.024481	2548.421736
584.377721	2549.929041
584.730906	2552.621018
585.084037	2550.871737
585.437113	2550.392827
585.790135	2551.663198
586.143103	2549.417364
586.496016	2553.697304
586.848874	2550.201264
587.201679	2551.801830
587.554428	2553.271326
587.907124	2551.264947
588.259765	2551.292673
588.612352	2552.000956
588.964884	2549.460214
589.317362	2552.830225
589.669786	2551.716130
590.022155	2546.087682
590.374470	2548.008362
590.726731	2548.073897
591.078937	2546.589277
591.431090	2550.463404
591.783188	2552.588250
592.135232	2553.730071
592.487222	2550.256716
592.839157	2550.672612
593.191038	2551.791748
593.542866	2549.558517
593.894639	2551.950544
594.246358	2547.781510
594.598022	2548.943496
594.949633	2551.842159
595.301190	2547.897456
595.652692	2549.881150
596.004141	2548.933413
596.355535	2550.596994
596.706876	2550.501212
597.058162	2552.089176
597.409395	2552.908363
597.760573	2550.390307
598.111698	2549.308979
598.462768	2551.965667
598.813785	2549.515667
599.164748	2549.624052
599.515657	2548.920811
599.866511	2551.234700
600.217312	2550.269319
600.568060	2551.181768
600.918753	2552.747046
601.269392	2549.984494
601.619978	2548.946016
601.970510	2550.609597
602.320988	2550.375183
602.671412	2550.826367
603.021783	2550.470965
603.372100	2550.677653
603.722363	2549.558517
604.072572	2550.034906
604.422728	2549.366953
604.772830	2551.282591
605.122878	2550.171017
605.472872	2550.637323
605.822813	2551.411141
606.172701	2550.697817
606.522534	2551.073383
606.872314	2549.722354
607.222041	2549.276212
607.571714	2549.326623
607.921333	2546.402754
608.270899	2549.490461
608.620411	2548.852755
608.969870	2553.170503
609.319276	2554.047664
609.668627	2560.422203
610.017926	2563.202399
610.367171	2565.675085
610.716362	2566.211968
611.065500	2564.404715
611.414585	2558.201575
611.763616	2558.584702
612.112594	2556.832902
612.461518	2555.411296
612.810389	2554.771070
613.159207	2552.739485
613.507971	2553.588919
613.856682	2554.304763
614.205340	2554.294681
614.553945	2553.495658
614.902496	2551.852242
615.250994	2551.643034
615.599439	2553.533466
615.947830	2554.072870
616.296169	2552.527756
616.644454	2551.325441
616.992686	2551.408620
617.340864	2553.919115
617.688990	2551.438867
618.037063	2550.917108
618.385082	2550.528939
618.733048	2553.997252
619.080961	2552.459701
619.428821	2552.547921
619.776628	2550.607077
620.124382	2550.448280
620.472083	2551.385935
620.819731	2553.546069
621.167326	2550.917108
621.514868	2552.530277
621.862357	2552.807540
622.209793	2550.609597
622.557176	2550.433157
622.904506	2553.072201
623.251783	2551.668239
623.599007	2551.683363
623.946179	2552.005997
624.293297	2548.827549
624.640363	2549.354350
624.987376	2548.908208
625.334336	2546.077600
625.681243	2546.959802
626.028097	2546.803526
626.374899	2551.597663
626.721647	2550.284443
627.068343	2551.184289
627.414987	2550.075235
627.761577	2549.931562
628.108115	2552.681511
628.454600	2554.322407
628.801032	2547.158927
629.147412	2552.694114
629.493739	2552.162273
629.840014	2550.995245
630.186236	2553.273847
630.532405	2553.351985
630.878521	2549.825698
631.224585	2549.427447
631.570597	2549.767724
631.916556	2550.947354
632.262462	2550.612118
632.608316	2552.026161
632.954117	2549.676984
633.299866	2554.549259
633.645562	2550.891902
633.991206	2550.677653
634.336797	2550.786037
634.682336	2550.047508
635.027823	2548.222611
635.373257	2550.339895
635.718639	2548.293187
636.063968	2551.784186
636.409245	2548.988866
636.754470	2550.342416
637.099642	2550.130687
637.444762	2549.709751
637.789829	2547.027857
638.134845	2550.672612
638.479808	2547.496685
638.824719	2546.538865
639.169577	2550.324772
639.514383	2550.312169
639.859137	2552.457180
640.203839	2548.520039
640.548489	2549.099772
640.893086	2549.669422
641.237632	2549.271171
641.582125	2551.179248
641.926566	2548.804864
642.270955	2547.549617
642.615292	2544.693803
642.959576	2546.853937
643.303809	2544.870243
643.647990	2547.544576
643.992118	2553.132695
644.336195	2552.258054
644.680219	2551.010369
645.024192	2551.484237
645.368112	2549.722354
645.711981	2549.238403
646.055797	2551.902653
646.399562	2552.235369
646.743274	2550.536500
647.086935	2550.720503
647.430544	2548.031047
647.774101	2548.978784
648.117606	2553.301573
648.461059	2548.958619
648.804460	2554.297201
649.147810	2547.937786
649.491108	2550.755791
649.834354	2553.830894
650.177548	2551.088507
650.520690	2548.328475
650.863781	2550.307128
651.206820	2551.058260
651.549807	2547.080789
651.892742	2550.261757
652.235626	2549.152704
652.578458	2548.948537
652.921238	2548.131870
653.263967	2548.653629
653.606644	2549.094730
653.949269	2549.924000
654.291843	2552.323589
654.634365	2549.651778
654.976836	2550.032385
655.319255	2548.434339
655.661622	2549.245965
656.003938	2551.322920
656.346203	2548.756973
656.688416	2549.629093
657.030577	2549.974412
657.372687	2550.009700
657.714746	2551.338044
658.056753	2548.164637
658.398708	2551.363250
658.740612	2551.413661
659.082465	2549.737477
659.424266	2547.486602
659.766016	2545.056766
660.107715	2547.484082
660.449362	2545.361756
660.790958	2549.951727
661.132503	2549.089689
661.473996	2549.712272
661.815438	2549.492982
662.156829	2548.714123
662.498168	2549.777807
662.839456	2547.151366
663.180693	2548.976263
663.521879	2549.266130
663.863013	2550.198743
664.204097	2548.832590
664.545129	2549.631613
664.886110	2552.550441
665.227040	2552.563044
665.567918	2548.973743
665.908746	2551.063301
666.249522	2550.768393
666.590248	2549.775286
666.930922	2549.215718
667.271545	2552.346275
667.612118	2549.664381
667.952639	2550.730585
668.293109	2549.714792
668.633528	2551.043136
668.973896	2552.794937
669.314213	2549.130018
669.654480	2550.211346
669.994695	2550.506253
670.334859	2551.920297
670.674973	2550.682694
671.015035	2548.119267
671.355047	2547.121119
671.695008	2549.248486
672.034918	2546.178423
672.374777	2549.208156
672.714585	2550.355019
673.054342	2550.256716
673.394049	2549.099772
673.733705	2548.520039
674.073310	2548.061294
674.412864	2550.453321
674.752368	2550.717982
675.091820	2550.334854
675.431223	2546.475851
675.770574	2548.091541
676.109875	2545.845707
676.449125	2546.188505
676.788324	2544.159441
677.127473	2546.080120
677.466571	2544.698844
677.805619	2551.668239
678.144616	2547.065666
678.483562	2550.150852
678.822458	2550.894422
679.161303	2547.786551
679.500098	2546.085162
679.838842	2548.474668
680.177535	2548.885522
680.516179	2549.845862
680.854771	2549.621531
681.193314	2548.908208
681.531805	2551.713610
681.870247	2548.860317
682.208638	2549.160265
682.546978	2547.577343
682.885268	2550.395348
683.223508	2549.079607
683.561697	2549.470296
683.899836	2547.859648
684.237925	2549.099772
684.575963	2547.408464
684.913951	2549.581202
685.251889	2548.608259
685.589776	2548.260419
685.927614	2548.562889
686.265401	2548.169679
686.603137	2549.261088
686.940824	2549.157745
687.278460	2549.825698
687.616046	2550.289484
687.953582	2548.782179
688.291068	2546.117929
688.628504	2550.387786
688.965889	2551.426264
689.303224	2548.681356
689.640510	2548.666232
689.977745	2546.546427
690.314930	2544.570295
690.652065	2551.816953
690.989150	2548.910728
691.326185	2547.310162
691.663170	2550.743188
692.000105	2548.338557
692.336990	2547.988197
692.673825	2549.893753
693.010610	2548.046170
693.347345	2544.290511
693.684030	2545.727240
694.020665	2548.325954
694.357251	2545.117260
694.693786	2548.230172
695.030272	2548.106664
695.366707	2548.920811
695.703093	2546.455686
696.039429	2548.129349
696.375716	2548.693959
696.711952	2548.522559
697.048139	2546.385110
697.384276	2549.926521
697.720363	2549.656819
698.056400	2549.044319
698.392388	2549.780327
698.728326	2548.613300
699.064214	2548.076417
699.400053	2551.471634
699.735842	2548.976263
700.071581	2548.315872
700.407270	2547.965512
700.742910	2549.994576
701.078501	2547.337888
701.414042	2549.394679
701.749533	2546.816129
702.084974	2550.276881
702.420366	2546.884184
702.755709	2547.055584
703.091002	2550.118085
703.426246	2546.869061
703.761440	2550.410472
704.096584	2549.523228
704.431679	2548.318393
704.766725	2548.835111
705.101721	2547.511808
705.436668	2546.334699
705.771565	2549.482899
706.106413	2548.535162
706.441212	2547.713454
706.775961	2548.537683
707.110661	2549.603887
707.445311	2550.811243
707.779913	2546.874102
708.114465	2552.361398
708.448967	2547.597508
708.783421	2551.522046
709.117825	2551.264947
709.452180	2545.021478
709.786485	2546.816129
710.120742	2546.007024
710.454949	2545.991900
710.789107	2546.165820
711.123216	2545.240768
711.457275	2551.227138
711.791286	2551.451470
712.125247	2550.418033
712.459159	2548.273022
712.793023	2547.413506
713.126837	2548.068856
713.460602	2548.399051
713.794318	2545.018958
714.127985	2549.097251
714.461602	2547.441232
714.795171	2546.985007
715.128691	2546.886705
715.462162	2550.602035
715.795584	2545.633978
716.128957	2547.279915
716.462281	2549.450132
716.795556	2549.689587
717.128782	2545.961653
717.461960	2548.751932
717.795088	2547.242106
718.128167	2551.126315
718.461198	2548.106664
718.794180	2548.951058
719.127113	2545.729760
719.459997	2546.579195
719.792833	2547.395862
720.125619	2548.192364
720.458357	2546.801005
720.791046	2550.854093
721.123686	2546.730429
721.456278	2548.303269
721.788821	2547.562220
722.121315	2544.885367
722.453761	2548.557847
722.786158	2548.620862
723.118506	2546.695141
723.450805	2549.417364
723.783056	2546.682538
724.115259	2551.043136
724.447412	2548.406613
724.779518	2547.353012
725.111574	2548.492312
725.443582	2547.393341
725.775542	2545.409647
726.107453	2549.608928
726.439315	2548.381407
726.771129	2551.766542
727.102895	2545.271015
727.434612	2545.694472
727.766281	2544.335881
728.097901	2546.075079
728.429473	2546.816129
728.760996	2547.526932
729.092471	2550.299566
729.423897	2548.444422
729.755276	2547.907539
730.086606	2547.194215
730.417887	2550.188661
730.749120	2547.171530
731.080305	2547.781510
731.411442	2550.145811
731.742530	2545.069369
732.073570	2544.890408
732.404562	2545.989380
732.735506	2548.373845
733.066401	2549.112374
733.397249	2547.065666
733.728048	2548.666232
734.058798	2547.128680
734.389501	2548.199926
734.720156	2547.577343
735.050762	2546.503577
735.381320	2548.633465
735.711831	2546.652291
736.042293	2549.659340
736.372707	2547.673125
736.703073	2547.930224
737.033391	2546.672456
737.363661	2546.836293
737.693883	2548.187323
738.024056	2544.446787
738.354182	2547.554658
738.684260	2546.274205
739.014290	2546.276725
739.344272	2546.828732
739.674207	2547.373176
740.004093	2548.129349
740.333931	2548.774617
740.663722	2546.743032
740.993464	2549.573640
741.323159	2547.458876
741.652806	2547.385779
741.982405	2546.296890
742.311956	2547.315203
742.641460	2548.822508
742.970915	2546.566592
743.300323	2545.429812
743.629683	2543.930068
743.958996	2544.535007
744.288260	2545.104657
744.617477	2547.007693
744.946647	2547.960471
745.275768	2545.921324
745.604842	2547.983156
745.933869	2546.808567
746.262847	2549.049360
746.591778	2545.197918
746.920662	2551.403579
747.249498	2550.120605
747.578286	2549.145142
747.907027	2547.920142
748.235720	2545.482744
748.564365	2547.370656
748.892963	2549.339226
749.221514	2545.339071
749.550017	2547.942827
749.878473	2546.125491
750.206881	2549.470296
750.535242	2547.940306
750.863555	2547.075748
751.191821	2547.426108
751.520039	2547.075748
751.848210	2549.954247
752.176334	2546.001983
752.504411	2544.976108
752.832440	2546.858979
753.160421	2547.418547
753.488356	2545.392003
753.816243	2549.061963
754.144082	2548.300749
754.471875	2549.918959
754.799620	2546.977446
755.127318	2548.136911
755.454969	2545.444935
755.782572	2549.694628
756.110129	2547.685728
756.437638	2549.752601
756.765100	2545.386962
757.092515	2545.896118
757.419882	2549.571119
757.747203	2545.467620
758.074477	2545.790254
758.401703	2548.189843
758.728882	2546.576674
759.056014	2551.262427
759.383099	2544.908052
759.710138	2545.931406
760.037129	2544.885367
760.364073	2544.255223
760.690970	2540.481919
761.017820	2548.358722
761.344623	2548.691438
761.671379	2548.313352
761.998088	2549.591284
762.324751	2544.852599
762.651366	2548.265461
762.977935	2546.503577
763.304456	2545.457538
763.630931	2547.287477
763.957359	2547.892415
764.283740	2549.341747
764.610074	2548.575492
764.936362	2549.694628
765.262602	2546.947199
765.588796	2547.244627
765.914943	2548.938455
766.241044	2546.758156
766.567097	2545.439894
766.893104	2549.084648
767.219064	2542.712630
767.544978	2545.114739
767.870845	2548.066335
768.196665	2548.066335
768.522438	2545.364277
768.848165	2547.610111
769.173846	2545.417209
769.499479	2546.949719
769.825066	2546.793444
770.150607	2548.951058
770.476101	2545.787733
770.801548	2546.619524
771.126949	2547.111036
771.452303	2544.716488
771.777611	2547.589946
772.102872	2545.775131
772.428087	2546.100285
772.753256	2550.879299
773.078378	2543.983000
773.403453	2546.097764
773.728482	2546.851417
774.053465	2545.994421
774.378401	2545.679349
774.703291	2547.383259
775.028135	2545.984338
775.352932	2548.812426
775.677683	2547.201777
776.002388	2544.414019
776.327046	2545.618855
776.651658	2544.711447
776.976224	2542.127856
777.300743	2547.133722
777.625216	2545.739842
777.949643	2546.843855
778.274024	2546.972405
778.598359	2547.221942
778.922647	2545.875954
779.246889	2546.241437
779.571086	2544.973587
779.895236	2548.709082
780.219339	2547.756304
780.543397	2547.302600
780.867409	2545.379400
781.191374	2547.012734
781.515294	2546.836293
781.839167	2547.751263
782.162995	2546.322096
782.486776	2545.820501
782.810511	2546.599359
783.134201	2545.089534
783.457844	2545.795295
783.781441	2544.930737
784.104993	2545.507949
784.428498	2546.647250
784.751958	2546.306972
785.075372	2546.385110
785.398739	2547.158927
785.722061	2544.562733
786.045337	2546.841335
786.368568	2545.162630
786.691752	2546.377548
787.014891	2543.191539
787.337983	2546.274205
787.661030	2546.901828
787.984031	2545.694472
788.306987	2547.307641
788.629897	2547.010213
788.952760	2547.852086
789.275579	2545.515511
789.598351	2548.386448
789.921078	2548.709082
790.243759	2545.805377
790.566395	2544.103988
790.888984	2546.574153
791.211529	2546.135573
791.534027	2545.944009
791.856480	2547.446273
792.178888	2545.616334
792.501249	2543.798998
792.823566	2544.754297
793.145836	2542.236241
793.468062	2544.839997
793.790241	2545.661705
794.112375	2544.824873
794.434464	2545.326468
794.756507	2545.863351
795.078505	2544.645912
795.400457	2545.812939
795.722364	2544.968546
796.044226	2545.933927
796.366042	2547.065666
796.687812	2545.807898
797.009538	2547.844524
797.331218	2546.884184
797.652852	2542.755479
797.974442	2545.830583
798.295986	2547.705893
798.617484	2544.366128
798.938938	2546.548948
799.260346	2545.197918
799.581709	2546.798485
799.903026	2546.120450
800.224299	2545.709596
800.545526	2542.508463
800.866708	2545.208001
801.187845	2545.397044
801.508936	2543.395706
801.829983	2547.138763
802.150984	2545.321427
802.471940	2547.554658
802.792851	2545.976777
803.113717	2545.054246
803.434538	2547.539534
803.755314	2545.659184
804.076045	2546.296890
804.396731	2548.857796
804.717372	2544.535007
805.037967	2548.330996
805.358518	2545.419729
805.679024	2547.156407
805.999485	2546.329657
806.319901	2544.156920
806.640272	2545.855789
806.960598	2547.068187
807.280879	2544.797147
807.601115	2546.876623
807.921306	2547.935265
808.241453	2546.070038
808.561554	2541.361600
808.881611	2547.022816
809.201623	2539.314892
809.521590	2545.772610
809.841513	2548.159596
810.161390	2547.244627
810.481223	2546.553989
810.801011	2543.630120
811.120755	2545.265974
811.440453	2546.798485
811.760107	2544.754297
812.079716	2544.172044
812.399281	2548.822508
812.718801	2546.619524
813.038276	2544.824873
813.357707	2545.694472
813.677093	2543.544420
813.996434	2545.049204
814.315731	2544.860161
814.634983	2546.501057
814.954191	2546.427960
815.273354	2547.342929
815.592473	2543.347815
815.911547	2547.582384
816.230577	2545.439894
816.549562	2545.596170
816.868502	2545.139945
817.187399	2545.066848
817.506250	2545.490305
817.825058	2544.822352
818.143821	2545.260933
818.462539	2547.111036
818.781213	2545.187836
819.099843	2544.532486
819.418429	2545.780172
819.736970	2548.252858
820.055466	2545.008875
820.373919	2547.549617
820.692327	2546.503577
821.010691	2546.808567
821.329011	2548.557847
821.647286	2546.601880
821.965517	2550.896943
822.283704	2552.096738
822.601847	2553.024310
822.919945	2553.903991
823.237999	2553.508261
823.556010	2552.452139
823.873976	2551.254865
824.191897	2547.683207
824.509775	2544.587939
824.827609	2543.983000
825.145398	2540.764224
825.463144	2545.467620
825.780845	2546.949719
826.098502	2550.266799
826.416116	2548.076417
826.733685	2550.682694
827.051210	2552.389124
827.368692	2547.189174
827.686129	2550.733105
828.003522	2551.232180
828.320872	2549.397200
828.638177	2546.420398
828.955439	2544.905532
829.272656	2546.609442
829.589830	2544.885367
829.906960	2546.183464
830.224046	2545.399565
830.541088	2547.751263
830.858086	2545.528114
831.175041	2547.761345
831.491952	2541.951415
831.808819	2545.870912
832.125642	2546.344781
832.442421	2545.306303
832.759157	2546.858979
833.075849	2545.495347
833.392497	2546.828732
833.709101	2546.168341
834.025662	2549.850903
834.342179	2546.574153
834.658653	2549.508105
834.975083	2544.439225
835.291469	2551.030533
835.607811	2546.410316
835.924110	2545.157589
836.240366	2545.661705
836.556578	2548.789741
836.872746	2546.506098
837.188871	2546.896787
837.504952	2546.571633
837.820990	2546.674977
838.136984	2545.558361
838.452935	2544.192208
838.768842	2546.881664
839.084706	2544.199770
839.400526	2548.457024
839.716303	2544.083823
840.032037	2543.804039
840.347727	2541.563247
840.663373	2540.368493
840.978977	2539.939995
841.294537	2545.674307
841.610054	2543.557023
841.925527	2546.606921
842.240957	2546.775800
842.556344	2544.030891
842.871687	2545.578526
843.186987	2544.986190
843.502244	2544.199770
843.817458	2542.488298
844.132629	2544.431663
844.447756	2542.047197
844.762840	2544.333361
845.077881	2543.461241
845.392879	2544.078782
845.707833	2544.522404
846.022745	2546.516180
846.337613	2546.362425
846.652438	2546.478372
846.967221	2543.027702
847.281960	2546.430481
847.596656	2544.658515
847.911309	2545.144986
848.225919	2543.783875
848.540485	2544.051056
848.855009	2543.602393
849.169490	2545.114739
849.483928	2547.007693
849.798323	2542.339584
850.112675	2544.224976
850.426984	2544.827394
850.741251	2544.426622
851.055474	2542.672300
851.369654	2543.766231
851.683792	2542.450490
851.997887	2543.809081
852.311938	2546.216232
852.625947	2541.747249
852.939914	2542.773123
853.253837	2544.431663
853.567718	2543.856972
853.881555	2542.989893
854.195350	2545.765048
854.509103	2544.073741
854.822812	2545.268495
855.136479	2544.794626
855.450103	2543.602393
855.763685	2540.418905
856.077224	2539.314892
856.390720	2542.528628
856.704173	2538.868750
857.017584	2543.804039
857.330953	2544.121632
857.644278	2544.471992
857.957561	2544.860161
858.270802	2542.720191
858.584000	2546.659853
858.897155	2542.866385
859.210268	2542.949564
859.523339	2545.155069
859.836367	2542.740356
860.149352	2543.972918
860.462295	2543.128525
860.775195	2543.620037
861.088054	2542.321940
861.400869	2544.829914
861.713642	2545.187836
862.026373	2545.765048
862.339062	2542.447969
862.651708	2543.257074
862.964312	2545.767569
863.276873	2542.011909
863.589392	2545.664225
863.901869	2543.325130
864.214303	2541.830428
864.526696	2544.706406
864.839045	2543.753628
865.151353	2546.443083
865.463619	2545.369318
865.775842	2542.160623
866.088023	2546.218752
866.400162	2544.116591
866.712258	2544.955943
867.024313	2543.257074
867.336325	2545.147507
867.648296	2543.869574
867.960224	2542.009389
868.272110	2544.020809
868.583954	2545.359235
868.895755	2544.623227
869.207515	2542.422763
869.519233	2543.751107
869.830909	2544.897970
870.142542	2543.672969
870.454134	2547.156407
870.765684	2546.274205
871.077191	2542.712630
871.388657	2542.309337
871.700081	2541.220448
872.011463	2540.091230
872.322803	2539.342618
872.634101	2543.700696
872.945357	2545.296221
873.256571	2544.020809
873.567744	2544.958464
873.878874	2542.599204
874.189963	2541.661549
874.501010	2544.686241
874.812015	2542.745397
875.122979	2544.025850
875.433900	2544.247661
875.744780	2546.228834
876.055618	2546.125491
876.366415	2544.935778
876.677169	2545.376879
876.987882	2544.250182
877.298554	2545.528114
877.609183	2548.146993
877.919771	2543.612476
878.230317	2543.582229
878.540822	2544.524924
878.851285	2546.256561
879.161707	2541.142310
879.472087	2543.151210
879.782425	2547.221942
880.092722	2546.024668
880.402977	2546.274205
880.713191	2543.751107
881.023363	2546.831252
881.333494	2548.026006
881.643583	2546.937117
881.953631	2548.933413
882.263637	2546.538865
882.573602	2546.790923
882.883526	2548.653629
883.193408	2546.385110
883.503248	2547.325285
883.813048	2546.478372
884.122806	2544.590459
884.432522	2546.304452
884.742197	2547.176571
885.051831	2544.950902
885.361424	2543.289842
885.670975	2544.081303
885.980485	2545.540717
886.289954	2546.501057
886.599382	2543.783875
886.908768	2542.463093
887.218113	2540.149203
887.527417	2542.846220
887.836680	2538.069727
888.145901	2544.071221
888.455082	2543.388144
888.764221	2545.369318
889.073319	2543.524255
889.382376	2540.882691
889.691392	2542.090047
890.000366	2545.523073
890.309300	2543.746066
890.618193	2544.373690
890.927044	2544.209852
891.235855	2545.603731
891.544625	2543.244471
891.853353	2544.928217
892.162041	2542.692465
892.470687	2544.839997
892.779293	2542.924358
893.087858	2542.873947
893.396381	2544.058618
893.704864	2542.301776
894.013306	2544.345963
894.321707	2545.233207
894.630068	2547.988197
894.938387	2545.253371
895.246665	2544.393854
895.554903	2546.236396
895.863100	2544.116591
896.171256	2546.014585
896.479371	2544.837476
896.787446	2545.749925
897.095480	2544.663556
897.403473	2544.043494
897.711425	2545.538196
898.019336	2544.802188
898.327207	2541.931251
898.635038	2544.802188
898.942827	2542.795809
899.250576	2544.454348
899.558284	2544.393854
899.865952	2541.401930
900.173579	2542.415202
900.481165	2540.779347
900.788711	2542.712630
901.096216	2544.023330
901.403681	2542.213555
901.711105	2543.488967
902.018489	2543.284801
902.325832	2542.120294
902.633135	2540.023174
902.940397	2541.767413
903.247619	2539.075437
903.554800	2543.156251
903.861941	2545.520552
904.169041	2545.230686
904.476101	2545.555840
904.783121	2542.775644
905.090100	2544.966025
905.397039	2545.172713
905.703938	2545.787733
906.010796	2545.296221
906.317614	2545.283618
906.624391	2544.161961
906.931129	2543.622558
907.237826	2543.075593
907.544483	2541.850592
907.851099	2543.917465
908.157675	2543.672969
908.464211	2544.461910
908.770707	2541.132228
909.077163	2543.506611
909.383578	2543.315048
909.689954	2540.620551
909.996289	2543.105840
910.302584	2542.760521
910.608839	2542.417722
910.915054	2543.443597
911.221229	2543.544420
911.527363	2540.471837
911.833458	2542.765562
912.139513	2542.924358
912.445527	2543.904863
912.751502	2545.351674
913.057436	2542.304296
913.363331	2540.955788
913.669186	2540.923020
913.975000	2544.376210
914.280775	2540.733977
914.586510	2541.611138
914.892205	2542.463093
915.197859	2544.517363
915.503475	2543.199101
915.809050	2544.608103
916.114585	2543.950233
916.420081	2545.548279
916.725536	2544.161961
917.030952	2543.851930
917.336328	2543.541899
917.641665	2541.648946
917.946961	2539.151054
918.252218	2539.728267
918.557435	2536.781712
918.862612	2543.630120
919.167750	2541.986703
919.472848	2544.517363
919.777906	2543.100798
920.082925	2540.035777
920.387904	2543.925027
920.692843	2543.085675
920.997743	2543.267157
921.302603	2544.908052
921.607423	2543.844369
921.912204	2542.548792
922.216946	2539.950077
922.521647	2542.831097
922.826310	2541.747249
923.130932	2542.848741
923.435516	2540.900335
923.740059	2543.728422
924.044564	2542.894111
924.349028	2540.653318
924.653454	2544.101467
924.957840	2540.986034
925.262186	2541.565767
925.566493	2543.148689
925.870761	2539.758513
926.174989	2541.696837
926.479178	2542.400078
926.783328	2541.820345
927.087438	2542.044677
927.391509	2542.566436
927.695541	2539.340098
927.999533	2543.927548
928.303486	2541.953936
928.607400	2542.624409
928.911275	2542.412681
929.215110	2543.599873
929.518906	2542.289173
929.822663	2543.937630
930.126381	2540.534851
930.430060	2540.217258
930.733699	2542.541230
931.037299	2541.734646
931.340861	2540.237423
931.644383	2545.079451
931.947866	2539.677855
932.251309	2542.616848
932.554714	2541.389327
932.858080	2537.474871
933.161407	2539.473688
933.464694	2540.197094
933.767943	2538.478060
934.071153	2543.544420
934.374323	2539.219110
934.677455	2543.667928
934.980548	2542.130376
935.283602	2544.101467
935.586617	2541.207845
935.889593	2541.923689
936.192530	2540.502084
936.495428	2542.321940
936.798287	2541.376724
937.101108	2541.346477
937.403890	2542.631971
937.706632	2540.786909
938.009336	2540.373534
938.312002	2538.379758
938.614628	2541.810263
938.917216	2540.817156
939.219765	2539.879501
939.522275	2544.078782
939.824747	2541.046528
940.127179	2545.709596
940.429573	2542.667259
940.731929	2543.042825
941.034246	2539.718184
941.336524	2541.066693
941.638763	2541.454862
941.940964	2540.779347
942.243126	2542.571477
942.545250	2545.081972
942.847335	2542.571477
943.149381	2540.005530
943.451389	2543.693134
943.753359	2542.019471
944.055290	2541.671631
944.357182	2541.008720
944.659036	2539.899666
944.960851	2542.634492
945.262628	2538.175591
945.564367	2541.210366
945.866067	2540.391178
946.167729	2543.070552
946.469352	2541.974101
946.770937	2544.242620
947.072484	2538.699871
947.373992	2542.243802
947.675462	2542.790767
947.976893	2539.508976
948.278286	2539.370345
948.579641	2536.383461
948.880958	2535.934798
949.182236	2542.241282
949.483476	2539.902186
949.784678	2541.860675
950.085841	2538.616692
950.386967	2540.320602
950.688054	2541.555685
950.989103	2543.582229
951.290114	2541.182639
951.591087	2540.035777
951.892021	2539.113246
952.192917	2541.306148
952.493776	2538.987217
952.794596	2541.477547
953.095378	2543.783875
953.396122	2541.467465
953.696828	2539.304810
953.997496	2541.601055
954.298126	2540.872608
954.598718	2541.913607
954.899272	2541.492670
955.199788	2541.366642
955.500266	2542.107691
955.800706	2541.318751
956.101108	2540.464275
956.401472	2539.176260
956.701798	2541.346477
957.002087	2540.832279
957.302337	2541.575849
957.602550	2542.334543
957.902724	2540.338246
958.202861	2540.759183
958.502960	2539.004861
958.803022	2541.253216
959.103045	2538.619213
959.403031	2544.028371
959.702979	2539.539223
960.002889	2540.454193
960.302762	2541.084337
960.602596	2541.800181
960.902393	2540.096271
961.202153	2539.574511
961.501875	2542.261446
961.801559	2539.057793
962.101205	2543.194060
962.400814	2542.412681
962.700385	2541.230530
962.999918	2537.900848
963.299414	2538.233564
963.598873	2540.151723
963.898293	2534.561084
964.197677	2541.331353
964.497022	2540.398740
964.796331	2540.257588
965.095601	2540.759183
965.394835	2542.755479
965.694030	2540.234902
965.993189	2540.118956
966.292309	2540.635674
966.591393	2540.081147
966.890439	2540.625592
967.189447	2541.051569
967.488419	2540.519728
967.787353	2540.486960
968.086249	2543.320089
968.385108	2539.950077
968.683930	2541.472506
968.982714	2541.835469
969.281462	2539.496373
969.580172	2542.047197
969.878844	2542.531148
970.177480	2541.296065
970.476078	2541.076775
970.774639	2541.288504
971.073162	2542.319420
971.371649	2542.112732
971.670098	2540.522248
971.968510	2542.387475
972.266885	2538.505787
972.565223	2541.986703
972.863524	2540.219779
973.161788	2540.204656
973.460014	2538.626774
973.758204	2540.290355
974.056356	2538.558719
974.354471	2539.030067
974.652550	2541.280942
974.950591	2542.188350
975.248595	2538.384799
975.546563	2543.425953
975.844493	2538.684748
976.142386	2541.628782
976.440243	2536.849768
976.738062	2538.467978
977.035845	2540.794471
977.333590	2540.754141
977.631299	2539.561908
977.928971	2539.211548
978.226606	2537.142155
978.524204	2536.030580
978.821765	2533.615867
979.119290	2540.905376
979.416777	2536.169212
979.714228	2540.499563
980.011642	2541.031405
980.309020	2537.469830
980.606360	2540.038297
980.903664	2540.988555
981.200931	2540.502084
981.498162	2541.679193
981.795356	2543.191539
982.092513	2539.463606
982.389633	2538.226003
982.686717	2539.897145
982.983764	2540.134079
983.280775	2540.181970
983.577749	2538.510828
983.874686	2541.117104
984.171587	2541.502753
984.468451	2540.600386
984.765279	2538.999820
985.062070	2542.332023
985.358824	2539.037628
985.655543	2539.473688
985.952224	2540.466796
986.248869	2540.456713
986.545478	2540.333205
986.842050	2538.714995
987.138586	2537.976466
987.435086	2542.725232
987.731549	2539.221631
988.027975	2541.646426
988.324366	2541.719522
988.620719	2538.967052
988.917037	2541.401930
989.213318	2540.940664
989.509563	2541.144831
989.805772	2540.408822
990.101944	2540.232382
990.398080	2541.316230
990.694180	2536.859850
990.990244	2539.645088
991.286271	2541.220448
991.582262	2541.636343
991.878217	2539.032587
992.174136	2542.873947
992.470019	2539.501415
992.765865	2536.796836
993.061676	2536.428831
993.357450	2536.075951
993.653188	2534.026722
993.948890	2541.036446
994.244556	2539.095602
994.540186	2538.926723
994.835780	2537.265663
995.131337	2537.931095
995.426859	2539.287166
995.722345	2539.377906
996.017795	2541.815304
996.313208	2538.059645
996.608586	2539.004861
996.903928	2539.496373
997.199234	2539.435880
997.494504	2541.001158
997.789738	2539.884542
998.084936	2539.710622
998.380099	2538.062165
998.675225	2540.307999
998.970316	2537.406815
999.265371	2539.140972
999.560390	2541.797660
999.855373	2539.937474
1000.150320	2540.209697
1000.445232	2540.872608
1000.740108	2539.143493
1001.034948	2541.175078
1001.329752	2539.718184
1001.624521	2539.768596
1001.919254	2540.839841
1002.213951	2541.588452
1002.508613	2538.717515
1002.803239	2537.588297
1003.097829	2538.825900
1003.392384	2540.237423
1003.686903	2539.471168
1003.981386	2541.164995
1004.275834	2538.997299
1004.570246	2540.698689
1004.864623	2537.903369
1005.158964	2542.097609
1005.453270	2539.587114
1005.747540	2538.180632
1006.041775	2539.418236
1006.335974	2537.595858
1006.630138	2540.489481
1006.924266	2540.093750
1007.218359	2539.952598
1007.512416	2537.114428
1007.806438	2534.757689
1008.100425	2537.258101
1008.394376	2535.511341
1008.688292	2538.790612
1008.982172	2538.687268
1009.276017	2539.824048
1009.569827	2538.493184
1009.863602	2536.680889
1010.157341	2539.690458
1010.451045	2537.792463
1010.744714	2540.197094
1011.038347	2541.832948
1011.331945	2541.154913
1011.625508	2540.020653
1011.919036	2540.633154
1012.212528	2539.330015
1012.505986	2539.629964
1012.799408	2540.590304
1013.092795	2538.800694
1013.386147	2541.447300
1013.679464	2540.184491
1013.972745	2537.346321
1014.265992	2537.522762
1014.559204	2541.611137
1014.852380	2536.007895
1015.145521	2538.704912
1015.438628	2537.905889
1015.731699	2538.359593
1016.024736	2538.896476
1016.317737	2539.123328
1016.610703	2540.562578
1016.903635	2540.570139
1017.196531	2541.011240
1017.489393	2537.101825
1017.782219	2542.400078
1018.075011	2538.352032
1018.367768	2540.358411
1018.660490	2538.830941
1018.953177	2538.830941
1019.245829	2538.830941
