Dividing Wavelength (nm)	Counts (n)	Blue Motor Position (mm): 41.000000	Red Motor Position (mm): 0.000000	
326.493990	2251.606160
326.888308	2251.606160
327.282561	2251.606160
327.676750	2207.087730
328.070874	2210.974460
328.464933	2209.588142
328.858929	2214.898998
329.252859	2216.398741
329.646726	2223.602550
330.040528	2239.058728
330.434265	2252.506006
330.827938	2268.887235
331.221547	2285.026489
331.615091	2301.160702
332.008571	2324.148363
332.401986	2339.962463
332.795338	2358.662623
333.188625	2381.854452
333.581847	2397.338356
333.975006	2419.494227
334.368100	2437.864191
334.761129	2456.229115
335.154095	2471.960035
335.546996	2497.072543
335.939833	2539.887063
336.332606	2553.157900
336.725315	2566.632905
337.117960	2581.005234
337.510540	2592.587285
337.903056	2602.505755
338.295508	2612.567898
338.687896	2620.827829
339.080220	2628.445012
339.472480	2633.413070
339.864676	2641.834317
340.256807	2643.462610
340.648875	2647.936634
341.040879	2651.125164
341.432818	2651.634320
341.824694	2657.398880
342.216506	2656.398211
342.608253	2658.649086
342.999937	2656.887203
343.391557	2660.685712
343.783113	2657.739157
344.174605	2656.113385
344.566033	2655.654640
344.957397	2656.118427
345.348697	2653.534835
345.739934	2651.462921
346.131106	2651.659526
346.522215	2646.525111
346.913260	2646.247847
347.304241	2645.169040
347.695159	2643.170223
348.086012	2641.075623
348.476802	2641.741056
348.867528	2637.551857
349.258191	2632.848460
349.648789	2632.006588
350.039324	2629.289406
350.429796	2632.566156
350.820203	2629.082718
351.210548	2633.047586
351.600828	2631.106742
351.991045	2627.719086
352.381198	2628.147584
352.771288	2627.461987
353.161314	2626.723458
353.551276	2627.351082
353.941175	2625.662296
354.331010	2623.187089
354.720782	2626.146246
355.110490	2628.031638
355.500135	2624.533077
355.889717	2625.843777
356.279235	2625.818571
356.668689	2624.636421
357.058080	2625.977368
357.447408	2625.853859
357.836672	2626.915022
358.225873	2624.394445
358.615010	2625.175824
359.004084	2626.219343
359.393095	2628.855867
359.782043	2629.972482
360.170927	2629.024745
360.559748	2630.254787
360.948505	2631.981382
361.337199	2632.581279
361.725830	2631.646145
362.114398	2631.855353
362.502903	2631.825106
362.891344	2631.767133
363.279722	2631.653707
363.668037	2636.619243
364.056289	2636.140334
364.444478	2635.721918
364.832603	2638.156795
365.220665	2638.154275
365.608665	2637.806435
365.996601	2640.369862
366.384474	2638.585293
366.772284	2640.168216
367.160031	2638.844913
367.547715	2642.033443
367.935336	2639.734677
368.322893	2640.720222
368.710388	2639.172588
369.097820	2640.654687
369.485189	2637.851806
369.872495	2644.924544
370.259738	2643.202990
370.646918	2644.896818
371.034035	2644.145686
371.421090	2647.225831
371.808081	2645.416057
372.195010	2646.247847
372.581875	2645.589977
372.968678	2646.162148
373.355418	2647.719864
373.742096	2651.961995
374.128710	2651.024341
374.515262	2651.409989
374.901751	2651.714979
375.288177	2650.116933
375.674540	2650.348826
376.060841	2653.093734
376.447079	2653.421409
376.833254	2653.365957
377.219367	2652.627427
377.605417	2653.731440
377.991404	2656.738488
378.377329	2655.019455
378.763191	2655.440391
379.148991	2655.188334
379.534727	2654.613642
379.920402	2655.367295
380.306013	2657.328303
380.691563	2660.136226
381.077049	2657.134219
381.462474	2658.649086
381.847835	2657.822337
382.233134	2660.211843
382.618371	2660.380722
383.003545	2661.083963
383.388657	2662.465239
383.773706	2665.202586
384.158693	2667.292144
384.543618	2668.859943
384.928480	2675.695747
385.313280	2680.086592
385.698017	2682.743281
386.082692	2693.375074
386.467305	2703.490149
386.851856	2718.787531
387.236344	2736.045921
387.620770	2754.297418
388.005133	2780.244237
388.389435	2810.148362
388.773674	2837.108452
389.157851	2882.867006
389.541965	2931.287289
389.926018	2962.635704
390.310008	3025.423275
390.693936	3080.707089
391.077802	3135.343114
391.461606	3181.325999
391.845348	3249.895773
392.229027	3322.294304
392.612645	3370.583517
392.996200	3465.326963
393.379694	3544.911658
393.763125	3649.830673
394.146494	3715.748800
394.529801	3808.904282
394.913047	3908.303233
395.296230	3938.270372
395.679351	4060.767890
396.062410	4156.191891
396.445408	4198.227553
396.828343	4296.764466
397.211217	4394.676277
397.594028	4364.036144
397.976778	4502.567052
398.359466	4590.688941
398.742092	4661.053367
399.124656	4629.926762
399.507158	4775.134678
399.889598	4870.188155
400.271977	5021.858830
400.654294	5049.839754
401.036549	5124.421105
401.418742	5086.183953
401.800874	5303.510616
402.182944	5382.407194
402.564952	5510.175238
402.946898	5588.635757
403.328783	5468.736954
403.710606	5495.432384
404.092367	5828.095606
404.474067	5860.830338
404.855705	5790.244102
405.237282	5740.054374
405.618797	5983.353062
406.000250	5988.749617
406.381642	6191.986255
406.762972	6219.863836
407.144240	6286.538136
407.525447	6274.739316
407.906593	6310.778525
408.287677	6465.720909
408.668700	6375.635489
409.049661	6505.838411
409.430560	6532.128028
409.811399	6400.521145
410.192176	6670.958885
410.572891	6675.662281
410.953545	6881.764815
411.334138	6610.402024
411.714669	6781.385360
412.095139	6578.748619
412.475547	6826.670045
412.855894	6892.278141
413.236180	7071.085348
413.616405	6753.096925
413.996568	6974.494319
414.376670	7006.155286
414.756711	6901.795840
415.136691	6999.581622
415.516609	7201.230296
415.896466	7188.839140
416.276262	7392.849595
416.655997	7369.652725
417.035670	7565.166316
417.415283	7901.229796
417.794834	7952.687373
418.174324	7810.867113
418.553753	7732.083961
418.933121	8045.139614
419.312428	8147.366653
419.691674	7930.589476
420.070859	8399.439468
420.449983	8080.836025
420.829045	8442.669883
421.208047	8224.100576
421.586988	8517.636882
421.965867	8536.445427
422.344686	8649.692428
422.723444	8691.579375
423.102141	8056.489772
423.480777	8800.964852
423.859352	8328.397008
424.237866	8943.248898
424.616319	8812.811563
424.994712	9231.459226
425.373044	8789.377760
425.751314	9251.318851
426.129524	9127.664388
426.507673	9239.250329
426.885762	9392.602229
427.263789	9310.630547
427.641756	9232.699349
428.019662	9328.967744
428.397508	9582.580632
428.775292	9265.335779
429.153016	9643.203028
429.530679	9472.123910
429.908282	9508.261422
430.285824	9227.948062
430.663305	9915.725284
431.040726	9359.963278
431.418086	9345.233027
431.795385	9676.396505
432.172624	9764.122664
432.549802	9680.220220
432.926920	9756.976829
433.303977	9628.553435
433.680974	9831.777470
434.057910	9923.634854
434.434786	9991.322427
434.811601	9833.703190
435.188355	10395.771680
435.565050	10124.968457
435.941683	10056.897756
436.318257	10541.239215
436.694770	10687.488129
437.071222	10746.474670
437.447614	10587.733777
437.823946	10491.508232
438.200218	10613.930133
438.576429	10441.726838
438.952580	10680.627119
439.328670	10726.756197
439.704700	10512.708805
440.080670	10503.904430
440.456580	11055.094109
440.832429	10817.784312
441.208218	10416.619371
441.583947	10733.662578
441.959616	10887.107739
442.335224	10703.143433
442.710773	10831.697897
443.086261	11043.106245
443.461689	10323.983128
443.837057	10992.230920
444.212365	11244.896072
444.587612	10885.968438
444.962800	11114.486463
445.337927	10867.802641
445.712995	10494.739612
446.088002	11558.438197
446.462949	11230.886705
446.837837	11196.634585
447.212664	11171.363281
447.587431	11713.599871
447.962139	12448.300153
448.336786	14725.860693
448.711374	15253.490540
449.085901	13080.070156
449.460369	12715.985422
449.834776	12157.733087
450.209124	13049.331721
450.583412	13469.756390
450.957640	14414.493826
451.331808	13510.176361
451.705917	12527.962987
452.079965	11810.463122
452.453954	12716.499620
452.827883	12356.667100
453.201752	12661.863595
453.575562	12182.689319
453.949311	12603.585336
454.323001	12575.755646
454.696632	12802.332826
455.070202	13083.760281
455.443713	13306.478458
455.817164	13788.117858
456.190556	13761.576183
456.563888	14124.380463
456.937160	14285.921718
457.310373	13633.722439
457.683526	13732.564343
458.056619	13264.384823
458.429653	13437.329168
458.802628	12843.763549
459.175542	13233.500194
459.548398	14184.675184
459.921194	14532.003122
460.293930	14601.558442
460.666607	15461.997704
461.039224	16517.690937
461.411782	17224.659832
461.784280	17050.727421
462.156719	17136.270761
462.529099	16828.778020
462.901419	15756.393527
463.273680	15539.215578
463.645882	15416.949954
464.018024	15144.440300
464.390106	15365.469691
464.762130	16087.914928
465.134094	16869.334103
465.505999	18891.174553
465.877845	22162.618738
466.249631	24990.333001
466.621358	24633.704133
466.993026	23199.541235
467.364634	22633.437302
467.736184	21163.172180
468.107674	20355.904488
468.479105	20492.194603
468.850477	19947.850810
469.221790	19542.141269
469.593043	18857.471919
469.964238	18293.046690
470.335373	17937.685673
470.706449	18419.453623
471.077467	17996.215990
471.448425	19848.164514
471.819324	23929.885960
472.190164	25864.796753
472.560945	22245.092015
472.931667	19898.974303
473.302330	19284.256003
473.672934	18869.721922
474.043479	19141.596391
474.413965	18949.266289
474.784393	18564.326302
475.154761	19288.233474
475.525070	19242.235465
475.895321	18939.715823
476.265513	19531.484270
476.635645	20123.527460
477.005719	19890.784949
477.375734	20076.062476
477.745691	20562.939635
478.115588	21098.025348
478.485427	21642.260756
478.855207	22731.497826
479.224928	24501.149514
479.594591	26732.177683
479.964194	26706.049383
480.333739	26918.118122
480.703226	26498.391653
481.072653	26192.610384
481.442022	26802.171584
481.811333	27735.253873
482.180584	27617.043856
482.549777	26671.928333
482.918912	26329.621384
483.287988	26458.400180
483.657005	26091.689005
484.025964	25867.334973
484.394864	25752.865493
484.763706	25422.753095
485.132489	24864.548650
485.501213	25055.258021
485.869879	24970.301976
486.238487	24791.088957
486.607036	24929.839154
486.975527	24660.099615
487.343959	24970.364990
487.712333	24894.427569
488.080648	24543.275916
488.448905	25061.337652
488.817104	24807.364322
489.185244	25500.764951
489.553326	25449.125892
489.921350	26484.997307
490.289315	28809.962338
490.657222	30547.456505
491.025070	31056.711346
491.392861	30815.630766
491.760593	29956.560177
492.128267	29039.780980
492.495883	27978.020718
492.863440	27122.773845
493.230939	26254.208243
493.598380	26101.524296
493.965763	25697.455651
494.333088	25213.673760
494.700354	25188.866242
495.067563	25046.448605
495.434713	24793.672548
495.801805	24962.173115
496.168839	24747.992132
496.535815	24606.118940
496.902733	24821.025849
497.269593	24513.192830
497.636395	24680.675084
498.003139	24623.034531
498.369825	24360.188770
498.736453	24577.268416
499.103023	24448.650937
499.469535	24443.274547
499.835989	24666.035574
500.202385	24692.685633
500.568723	24218.812131
500.935003	24413.524178
501.301226	24074.824174
501.667390	24924.787918
502.033497	25133.612675
502.399546	24870.986204
502.765537	24420.037348
503.131470	24805.599918
503.497345	24938.731750
503.863163	24184.610423
504.228923	24742.300670
504.594625	24972.487316
504.960269	24530.224368
505.325856	25002.139383
505.691385	24405.665019
506.056856	25002.535113
506.422270	24990.658155
506.787625	24531.658577
507.152924	24957.099194
507.518164	24984.384439
507.883347	24795.114318
508.248472	24487.210723
508.613540	25257.683033
508.978550	25051.741816
509.343503	25071.072121
509.708398	25292.323322
510.073236	25464.703057
510.438016	25668.600086
510.802738	25335.362173
511.167403	25585.232004
511.532010	25309.347298
511.896561	26070.745531
512.261053	26036.241354
512.625488	25868.338163
512.989866	25761.564004
513.354186	25591.510761
513.718449	25719.871141
514.082655	26090.032986
514.446803	25813.573588
514.810894	26295.923791
515.174927	25780.238958
515.538904	25814.566696
515.902822	26316.587481
516.266684	26066.926857
516.630488	25978.918393
516.994235	25926.187924
517.357925	26253.013490
517.721558	26419.253099
518.085133	26524.535077
518.448651	26426.056137
518.812112	26176.138414
519.175516	26391.302422
519.538863	26553.395683
519.902152	26337.261253
520.265385	26608.992048
520.628560	26410.153817
520.991678	26388.905353
521.354739	26459.181558
521.717743	26542.703395
522.080690	26303.493084
522.443580	26642.916493
522.806413	26615.769879
523.169189	26735.824958
523.531908	26800.986913
523.894569	26400.931026
524.257174	26486.008059
524.619722	26644.186863
524.982213	26344.638981
525.344647	26378.444959
525.707025	26540.394547
526.069345	26499.997261
526.431608	26467.605327
526.793815	26649.222976
527.155964	26130.034542
527.518057	26304.080378
527.880093	26227.946352
528.242072	26452.464221
528.603995	26165.496538
528.965860	25948.328672
529.327669	25993.094118
529.689421	25988.269734
530.051117	25831.769633
530.412755	26010.281932
530.774337	25798.926516
531.135862	25679.302456
531.497331	25867.793718
531.858743	25450.250069
532.220098	25915.848518
532.581396	25609.535407
532.942638	25512.455387
533.303824	25624.119465
533.664953	25616.991273
534.026025	25281.719255
534.387040	25520.339751
534.747999	25577.035088
535.108902	25746.722847
535.469748	25239.277780
535.830537	25407.236424
536.191270	25549.215481
536.551947	25379.505036
536.912567	25016.357957
537.273131	25420.124133
537.633638	25101.871050
537.994089	25325.302550
538.354483	24834.208466
538.714821	25351.637538
539.075103	25385.937549
539.435328	25150.745037
539.795497	24737.264557
540.155609	25100.736790
540.515665	25406.815487
540.875665	24617.181752
541.235609	24962.747807
541.595496	24904.605659
541.955328	25266.905824
542.315102	25179.159500
542.674821	24697.167219
543.034483	24590.362813
543.394090	24757.058648
543.753640	24570.803136
544.113134	25184.566138
544.472571	24772.010710
544.831953	25074.752163
545.191278	24734.307920
545.550548	24624.839264
545.909761	24813.252389
546.268918	25055.323556
546.628019	25035.879826
546.987064	24709.412182
547.346053	24452.749396
547.704986	24570.813219
548.063863	24717.677154
548.422684	24751.515899
548.781449	24248.375978
549.140158	24664.553474
549.498811	24237.998762
549.857408	24000.101671
550.215949	24402.859617
550.574434	24086.194497
550.932864	24291.682010
551.291237	24472.019206
551.649555	24314.208406
552.007817	24374.369536
552.366022	24230.789912
552.724173	24262.448358
553.082267	24225.932761
553.440305	24701.195101
553.798288	23944.220481
554.156215	24451.637821
554.514086	24580.323355
554.871902	23958.348314
555.229661	24235.805860
555.587365	24078.179062
555.945014	23980.201716
556.302606	24195.217010
556.660143	24182.041955
557.017625	24410.839763
557.375050	23943.983547
557.732421	24333.037115
558.089735	24135.181909
558.446994	24208.876017
558.804197	24238.296190
559.161345	24135.098730
559.518437	23927.496453
559.875474	24092.841258
560.232455	24278.680874
560.589381	24092.639612
560.946251	24090.318160
561.303065	24398.710747
561.659825	24480.634538
562.016528	24094.928296
562.373177	23834.666125
562.729770	24206.771335
563.086307	24053.104363
563.442789	24218.761719
563.799216	24055.821545
564.155587	24054.785587
564.511904	24035.334295
564.868164	23990.057172
565.224370	23952.485452
565.580520	23890.922882
565.936615	24009.687425
566.292654	23700.949520
566.648638	23955.968890
567.004567	23793.295896
567.360441	23731.486309
567.716260	23449.958031
568.072023	23772.992649
568.427732	23552.759761
568.783385	23319.059431
569.138982	23560.084558
569.494525	23592.915072
569.850013	23348.499769
570.205445	23453.746458
570.560823	23270.634107
570.916145	23041.685064
571.271412	23226.435790
571.626625	22966.481131
571.981782	23083.314912
572.336884	22880.617678
572.691931	23024.645964
573.046923	22762.972270
573.401860	22645.304178
573.756743	22674.525226
574.111570	22562.825860
574.466342	22488.884736
574.821059	22560.030540
575.175722	22272.878855
575.530330	22231.377556
575.884882	22255.708685
576.239380	22161.076145
576.593823	22059.070918
576.948211	22031.949510
577.302544	21882.955687
577.656823	21750.325450
578.011047	21859.360567
578.365216	21733.588820
578.719330	21594.029517
579.073389	21490.025472
579.427394	21637.393522
579.781344	21397.963920
580.135239	21280.444542
580.489080	21232.155329
580.842866	21012.499653
581.196597	21227.842622
581.550273	21194.737364
581.903895	21069.419321
582.257463	21380.226620
582.610975	20913.534241
582.964434	21232.356975
583.317837	20911.548027
583.671186	20997.804689
584.024481	20986.923359
584.377721	20754.243862
584.730906	20833.155564
585.084037	20819.612504
585.437113	20752.106413
585.790135	20945.500198
586.143103	20404.909544
586.496016	20431.786456
586.848874	20666.139616
587.201679	20580.989487
587.554428	20280.209042
587.907124	20608.937643
588.259765	20369.442507
588.612352	20447.411512
588.964884	20015.505616
589.317362	20181.798157
589.669786	20243.277549
590.022155	20251.726523
590.374470	20486.374591
590.726731	20243.174206
591.078937	20037.848009
591.431090	20120.623756
591.783188	19893.839888
592.135232	19849.734833
592.487222	19944.624472
592.839157	19954.787438
593.191038	19834.888635
593.542866	19736.059334
593.894639	19440.904818
594.246358	19649.439708
594.598022	19540.465086
594.949633	19295.250760
595.301190	19273.505743
595.652692	19447.879254
596.004141	19668.994344
596.355535	19001.754783
596.706876	19023.532567
597.058162	18918.172452
597.409395	19154.426127
597.760573	19206.823880
598.111698	18984.919850
598.462768	18928.501776
598.813785	18894.620181
599.164748	18698.874698
599.515657	18749.409745
599.866511	18548.035813
600.217312	18889.941991
600.568060	18410.263599
600.918753	18722.885714
601.269392	18622.619684
601.619978	18427.264891
601.970510	18608.859855
602.320988	18562.544254
602.671412	18760.366693
603.021783	18687.395991
603.372100	18400.907218
603.722363	18551.413386
604.072572	18483.125916
604.422728	18638.111150
604.772830	18394.295744
605.122878	18352.512141
605.472872	18327.684458
605.822813	18324.339652
606.172701	18303.219738
606.522534	18479.342530
606.872314	18504.437394
607.222041	18345.661213
607.571714	18559.643070
607.921333	18387.308705
608.270899	18459.029201
608.620411	18616.605588
608.969870	18412.063291
609.319276	18408.194206
609.668627	18438.715872
610.017926	18571.283094
610.367171	18683.209312
610.716362	18742.934383
611.065500	18548.544970
611.414585	18706.075986
611.763616	18674.649433
612.112594	18616.650958
612.461518	18588.503676
612.810389	18767.986397
613.159207	18633.564029
613.507971	18542.765287
613.856682	18797.333474
614.205340	18724.634994
614.553945	18880.031082
614.902496	18619.259755
615.250994	18839.139763
615.599439	18784.344941
615.947830	18766.116129
616.296169	18840.331996
616.644454	18804.685997
616.992686	18777.325134
617.340864	18998.074741
617.688990	18748.272965
618.037063	18910.860258
618.385082	18780.385115
618.733048	19050.064160
619.080961	18931.408002
619.428821	18959.197362
619.776628	18839.840483
620.124382	18769.382796
620.472083	18826.758689
620.819731	18836.422581
621.167326	18533.519811
621.514868	18565.523576
621.862357	18339.795830
622.209793	18339.876489
622.557176	18174.745933
622.904506	18008.594543
623.251783	17938.618287
623.599007	17672.578954
623.946179	17625.514742
624.293297	17550.928350
624.640363	17292.707847
624.987376	17334.451122
625.334336	17120.481867
625.681243	16973.565000
626.028097	16969.922766
626.374899	16903.611429
626.721647	16763.248062
627.068343	16601.600943
627.414987	16526.472627
627.761577	16500.152763
628.108115	16530.465221
628.454600	16272.915192
628.801032	16360.774941
629.147412	16293.515867
629.493739	16312.823486
629.840014	16122.358611
630.186236	16214.964608
630.532405	15981.619678
630.878521	16186.834969
631.224585	16082.745224
631.570597	15899.655558
631.916556	15929.042964
632.262462	15916.112405
632.608316	15824.754094
632.954117	15770.591937
633.299866	15762.006852
633.645562	15682.805284
633.991206	15444.709067
634.336797	15315.438759
634.682336	15277.483912
635.027823	15140.339322
635.373257	15017.196536
635.718639	14930.894503
636.063968	14882.340629
636.409245	14631.475170
636.754470	14660.688657
637.099642	14510.202652
637.444762	14280.177323
637.789829	14323.228777
638.134845	14156.159897
638.479808	14182.908260
638.824719	14108.909162
639.169577	13977.168689
639.514383	14007.433256
639.859137	13836.633922
640.203839	13938.613944
640.548489	13785.118371
640.893086	13769.147996
641.237632	13638.987924
641.582125	13804.032781
641.926566	13618.427578
642.270955	13633.808139
642.615292	13580.485334
642.959576	13595.283641
643.303809	13624.086273
643.647990	13554.742682
643.992118	13628.172129
644.336195	13391.003484
644.680219	13608.337709
645.024192	13520.520809
645.368112	13766.004837
645.711981	13800.715701
646.055797	13995.987316
646.399562	13965.836175
646.743274	14236.909100
647.086935	14501.743596
647.430544	14471.143792
647.774101	14506.943547
648.117606	14651.927131
648.461059	14642.969001
648.804460	14611.436583
649.147810	14338.508514
649.491108	14247.883692
649.834354	14261.598151
650.177548	13940.506897
650.520690	13750.120161
650.863781	13668.526565
651.206820	13728.985123
651.549807	13548.791600
651.892742	13337.169002
652.235626	13292.194348
652.578458	13292.083443
652.921238	12984.953665
653.263967	13181.818285
653.606644	13012.639682
653.949269	12991.169408
654.291843	12788.184828
654.634365	12959.826034
654.976836	12807.265595
655.319255	12799.172023
655.661622	12756.319694
656.003938	12685.410824
656.346203	12607.114143
656.688416	12683.190196
657.030577	12639.760656
657.372687	12549.491234
657.714746	12535.552444
658.056753	12730.108215
658.398708	12535.812063
658.740612	12531.491795
659.082465	12650.483190
659.424266	12618.948252
659.766016	12646.495637
660.107715	12546.451419
660.449362	12634.679173
660.790958	12583.148498
661.132503	12527.022812
661.473996	12603.156838
661.815438	12606.841921
662.156829	12633.229841
662.498168	12601.994852
662.839456	12600.658946
663.180693	12618.618057
663.521879	12718.654713
663.863013	12699.135366
664.204097	12662.851661
664.545129	12790.982668
664.886110	12767.722784
665.227040	12856.719314
665.567918	12860.321219
665.908746	12881.405845
666.249522	12871.726829
666.590248	12922.367740
666.930922	13033.804967
667.271545	13011.913756
667.612118	13102.404988
667.952639	12988.530364
668.293109	13020.846681
668.633528	12966.659318
668.973896	12952.917133
669.314213	13019.798121
669.654480	12758.000919
669.994695	12842.457890
670.334859	12862.950181
670.674973	12794.748410
671.015035	12832.582270
671.355047	12778.188220
671.695008	12754.983789
672.034918	12760.282041
672.374777	12797.505921
672.714585	12723.484139
673.054342	12755.528233
673.394049	12712.701111
673.733705	12805.775934
674.073310	12710.230945
674.412864	12718.085063
674.752368	12575.196078
675.091820	12615.101852
675.431223	12592.278028
675.770574	12458.768109
676.109875	12375.546221
676.449125	12335.549706
676.788324	12287.898200
677.127473	12114.820265
677.466571	12113.617949
677.805619	11995.412974
678.144616	11931.022316
678.483562	11899.018551
678.822458	11768.820670
679.161303	11751.958011
679.500098	11734.843293
679.838842	11690.133300
680.177535	11732.179044
680.516179	11793.159361
680.854771	11733.146945
681.193314	11945.523195
681.531805	12115.296654
681.870247	12545.859083
682.208638	12955.596506
682.546978	13258.373247
682.885268	13285.991208
683.223508	12988.802586
683.561697	12834.752487
683.899836	12744.977098
684.237925	12539.915563
684.575963	12454.500773
684.913951	12373.512115
685.251889	12325.714415
685.589776	12429.088316
685.927614	12337.661950
686.265401	12320.723673
686.603137	12368.327289
686.940824	12520.668437
687.278460	12648.880103
687.616046	12682.098786
687.953582	12835.276767
688.291068	12779.307356
688.628504	13018.016073
688.965889	13015.440043
689.303224	12963.692599
689.640510	12859.592772
689.977745	12549.060216
690.314930	12327.057883
690.652065	12234.930796
690.989150	11942.354830
691.326185	11713.133564
691.663170	11509.586896
692.000105	11278.999477
692.336990	11150.258491
692.673825	10901.442260
693.010610	10784.787440
693.347345	10570.520757
693.684030	10381.283403
694.020665	10319.856944
694.357251	10121.817736
694.693786	10050.848372
695.030272	9900.589220
695.366707	9775.674468
695.703093	9710.010919
696.039429	9713.481753
696.375716	9622.693093
696.711952	9495.557714
697.048139	9541.301144
697.384276	9501.725566
697.720363	9519.878761
698.056400	9458.285943
698.392388	9398.402076
698.728326	9362.146098
699.064214	9300.049165
699.400053	9343.768572
699.735842	9162.125716
700.071581	9116.654508
700.407270	9041.604331
700.742910	8968.323598
701.078501	8866.399029
701.414042	8736.178463
701.749533	8686.013941
702.084974	8542.943474
702.420366	8658.867328
702.755709	8539.409626
703.091002	8403.648832
703.426246	8433.628574
703.761440	8387.338179
704.096584	8346.928289
704.431679	8276.334492
704.766725	8264.462574
705.101721	8214.401396
705.436668	8265.004498
705.771565	8153.592478
706.106413	8239.816373
706.441212	8279.384390
706.775961	8235.806135
707.110661	8279.901108
707.445311	8414.252899
707.779913	8309.880850
708.114465	8435.513965
708.448967	8480.891912
708.783421	8633.235581
709.117825	8803.624060
709.452180	8834.400305
709.786485	8930.862783
710.120742	9208.804280
710.454949	9215.438439
710.789107	9326.704266
711.123216	9548.000837
711.457275	9716.942506
711.791286	9862.825936
712.125247	9868.207368
712.459159	9852.945275
712.793023	10086.514535
713.126837	9667.077932
713.460602	9815.280294
713.794318	9646.351228
714.127985	9677.823152
714.461602	9344.411319
714.795171	9292.678998
715.128691	9039.282879
715.462162	8793.992936
715.795584	8739.616530
716.128957	8575.547137
716.462281	8407.762413
716.795556	8457.233777
717.128782	8250.692663
717.461960	7989.560893
717.795088	8060.510092
718.128167	7969.393757
718.461198	7809.632030
718.794180	7753.859225
719.127113	7745.027123
719.459997	7572.143272
719.792833	7353.982299
720.125619	7420.933863
720.458357	7275.693179
720.791046	7269.295955
721.123686	7254.865652
721.456278	7096.898576
721.788821	7115.840712
722.121315	7017.180290
722.453761	7088.106804
722.786158	7023.895107
723.118506	7034.524379
723.450805	6995.614233
723.783056	7051.533233
724.115259	6976.470452
724.447412	6976.510781
724.779518	7026.030035
725.111574	7022.377719
725.443582	7103.104236
725.775542	7076.398724
726.107453	7276.358612
726.439315	7188.720673
726.771129	7257.552587
727.102895	7437.131090
727.434612	7534.969804
727.766281	7580.060405
728.097901	7655.213926
728.429473	7657.116962
728.760996	7646.331413
729.092471	7613.067359
729.423897	7552.661733
729.755276	7557.047537
730.086606	7465.772406
730.417887	7581.852535
730.749120	7790.949514
731.080305	7984.418916
731.411442	8085.098320
731.742530	8070.173984
732.073570	8179.609873
732.404562	8273.962629
732.735506	8125.906461
733.066401	8258.990402
733.397249	8181.669184
733.728048	7939.850075
734.058798	7611.466793
734.389501	7382.547997
734.720156	7209.976698
735.050762	6984.397666
735.381320	6897.258801
735.711831	6833.697413
736.042293	6726.396453
736.372707	6738.215439
736.703073	6612.196675
737.033391	6650.063302
737.363661	6656.014384
737.693883	6696.081475
738.024056	6774.310100
738.354182	6815.965154
738.684260	6845.017324
739.014290	6968.911242
739.344272	7081.084476
739.674207	7112.954651
740.004093	7187.367123
740.333931	7195.397681
740.663722	7202.684669
740.993464	7278.964888
741.323159	7258.956549
741.652806	7009.404310
741.982405	7043.918570
742.311956	7085.790393
742.641460	6911.646254
742.970915	6720.405042
743.300323	6708.460028
743.629683	6661.436145
743.958996	6524.803232
744.288260	6433.671773
744.617477	6385.901799
744.946647	6382.317539
745.275768	6219.299226
745.604842	6171.067987
745.933869	6153.897817
746.262847	6114.775942
746.591778	6099.750783
746.920662	6061.679990
747.249498	6057.941974
747.578286	6102.205825
747.907027	6182.599626
748.235720	6237.142390
748.564365	6210.656168
748.892963	6256.336584
749.221514	6395.709364
749.550017	6209.106013
749.878473	6097.386482
750.206881	6161.885525
750.535242	6109.853256
750.863555	6038.533532
751.191821	6046.637187
751.520039	6046.208688
751.848210	5946.787052
752.176334	5977.838039
752.504411	6024.317478
752.832440	5949.529440
753.160421	5876.568820
753.488356	5929.712664
753.816243	5956.627385
754.144082	5804.898736
754.471875	5782.672289
754.799620	5822.986396
755.127318	5837.149518
755.454969	5790.886849
755.782572	5761.297797
756.110129	5805.145753
756.437638	5779.453512
756.765100	5723.829421
757.092515	5725.684565
757.419882	5786.085150
757.747203	5758.356283
758.074477	5821.274924
758.401703	5803.787162
758.728882	5757.849647
759.056014	5826.941181
759.383099	5944.203461
759.710138	5953.156550
760.037129	5941.337565
760.364073	5940.916629
760.690970	6024.998034
761.017820	6002.396020
761.344623	5964.662984
761.671379	6073.410755
761.998088	6196.687131
762.324751	6461.718232
762.651366	7083.857111
762.977935	8448.242879
763.304456	10100.004663
763.630931	10967.534308
763.957359	10524.898315
764.283740	9565.783507
764.610074	8700.504738
764.936362	7696.218672
765.262602	7105.345029
765.588796	6572.079172
765.914943	6236.187092
766.241044	6072.160548
766.567097	5857.851016
766.893104	5600.739567
767.219064	5424.268936
767.544978	5363.046643
767.870845	5278.637563
768.196665	5172.657385
768.522438	5101.791365
768.848165	5070.475718
769.173846	5000.501982
769.499479	4958.622596
769.825066	4908.548815
770.150607	4844.321994
770.476101	4818.027336
770.801548	4814.228826
771.126949	4732.108430
771.452303	4677.858053
771.777611	4640.379595
772.102872	4660.685362
772.428087	4621.182881
772.753256	4579.787446
773.078378	4531.127709
773.403453	4459.424857
773.728482	4451.875729
774.053465	4402.298502
774.378401	4390.151841
774.703291	4389.640164
775.028135	4312.245850
775.352932	4267.087194
775.677683	4253.188733
776.002388	4270.999129
776.327046	4277.348462
776.651658	4207.316753
776.976224	4146.923730
777.300743	4150.739883
777.625216	4173.513296
777.949643	4165.752440
778.274024	4123.132004
778.598359	4082.291097
778.922647	4108.374027
779.246889	4095.478755
779.571086	4089.179833
779.895236	4074.832709
780.219339	4060.190678
780.543397	4058.292684
780.867409	4108.986527
781.191374	4124.856079
781.515294	4056.588774
781.839167	4052.974266
782.162995	4078.442176
782.486776	4062.827202
782.810511	4072.150816
783.134201	4063.785021
783.457844	4013.769213
783.781441	3965.464877
784.104993	3969.003767
784.428498	3984.422136
784.751958	3980.653873
785.075372	3959.291984
785.398739	3924.737395
785.722061	3937.249539
786.045337	3984.265860
786.368568	4010.941126
786.691752	3922.720933
787.014891	3981.097495
787.337983	4114.277218
787.661030	4273.078605
787.984031	4436.754788
788.306987	4597.771763
788.629897	4684.693858
788.952760	4639.878000
789.275579	4576.742589
789.598351	4500.926156
789.921078	4358.193447
790.243759	4155.627282
790.566395	4145.232423
790.888984	4137.254797
791.211529	4028.519629
791.534027	3967.481338
791.856480	3953.519863
792.178888	3892.710944
792.501249	3849.634285
792.823566	3860.228270
793.145836	3882.731980
793.468062	3831.407993
793.790241	3788.497692
794.112375	3817.794357
794.434464	3885.124008
794.756507	3907.249632
795.078505	3885.784399
795.400457	3924.172786
795.722364	4070.151998
796.044226	4172.280734
796.366042	4246.741097
796.687812	4219.891911
797.009538	4225.328796
797.331218	4182.602496
797.652852	4158.689783
797.974442	4136.856546
798.295986	4136.387718
798.617484	4052.588618
798.938938	3968.169456
799.260346	4011.362062
799.581709	4002.540043
799.903026	3925.354936
800.224299	3888.768762
800.545526	3879.740056
800.866708	3848.467258
801.187845	3789.271509
801.508936	3826.318948
801.829983	3815.692196
802.150984	3739.371647
802.471940	3732.853435
802.792851	3738.139085
803.113717	3738.497007
803.434538	3739.296030
803.755314	3677.373017
804.076045	3658.662774
804.396731	3679.084488
804.717372	3706.465516
805.037967	3685.154038
805.358518	3677.292358
805.679024	3706.967110
805.999485	3720.048905
806.319901	3722.927403
806.640272	3738.983478
806.960598	3753.028133
807.280879	3725.248855
807.601115	3740.957090
807.921306	3756.017537
808.241453	3795.424237
808.561554	3766.856018
808.881611	3699.791028
809.201623	3742.277873
809.521590	3754.739605
809.841513	3724.122157
810.161390	3754.573247
810.481223	3729.249010
810.801011	3680.511135
811.120755	3673.098118
811.440453	3705.248077
811.760107	3703.942418
812.079716	3662.388187
812.399281	3632.375677
812.718801	3658.851817
813.038276	3628.914925
813.357707	3626.659009
813.677093	3642.536123
813.996434	3587.693410
814.315731	3600.858384
814.634983	3606.060854
814.954191	3622.810088
815.273354	3648.986279
815.592473	3638.661996
815.911547	3653.538441
816.230577	3697.855225
816.549562	3748.412957
816.868502	3788.822846
817.187399	3810.920744
817.506250	3810.489725
817.825058	3787.600366
818.143821	3883.493195
818.462539	3983.237465
818.781213	4025.421840
819.099843	4090.268722
819.418429	4350.452755
819.736970	4598.185137
820.055466	4844.790822
820.373919	5221.385178
820.692327	5634.863137
821.010691	6117.586386
821.329011	7576.324910
821.647286	10445.540471
821.965517	15151.389531
822.283704	19172.531431
822.601847	21196.872293
822.919945	19281.140570
823.237999	16652.428377
823.556010	14131.417914
823.873976	11984.183804
824.191897	9875.471671
824.509775	8535.414511
824.827609	7399.337560
825.145398	6875.912035
825.463144	6758.490959
825.780845	6866.873247
826.098502	7085.445074
826.416116	8015.754729
826.733685	9377.909786
827.051210	10477.476181
827.368692	10441.739441
827.686129	9132.609760
828.003522	7614.718337
828.320872	6592.866370
828.638177	5875.505137
828.955439	5306.237880
829.272656	4803.534018
829.589830	4531.783059
829.906960	4351.738249
830.224046	4158.936800
830.541088	4039.027914
830.858086	3990.015296
831.175041	3911.595107
831.491952	3903.007501
831.808819	3910.803646
832.125642	3992.399762
832.442421	4145.610509
832.759157	4438.899799
833.075849	5010.349876
833.392497	5906.049488
833.709101	6692.950918
834.025662	7006.417426
834.342179	6600.775941
834.658653	5920.293268
834.975083	5261.490078
835.291469	4677.144730
835.607811	4273.491980
835.924110	4130.091317
836.240366	3925.642282
836.556578	3724.396900
836.872746	3613.793984
837.188871	3573.482398
837.504952	3505.575535
837.820990	3418.734098
838.136984	3377.741956
838.452935	3402.602406
838.768842	3398.665265
839.084706	3420.327103
839.400526	3590.024944
839.716303	3951.185808
840.032037	4492.948530
840.347727	4736.201847
840.663373	4432.973923
840.978977	4041.808111
841.294537	3730.085842
841.610054	3506.621574
841.925527	3399.197106
842.240957	3328.605829
842.556344	3274.085750
842.871687	3211.464537
843.186987	3162.358658
843.502244	3123.188892
843.817458	3090.295363
844.132629	3060.671023
844.447756	3067.224523
844.762840	3051.901936
845.077881	3019.492358
845.392879	3002.584328
845.707833	3001.245901
846.022745	2998.420334
846.337613	2999.100890
846.652438	2987.191164
846.967221	2983.732933
847.281960	2972.712970
847.596656	2966.401446
847.911309	2966.121662
848.225919	2959.396763
848.540485	2953.218828
848.855009	2958.083542
849.169490	2946.138528
849.483928	2935.597475
849.798323	2933.109666
850.112675	2931.783842
850.426984	2945.233641
850.741251	2939.436314
851.055474	2926.790579
851.369654	2924.375867
851.683792	2930.604212
851.997887	2937.840789
852.311938	2939.191818
852.625947	2927.128337
852.939914	2932.388781
853.253837	2937.535799
853.567718	2920.501740
853.881555	2920.721030
854.195350	2934.629574
854.509103	2930.876435
854.822812	2921.356216
855.136479	2920.474014
855.450103	2921.530135
855.763685	2916.370514
856.077224	2910.167375
856.390720	2924.658171
856.704173	2933.588575
857.017584	2925.242945
857.330953	2927.400559
857.644278	2935.519337
857.957561	2944.439659
858.270802	2946.909824
858.584000	2943.590225
858.897155	2931.360385
859.210268	2930.846188
859.523339	2929.835436
859.836367	2928.197061
860.149352	2922.530804
860.462295	2919.808581
860.775195	2925.691608
861.088054	2925.510126
861.400869	2907.414905
861.713642	2908.730646
862.026373	2922.215732
862.339062	2924.322935
862.651708	2931.294850
862.964312	2935.168977
863.276873	2927.098090
863.589392	2937.417332
863.901869	2950.645319
864.214303	2972.289513
864.526696	2986.626555
864.839045	2982.830566
865.151353	2982.583550
865.463619	2977.169350
865.775842	2981.139259
866.088023	3003.678258
866.400162	3007.570029
866.712258	2977.287818
867.024313	2966.192238
867.336325	2979.382417
867.648296	2998.725324
867.960224	2988.789210
868.272110	2977.257571
868.583954	2981.179588
868.895755	2995.435971
869.207515	2982.845690
869.519233	2991.128305
869.830909	2998.541322
870.142542	3005.896366
870.454134	3004.444513
870.765684	3011.988600
871.077191	3012.868281
871.388657	3022.920342
871.700081	3034.177239
872.011463	3044.176367
872.322803	3044.065462
872.634101	3043.861295
872.945357	3063.294943
873.256571	3088.656988
873.567744	3080.034095
873.878874	3074.756007
874.189963	3098.063781
874.501010	3095.472628
874.812015	3087.184971
875.122979	3086.227152
875.433900	3088.243614
875.744780	3093.955241
876.055618	3103.362034
876.366415	3095.644028
876.677169	3105.990996
876.987882	3101.562342
877.298554	3099.177876
877.609183	3122.417596
877.919771	3144.419712
878.230317	3172.821572
878.540822	3224.238821
878.851285	3266.765995
879.161707	3312.045639
879.472087	3424.269285
879.782425	3666.136285
880.092722	4123.696614
880.402977	4664.864479
880.713191	5321.898224
881.023363	6530.719026
881.333494	7834.434507
881.643583	8356.778704
881.953631	8037.030918
882.263637	7365.307251
882.573602	6750.412510
882.883526	6162.074568
883.193408	5594.435604
883.503248	5138.531294
883.813048	4827.539993
884.122806	4503.373636
884.432522	4180.908669
884.742197	3938.449333
885.051831	3749.038060
885.361424	3619.346815
885.670975	3542.234806
885.980485	3452.920683
886.289954	3374.928992
886.599382	3325.245900
886.908768	3288.611835
887.218113	3247.917121
887.527417	3186.689787
887.836680	3135.559884
888.145901	3131.474028
888.455082	3115.659929
888.764221	3063.025242
889.073319	3037.176725
889.382376	3034.051210
889.691392	3038.580687
890.000366	3039.619164
890.309300	3024.195754
890.618193	3039.215872
890.927044	3054.369580
891.235855	3052.574930
891.544625	3039.828372
891.853353	3052.824467
892.162041	3067.388360
892.470687	3112.126080
892.779293	3165.259842
893.087858	3211.272973
893.396381	3288.735343
893.704864	3419.225611
894.013306	3668.301460
894.321707	3977.495590
894.630068	4178.171322
894.938387	4166.364940
895.246665	4127.656440
895.554903	3998.020648
895.863100	3791.661016
896.171256	3620.236579
896.479371	3479.676607
896.787446	3356.322093
897.095480	3249.069024
897.403473	3184.844724
897.711425	3147.721667
898.019336	3139.582724
898.327207	3106.059051
898.635038	3071.562436
898.942827	3056.423851
899.250576	3046.805329
899.558284	3012.454907
899.865952	2994.495796
900.173579	2972.962508
900.481165	2961.861887
900.788711	2951.300669
901.096216	2925.515168
901.403681	2915.027047
901.711105	2922.853438
902.018489	2920.899991
902.325832	2918.782707
902.633135	2930.190838
902.940397	2964.962196
903.247619	3056.141546
903.554800	3260.104110
903.861941	3628.151191
904.169041	4073.363213
904.476101	4362.485989
904.783121	4297.802944
905.090100	4041.581259
905.397039	3758.177672
905.703938	3500.829288
906.010796	3314.236020
906.317614	3201.137733
906.624391	3105.328084
906.931129	3032.541384
907.237826	2969.647949
907.544483	2922.424940
907.851099	2892.583830
908.157675	2871.499204
908.464211	2849.779393
908.770707	2836.432938
909.077163	2822.037923
909.383578	2805.107208
909.689954	2795.660086
909.996289	2795.634880
910.302584	2795.309725
910.608839	2795.869293
910.915054	2788.204219
911.221229	2781.449073
911.527363	2786.270937
911.833458	2794.319139
912.139513	2800.184521
912.445527	2800.297947
912.751502	2811.917807
913.057436	2819.736636
913.363331	2833.171311
913.669186	2858.309025
913.975000	2894.721279
914.280775	2959.883234
914.586510	3029.168852
914.892205	3112.138683
915.197859	3248.849734
915.503475	3452.366156
915.809050	3674.292872
916.114585	3821.852486
916.420081	3830.132581
916.725536	3770.493211
917.030952	3646.097698
917.336328	3512.386134
917.641665	3378.455279
917.946961	3273.319495
918.252218	3202.771067
918.557435	3123.982874
918.862612	3062.256466
919.167750	3007.691016
919.472848	2970.590645
919.777906	2942.145934
920.082925	2915.722726
920.387904	2883.708879
920.692843	2866.165663
920.997743	2854.097141
921.302603	2839.732373
921.607423	2830.832216
921.912204	2816.938796
922.216946	2807.027887
922.521647	2797.679068
922.826310	2788.826802
923.130932	2781.418826
923.435516	2770.446755
923.740059	2763.757143
924.044564	2757.115423
924.349028	2750.743405
924.653454	2744.837693
924.957840	2739.305027
925.262186	2734.352093
925.566493	2731.271948
925.870761	2722.407079
926.174989	2718.144783
926.479178	2715.493137
926.783328	2711.981973
927.087438	2709.022816
927.391509	2708.385110
927.695541	2705.448637
927.999533	2702.635674
928.303486	2699.487473
928.607400	2698.297761
928.911275	2697.377750
929.215110	2693.818696
929.518906	2695.638552
929.822663	2695.262986
930.126381	2696.785415
930.430060	2695.928418
930.733699	2697.949921
931.037299	2698.728779
931.340861	2699.825230
931.644383	2696.225847
931.947866	2698.426310
932.251309	2697.808769
932.554714	2698.534695
932.858080	2693.816175
933.161407	2694.158973
933.464694	2689.677388
933.767943	2687.194619
934.071153	2688.830474
934.374323	2688.976667
934.677455	2690.337779
934.980548	2686.945082
935.283602	2689.155628
935.586617	2685.871317
935.889593	2686.937521
936.192530	2685.641944
936.495428	2688.187727
936.798287	2689.644620
937.101108	2692.260979
937.403890	2698.973275
937.706632	2700.866229
938.009336	2708.490974
938.312002	2716.818960
938.614628	2727.707852
938.917216	2732.895200
939.219765	2735.209089
939.522275	2732.020559
939.824747	2729.694067
940.127179	2727.208778
940.429573	2723.117882
940.731929	2720.393138
941.034246	2716.375338
941.336524	2716.957592
941.638763	2712.372662
941.940964	2710.434339
942.243126	2707.840665
942.545250	2708.972404
942.847335	2703.928730
943.149381	2699.787422
943.451389	2696.719880
943.753359	2695.908254
944.055290	2694.196782
944.357182	2690.962882
944.659036	2690.738551
944.960851	2690.110927
945.262628	2687.839887
945.564367	2689.521112
945.866067	2691.023376
946.167729	2690.572192
946.469352	2690.277285
946.770937	2691.391380
947.072484	2690.252079
947.373992	2688.089424
947.675462	2685.210925
947.976893	2681.636747
948.278286	2681.268743
948.579641	2680.580626
948.880958	2678.498629
949.182236	2680.731860
949.483476	2681.074659
949.784678	2682.400482
950.085841	2682.587005
950.386967	2680.341171
950.688054	2683.738908
950.989103	2680.421829
951.290114	2684.245544
951.591087	2685.515915
951.892021	2690.678057
952.192917	2691.232584
952.493776	2691.532532
952.794596	2695.449509
953.095378	2690.922553
953.396122	2693.639735
953.696828	2690.678057
953.997496	2687.897860
954.298126	2686.551872
954.598718	2684.762263
954.899272	2683.869978
955.199788	2679.758917
955.500266	2675.731036
955.800706	2674.314471
956.101108	2673.772547
956.401472	2669.225427
956.701798	2670.102587
957.002087	2665.537822
957.302337	2664.746361
957.602550	2665.487411
957.902724	2662.593789
958.202861	2660.088335
958.502960	2660.844508
958.803022	2661.472132
959.103045	2658.586071
959.403031	2658.500372
959.702979	2658.122285
960.002889	2656.708242
960.302762	2655.475679
960.602596	2655.221101
960.902393	2656.279743
961.202153	2654.885864
961.501875	2653.718837
961.801559	2654.023827
962.101205	2654.643889
962.400814	2654.452325
962.700385	2651.992242
962.999918	2650.374032
963.299414	2649.723723
963.598873	2650.464773
963.898293	2648.201294
964.197677	2651.780514
964.497022	2652.312355
964.796331	2652.161121
965.095601	2652.937458
965.394835	2651.735143
965.694030	2652.458549
965.993189	2652.564413
966.292309	2649.643064
966.591393	2651.195740
966.890439	2649.932931
967.189447	2650.006027
967.488419	2653.698673
967.787353	2652.781183
968.086249	2651.102478
968.385108	2651.926707
968.683930	2649.791778
968.982714	2651.231028
969.281462	2652.025010
969.580172	2652.569454
969.878844	2651.001655
970.177480	2650.895791
970.476078	2650.663898
970.774639	2653.497027
971.073162	2652.798827
971.371649	2653.444094
971.670098	2653.595329
971.968510	2649.905204
972.266885	2652.508960
972.565223	2651.662047
972.863524	2651.914104
973.161788	2652.793786
973.460014	2650.462252
973.758204	2650.744557
974.056356	2654.326296
974.354471	2649.670791
974.652550	2650.968888
974.950591	2652.677839
975.248595	2652.786224
975.546563	2652.032571
975.844493	2650.590801
976.142386	2651.314207
976.440243	2651.528456
976.738062	2652.181285
977.035845	2651.218425
977.333590	2651.924187
977.631299	2650.883188
977.928971	2648.871768
978.226606	2646.331026
978.524204	2647.951757
978.821765	2646.729277
979.119290	2650.132056
979.416777	2650.162303
979.714228	2652.047695
980.011642	2648.833959
980.309020	2651.067190
980.606360	2648.944865
980.903664	2650.381593
981.200931	2652.566934
981.498162	2653.365957
981.795356	2654.570792
982.092513	2654.480052
982.389633	2653.859990
982.686717	2660.221926
982.983764	2663.120589
983.280775	2666.036897
983.577749	2668.131496
983.874686	2666.762823
984.171587	2666.112514
984.468451	2662.971875
984.765279	2657.683705
985.062070	2659.090187
985.358824	2655.533653
985.655543	2656.597336
985.952224	2651.407468
986.248869	2650.421923
986.545478	2650.106851
986.842050	2648.392858
987.138586	2649.219607
987.435086	2651.440236
987.731549	2648.922179
988.027975	2646.696510
988.324366	2647.699700
988.620719	2646.890594
988.917037	2646.056283
989.213318	2645.955460
989.509563	2645.043012
989.805772	2647.177940
990.101944	2645.088382
990.398080	2646.608290
990.694180	2644.594349
990.990244	2645.872281
991.286271	2647.840852
991.582262	2644.160810
991.878217	2643.729791
992.174136	2647.132570
992.470019	2646.293218
992.765865	2645.325316
993.061676	2642.877836
993.357450	2641.862043
993.653188	2642.751807
993.948890	2646.053763
994.244556	2647.866058
994.540186	2647.152734
994.835780	2647.714823
995.131337	2646.061325
995.426859	2645.829432
995.722345	2649.267498
996.017795	2649.058291
996.313208	2650.973929
996.608586	2650.588281
996.903928	2650.111892
997.199234	2652.002324
997.494504	2651.654485
997.789738	2649.537200
998.084936	2649.358239
998.380099	2649.907725
998.675225	2649.436377
998.970316	2647.240955
999.265371	2648.246665
999.560390	2647.639206
999.855373	2645.441263
1000.150320	2645.655512
1000.445232	2646.938485
1000.740108	2646.046201
1001.034948	2646.666263
1001.329752	2645.514359
1001.624521	2644.846407
1001.919254	2641.567136
1002.213951	2644.387662
1002.508613	2644.148207
1002.803239	2646.124339
1003.097829	2644.599390
1003.392384	2645.269863
1003.686903	2643.364307
1003.981386	2646.159627
1004.275834	2646.273053
1004.570246	2645.312713
1004.864623	2645.665594
1005.158964	2643.868423
1005.453270	2644.790954
1005.747540	2642.348515
1006.041775	2642.570326
1006.335974	2645.688279
1006.630138	2641.741056
1006.924266	2644.382620
1007.218359	2644.221303
1007.512416	2641.728453
1007.806438	2639.505304
1008.100425	2641.539410
1008.394376	2641.335243
1008.688292	2644.601911
1008.982172	2643.613844
1009.276017	2639.744759
1009.569827	2640.687455
1009.863602	2645.106026
1010.157341	2644.233906
1010.451045	2643.578556
1010.744714	2642.214924
1011.038347	2642.797177
1011.331945	2644.478402
1011.625508	2641.725932
1011.919036	2643.875984
1012.212528	2644.125522
1012.505986	2641.899852
1012.799408	2642.265336
1013.092795	2641.436066
1013.386147	2643.830614
1013.679464	2642.759369
1013.972745	2642.343474
1014.265992	2644.702734
1014.559204	2643.702065
1014.852380	2643.374390
1015.145521	2641.725932
1015.438628	2641.037815
1015.731699	2643.069400
1016.024736	2640.695016
1016.317737	2641.887249
1016.610703	2640.150572
1016.903635	2643.427322
1017.196531	2641.839358
1017.489393	2645.123670
1017.782219	2641.052938
1018.075011	2643.409678
1018.367768	2642.971097
1018.660490	2642.134266
1018.953177	2642.134266
1019.245829	2642.134266
