Dividing Wavelength (nm)	Counts (n)	Blue Motor Position (mm): 35.300000	Red Motor Position (mm): 0.000000	
326.493990	2228.076574
326.888308	2228.076574
327.282561	2228.076574
327.676750	2188.783300
328.070874	2184.578978
328.464933	2185.967816
328.858929	2189.231963
329.252859	2195.001564
329.646726	2204.851978
330.040528	2214.094934
330.434265	2226.516337
330.827938	2246.050808
331.221547	2261.602768
331.615091	2277.926024
332.008571	2298.995526
332.401986	2318.091417
332.795338	2333.953408
333.188625	2355.587519
333.581847	2372.074613
333.975006	2393.728889
334.368100	2414.238824
334.761129	2432.777667
335.154095	2451.129988
335.546996	2477.439770
335.939833	2514.923269
336.332606	2530.122348
336.725315	2543.554502
337.117960	2555.628066
337.510540	2567.096691
337.903056	2579.157651
338.295508	2585.627972
338.687896	2595.201123
339.080220	2601.540374
339.472480	2606.868874
339.864676	2614.594442
340.256807	2619.696090
340.648875	2622.390587
341.040879	2627.149436
341.432818	2630.726135
341.824694	2634.980868
342.216506	2633.783594
342.608253	2635.084212
342.999937	2635.003554
343.391557	2634.086064
343.783113	2633.103039
344.174605	2631.275620
344.566033	2633.216465
344.957397	2630.068264
345.348697	2630.070785
345.739934	2629.392749
346.131106	2624.291102
346.522215	2623.701287
346.913260	2621.415123
347.304241	2622.272120
347.695159	2619.202057
348.086012	2619.587705
348.476802	2616.610904
348.867528	2611.758793
349.258191	2607.173864
349.648789	2609.298710
350.039324	2606.090016
350.429796	2606.621857
350.820203	2605.646394
351.210548	2606.263936
351.600828	2604.534820
351.991045	2604.698657
352.381198	2601.366455
352.771288	2602.548605
353.161314	2602.407453
353.551276	2599.057606
353.941175	2598.800507
354.331010	2599.660024
354.720782	2600.811928
355.110490	2600.506938
355.500135	2598.808069
355.889717	2602.352000
356.279235	2597.537698
356.668689	2601.222782
357.058080	2600.680858
357.447408	2598.858481
357.836672	2601.641197
358.225873	2600.764037
358.615010	2599.075250
359.004084	2599.901999
359.393095	2602.926692
359.782043	2604.494491
360.170927	2602.299068
360.559748	2603.539192
360.948505	2604.519696
361.337199	2605.464913
361.725830	2604.302927
362.114398	2606.140427
362.502903	2608.471961
362.891344	2609.306272
363.279722	2605.343925
363.668037	2610.029677
364.056289	2609.124790
364.444478	2607.493977
364.832603	2611.085799
365.220665	2608.550099
365.608665	2611.194184
365.996601	2610.697630
366.384474	2610.909359
366.772284	2611.552106
367.160031	2612.824997
367.547715	2613.248454
367.935336	2610.732918
368.322893	2609.996910
368.710388	2611.491612
369.097820	2613.553444
369.485189	2610.022116
369.872495	2614.967488
370.259738	2614.163424
370.646918	2615.146449
371.034035	2618.962602
371.421090	2616.084103
371.808081	2619.060905
372.195010	2616.802468
372.581875	2614.932200
372.968678	2617.611573
373.355418	2613.629061
373.742096	2617.845987
374.128710	2618.783641
374.515262	2618.803806
374.901751	2617.185595
375.288177	2622.811523
375.674540	2622.377984
376.060841	2623.774383
376.447079	2620.157356
376.833254	2622.529218
377.219367	2621.785648
377.605417	2621.689866
377.991404	2620.734568
378.377329	2621.150463
378.763191	2623.784466
379.148991	2623.897892
379.534727	2624.119702
379.920402	2623.199692
380.306013	2624.099538
380.691563	2626.363016
381.077049	2623.731534
381.462474	2624.921246
381.847835	2625.122892
382.233134	2627.862759
382.618371	2629.024745
383.003545	2627.688839
383.388657	2629.052472
383.773706	2629.576752
384.158693	2628.835702
384.543618	2630.201855
384.928480	2633.844088
385.313280	2633.216465
385.698017	2632.982051
386.082692	2631.961217
386.467305	2630.277472
386.851856	2632.092287
387.236344	2634.776702
387.620770	2634.312916
388.005133	2629.803603
388.389435	2634.411218
388.773674	2631.421814
389.157851	2635.968935
389.541965	2641.829276
389.926018	2636.866260
390.310008	2639.028915
390.693936	2638.325674
391.077802	2639.452372
391.461606	2641.000006
391.845348	2641.216776
392.229027	2642.439256
392.612645	2644.763227
392.996200	2642.598052
393.379694	2642.867754
393.763125	2642.950933
394.146494	2646.966212
394.529801	2645.993269
394.913047	2646.157107
395.296230	2648.972591
395.679351	2648.644916
396.062410	2648.675163
396.445408	2649.267498
396.828343	2651.417551
397.211217	2650.953764
397.594028	2652.483755
397.976778	2652.461069
398.359466	2654.268323
398.742092	2653.028199
399.124656	2654.122130
399.507158	2653.038282
399.889598	2656.839312
400.271977	2657.618170
400.654294	2659.811072
401.036549	2662.724859
401.418742	2665.535302
401.800874	2666.553615
402.182944	2667.917247
402.564952	2674.006961
402.946898	2681.112467
403.328783	2685.624300
403.710606	2693.261648
404.092367	2705.809080
404.474067	2721.701317
404.855705	2735.418297
405.237282	2753.241297
405.618797	2777.927827
406.000250	2805.271045
406.381642	2846.729495
406.762972	2883.310628
407.144240	2920.466452
407.525447	2964.190900
407.906593	3014.589835
408.287677	3082.756318
408.668700	3131.688277
409.049661	3209.644681
409.430560	3279.540279
409.811399	3319.753563
410.192176	3436.279834
410.572891	3516.154396
410.953545	3639.937408
411.334138	3653.051970
411.714669	3777.581073
412.095139	3800.871204
412.475547	3949.799491
412.855894	4058.000297
413.236180	4210.636353
413.616405	4184.757590
413.996568	4352.645657
414.376670	4454.255154
414.756711	4497.813243
415.136691	4629.747801
415.516609	4812.769412
415.896466	4910.343466
416.276262	5095.656281
416.655997	5175.848436
417.035670	5379.395105
417.415283	5659.761396
417.794834	5786.238905
418.174324	5812.112627
418.553753	5858.340008
418.933121	6164.637995
419.312428	6316.333876
419.691674	6266.897801
420.070859	6686.886410
420.449983	6561.701957
420.829045	6908.089720
421.208047	6832.553071
421.586988	7148.346072
421.965867	7243.139928
422.344686	7416.535456
422.723444	7519.904316
423.102141	7086.193686
423.480777	7773.529807
423.859352	7437.191584
424.237866	8039.543934
424.616319	7988.832447
424.994712	8397.014673
425.373044	8097.043334
425.751314	8549.963281
426.129524	8484.541707
426.507673	8657.430599
426.885762	8842.740894
427.263789	8806.245460
427.641756	8762.634438
428.019662	8907.202128
428.397508	9161.208226
428.775292	8910.642715
429.153016	9300.281058
429.530679	9160.752002
429.908282	9234.557015
430.285824	8980.114857
430.663305	9658.407148
431.040726	9138.250812
431.418086	9155.426023
431.795385	9470.891348
432.172624	9568.616636
432.549802	9500.677006
432.926920	9595.448177
433.303977	9481.182864
433.680974	9698.731337
434.057910	9783.402557
434.434786	9851.697589
434.811601	9714.547957
435.188355	10277.856571
435.565050	10002.730558
435.941683	9948.722157
436.318257	10443.435789
436.694770	10561.111443
437.071222	10643.317539
437.447614	10494.608542
437.823946	10379.803825
438.200218	10541.385408
438.576429	10348.165543
438.952580	10584.782181
439.328670	10647.244598
439.704700	10420.604403
440.080670	10428.246793
440.456580	10993.534059
440.832429	10732.064532
441.208218	10329.445218
441.583947	10675.641418
441.959616	10803.779987
442.335224	10610.479463
442.710773	10765.116857
443.086261	10958.503081
443.461689	10249.706767
443.837057	10887.450538
444.212365	11182.037924
444.587612	10820.486371
444.962800	11055.671321
445.337927	10835.380460
445.712995	10403.313246
446.088002	11495.209525
446.462949	11146.792697
446.837837	11120.535847
447.212664	11122.398554
447.587431	11626.256840
447.962139	12334.228924
448.336786	14589.237862
448.711374	15154.174768
449.085901	13008.034588
449.460369	12615.633693
449.834776	12067.370404
450.209124	12930.050459
450.583412	13333.226820
450.957640	14293.334735
451.331808	13448.336527
451.705917	12419.605906
452.079965	11749.084553
452.453954	12636.201601
452.827883	12272.169800
453.201752	12558.419118
453.575562	12078.778535
453.949311	12489.113335
454.323001	12441.083742
454.696632	12671.751818
455.070202	12961.066158
455.443713	13208.586812
455.817164	13660.574145
456.190556	13660.241429
456.563888	14028.953942
456.937160	14197.615826
457.310373	13530.104042
457.683526	13614.974388
458.056619	13170.533662
458.429653	13308.840238
458.802628	12750.131678
459.175542	13113.097276
459.548398	14070.288883
459.921194	14398.510848
460.293930	14460.408655
460.666607	15347.656773
461.039224	16392.438429
461.411782	17081.659941
461.784280	16964.947147
462.156719	17012.167636
462.529099	16704.253959
462.901419	15620.662981
463.273680	15410.091464
463.645882	15281.267298
464.018024	15018.721485
464.390106	15235.039917
464.762130	15960.151925
465.134094	16722.079479
465.505999	18696.802784
465.877845	21972.085808
466.249631	24797.836541
466.621358	24492.297248
466.993026	23047.074057
467.364634	22475.145071
467.736184	21027.855007
468.107674	20216.632531
468.479105	20347.092551
468.850477	19811.578340
469.221790	19392.476973
469.593043	18716.909426
469.964238	18160.703799
470.335373	17812.952403
470.706449	18258.161905
471.077467	17805.657854
471.448425	19638.543254
471.819324	23663.856710
472.190164	25695.580341
472.560945	22151.306389
472.931667	19782.105234
473.302330	19143.295259
473.672934	18661.451692
474.043479	18998.324278
474.413965	18810.006935
474.784393	18432.235468
475.154761	19115.452967
475.525070	19121.101580
475.895321	18778.726575
476.265513	19365.405977
476.635645	19942.678587
477.005719	19724.802438
477.375734	19924.653941
477.745691	20392.828419
478.115588	20907.300854
478.485427	21447.130293
478.855207	22493.096620
479.224928	24264.169912
479.594591	26476.248385
479.964194	26523.915015
480.333739	26736.261018
480.703226	26291.356506
481.072653	25972.581663
481.442022	26541.049897
481.811333	27450.307693
482.180584	27372.404222
482.549777	26422.797031
482.918912	26084.916215
483.287988	26192.602823
483.657005	25866.296496
484.025964	25598.916216
484.394864	25528.208993
484.763706	25222.223557
485.132489	24646.601926
485.501213	24823.062475
485.869879	24740.420319
486.238487	24554.704212
486.607036	24700.023033
486.975527	24402.453804
487.343959	24713.218253
487.712333	24660.631457
488.080648	24323.882380
488.448905	24808.491020
488.817104	24548.662389
489.185244	25231.209414
489.553326	25197.494177
489.921350	26194.631887
490.289315	28485.301948
490.657222	30266.419739
491.025070	30755.686405
491.392861	30540.731605
491.760593	29688.058241
492.128267	28792.078844
492.495883	27746.203259
492.863440	26876.437862
493.230939	26001.495201
493.598380	25844.347312
493.965763	25445.440808
494.333088	24979.282791
494.700354	24923.404122
495.067563	24794.277486
495.434713	24547.313880
495.801805	24696.814338
496.168839	24512.005638
496.535815	24339.961140
496.902733	24564.075717
497.269593	24238.155038
497.636395	24414.053499
498.003139	24388.388984
498.369825	24128.396516
498.736453	24336.886036
499.103023	24213.831471
499.469535	24224.775816
499.835989	24430.732156
500.202385	24463.981086
500.568723	23969.380880
500.935003	24218.618046
501.301226	23827.555578
501.667390	24674.774414
502.033497	24908.326030
502.399546	24633.363856
502.765537	24192.870353
503.131470	24577.568365
503.497345	24713.795465
503.863163	23938.342495
504.228923	24532.944071
504.594625	24745.612708
504.960269	24262.967597
505.325856	24769.164978
505.691385	24162.308358
506.056856	24768.849906
506.422270	24728.762651
506.787625	24301.822291
507.152924	24727.361210
507.518164	24756.181487
507.883347	24563.430449
508.248472	24243.203754
508.613540	25024.222157
508.978550	24812.269364
509.343503	24807.029085
509.708398	25063.442334
510.073236	25221.883279
510.438016	25433.745331
510.802738	25104.154693
511.167403	25358.312026
511.532010	25064.747993
511.896561	25828.024056
512.261053	25805.454810
512.625488	25630.105835
512.989866	25529.401225
513.354186	25362.682706
513.718449	25484.910522
514.082655	25857.693767
514.446803	25606.488029
514.810894	26055.057460
515.174927	25546.596601
515.538904	25575.074079
515.902822	26072.971201
516.266684	25825.231257
516.630488	25739.619861
516.994235	25709.383021
517.357925	26000.403791
517.721558	26190.437647
518.085133	26286.143953
518.448651	26190.528388
518.812112	25943.330368
519.175516	26145.485678
519.538863	26286.522039
519.902152	26086.514260
520.265385	26358.819747
520.628560	26158.721228
520.991678	26157.937328
521.354739	26229.796456
521.717743	26281.561544
522.080690	26080.341368
522.443580	26416.004076
522.806413	26417.826453
523.169189	26510.145103
523.531908	26541.279269
523.894569	26161.483780
524.257174	26238.479843
524.619722	26415.295794
524.982213	26113.948220
525.344647	26172.528948
525.707025	26308.887118
526.069345	26279.708920
526.431608	26248.438642
526.793815	26435.276407
527.155964	25895.388995
527.518057	26066.193369
527.880093	25982.147252
528.242072	26217.178448
528.603995	25927.271772
528.965860	25729.822379
529.327669	25765.705312
529.689421	25753.926656
530.051117	25595.815907
530.412755	25771.237978
530.774337	25562.569497
531.135862	25438.973008
531.497331	25640.077237
531.858743	25212.932710
532.220098	25676.575191
532.581396	25368.825352
532.942638	25292.237622
533.303824	25399.634364
533.664953	25400.705609
534.026025	25058.338166
534.387040	25300.734487
534.747999	25354.178279
535.108902	25512.465469
535.469748	25016.194120
535.830537	25194.557705
536.191270	25322.035883
536.551947	25190.895306
536.912567	24831.892056
537.273131	25183.525139
537.633638	24892.542178
537.994089	25112.127278
538.354483	24640.517253
538.714821	25133.690813
539.075103	25184.427506
539.435328	24964.585307
539.795497	24533.498598
540.155609	24913.102524
540.515665	25216.070829
540.875665	24446.538694
541.235609	24767.128352
541.595496	24716.888213
541.955328	25077.335754
542.315102	24988.891231
542.674821	24524.641291
543.034483	24402.915069
543.394090	24577.558283
543.753640	24370.492888
544.113134	24998.361038
544.472571	24590.627474
544.831953	24900.981069
545.191278	24518.841443
545.550548	24429.761734
545.909761	24627.223730
546.268918	24861.387847
546.628019	24838.475803
546.987064	24534.191757
547.346053	24284.415186
547.704986	24389.351845
548.063863	24561.111518
548.422684	24574.836059
548.781449	24085.982768
549.140158	24508.040771
549.498811	24070.892074
549.857408	23818.390760
550.215949	24247.297171
550.574434	23931.695734
550.932864	24152.258818
551.291237	24310.591378
551.649555	24164.649974
552.007817	24219.028900
552.366022	24072.278391
552.724173	24121.142296
553.082267	24070.813936
553.440305	24541.388004
553.798288	23804.648575
554.156215	24302.459997
554.514086	24411.719444
554.871902	23779.296612
555.229661	24067.363266
555.587365	23924.340691
555.945014	23803.234531
556.302606	24047.962386
556.660143	24006.274564
557.017625	24244.201902
557.375050	23774.822588
557.732421	24162.167206
558.089735	23984.524506
558.446994	24045.396438
558.804197	24070.473658
559.161345	24001.671991
559.518437	23765.418316
559.875474	23961.783861
560.232455	24140.162569
560.589381	23958.045845
560.946251	23945.339617
561.303065	24266.642598
561.659825	24350.446740
562.016528	23959.152378
562.373177	23693.065155
562.729770	24048.279978
563.086307	23904.589450
563.442789	24083.749537
563.799216	23915.775770
564.155587	23917.393981
564.511904	23905.549790
564.868164	23842.426982
565.224370	23807.998422
565.580520	23732.129056
565.936615	23855.443241
566.292654	23539.950189
566.648638	23823.938550
567.004567	23655.173322
567.360441	23606.485858
567.716260	23327.866326
568.072023	23665.273274
568.427732	23437.902112
568.783385	23198.235576
569.138982	23442.280354
569.494525	23481.515654
569.850013	23221.107291
570.205445	23321.350635
570.560823	23138.734837
570.916145	22885.414336
571.271412	23086.231220
571.626625	22818.286331
571.981782	22932.284463
572.336884	22744.481318
572.691931	22883.138255
573.046923	22611.160443
573.401860	22492.353050
573.756743	22516.873222
574.111570	22404.384915
574.466342	22338.179442
574.821059	22424.675559
575.175722	22134.146301
575.530330	22108.249894
575.884882	22131.782000
576.239380	22046.399977
576.593823	21929.667019
576.948211	21920.310637
577.302544	21758.212336
577.656823	21626.474383
578.011047	21723.539279
578.365216	21591.340061
578.719330	21467.196606
579.073389	21364.974609
579.427394	21514.785099
579.781344	21287.907970
580.135239	21168.883807
580.489080	21139.380454
580.842866	20901.901779
581.196597	21107.754775
581.550273	21087.333061
581.903895	20958.624842
582.257463	21284.895880
582.610975	20808.103550
582.964434	21115.545879
583.317837	20823.229532
583.671186	20908.929147
584.024481	20878.462934
584.377721	20653.274592
584.730906	20720.760518
585.084037	20721.335210
585.437113	20639.247581
585.790135	20851.225580
586.143103	20311.726336
586.496016	20328.657051
586.848874	20560.434182
587.201679	20488.106227
587.554428	20176.285656
587.907124	20501.924030
588.259765	20280.163672
588.612352	20342.794967
588.964884	19914.412837
589.317362	20091.914384
589.669786	20143.256016
590.022155	20164.328039
590.374470	20381.778210
590.726731	20160.421145
591.078937	19938.507032
591.431090	20022.553149
591.783188	19779.640109
592.135232	19758.205123
592.487222	19857.233549
592.839157	19876.342043
593.191038	19749.176417
593.542866	19635.727770
593.894639	19347.036013
594.246358	19568.141020
594.598022	19460.020873
594.949633	19229.577128
595.301190	19193.202682
595.652692	19351.147074
596.004141	19592.988868
596.355535	18915.704807
596.706876	18935.239278
597.058162	18829.211210
597.409395	19065.159895
597.760573	19129.485018
598.111698	18906.129136
598.462768	18840.238734
598.813785	18804.469227
599.164748	18624.666393
599.515657	18664.521755
599.866511	18463.906517
600.217312	18814.181010
600.568060	18327.036670
600.918753	18649.118510
601.269392	18545.973981
601.619978	18333.128904
601.970510	18528.874387
602.320988	18481.326224
602.671412	18687.073357
603.021783	18596.728318
603.372100	18321.463674
603.722363	18475.501171
604.072572	18404.378052
604.422728	18559.806908
604.772830	18312.563517
605.122878	18271.092465
605.472872	18253.438344
605.822813	18248.316532
606.172701	18212.786480
606.522534	18411.652437
606.872314	18427.600127
607.222041	18262.772041
607.571714	18488.635897
607.921333	18296.083985
608.270899	18381.700422
608.620411	18557.888748
608.969870	18325.630188
609.319276	18328.100353
609.668627	18359.799129
610.017926	18493.815683
610.367171	18605.235265
610.716362	18660.163678
611.065500	18487.839395
611.414585	18614.223643
611.763616	18593.832175
612.112594	18539.586839
612.461518	18501.833638
612.810389	18699.305717
613.159207	18541.547848
613.507971	18471.400192
613.856682	18737.994052
614.205340	18665.524945
614.553945	18815.874838
614.902496	18556.570487
615.250994	18780.072563
615.599439	18723.266321
615.947830	18716.319611
616.296169	18778.098951
616.644454	18728.219255
616.992686	18698.030305
617.340864	18921.176980
617.688990	18673.258075
618.037063	18855.011836
618.385082	18700.298824
618.733048	18974.033478
619.080961	18863.947281
619.428821	18888.391836
619.776628	18775.979146
620.124382	18710.814671
620.472083	18749.137522
620.819731	18751.030476
621.167326	18453.173901
621.514868	18496.726949
621.862357	18265.209438
622.209793	18281.520092
622.557176	18109.646992
622.904506	17941.206919
623.251783	17844.300819
623.599007	17592.154906
623.946179	17553.184266
624.293297	17487.992065
624.640363	17227.059421
624.987376	17254.478257
625.334336	17054.941826
625.681243	16900.725368
626.028097	16917.330929
626.374899	16828.843555
626.721647	16692.457659
627.068343	16535.692897
627.414987	16471.665203
627.761577	16438.887620
628.108115	16478.506048
628.454600	16205.056220
628.801032	16292.694159
629.147412	16236.306332
629.493739	16247.427118
629.840014	16055.255812
630.186236	16155.814229
630.532405	15925.904846
630.878521	16123.611338
631.224585	16013.661252
631.570597	15841.720097
631.916556	15867.243459
632.262462	15846.851992
632.608316	15758.588950
632.954117	15715.877774
633.299866	15697.845567
633.645562	15617.545027
633.991206	15373.782553
634.336797	15242.571401
634.682336	15209.229209
635.027823	15098.530512
635.373257	14976.597603
635.718639	14884.183171
636.063968	14836.445965
636.409245	14578.543055
636.754470	14605.692189
637.099642	14451.107727
637.444762	14225.163211
637.789829	14263.581845
638.134845	14102.882463
638.479808	14129.489673
638.824719	14064.085743
639.169577	13928.745886
639.514383	13968.760044
639.859137	13795.125062
640.203839	13878.238565
640.548489	13722.913053
640.893086	13710.683214
641.237632	13583.411724
641.582125	13738.704468
641.926566	13562.949680
642.270955	13568.182398
642.615292	13535.462789
642.959576	13541.131566
643.303809	13578.662957
643.647990	13503.879960
643.992118	13570.150968
644.336195	13337.080782
644.680219	13550.659347
645.024192	13485.152073
645.368112	13718.912898
645.711981	13762.765895
646.055797	13951.662971
646.399562	13915.805244
646.743274	14179.601263
647.086935	14462.629284
647.430544	14429.440847
647.774101	14466.115242
648.117606	14602.478453
648.461059	14581.741667
648.804460	14563.439758
649.147810	14286.012459
649.491108	14193.840002
649.834354	14202.765365
650.177548	13895.549887
650.520690	13712.916445
650.863781	13629.107263
651.206820	13675.657277
651.549807	13508.142256
651.892742	13305.606338
652.235626	13246.944951
652.578458	13253.405190
652.921238	12937.723095
653.263967	13143.114826
653.606644	12965.099081
653.949269	12947.054271
654.291843	12742.345616
654.634365	12899.727918
654.976836	12752.795928
655.319255	12765.401333
655.661622	12713.827809
656.003938	12635.342084
656.346203	12555.533057
656.688416	12640.504226
657.030577	12592.741814
657.372687	12505.187054
657.714746	12486.610402
658.056753	12680.364629
658.398708	12484.230977
658.740612	12492.143068
659.082465	12599.933020
659.424266	12557.277297
659.766016	12586.977254
660.107715	12499.362001
660.449362	12572.032754
660.790958	12536.076724
661.132503	12472.638844
661.473996	12536.558154
661.815438	12554.265207
662.156829	12578.997108
662.498168	12553.105742
662.839456	12556.931977
663.180693	12573.668608
663.521879	12660.837720
663.863013	12640.839463
664.204097	12612.109927
664.545129	12742.935431
664.886110	12709.580637
665.227040	12797.163123
665.567918	12806.665698
665.908746	12829.524810
666.249522	12822.988954
666.590248	12871.820091
666.930922	12980.940907
667.271545	12961.940798
667.612118	13050.569324
667.952639	12945.234414
668.293109	12960.826703
668.633528	12917.215681
668.973896	12887.820713
669.314213	12977.094507
669.654480	12715.992984
669.994695	12782.155608
670.334859	12815.999394
670.674973	12751.593613
671.015035	12791.149026
671.355047	12729.929254
671.695008	12704.148793
672.034918	12711.665154
672.374777	12751.815423
672.714585	12666.309892
673.054342	12703.687528
673.394049	12645.225267
673.733705	12754.608223
674.073310	12652.189621
674.412864	12673.697703
674.752368	12532.875591
675.091820	12558.935836
675.431223	12548.107438
675.770574	12406.314903
676.109875	12334.735560
676.449125	12285.826285
676.788324	12230.610527
677.127473	12061.857902
677.466571	12057.767006
677.805619	11953.901593
678.144616	11876.066177
678.483562	11847.160201
678.822458	11712.841178
679.161303	11696.396934
679.500098	11683.000067
679.838842	11637.899384
680.177535	11661.504587
680.516179	11723.810728
680.854771	11677.510251
681.193314	11885.571273
681.531805	12046.646221
681.870247	12475.146818
682.208638	12894.452351
682.546978	13201.619937
682.885268	13240.061256
683.223508	12930.345366
683.561697	12779.990432
683.899836	12681.869414
684.237925	12481.095380
684.575963	12398.380127
684.913951	12310.762353
685.251889	12269.513112
685.589776	12369.292670
685.927614	12284.008949
686.265401	12245.055954
686.603137	12303.316569
686.940824	12459.312554
687.278460	12585.754775
687.616046	12634.777475
687.953582	12789.314046
688.291068	12726.990261
688.628504	12957.275210
688.965889	12967.420532
689.303224	12932.379472
689.640510	12814.930670
689.977745	12504.047753
690.314930	12281.939556
690.652065	12186.253415
690.989150	11896.681976
691.326185	11670.578664
691.663170	11456.735439
692.000105	11219.768440
692.336990	11107.771646
692.673825	10848.512665
693.010610	10742.139278
693.347345	10524.784889
693.684030	10329.009159
694.020665	10270.693091
694.357251	10069.793028
694.693786	10003.446402
695.030272	9846.290952
695.366707	9735.509075
695.703093	9659.357405
696.039429	9664.375874
696.375716	9575.321371
696.711952	9447.689438
697.048139	9492.737188
697.384276	9453.101116
697.720363	9466.369433
698.056400	9406.677130
698.392388	9357.513277
698.728326	9309.201380
699.064214	9252.480837
699.400053	9288.434346
699.735842	9109.811142
700.071581	9073.630781
700.407270	8989.753543
700.742910	8921.292153
701.078501	8822.445208
701.414042	8696.728914
701.749533	8632.917988
702.084974	8493.910692
702.420366	8607.258515
702.755709	8488.320052
703.091002	8351.477931
703.426246	8387.522181
703.761440	8343.265891
704.096584	8291.034496
704.431679	8228.667861
704.766725	8210.156744
705.101721	8162.810227
705.436668	8208.568781
705.771565	8102.991896
706.106413	8177.855551
706.441212	8226.076708
706.775961	8184.827467
707.110661	8216.992549
707.445311	8362.976803
707.779913	8258.420751
708.114465	8390.199033
708.448967	8422.628776
708.783421	8574.042353
709.117825	8754.104806
709.452180	8789.309704
709.786485	8881.469558
710.120742	9165.379781
710.454949	9163.880038
710.789107	9266.848126
711.123216	9481.134973
711.457275	9656.294904
711.791286	9801.215474
712.125247	9803.574734
712.459159	9792.035533
712.793023	10035.374550
713.126837	9613.732442
713.460602	9760.462787
713.794318	9587.876364
714.127985	9625.576633
714.461602	9295.522209
714.795171	9237.387623
715.128691	8991.238163
715.462162	8743.243640
715.795584	8691.377729
716.128957	8533.559367
716.462281	8371.128348
716.795556	8425.434178
717.128782	8209.516518
717.461960	7953.637631
717.795088	8019.616252
718.128167	7926.773322
718.461198	7756.135306
718.794180	7697.458795
719.127113	7689.670213
719.459997	7529.389247
719.792833	7306.171996
720.125619	7368.082406
720.458357	7229.153247
720.791046	7217.430044
721.123686	7212.066256
721.456278	7050.817389
721.788821	7070.823208
722.121315	6961.276414
722.453761	7036.462703
722.786158	6975.560523
723.118506	6984.223746
723.450805	6951.153777
723.783056	7017.490321
724.115259	6932.234327
724.447412	6921.935249
724.779518	6968.263453
725.111574	6976.593960
725.443582	7059.047072
725.775542	7037.551592
726.107453	7232.495532
726.439315	7133.749411
726.771129	7205.174999
727.102895	7377.978191
727.434612	7486.458781
727.766281	7517.877772
728.097901	7596.124041
728.429473	7589.857887
728.760996	7574.731905
729.092471	7543.950620
729.423897	7491.343659
729.755276	7502.953436
730.086606	7427.384019
730.417887	7528.701129
730.749120	7734.488591
731.080305	7927.826923
731.411442	8040.186681
731.742530	8031.470526
732.073570	8140.798029
732.404562	8225.184424
732.735506	8078.451559
733.066401	8213.020120
733.397249	8142.701065
733.728048	7900.816421
734.058798	7572.791061
734.389501	7335.493867
734.720156	7159.572721
735.050762	6931.717608
735.381320	6840.770152
735.711831	6782.408714
736.042293	6676.483989
736.372707	6692.507297
736.703073	6559.246915
737.033391	6601.030519
737.363661	6606.416992
737.693883	6641.873947
738.024056	6725.332770
738.354182	6767.444049
738.684260	6799.044522
739.014290	6918.739158
739.344272	7026.776126
739.674207	7063.626961
740.004093	7130.160109
740.333931	7139.350132
740.663722	7147.423540
740.993464	7231.000830
741.323159	7209.805299
741.652806	6961.226003
741.982405	6981.995556
742.311956	7037.803650
742.641460	6867.064810
742.970915	6672.067938
743.300323	6664.854047
743.629683	6617.691533
743.958996	6481.456870
744.288260	6386.156377
744.617477	6340.690211
744.946647	6339.772721
745.275768	6174.206105
745.604842	6125.453106
745.933869	6110.067505
746.262847	6066.985804
746.591778	6056.326284
746.920662	6017.532085
747.249498	6011.248287
747.578286	6059.774433
747.907027	6135.248068
748.235720	6195.434404
748.564365	6165.956257
748.892963	6197.990269
749.221514	6342.182392
749.550017	6177.311456
749.878473	6057.372324
750.206881	6117.049503
750.535242	6054.687909
750.863555	5981.654193
751.191821	5997.990052
751.520039	5997.175906
751.848210	5908.065950
752.176334	5934.468993
752.504411	5979.075643
752.832440	5897.600514
753.160421	5838.084652
753.488356	5887.124997
753.816243	5916.527526
754.144082	5766.727119
754.471875	5738.196709
754.799620	5777.898316
755.127318	5789.356859
755.454969	5742.572431
755.782572	5711.103028
756.110129	5758.656232
756.437638	5738.053036
756.765100	5677.082801
757.092515	5681.123286
757.419882	5733.616821
757.747203	5710.767791
758.074477	5772.625269
758.401703	5758.416777
758.728882	5712.466660
759.056014	5773.525115
759.383099	5900.375669
759.710138	5911.743471
760.037129	5894.893415
760.364073	5899.352315
760.690970	5977.427185
761.017820	5960.400688
761.344623	5921.828300
761.671379	6027.871491
761.998088	6144.342310
762.324751	6395.323716
762.651366	7009.210225
762.977935	8347.626489
763.304456	9996.250155
763.630931	10882.260670
763.957359	10462.892122
764.283740	9504.853602
764.610074	8662.547370
764.936362	7657.185017
765.262602	7057.670837
765.588796	6520.729979
765.914943	6185.566345
766.241044	6023.586511
766.567097	5814.915509
766.893104	5557.907403
767.219064	5379.357296
767.544978	5315.911854
767.870845	5233.859514
768.196665	5130.621724
768.522438	5061.532711
768.848165	5029.748236
769.173846	4961.402792
769.499479	4915.543416
769.825066	4861.766907
770.150607	4802.654337
770.476101	4782.794712
770.801548	4774.620481
771.126949	4695.060991
771.452303	4642.610305
771.777611	4605.162094
772.102872	4623.476606
772.428087	4585.368003
772.753256	4542.097259
773.078378	4499.617977
773.403453	4423.836831
773.728482	4416.940533
774.053465	4364.363819
774.378401	4357.094475
774.703291	4351.529041
775.028135	4279.559008
775.352932	4235.718614
775.677683	4223.461048
776.002388	4243.245057
776.327046	4246.307558
776.651658	4174.022452
776.976224	4113.581538
777.300743	4117.788381
777.625216	4141.559942
777.949643	4132.138026
778.274024	4089.192436
778.598359	4047.295407
778.922647	4071.447575
779.246889	4061.824012
779.571086	4053.763207
779.895236	4039.925240
780.219339	4023.922097
780.543397	4022.450080
780.867409	4075.329263
781.191374	4085.769493
781.515294	4024.138866
781.839167	4016.088144
782.162995	4035.768808
782.486776	4022.503012
782.810511	4033.061709
783.134201	4025.283208
783.457844	3985.195953
783.781441	3927.260492
784.104993	3935.810289
784.428498	3955.284267
784.751958	3950.013740
785.075372	3930.875000
785.398739	3889.882857
785.722061	3902.831061
786.045337	3946.437042
786.368568	3983.494563
786.691752	3887.450500
787.014891	3944.763378
787.337983	4076.834047
787.661030	4235.665682
787.984031	4396.803644
788.306987	4564.172472
788.629897	4646.310512
788.952760	4596.279581
789.275579	4535.195920
789.598351	4469.852484
789.921078	4321.942509
790.243759	4125.821460
790.566395	4109.450313
790.888984	4102.125516
791.211529	3992.671984
791.534027	3931.734516
791.856480	3920.386879
792.178888	3859.230121
792.501249	3810.852688
792.823566	3825.971109
793.145836	3849.500694
793.468062	3798.194351
793.790241	3755.326899
794.112375	3786.355201
794.434464	3848.847865
794.756507	3874.542626
795.078505	3853.402547
795.400457	3885.953278
795.722364	4032.038354
796.044226	4131.545690
796.366042	4207.720045
796.687812	4186.242209
797.009538	4190.128939
797.331218	4150.061848
797.652852	4121.884319
797.974442	4102.286833
798.295986	4103.037965
798.617484	4017.441693
798.938938	3931.989095
799.260346	3974.256649
799.581709	3968.013180
799.903026	3891.372518
800.224299	3854.335161
800.545526	3850.433308
800.866708	3810.635919
801.187845	3752.246754
801.508936	3790.231848
801.829983	3784.406795
802.150984	3705.283365
802.471940	3696.836912
802.792851	3705.535423
803.113717	3706.394939
803.434538	3707.224209
803.755314	3646.322030
804.076045	3624.917290
804.396731	3645.961587
804.717372	3675.346473
805.037967	3653.364522
805.358518	3644.179539
805.679024	3676.236237
805.999485	3689.068494
806.319901	3691.334492
806.640272	3704.718756
806.960598	3713.712174
807.280879	3694.356664
807.601115	3705.353941
807.921306	3722.713154
808.241453	3758.195316
808.561554	3737.687902
808.881611	3670.383457
809.201623	3712.557750
809.521590	3720.621076
809.841513	3689.567568
810.161390	3722.566961
810.481223	3696.010162
810.801011	3640.060917
811.120755	3639.997902
811.440453	3672.896472
811.760107	3672.941842
812.079716	3629.474493
812.399281	3599.366202
812.718801	3625.832260
813.038276	3598.292436
813.357707	3593.480655
813.677093	3612.269035
813.996434	3557.731312
814.315731	3570.792942
814.634983	3573.729414
814.954191	3588.250458
815.273354	3615.926392
815.592473	3610.766772
815.911547	3618.204994
816.230577	3664.329031
816.549562	3715.826938
816.868502	3754.855551
817.187399	3777.066875
817.506250	3776.993778
817.825058	3747.681989
818.143821	3841.631453
818.462539	3945.716157
818.781213	3990.645440
819.099843	4050.196591
819.418429	4301.727482
819.736970	4544.070871
820.055466	4799.327176
820.373919	5164.084903
820.692327	5581.008491
821.010691	6038.319283
821.329011	7462.946839
821.647286	10275.454461
821.965517	14903.379885
822.283704	18950.458522
822.601847	21045.541896
822.919945	19180.516619
823.237999	16558.448666
823.556010	14053.655596
823.873976	11937.391814
824.191897	9823.648609
824.509775	8478.416705
824.827609	7341.669280
825.145398	6805.877806
825.463144	6689.717018
825.780845	6806.918804
826.098502	7006.893815
826.416116	7911.571723
826.733685	9260.082897
827.051210	10371.155725
827.368692	10373.371312
827.686129	9082.725023
828.003522	7567.626399
828.320872	6546.669237
828.638177	5837.961144
828.955439	5271.721100
829.272656	4773.753402
829.589830	4493.356863
829.906960	4318.040656
830.224046	4129.539311
830.541088	4004.488449
830.858086	3954.795275
831.175041	3876.622102
831.491952	3861.065101
831.808819	3875.049262
832.125642	3951.412660
832.442421	4099.806586
832.759157	4384.614134
833.075849	4945.316470
833.392497	5829.045863
833.709101	6617.026100
834.025662	6943.778569
834.342179	6551.299536
834.658653	5884.433020
834.975083	5226.257454
835.291469	4643.953773
835.607811	4238.667689
835.924110	4098.435392
836.240366	3895.760843
836.556578	3688.680325
836.872746	3584.209973
837.188871	3542.953170
837.504952	3473.085298
837.820990	3388.199829
838.136984	3347.479909
838.452935	3371.269114
838.768842	3366.956407
839.084706	3388.099006
839.400526	3554.721744
839.716303	3898.288981
840.032037	4438.786373
840.347727	4692.222821
840.663373	4400.985281
840.978977	4013.048328
841.294537	3705.502655
841.610054	3476.528406
841.925527	3371.246429
842.240957	3301.905358
842.556344	3245.217583
842.871687	3186.190712
843.186987	3135.557363
843.502244	3099.646704
843.817458	3062.049778
844.132629	3036.334853
844.447756	3042.169988
844.762840	3026.658358
845.077881	2994.770539
845.392879	2977.255050
845.707833	2974.411839
846.022745	2971.072075
846.337613	2973.917806
846.652438	2961.929942
846.967221	2956.954323
847.281960	2944.512756
847.596656	2939.257353
847.911309	2941.183074
848.225919	2935.993206
848.540485	2926.898964
848.855009	2929.840478
849.169490	2919.102820
849.483928	2909.116294
849.798323	2909.582601
850.112675	2903.729821
850.426984	2916.420926
850.741251	2914.984197
851.055474	2904.755696
851.369654	2899.361661
851.683792	2904.599420
851.997887	2911.417581
852.311938	2913.060997
852.625947	2901.879718
852.939914	2904.798546
853.253837	2911.926737
853.567718	2892.891340
853.881555	2898.056003
854.195350	2909.048238
854.509103	2901.962897
854.822812	2895.495096
855.136479	2894.237328
855.450103	2896.679768
855.763685	2889.549055
856.077224	2886.305073
856.390720	2900.909296
856.704173	2910.089237
857.017584	2899.885941
857.330953	2898.673544
857.644278	2910.144689
857.957561	2915.523601
858.270802	2920.970567
858.584000	2920.310176
858.897155	2906.504976
859.210268	2904.876684
859.523339	2902.230078
859.836367	2903.477763
860.149352	2895.059037
860.462295	2894.272617
860.775195	2900.616909
861.088054	2902.202352
861.400869	2883.406409
861.713642	2881.765514
862.026373	2895.210271
862.339062	2898.708832
862.651708	2905.668145
862.964312	2907.044380
863.276873	2903.250912
863.589392	2909.670821
863.901869	2924.116247
864.214303	2946.899742
864.526696	2962.192082
864.839045	2954.584981
865.151353	2955.119343
865.463619	2954.910136
865.775842	2955.376442
866.088023	2974.232878
866.400162	2982.258395
866.712258	2953.417954
867.024313	2939.534616
867.336325	2950.781431
867.648296	2973.748928
867.960224	2963.769963
868.272110	2951.537604
868.583954	2956.901391
868.895755	2971.019143
869.207515	2956.135136
869.519233	2962.250056
869.830909	2974.832776
870.142542	2981.867706
870.454134	2981.862665
870.765684	2988.373315
871.077191	2983.811071
871.388657	2992.955724
871.700081	3006.075327
872.011463	3017.002028
872.322803	3017.859024
872.634101	3017.372552
872.945357	3037.569935
873.256571	3056.743964
873.567744	3052.002759
873.878874	3045.003117
874.189963	3068.837692
874.501010	3071.751479
874.812015	3061.686815
875.122979	3059.410734
875.433900	3058.871331
875.744780	3063.539439
876.055618	3069.477918
876.366415	3067.607650
876.677169	3078.035277
876.987882	3076.477561
877.298554	3070.987744
877.609183	3092.480703
877.919771	3114.543313
878.230317	3141.654639
878.540822	3192.923173
878.851285	3233.633011
879.161707	3278.660597
879.472087	3386.702607
879.782425	3623.616673
880.092722	4069.574786
880.402977	4607.521354
880.713191	5254.689561
881.023363	6440.018586
881.333494	7736.847851
881.643583	8274.018081
881.953631	7958.514947
882.263637	7306.008158
882.573602	6711.809875
882.883526	6129.458303
883.193408	5549.488677
883.503248	5088.810394
883.813048	4775.553094
884.122806	4468.516578
884.432522	4148.090757
884.742197	3910.433121
885.051831	3714.231413
885.361424	3583.184098
885.670975	3507.264321
885.980485	3420.591763
886.289954	3343.144517
886.599382	3293.048050
886.908768	3261.452619
887.218113	3212.145093
887.527417	3155.684170
887.836680	3106.225409
888.145901	3101.680809
888.455082	3087.147163
888.764221	3036.150850
889.073319	3008.754700
889.382376	3006.463495
889.691392	3011.983559
890.000366	3009.594052
890.309300	2998.992505
890.618193	3013.422808
890.927044	3028.702546
891.235855	3026.612987
891.544625	3009.571367
891.853353	3022.753984
892.162041	3041.590255
892.470687	3083.187336
892.779293	3136.447127
893.087858	3180.897501
893.396381	3256.068666
893.704864	3376.968138
894.013306	3629.756798
894.321707	3934.547480
894.630068	4140.783605
894.938387	4135.815548
895.246665	4089.779731
895.554903	3965.096872
895.863100	3758.127260
896.171256	3588.651230
896.479371	3447.539251
896.787446	3321.906136
897.095480	3221.544324
897.403473	3156.621824
897.711425	3119.730661
898.019336	3109.040894
898.327207	3077.538723
898.635038	3043.979762
898.942827	3028.473173
899.250576	3014.332737
899.558284	2985.885505
899.865952	2968.327167
900.173579	2943.655760
900.481165	2937.684513
900.788711	2921.948551
901.096216	2899.712022
901.403681	2888.566030
901.711105	2895.878224
902.018489	2891.711710
902.325832	2892.374622
902.633135	2904.874163
902.940397	2938.642332
903.247619	3023.222811
903.554800	3222.431567
903.861941	3577.681679
904.169041	4015.876415
904.476101	4314.219462
904.783121	4257.637551
905.090100	4007.296371
905.397039	3725.606777
905.703938	3473.425576
906.010796	3288.022020
906.317614	3174.565812
906.624391	3078.178950
906.931129	3007.431397
907.237826	2944.802622
907.544483	2895.386712
907.851099	2867.584748
908.157675	2846.913497
908.464211	2823.577996
908.770707	2810.448310
909.077163	2798.266362
909.383578	2780.244237
909.689954	2770.131682
909.996289	2771.550767
910.302584	2770.098915
910.608839	2769.451127
910.915054	2765.430807
911.221229	2758.957965
911.527363	2760.601381
911.833458	2769.645211
912.139513	2774.225099
912.445527	2778.220214
912.751502	2788.486524
913.057436	2793.930970
913.363331	2807.801705
913.669186	2831.994202
913.975000	2863.831609
914.280775	2928.204623
914.586510	2997.974192
914.892205	3079.333374
915.197859	3210.274825
915.503475	3409.891914
915.809050	3631.425420
916.114585	3777.336577
916.420081	3794.574803
916.725536	3733.405442
917.030952	3609.277111
917.336328	3478.527224
917.641665	3345.783561
917.946961	3244.577356
918.252218	3172.698064
918.557435	3095.581013
918.862612	3035.951725
919.167750	2982.966677
919.472848	2943.708692
919.777906	2914.936306
920.082925	2890.295146
920.387904	2858.336751
920.692843	2840.755727
920.997743	2830.527226
921.302603	2815.549958
921.607423	2805.016467
921.912204	2789.136832
922.216946	2776.173505
922.521647	2769.937598
922.826310	2765.937442
923.130932	2759.585589
923.435516	2747.345667
923.740059	2741.568505
924.044564	2732.524675
924.349028	2727.155846
924.653454	2720.209136
924.957840	2714.764690
925.262186	2713.063300
925.566493	2707.298741
925.870761	2701.491332
926.174989	2696.964376
926.479178	2693.395239
926.783328	2689.188396
927.087438	2686.496420
927.391509	2685.094979
927.695541	2682.458455
927.999533	2681.009124
928.303486	2675.025274
928.607400	2675.312620
928.911275	2674.049811
929.215110	2674.460665
929.518906	2673.339008
929.822663	2670.226096
930.126381	2669.545540
930.430060	2674.271622
930.733699	2673.777588
931.037299	2674.513597
931.340861	2677.266067
931.644383	2677.129956
931.947866	2675.282373
932.251309	2671.055365
932.554714	2673.903617
932.858080	2671.955211
933.161407	2669.280879
933.464694	2669.419511
933.767943	2665.316012
934.071153	2668.859943
934.374323	2666.851043
934.677455	2666.893893
934.980548	2664.887514
935.283602	2663.077739
935.586617	2664.761485
935.889593	2663.791063
936.192530	2664.660662
936.495428	2666.641835
936.798287	2667.395488
937.101108	2672.749193
937.403890	2675.680624
937.706632	2679.088444
938.009336	2685.679753
938.312002	2693.145702
938.614628	2705.272197
938.917216	2710.764534
939.219765	2708.823690
939.522275	2711.157744
939.824747	2706.590459
940.127179	2704.354707
940.429573	2700.415045
940.731929	2695.134437
941.034246	2693.949766
941.336524	2690.161338
941.638763	2688.270906
941.940964	2685.843590
942.243126	2685.160514
942.545250	2684.235462
942.847335	2681.858558
943.149381	2678.450738
943.451389	2673.651560
943.753359	2671.798936
944.055290	2670.526044
944.357182	2669.333811
944.659036	2670.768020
944.960851	2668.572597
945.262628	2665.111845
945.564367	2665.641166
945.866067	2666.714932
946.167729	2667.236691
946.469352	2666.548574
946.770937	2668.396157
947.072484	2665.081598
947.373992	2665.668892
947.675462	2662.757626
947.976893	2659.828716
948.278286	2657.361071
948.579641	2658.437357
948.880958	2656.274702
949.182236	2657.870227
949.483476	2658.742347
949.784678	2657.358550
950.085841	2657.073725
950.386967	2656.620021
950.688054	2657.111534
950.989103	2659.483397
951.290114	2658.898623
951.591087	2661.696463
951.892021	2661.646052
952.192917	2666.044458
952.493776	2669.600992
952.794596	2668.975889
953.095378	2671.433452
953.396122	2669.253153
953.696828	2668.063441
953.997496	2666.596465
954.298126	2663.980106
954.598718	2661.472132
954.899272	2657.429127
955.199788	2653.804537
955.500266	2655.261430
955.800706	2650.810092
956.101108	2649.073414
956.401472	2646.464617
956.701798	2645.617703
957.002087	2642.345994
957.302337	2645.088382
957.602550	2642.270377
957.902724	2639.669142
958.202861	2639.535551
958.502960	2636.836013
958.803022	2636.772999
959.103045	2636.599079
959.403031	2633.639922
959.702979	2636.583955
960.002889	2631.436937
960.302762	2630.998357
960.602596	2632.709829
960.902393	2630.121196
961.202153	2632.316619
961.501875	2633.405508
961.801559	2631.051289
962.101205	2632.394757
962.400814	2630.544653
962.700385	2630.758902
962.999918	2629.107924
963.299414	2625.579117
963.598873	2625.289250
963.898293	2626.300002
964.197677	2630.055661
964.497022	2628.926443
964.796331	2633.113121
965.095601	2629.702780
965.394835	2628.485342
965.694030	2628.248407
965.993189	2630.448871
966.292309	2628.656741
966.591393	2629.269241
966.890439	2630.237143
967.189447	2629.090280
967.488419	2630.025414
967.787353	2629.085239
968.086249	2627.968623
968.385108	2628.898716
968.683930	2627.663634
968.982714	2630.743779
969.281462	2627.404014
969.580172	2628.623973
969.878844	2627.378808
970.177480	2628.482821
970.476078	2630.307719
970.774639	2629.959879
971.073162	2629.937194
971.371649	2632.099849
971.670098	2629.894344
971.968510	2629.241515
972.266885	2628.583644
972.565223	2629.536422
972.863524	2630.524488
973.161788	2627.698922
973.460014	2631.094139
973.758204	2631.013480
974.056356	2631.194962
974.354471	2632.785446
974.652550	2629.261679
974.950591	2628.374436
975.248595	2629.420476
975.546563	2629.186062
975.844493	2629.775877
976.142386	2629.191103
976.440243	2628.979375
976.738062	2626.249590
977.035845	2629.254118
977.333590	2628.810496
977.631299	2626.836884
977.928971	2626.383181
978.226606	2623.940742
978.524204	2621.768004
978.821765	2623.948303
979.119290	2627.711525
979.416777	2626.857049
979.714228	2626.121041
980.011642	2625.548870
980.309020	2624.908643
980.606360	2627.971144
980.903664	2626.907461
981.200931	2628.807976
981.498162	2628.838222
981.795356	2629.302009
982.092513	2632.248563
982.389633	2633.539098
982.686717	2637.514048
982.983764	2635.641260
983.280775	2641.793988
983.577749	2646.830101
983.874686	2644.546458
984.171587	2641.476395
984.468451	2636.536064
984.765279	2637.254429
985.062070	2631.948614
985.358824	2633.322329
985.655543	2632.798049
985.952224	2628.233284
986.248869	2626.854528
986.545478	2628.109776
986.842050	2627.784621
987.138586	2627.136833
987.435086	2627.744292
987.731549	2626.675567
988.027975	2623.497120
988.324366	2624.495268
988.620719	2623.096348
988.917037	2624.996863
989.213318	2620.558127
989.509563	2621.994856
989.805772	2625.385032
990.101944	2622.085597
990.398080	2623.882768
990.694180	2626.330248
990.990244	2623.497120
991.286271	2626.357975
991.582262	2624.207923
991.878217	2622.561986
992.174136	2622.292284
992.470019	2622.377984
992.765865	2623.169445
993.061676	2618.864300
993.357450	2620.543004
993.653188	2620.774897
993.948890	2623.328241
994.244556	2622.882099
994.540186	2624.843108
994.835780	2623.429064
995.131337	2624.757408
995.426859	2624.316307
995.722345	2623.552573
996.017795	2627.285547
996.313208	2626.350413
996.608586	2628.185393
996.903928	2629.609519
997.199234	2627.053654
997.494504	2626.199178
997.789738	2627.933335
998.084936	2628.704632
998.380099	2626.927625
998.675225	2626.408386
998.970316	2624.248252
999.265371	2624.250772
999.560390	2623.587861
999.855373	2625.417800
1000.150320	2625.437964
1000.445232	2621.689866
1000.740108	2624.172635
1001.034948	2623.013169
1001.329752	2623.940742
1001.624521	2622.856893
1001.919254	2622.355299
1002.213951	2621.241204
1002.508613	2620.202726
1002.803239	2621.412603
1003.097829	2621.400000
1003.392384	2622.957717
1003.686903	2621.367232
1003.981386	2620.754732
1004.275834	2619.814557
1004.570246	2621.442850
1004.864623	2620.893364
1005.158964	2621.034516
1005.453270	2621.505864
1005.747540	2621.717593
1006.041775	2620.046450
1006.335974	2622.604836
1006.630138	2619.411265
1006.924266	2622.078035
1007.218359	2620.502675
1007.512416	2619.010493
1007.806438	2616.411778
1008.100425	2617.296501
1008.394376	2615.297683
1008.688292	2619.552417
1008.982172	2621.115175
1009.276017	2618.955040
1009.569827	2621.175669
1009.863602	2619.940586
1010.157341	2619.393621
1010.451045	2620.119547
1010.744714	2619.426388
1011.038347	2621.102572
1011.331945	2623.348406
1011.625508	2623.199692
1011.919036	2618.438322
1012.212528	2620.585854
1012.505986	2618.607201
1012.799408	2617.714917
1013.092795	2620.137191
1013.386147	2619.040740
1013.679464	2620.830350
1013.972745	2621.770525
1014.265992	2619.872530
1014.559204	2617.891357
1014.852380	2620.323714
1015.145521	2618.949999
1015.438628	2622.163735
1015.731699	2619.935545
1016.024736	2620.845473
1016.317737	2618.823970
1016.610703	2620.769856
1016.903635	2617.919083
1017.196531	2621.258848
1017.489393	2619.721296
1017.782219	2618.559310
1018.075011	2620.353961
1018.367768	2619.315483
1018.660490	2621.415123
1018.953177	2621.415123
1019.245829	2621.415123
