Dividing Wavelength (nm)	Counts (n)	Blue Motor Position (mm): 26.600000	Red Motor Position (mm): 0.000000	
326.493990	2203.332070
326.888308	2203.332070
327.282561	2203.332070
327.676750	2162.375216
328.070874	2157.790287
328.464933	2159.824392
328.858929	2164.003509
329.252859	2167.900321
329.646726	2176.180416
330.040528	2191.944104
330.434265	2202.167564
330.827938	2220.580378
331.221547	2236.805332
331.615091	2253.544483
332.008571	2273.608276
332.401986	2292.883127
332.795338	2310.764100
333.188625	2328.781184
333.581847	2347.320027
333.975006	2367.179653
334.368100	2383.999462
334.761129	2404.915210
335.154095	2421.475400
335.546996	2446.131684
335.939833	2482.642240
336.332606	2500.808038
336.725315	2510.809687
337.117960	2525.171935
337.510540	2532.801721
337.903056	2547.741181
338.295508	2553.397355
338.687896	2563.363716
339.080220	2572.644481
339.472480	2577.236972
339.864676	2583.737540
340.256807	2589.602922
340.648875	2593.421596
341.040879	2594.278592
341.432818	2597.930908
341.824694	2602.568770
342.216506	2602.795622
342.608253	2604.713781
342.999937	2603.566918
343.391557	2602.974583
343.783113	2603.546754
344.174605	2602.767895
344.566033	2602.639346
344.957397	2601.613471
345.348697	2597.928388
345.739934	2595.097780
346.131106	2596.998295
346.522215	2593.497213
346.913260	2593.315732
347.304241	2592.274734
347.695159	2586.782397
348.086012	2586.787438
348.476802	2584.728126
348.867528	2579.931468
349.258191	2575.880901
349.648789	2576.145562
350.039324	2573.614903
350.429796	2577.196642
350.820203	2573.758576
351.210548	2573.299831
351.600828	2572.319326
351.991045	2575.951478
352.381198	2568.672051
352.771288	2570.985941
353.161314	2568.359500
353.551276	2567.608368
353.941175	2567.948646
354.331010	2569.788667
354.720782	2566.877401
355.110490	2568.397308
355.500135	2567.149623
355.889717	2570.176836
356.279235	2567.232802
356.668689	2570.116342
357.058080	2568.089798
357.447408	2570.680951
357.836672	2569.483677
358.225873	2568.601475
358.615010	2569.637432
359.004084	2568.195662
359.393095	2566.942936
359.782043	2572.483164
360.170927	2570.012998
360.559748	2572.586507
360.948505	2572.949470
361.337199	2574.731518
361.725830	2572.949470
362.114398	2575.928792
362.502903	2575.840572
362.891344	2576.082547
363.279722	2574.295458
363.668037	2576.639595
364.056289	2576.198494
364.444478	2581.930286
364.832603	2577.809143
365.220665	2580.246541
365.608665	2578.726633
365.996601	2579.986921
366.384474	2581.153948
366.772284	2579.681931
367.160031	2579.719740
367.547715	2583.523291
367.935336	2581.625296
368.322893	2581.809298
368.710388	2578.396437
369.097820	2579.142528
369.485189	2577.675552
369.872495	2583.500605
370.259738	2581.045563
370.646918	2581.216963
371.034035	2584.932293
371.421090	2584.516398
371.808081	2583.626634
372.195010	2584.178641
372.581875	2583.828280
372.968678	2584.677715
373.355418	2583.727457
373.742096	2586.782397
374.128710	2585.131419
374.515262	2585.990935
374.901751	2583.853486
375.288177	2589.003025
375.674540	2587.064701
376.060841	2588.214084
376.447079	2584.874320
376.833254	2586.462283
377.219367	2589.504620
377.605417	2589.295412
377.991404	2587.861203
378.377329	2589.688622
378.763191	2588.105699
379.148991	2590.898499
379.534727	2588.914805
379.920402	2587.052098
380.306013	2586.656368
380.691563	2591.130392
381.077049	2589.960844
381.462474	2591.921853
381.847835	2589.078642
382.233134	2591.536205
382.618371	2591.047213
383.003545	2591.526122
383.388657	2591.269023
383.773706	2594.621391
384.158693	2594.636514
384.543618	2595.211206
384.928480	2594.414703
385.313280	2592.047882
385.698017	2594.480238
386.082692	2592.539394
386.467305	2594.674323
386.851856	2593.081318
387.236344	2595.271700
387.620770	2591.009404
388.005133	2591.543766
388.389435	2593.119127
388.773674	2591.926894
389.157851	2595.551484
389.541965	2595.362440
389.926018	2599.367637
390.310008	2598.124993
390.693936	2599.150867
391.077802	2599.765888
391.461606	2597.401587
391.845348	2597.711618
392.229027	2596.249683
392.612645	2596.380753
392.996200	2598.099787
393.379694	2599.072730
393.763125	2600.779160
394.146494	2600.499376
394.529801	2601.401743
394.913047	2599.717997
395.296230	2601.888214
395.679351	2601.865529
396.062410	2600.484253
396.445408	2602.974583
396.828343	2602.646908
397.211217	2601.547936
397.594028	2603.075406
397.976778	2601.195055
398.359466	2603.776126
398.742092	2604.479367
399.124656	2602.412494
399.507158	2602.551126
399.889598	2607.982969
400.271977	2603.995416
400.654294	2604.630602
401.036549	2605.290993
401.418742	2604.673452
401.800874	2606.019440
402.182944	2604.696137
402.564952	2603.619850
402.946898	2607.380551
403.328783	2606.631940
403.710606	2605.911055
404.092367	2607.869543
404.474067	2605.898452
404.855705	2608.260232
405.237282	2606.740325
405.618797	2609.981787
406.000250	2611.700820
406.381642	2608.464399
406.762972	2609.391972
407.144240	2607.625047
407.525447	2609.187805
407.906593	2602.813266
408.287677	2610.294338
408.668700	2610.017075
409.049661	2611.980604
409.430560	2610.944647
409.811399	2610.614451
410.192176	2613.003958
410.572891	2612.305758
410.953545	2611.237034
411.334138	2614.307097
411.714669	2610.894235
412.095139	2613.906325
412.475547	2614.362549
412.855894	2617.515791
413.236180	2615.859772
413.616405	2617.175513
413.996568	2613.934051
414.376670	2614.889350
414.756711	2615.854731
415.136691	2614.347426
415.516609	2616.497478
415.896466	2616.547889
416.276262	2614.821294
416.655997	2616.310955
417.035670	2617.183075
417.415283	2620.837911
417.794834	2617.982098
418.174324	2616.709206
418.553753	2615.819443
418.933121	2617.770369
419.312428	2620.051491
419.691674	2621.125257
420.070859	2621.843622
420.449983	2619.663322
420.829045	2621.173148
421.208047	2622.239352
421.586988	2620.293467
421.965867	2622.972840
422.344686	2622.627521
422.723444	2624.185237
423.102141	2620.971502
423.480777	2622.927470
423.859352	2623.194651
424.237866	2625.143057
424.616319	2625.886627
424.994712	2626.098355
425.373044	2624.510392
425.751314	2624.724641
426.129524	2624.371760
426.507673	2625.725310
426.885762	2621.543673
427.263789	2629.390229
427.641756	2628.205558
428.019662	2629.029786
428.397508	2628.291257
428.775292	2631.537760
429.153016	2631.373923
429.530679	2631.545322
429.908282	2633.458440
430.285824	2632.041876
430.663305	2631.507513
431.040726	2633.322329
431.418086	2634.602782
431.795385	2638.139151
432.172624	2633.904582
432.549802	2635.391722
432.926920	2636.372227
433.303977	2636.614202
433.680974	2639.631333
434.057910	2639.369193
434.434786	2641.511683
434.811601	2636.815848
435.188355	2642.804739
435.565050	2642.368679
435.941683	2644.206180
436.318257	2647.150214
436.694770	2645.501757
437.071222	2650.679022
437.447614	2650.285812
437.823946	2654.699342
438.200218	2652.932417
438.576429	2657.915598
438.952580	2661.172183
439.328670	2662.520692
439.704700	2663.972544
440.080670	2664.680826
440.456580	2673.326405
440.832429	2678.846469
441.208218	2682.208918
441.583947	2688.308714
441.959616	2693.881710
442.335224	2700.604089
442.710773	2711.624051
443.086261	2722.775083
443.461689	2725.139384
443.837057	2743.753845
444.212365	2761.997781
444.587612	2767.553132
444.962800	2786.984260
445.337927	2805.013947
445.712995	2810.171047
446.088002	2860.070908
446.462949	2877.626727
446.837837	2906.651170
447.212664	2934.067485
447.587431	2985.663695
447.962139	3047.869013
448.336786	3202.902137
448.711374	3297.663227
449.085901	3222.736557
449.460369	3243.846389
449.834776	3262.483535
450.209124	3383.756052
450.583412	3487.213132
450.957640	3642.112666
451.331808	3638.041934
451.705917	3611.946402
452.079965	3612.261474
452.453954	3791.025830
452.827883	3827.942200
453.201752	3946.162299
453.575562	3970.069971
453.949311	4106.730610
454.323001	4192.193292
454.696632	4323.722037
455.070202	4469.897854
455.443713	4616.121563
455.817164	4821.898942
456.190556	4928.121095
456.563888	5131.844204
456.937160	5281.397594
457.310373	5243.384774
457.683526	5363.565882
458.056619	5376.241863
458.429653	5523.067989
458.802628	5513.978789
459.175542	5728.394185
459.548398	6117.132682
459.921194	6376.308483
460.293930	6529.516711
460.666607	6979.079249
461.039224	7481.276474
461.411782	7928.595699
461.784280	8063.282727
462.156719	8255.083508
462.529099	8273.453472
462.901419	8028.234105
463.273680	8106.787885
463.645882	8198.864560
464.018024	8227.263900
464.390106	8488.443560
464.762130	9001.401129
465.134094	9482.543975
465.505999	10560.929962
465.877845	12337.099861
466.249631	14054.943610
466.621358	14216.174834
466.993026	13755.922529
467.364634	13695.521944
467.736184	13176.845187
468.107674	12907.486254
468.479105	13175.012727
468.850477	13076.107809
469.221790	13013.111030
469.593043	12778.525977
469.964238	12652.290444
470.335373	12598.312289
470.706449	13047.980691
471.077467	12883.820557
471.448425	14235.971445
471.819324	17118.472967
472.190164	18885.387308
472.560945	16688.366762
472.931667	15134.305060
473.302330	14830.719214
473.672934	14581.918107
474.043479	15044.393561
474.413965	15052.071238
474.784393	14924.895530
475.154761	15570.122893
475.525070	15750.795326
475.895321	15583.335757
476.265513	16186.469485
476.635645	16779.097449
477.005719	16762.083555
477.375734	17048.373203
477.745691	17605.539170
478.115588	18140.312331
478.485427	18743.350278
478.855207	19752.979967
479.224928	21330.528405
479.594591	23388.534092
479.964194	23642.439368
480.333739	24047.596902
480.703226	23801.601197
481.072653	23640.652278
481.442022	24225.973090
481.811333	25140.377904
482.180584	25231.703447
482.549777	24480.614373
482.918912	24252.766823
483.287988	24428.904738
483.657005	24256.908130
484.025964	24050.508168
484.394864	24107.059832
484.763706	23920.327932
485.132489	23447.031642
485.501213	23654.764989
485.869879	23659.874198
486.238487	23490.781295
486.607036	23724.753848
486.975527	23454.653866
487.343959	23833.741074
487.712333	23853.643549
488.080648	23563.978849
488.448905	24055.254415
488.817104	23850.273538
489.185244	24518.213819
489.553326	24549.340424
489.921350	25498.118345
490.289315	27701.425210
490.657222	29551.639577
491.025070	30042.595029
491.392861	29908.172662
491.760593	29108.423851
492.128267	28272.441747
492.495883	27273.259849
492.863440	26414.196822
493.230939	25562.239302
493.598380	25417.595995
493.965763	25041.299066
494.333088	24622.580827
494.700354	24551.525764
495.067563	24465.919410
495.434713	24210.242169
495.801805	24358.530230
496.168839	24203.716396
496.535815	24025.398181
496.902733	24239.679987
497.269593	23909.537342
497.636395	24107.223670
498.003139	24102.585808
498.369825	23863.587225
498.736453	24042.394431
499.103023	23938.914666
499.469535	23961.806546
499.835989	24162.015971
500.202385	24200.106929
500.568723	23689.559032
500.935003	23979.022086
501.301226	23553.432755
501.667390	24377.900864
502.033497	24636.073476
502.399546	24360.884449
502.765537	23956.258756
503.131470	24347.979095
503.497345	24469.838907
503.863163	23676.888092
504.228923	24306.692045
504.594625	24479.979188
504.960269	23998.110415
505.325856	24511.685525
505.691385	23923.150978
506.056856	24516.542677
506.422270	24487.702236
506.787625	24083.149640
507.152924	24493.489480
507.518164	24515.814230
507.883347	24311.523991
508.248472	24016.238405
508.613540	24793.912003
508.978550	24572.691048
509.343503	24559.493308
509.708398	24830.684699
510.073236	24994.345759
510.438016	25191.003691
510.802738	24887.092690
511.167403	25134.510001
511.532010	24811.782893
511.896561	25613.200326
512.261053	25576.394862
512.625488	25416.224801
512.989866	25315.580685
513.354186	25172.210270
513.718449	25254.928043
514.082655	25643.865665
514.446803	25387.701952
514.810894	25834.055796
515.174927	25320.132847
515.538904	25346.959347
515.902822	25841.907393
516.266684	25592.067809
516.630488	25503.099005
516.994235	25486.611912
517.357925	25785.935462
517.721558	25975.535779
518.085133	26055.795989
518.448651	25993.021021
518.812112	25689.480545
519.175516	25887.484465
519.538863	26048.418261
519.902152	25840.591652
520.265385	26141.198177
520.628560	25914.265595
520.991678	25930.172956
521.354739	26003.269687
521.717743	26059.881845
522.080690	25859.511103
522.443580	26186.533273
522.806413	26191.466042
523.169189	26285.690249
523.531908	26345.070000
523.894569	25932.600272
524.257174	26010.564237
524.619722	26208.051438
524.982213	25878.128084
525.344647	25963.005991
525.707025	26077.001603
526.069345	26084.883447
526.431608	26031.152309
526.793815	26224.596505
527.155964	25679.151221
527.518057	25851.878796
527.880093	25764.049293
528.242072	26004.769430
528.603995	25710.945778
528.965860	25505.057493
529.327669	25555.300153
529.689421	25555.930298
530.051117	25381.090479
530.412755	25552.557766
530.774337	25366.692944
531.135862	25227.678085
531.497331	25439.348574
531.858743	24973.591329
532.220098	25469.038449
532.581396	25138.731967
532.942638	25096.303096
533.303824	25178.224366
533.664953	25205.169333
534.026025	24866.355904
534.387040	25096.194711
534.747999	25169.518293
535.108902	25319.971530
535.469748	24811.399765
535.830537	25006.898232
536.191270	25126.865091
536.551947	25011.132801
536.912567	24669.866851
537.273131	24985.914429
537.633638	24707.617531
537.994089	24916.371712
538.354483	24463.711385
538.714821	24956.582476
539.075103	24996.087478
539.435328	24794.471571
539.795497	24341.455842
540.155609	24748.345013
540.515665	25038.309662
540.875665	24283.449805
541.235609	24560.642691
541.595496	24534.085892
541.955328	24878.084148
542.315102	24800.485667
542.674821	24373.217632
543.034483	24244.126285
543.394090	24405.380193
543.753640	24189.555794
544.113134	24834.921789
544.472571	24419.865949
544.831953	24714.886875
545.191278	24321.717204
545.550548	24254.566514
545.909761	24470.509381
546.268918	24700.958167
546.628019	24649.767770
546.987064	24359.848492
547.346053	24121.674137
547.704986	24251.398149
548.063863	24401.790892
548.422684	24400.825511
548.781449	23954.622902
549.140158	24353.904972
549.498811	23929.825466
549.857408	23663.473582
550.215949	24112.589978
550.574434	23782.217961
550.932864	24008.724565
551.291237	24148.493076
551.649555	24019.270659
552.007817	24073.029523
552.366022	23937.140180
552.724173	23993.091947
553.082267	23921.817593
553.440305	24383.869590
553.798288	23664.262522
554.156215	24186.195865
554.514086	24262.529017
554.871902	23632.941834
555.229661	23936.396610
555.587365	23791.077789
555.945014	23637.642710
556.302606	23899.608790
556.660143	23829.314941
557.017625	24097.864768
557.375050	23630.640547
557.732421	24024.432800
558.089735	23835.422298
558.446994	23892.223499
558.804197	23913.724021
559.161345	23862.195867
559.518437	23614.697898
559.875474	23816.210461
560.232455	23995.426001
560.589381	23824.482995
560.946251	23794.979642
561.303065	24116.534681
561.659825	24203.986097
562.016528	23811.033196
562.373177	23557.216141
562.729770	23901.169027
563.086307	23775.745119
563.442789	23943.179482
563.799216	23773.806796
564.155587	23778.172435
564.511904	23761.226596
564.868164	23690.685730
565.224370	23683.176932
565.580520	23586.313681
565.936615	23715.447878
566.292654	23392.504001
566.648638	23717.131623
567.004567	23523.838662
567.360441	23471.229180
567.716260	23198.495195
568.072023	23533.802502
568.427732	23282.334625
568.783385	23078.596392
569.138982	23317.030366
569.494525	23342.987267
569.850013	23094.944854
570.205445	23191.155275
570.560823	22992.375017
570.916145	22763.783896
571.271412	22922.643257
571.626625	22689.671373
571.981782	22798.343526
572.336884	22599.722065
572.691931	22738.873034
573.046923	22477.164053
573.401860	22360.113502
573.756743	22353.549920
574.111570	22276.475718
574.466342	22198.973019
574.821059	22295.445580
575.175722	21989.994507
575.530330	21978.293989
575.884882	22018.058611
576.239380	21914.956932
576.593823	21798.549128
576.948211	21785.041356
577.302544	21626.451697
577.656823	21493.947489
578.011047	21595.614959
578.365216	21463.776183
578.719330	21358.216943
579.073389	21246.371383
579.427394	21397.008621
579.781344	21172.445382
580.135239	21058.830377
580.489080	21024.873165
580.842866	20783.974067
581.196597	20970.693364
581.550273	20950.009510
581.903895	20850.010662
582.257463	21168.092346
582.610975	20689.767504
582.964434	20992.642548
583.317837	20714.023016
583.671186	20807.339815
584.024481	20759.925242
584.377721	20538.520286
584.730906	20584.311607
585.084037	20628.754419
585.437113	20526.000580
585.790135	20733.771736
586.143103	20208.763289
586.496016	20205.950326
586.848874	20452.981988
587.201679	20392.674664
587.554428	20052.500123
587.907124	20394.431506
588.259765	20176.489822
588.612352	20248.540514
588.964884	19822.273148
589.317362	19992.306226
589.669786	20040.802126
590.022155	20092.705846
590.374470	20275.689648
590.726731	20072.364790
591.078937	19829.224899
591.431090	19928.026473
591.783188	19673.493574
592.135232	19649.081787
592.487222	19747.346478
592.839157	19765.345918
593.191038	19654.256531
593.542866	19541.185971
593.894639	19252.915150
594.246358	19475.149376
594.598022	19389.389267
594.949633	19146.982863
595.301190	19097.138455
595.652692	19267.191697
596.004141	19506.608697
596.355535	18827.605603
596.706876	18846.381380
597.058162	18736.229648
597.409395	18963.593248
597.760573	19053.736641
598.111698	18830.368155
598.462768	18762.423483
598.813785	18725.002998
599.164748	18543.471048
599.515657	18577.614783
599.866511	18362.017236
600.217312	18734.671932
600.568060	18257.761134
600.918753	18564.711950
601.269392	18469.711406
601.619978	18247.991377
601.970510	18462.348801
602.320988	18402.774965
602.671412	18618.480897
603.021783	18513.022479
603.372100	18244.570955
603.722363	18385.637563
604.072572	18326.104056
604.422728	18463.805694
604.772830	18221.300988
605.122878	18166.107916
605.472872	18166.264191
605.822813	18157.474940
606.172701	18123.348849
606.522534	18321.372933
606.872314	18338.134770
607.222041	18179.877827
607.571714	18383.674033
607.921333	18220.691009
608.270899	18291.148696
608.620411	18478.273806
608.969870	18235.020489
609.319276	18245.347292
609.668627	18276.887271
610.017926	18410.757632
610.367171	18529.537299
610.716362	18566.947702
611.065500	18391.084529
611.414585	18522.134365
611.763616	18500.301127
612.112594	18452.715156
612.461518	18412.713600
612.810389	18608.451522
613.159207	18458.545250
613.507971	18366.481178
613.856682	18655.535898
614.205340	18587.739941
614.553945	18725.234892
614.902496	18463.258729
615.250994	18704.795533
615.599439	18651.795362
615.947830	18632.248288
616.296169	18676.933076
616.644454	18650.356113
616.992686	18620.310836
617.340864	18822.249377
617.688990	18594.434593
618.037063	18765.256612
618.385082	18603.922045
618.733048	18894.373165
619.080961	18750.407893
619.428821	18799.967477
619.776628	18686.269293
620.124382	18614.574003
620.472083	18640.399834
620.819731	18672.653136
621.167326	18366.304738
621.514868	18407.803516
621.862357	18168.676383
622.209793	18176.822888
622.557176	18017.106531
622.904506	17842.917022
623.251783	17746.333555
623.599007	17505.184920
623.946179	17465.158158
624.293297	17393.798105
624.640363	17148.694685
624.987376	17173.245104
625.334336	16982.376937
625.681243	16809.014177
626.028097	16821.831310
626.374899	16758.242196
626.721647	16613.644259
627.068343	16446.225020
627.414987	16379.591048
627.761577	16354.818818
628.108115	16392.632513
628.454600	16108.543329
628.801032	16217.515431
629.147412	16150.276521
629.493739	16162.627348
629.840014	15979.635984
630.186236	16085.855616
630.532405	15833.366905
630.878521	16047.530244
631.224585	15928.722851
631.570597	15748.544451
631.916556	15779.686179
632.262462	15762.488282
632.608316	15683.977352
632.954117	15621.288084
633.299866	15624.847138
633.645562	15539.412183
633.991206	15296.312622
634.336797	15162.772456
634.682336	15129.717610
635.027823	15016.997410
635.373257	14904.758641
635.718639	14799.295182
636.063968	14756.994860
636.409245	14508.922199
636.754470	14528.935580
637.099642	14379.409916
637.444762	14155.295339
637.789829	14198.399725
638.134845	14039.641188
638.479808	14061.108942
638.824719	14005.953677
639.169577	13861.635525
639.514383	13910.098658
639.859137	13730.784815
640.203839	13811.929748
640.548489	13642.748625
640.893086	13640.074293
641.237632	13506.662677
641.582125	13665.204445
641.926566	13495.952746
642.270955	13500.124300
642.615292	13463.631388
642.959576	13473.625475
643.303809	13508.759797
643.647990	13440.689097
643.992118	13500.724198
644.336195	13268.052262
644.680219	13475.294097
645.024192	13395.636305
645.368112	13633.450217
645.711981	13690.785780
646.055797	13869.048542
646.399562	13835.623171
646.743274	14108.372279
647.086935	14391.130599
647.430544	14351.174413
647.774101	14369.420870
648.117606	14531.738462
648.461059	14498.560108
648.804460	14492.092307
649.147810	14228.634046
649.491108	14119.137663
649.834354	14135.617195
650.177548	13835.257688
650.520690	13649.085355
650.863781	13562.932036
651.206820	13607.828552
651.549807	13437.692131
651.892742	13240.557809
652.235626	13183.517154
652.578458	13182.153522
652.921238	12857.155374
653.263967	13067.353846
653.606644	12901.983835
653.949269	12866.564688
654.291843	12676.377077
654.634365	12826.429542
654.976836	12685.889734
655.319255	12699.163092
655.661622	12643.753250
656.003938	12568.345150
656.346203	12490.769354
656.688416	12560.967421
657.030577	12523.138603
657.372687	12442.076849
657.714746	12413.337231
658.056753	12609.246552
658.398708	12423.722008
658.740612	12425.962801
659.082465	12522.510979
659.424266	12485.433293
659.766016	12510.361798
660.107715	12429.617637
660.449362	12499.951816
660.790958	12460.038480
661.132503	12400.943554
661.473996	12469.165489
661.815438	12486.348262
662.156829	12498.444511
662.498168	12479.265441
662.839456	12477.198568
663.180693	12493.360507
663.521879	12585.870721
663.863013	12558.771999
664.204097	12538.670398
664.545129	12653.434786
664.886110	12628.443265
665.227040	12721.417266
665.567918	12727.300292
665.908746	12751.618818
666.249522	12734.683062
666.590248	12782.674847
666.930922	12897.618196
667.271545	12878.575237
667.612118	12965.162095
667.952639	12869.682642
668.293109	12879.439795
668.633528	12840.726254
668.973896	12804.792909
669.314213	12898.260943
669.654480	12629.411167
669.994695	12701.063607
670.334859	12722.803583
670.674973	12667.998679
671.015035	12707.513763
671.355047	12643.105461
671.695008	12618.507151
672.034918	12628.208852
672.374777	12668.417095
672.714585	12588.955907
673.054342	12614.270061
673.394049	12565.680900
673.733705	12659.595076
674.073310	12569.066035
674.412864	12587.914909
674.752368	12461.029067
675.091820	12462.879170
675.431223	12457.762399
675.770574	12331.451248
676.109875	12242.936148
676.449125	12214.705687
676.788324	12154.975576
677.127473	11985.877632
677.466571	11980.022331
677.805619	11879.645397
678.144616	11796.857047
678.483562	11770.506936
678.822458	11641.317287
679.161303	11618.309461
679.500098	11606.140115
679.838842	11559.900132
680.177535	11578.950652
680.516179	11646.502113
680.854771	11587.235788
681.193314	11804.433902
681.531805	11954.204062
681.870247	12366.275539
682.208638	12776.905246
682.546978	13099.629833
682.885268	13151.266372
683.223508	12843.125843
683.561697	12673.664936
683.899836	12578.805544
684.237925	12388.060885
684.575963	12302.663739
684.913951	12220.611399
685.251889	12172.967454
685.589776	12265.770055
685.927614	12194.329343
686.265401	12155.852736
686.603137	12197.475023
686.940824	12352.067047
687.278460	12482.645534
687.616046	12520.953263
687.953582	12695.669572
688.291068	12620.626956
688.628504	12843.602232
688.965889	12854.362575
689.303224	12830.916168
689.640510	12724.419273
689.977745	12413.493507
690.314930	12188.418590
690.652065	12105.524377
690.989150	11811.017649
691.326185	11586.010788
691.663170	11378.892462
692.000105	11133.300049
692.336990	11029.026302
692.673825	10781.291399
693.010610	10660.056691
693.347345	10450.682448
693.684030	10254.347150
694.020665	10186.737715
694.357251	10003.151495
694.693786	9938.886865
695.030272	9774.497359
695.366707	9657.653495
695.703093	9596.345503
696.039429	9588.491385
696.375716	9509.438531
696.711952	9384.508656
697.048139	9415.519314
697.384276	9373.128252
697.720363	9398.875945
698.056400	9328.476231
698.392388	9286.024675
698.728326	9242.234692
699.064214	9173.911934
699.400053	9222.836332
699.735842	9033.845995
700.071581	8997.000201
700.407270	8927.454963
700.742910	8842.882046
701.078501	8755.660002
701.414042	8631.614850
701.749533	8561.434427
702.084974	8422.074249
702.420366	8532.682206
702.755709	8421.441584
703.091002	8282.010831
703.426246	8309.835479
703.761440	8268.808049
704.096584	8219.094710
704.431679	8150.819843
704.766725	8143.416909
705.101721	8089.862211
705.436668	8139.888101
705.771565	8029.023046
706.106413	8110.896425
706.441212	8155.435019
706.775961	8112.378524
707.110661	8145.166189
707.445311	8292.095659
707.779913	8188.124382
708.114465	8316.467117
708.448967	8349.708486
708.783421	8488.461204
709.117825	8674.802415
709.452180	8715.421512
709.786485	8796.390005
710.120742	9083.060259
710.454949	9080.237213
710.789107	9181.103140
711.123216	9389.756497
711.457275	9553.387310
711.791286	9714.426970
712.125247	9717.517197
712.459159	9704.390033
712.793023	9952.238361
713.126837	9525.653402
713.460602	9680.510087
713.794318	9502.272531
714.127985	9531.823775
714.461602	9219.962874
714.795171	9167.413887
715.128691	8922.996063
715.462162	8672.964914
715.795584	8615.248744
716.128957	8469.506466
716.462281	8301.469685
716.795556	8347.518104
717.128782	8144.644430
717.461960	7878.395889
717.795088	7949.382897
718.128167	7857.003753
718.461198	7690.232301
718.794180	7632.339691
719.127113	7621.029862
719.459997	7472.487223
719.792833	7243.644044
720.125619	7301.909700
720.458357	7162.126066
720.791046	7153.397308
721.123686	7148.121740
721.456278	6989.711042
721.788821	7012.343303
722.121315	6901.667290
722.453761	6971.908208
722.786158	6911.736995
723.118506	6922.721669
723.450805	6891.209417
723.783056	6961.210879
724.115259	6865.592793
724.447412	6857.864705
724.779518	6910.897643
725.111574	6909.284474
725.443582	6987.581155
725.775542	6969.659853
726.107453	7160.006260
726.439315	7072.121305
726.771129	7129.519882
727.102895	7298.287631
727.434612	7413.173007
727.766281	7445.156607
728.097901	7528.766664
728.429473	7516.085642
728.760996	7494.564956
729.092471	7470.044784
729.423897	7415.388594
729.755276	7428.394771
730.086606	7352.482555
730.417887	7450.323790
730.749120	7639.540979
731.080305	7836.080444
731.411442	7964.889486
731.742530	7957.489072
732.073570	8061.412459
732.404562	8149.756160
732.735506	7992.439392
733.066401	8137.569170
733.397249	8072.742452
733.728048	7835.576328
734.058798	7500.904207
734.389501	7280.391535
734.720156	7102.766479
735.050762	6868.703185
735.381320	6770.322548
735.711831	6723.883438
736.042293	6609.350943
736.372707	6635.905221
736.703073	6494.160578
737.033391	6531.142483
737.363661	6541.958278
737.693883	6574.738381
738.024056	6651.280741
738.354182	6696.225148
738.684260	6734.658905
739.014290	6843.888106
739.344272	6956.588141
739.674207	6985.126113
740.004093	7050.406535
740.333931	7068.973104
740.663722	7073.434525
740.993464	7155.365878
741.323159	7149.039230
741.652806	6893.916516
741.982405	6899.134111
742.311956	6967.842517
742.641460	6802.457383
742.970915	6609.103927
743.300323	6601.199398
743.629683	6548.514299
743.958996	6416.746099
744.288260	6326.920299
744.617477	6276.594460
744.946647	6279.765346
745.275768	6113.777794
745.604842	6068.644344
745.933869	6054.254370
746.262847	6009.781311
746.591778	5997.029712
746.920662	5958.096881
747.249498	5948.216219
747.578286	5995.663559
747.907027	6070.212143
748.235720	6127.116687
748.564365	6100.680876
748.892963	6126.491584
749.221514	6277.774090
749.550017	6119.005471
749.878473	5991.625595
750.206881	6052.028701
750.535242	5993.805894
750.863555	5918.702784
751.191821	5936.596360
751.520039	5943.958965
751.848210	5848.797104
752.176334	5861.503332
752.504411	5917.218164
752.832440	5844.877607
753.160421	5773.346154
753.488356	5823.346839
753.816243	5855.295151
754.144082	5702.676739
754.471875	5673.296894
754.799620	5717.278441
755.127318	5734.645216
755.454969	5685.418349
755.782572	5650.765457
756.110129	5692.062590
756.437638	5677.153377
756.765100	5618.270180
757.092515	5615.452175
757.419882	5667.585267
757.747203	5643.876721
758.074477	5709.260486
758.401703	5695.097364
758.728882	5649.101877
759.056014	5701.348395
759.383099	5832.569630
759.710138	5841.293346
760.037129	5826.663918
760.364073	5831.684907
760.690970	5914.705149
761.017820	5895.757973
761.344623	5848.734089
761.671379	5951.208144
761.998088	6066.620320
762.324751	6310.160983
762.651366	6901.574029
762.977935	8198.352883
763.304456	9823.086520
763.630931	10736.455377
763.957359	10351.918682
764.283740	9412.792050
764.610074	8587.998787
764.936362	7595.282169
765.262602	6997.532393
765.588796	6459.822759
765.914943	6121.011850
766.241044	5958.308609
766.567097	5764.897180
766.893104	5505.159290
767.219064	5324.287731
767.544978	5256.464047
767.870845	5182.268345
768.196665	5077.641718
768.522438	5006.838712
768.848165	4972.009380
769.173846	4905.871962
769.499479	4867.652454
769.825066	4811.914937
770.150607	4747.436058
770.476101	4725.549889
770.801548	4720.924630
771.126949	4646.844875
771.452303	4594.321093
771.777611	4552.361049
772.102872	4570.095828
772.428087	4535.795817
772.753256	4492.325948
773.078378	4452.120225
773.403453	4379.391498
773.728482	4366.856669
774.053465	4319.547961
774.378401	4304.883245
774.703291	4307.078667
775.028135	4235.194334
775.352932	4188.082231
775.677683	4175.343235
776.002388	4194.902912
776.327046	4201.779046
776.651658	4129.188951
776.976224	4066.212336
777.300743	4071.808017
777.625216	4095.793827
777.949643	4091.065225
778.274024	4042.975138
778.598359	3998.161801
778.922647	4022.752549
779.246889	4014.671579
779.571086	4007.760157
779.895236	3997.735823
780.219339	3982.025067
780.543397	3975.985765
780.867409	4026.021737
781.191374	4040.787277
781.515294	3975.353100
781.839167	3972.338490
782.162995	3987.935820
782.486776	3978.476095
782.810511	3985.868947
783.134201	3987.020851
783.457844	3940.488480
783.781441	3885.975963
784.104993	3890.565933
784.428498	3908.008326
784.751958	3908.963624
785.075372	3883.886405
785.398739	3847.496836
785.722061	3861.276830
786.045337	3900.285278
786.368568	3937.173921
786.691752	3849.520859
787.014891	3896.436357
787.337983	4021.383876
787.661030	4181.067465
787.984031	4340.120910
788.306987	4510.322867
788.629897	4594.747070
788.952760	4550.815935
789.275579	4480.179287
789.598351	4421.079320
789.921078	4282.298875
790.243759	4081.900407
790.566395	4058.035585
790.888984	4058.312848
791.211529	3949.106332
791.534027	3888.075603
791.856480	3878.920868
792.178888	3820.882064
792.501249	3766.929115
792.823566	3780.383954
793.145836	3806.575269
793.468062	3757.963423
793.790241	3708.393757
794.112375	3739.379209
794.434464	3801.435813
794.756507	3831.125688
795.078505	3809.481494
795.400457	3843.428624
795.722364	3982.932475
796.044226	4082.659101
796.366042	4154.205677
796.687812	4138.696567
797.009538	4143.475581
797.331218	4102.105352
797.652852	4076.473605
797.974442	4053.619534
798.295986	4056.893763
798.617484	3973.475270
798.938938	3888.360429
799.260346	3925.826284
799.581709	3925.775872
799.903026	3850.904656
800.224299	3816.839058
800.545526	3807.359169
800.866708	3770.130247
801.187845	3710.412739
801.508936	3743.951536
801.829983	3744.725353
802.150984	3669.904547
802.471940	3653.793020
802.792851	3666.751306
803.113717	3666.136285
803.434538	3665.291892
803.755314	3608.899024
804.076045	3582.490940
804.396731	3601.158332
804.717372	3628.793938
805.037967	3613.219293
805.358518	3601.760750
805.679024	3631.538846
805.999485	3642.662152
806.319901	3647.902431
806.640272	3660.089421
806.960598	3677.340249
807.280879	3650.634737
807.601115	3657.704955
807.921306	3677.395702
808.241453	3720.636199
808.561554	3698.669371
808.881611	3627.999956
809.201623	3663.771984
809.521590	3679.757482
809.841513	3650.478461
810.161390	3678.572811
810.481223	3659.272754
810.801011	3602.292592
811.120755	3594.824123
811.440453	3628.148670
811.760107	3632.748723
812.079716	3591.471755
812.399281	3560.882034
812.718801	3583.592432
813.038276	3554.963719
813.357707	3553.030437
813.677093	3571.871749
813.996434	3521.992052
814.315731	3524.663864
814.634983	3531.171993
814.954191	3543.048952
815.273354	3574.692275
815.592473	3571.753282
815.911547	3579.246957
816.230577	3615.031588
816.549562	3668.747603
816.868502	3709.008778
817.187399	3733.246645
817.506250	3729.543918
817.825058	3699.554094
818.143821	3789.944503
818.462539	3895.576840
818.781213	3939.845733
819.099843	3999.031400
819.418429	4241.659614
819.736970	4480.562415
820.055466	4723.974528
820.373919	5086.526751
820.692327	5496.138145
821.010691	5932.008910
821.329011	7290.597351
821.647286	10001.767698
821.965517	14530.309295
822.283704	18544.509526
822.601847	20745.215155
822.919945	18954.640159
823.237999	16403.405459
823.556010	13917.247014
823.873976	11839.288439
824.191897	9753.886602
824.509775	8397.584324
824.827609	7272.804598
825.145398	6715.830195
825.463144	6597.592452
825.780845	6712.669392
826.098502	6896.863071
826.416116	7763.424814
826.733685	9079.700330
827.051210	10191.579743
827.368692	10247.854143
827.686129	9006.328857
828.003522	7500.805904
828.320872	6482.124823
828.638177	5778.893944
828.955439	5224.946754
829.272656	4730.749839
829.589830	4441.813586
829.906960	4270.646248
830.224046	4082.079368
830.541088	3960.000266
830.858086	3909.525713
831.175041	3836.091225
831.491952	3815.782937
831.808819	3828.428671
832.125642	3897.124475
832.442421	4043.128893
832.759157	4317.473526
833.075849	4863.145663
833.392497	5721.417228
833.709101	6494.813407
834.025662	6833.037022
834.342179	6484.146326
834.658653	5822.126879
834.975083	5177.494373
835.291469	4607.566724
835.607811	4192.876368
835.924110	4053.415367
836.240366	3855.492106
836.556578	3651.201867
836.872746	3539.116852
837.188871	3503.823734
837.504952	3436.791511
837.820990	3354.199767
838.136984	3310.450113
838.452935	3330.574400
838.768842	3326.138184
839.084706	3348.803212
839.400526	3505.678878
839.716303	3840.499714
840.032037	4362.004559
840.347727	4625.765290
840.663373	4354.316799
840.978977	3973.805466
841.294537	3672.503262
841.610054	3442.125052
841.925527	3334.176304
842.240957	3262.851539
842.556344	3207.630740
842.871687	3155.401865
843.186987	3098.877928
843.502244	3062.730334
843.817458	3031.754964
844.132629	2997.941425
844.447756	3006.382837
844.762840	2994.468070
845.077881	2962.529840
845.392879	2944.462344
845.707833	2943.068465
846.022745	2937.172836
846.337613	2941.558640
846.652438	2928.938111
846.967221	2926.727565
847.281960	2911.263826
847.596656	2908.092940
847.911309	2907.430028
848.225919	2903.593710
848.540485	2896.732700
848.855009	2898.524830
849.169490	2885.110319
849.483928	2879.532283
849.798323	2878.730739
850.112675	2875.005327
850.426984	2886.915053
850.741251	2885.120402
851.055474	2873.838299
851.369654	2869.276055
851.683792	2870.894266
851.997887	2878.249309
852.311938	2882.481358
852.625947	2870.180942
852.939914	2871.370655
853.253837	2877.062117
853.567718	2863.960158
853.881555	2861.384129
854.195350	2880.301059
854.509103	2871.481560
854.822812	2865.613657
855.136479	2860.963192
855.450103	2861.018645
855.763685	2858.619056
856.077224	2854.923890
856.390720	2868.300592
856.704173	2876.464741
857.017584	2868.736652
857.330953	2864.809593
857.644278	2876.258053
857.957561	2885.916904
858.270802	2888.636607
858.584000	2886.484034
858.897155	2873.613968
859.210268	2873.727394
859.523339	2870.460726
859.836367	2872.567929
860.149352	2865.800180
860.462295	2858.394725
860.775195	2870.750593
861.088054	2870.904348
861.400869	2854.286184
861.713642	2851.725278
862.026373	2866.137937
862.339062	2866.407639
862.651708	2874.826366
862.964312	2873.830738
863.276873	2868.121631
863.589392	2881.689897
863.901869	2891.293295
864.214303	2911.057138
864.526696	2927.781166
864.839045	2921.348654
865.151353	2921.341092
865.463619	2920.272368
865.775842	2922.853438
866.088023	2940.658794
866.400162	2947.580298
866.712258	2917.711461
867.024313	2907.916499
867.336325	2917.343457
867.648296	2939.756427
867.960224	2929.946342
868.272110	2916.070566
868.583954	2924.721186
868.895755	2940.280707
869.207515	2923.513829
869.519233	2929.976589
869.830909	2938.488577
870.142542	2950.340330
870.454134	2946.819084
870.765684	2949.180864
871.077191	2949.458128
871.388657	2958.340641
871.700081	2970.802373
872.011463	2982.386945
872.322803	2982.717140
872.634101	2980.549444
872.945357	2998.130468
873.256571	3024.278933
873.567744	3016.545803
873.878874	3007.799401
874.189963	3032.264121
874.501010	3033.015253
874.812015	3023.527801
875.122979	3024.689787
875.433900	3021.337420
875.744780	3030.197248
876.055618	3035.316539
876.366415	3030.487114
876.677169	3042.711912
876.987882	3042.525389
877.298554	3035.243443
877.609183	3053.275650
877.919771	3076.888415
878.230317	3105.882611
878.540822	3156.195847
878.851285	3193.051723
879.161707	3235.374730
879.472087	3336.797704
879.782425	3560.667785
880.092722	3992.777848
880.402977	4520.329557
880.713191	5145.898941
881.023363	6283.001767
881.333494	7562.300420
881.643583	8125.477963
881.953631	7836.082964
882.263637	7206.881429
882.573602	6625.003726
882.883526	6048.053751
883.193408	5485.128265
883.503248	5018.052759
883.813048	4712.984813
884.122806	4412.252260
884.432522	4096.786934
884.742197	3866.486862
885.051831	3669.952438
885.361424	3536.187942
885.670975	3462.329997
885.980485	3380.471740
886.289954	3302.164977
886.599382	3257.699480
886.908768	3218.111298
887.218113	3172.584638
887.527417	3119.728140
887.836680	3067.242167
888.145901	3061.596074
888.455082	3053.789848
888.764221	3003.416118
889.073319	2972.811273
889.382376	2966.976137
889.691392	2975.730101
890.000366	2975.735142
890.309300	2959.598409
890.618193	2973.973259
890.927044	2991.705518
891.235855	2990.604025
891.544625	2977.580204
891.853353	2986.818119
892.162041	3007.716222
892.470687	3045.287942
892.779293	3096.203596
893.087858	3141.745379
893.396381	3213.352449
893.704864	3332.051458
894.013306	3569.204979
894.321707	3870.366030
894.630068	4074.041248
894.938387	4071.077050
895.246665	4030.649517
895.554903	3908.658635
895.863100	3713.107236
896.171256	3545.710681
896.479371	3405.163312
896.787446	3286.711320
897.095480	3178.671831
897.403473	3117.139507
897.711425	3079.499732
898.019336	3071.385995
898.327207	3042.243085
898.635038	3007.131448
898.942827	2993.540498
899.250576	2979.679845
899.558284	2953.927111
899.865952	2930.800817
900.173579	2911.203332
900.481165	2903.021539
900.788711	2890.607698
901.096216	2868.235057
901.403681	2856.214426
901.711105	2859.811289
902.018489	2859.902030
902.325832	2858.921525
902.633135	2870.501056
902.940397	2899.938873
903.247619	2984.307624
903.554800	3173.320647
903.861941	3511.559384
904.169041	3936.942028
904.476101	4237.089808
904.783121	4198.035989
905.090100	3954.699493
905.397039	3680.236392
905.703938	3433.933177
906.010796	3253.301073
906.317614	3138.466109
906.624391	3043.705019
906.931129	2970.562918
907.237826	2912.052766
907.544483	2864.943183
907.851099	2835.570901
908.157675	2814.395534
908.464211	2792.688325
908.770707	2779.979577
909.077163	2766.131527
909.383578	2752.280957
909.689954	2739.378123
909.996289	2739.975500
910.302584	2740.918196
910.608839	2742.269225
910.915054	2733.991651
911.221229	2729.341186
911.527363	2730.593913
911.833458	2737.797722
912.139513	2745.445152
912.445527	2746.803743
912.751502	2755.053591
913.057436	2762.408635
913.363331	2775.722322
913.669186	2796.191927
913.975000	2833.320025
914.280775	2889.082749
914.586510	2961.335086
914.892205	3037.844678
915.197859	3163.571055
915.503475	3357.879809
915.809050	3571.143302
916.114585	3716.799881
916.420081	3737.844178
916.725536	3677.292358
917.030952	3557.905232
917.336328	3430.784976
917.641665	3305.782005
917.946961	3202.642518
918.252218	3136.616005
918.557435	3057.832853
918.862612	2995.526712
919.167750	2946.067952
919.472848	2908.564288
919.777906	2879.537324
920.082925	2857.615866
920.387904	2825.261741
920.692843	2811.005358
920.997743	2796.867442
921.302603	2784.410751
921.607423	2774.767023
921.912204	2761.264293
922.216946	2752.003693
922.521647	2741.898700
922.826310	2733.689181
923.130932	2726.263562
923.435516	2719.296687
923.740059	2714.043805
924.044564	2703.396888
924.349028	2699.479911
924.653454	2691.237625
924.957840	2685.808302
925.262186	2680.366377
925.566493	2678.486026
925.870761	2672.580314
926.174989	2667.793739
926.479178	2666.314160
926.783328	2659.904333
927.087438	2658.394507
927.391509	2657.492141
927.695541	2653.938128
927.999533	2651.795637
928.303486	2648.690286
928.607400	2646.250368
928.911275	2646.946047
929.215110	2646.020995
929.518906	2645.043012
929.822663	2646.943527
930.126381	2644.228865
930.430060	2644.332209
930.733699	2646.953609
931.037299	2647.734988
931.340861	2648.697848
931.644383	2648.405461
931.947866	2646.638537
932.251309	2646.714154
932.554714	2644.503608
932.858080	2641.065541
933.161407	2639.500263
933.464694	2640.190901
933.767943	2633.990282
934.071153	2637.985396
934.374323	2639.051600
934.677455	2636.921713
934.980548	2637.204017
935.283602	2634.360807
935.586617	2635.308543
935.889593	2636.515900
936.192530	2635.270735
936.495428	2639.974131
936.798287	2638.451703
937.101108	2641.609986
937.403890	2644.952271
937.706632	2650.706748
938.009336	2655.382418
938.312002	2667.566887
938.614628	2674.082578
938.917216	2677.923937
939.219765	2679.751356
939.522275	2679.123732
939.824747	2677.659277
940.127179	2674.606858
940.429573	2673.235664
940.731929	2669.328770
941.034246	2665.741989
941.336524	2665.250477
941.638763	2660.201761
941.940964	2658.021462
942.243126	2657.444250
942.545250	2658.313849
942.847335	2652.345123
943.149381	2649.033085
943.451389	2646.051242
943.753359	2644.738022
944.055290	2642.272897
944.357182	2640.732825
944.659036	2642.033443
944.960851	2641.010088
945.262628	2638.035808
945.564367	2639.787609
945.866067	2638.892804
946.167729	2638.555047
946.469352	2639.434728
946.770937	2639.646456
947.072484	2635.631177
947.373992	2637.317443
947.675462	2635.865591
947.976893	2629.370064
948.278286	2630.910137
948.579641	2630.068264
948.880958	2628.888634
949.182236	2629.559107
949.483476	2628.729838
949.784678	2629.690177
950.085841	2629.604478
950.386967	2631.386526
950.688054	2630.529530
950.989103	2636.543626
951.290114	2632.563635
951.591087	2633.975158
951.892021	2638.030767
952.192917	2639.359111
952.493776	2642.487147
952.794596	2642.330871
953.095378	2643.918834
953.396122	2638.517238
953.696828	2639.769965
953.997496	2638.676034
954.298126	2636.987248
954.598718	2634.875004
954.899272	2632.470374
955.199788	2626.168932
955.500266	2626.902419
955.800706	2624.495268
956.101108	2620.258179
956.401472	2622.625000
956.701798	2619.323045
957.002087	2614.796088
957.302337	2615.358177
957.602550	2616.195009
957.902724	2611.496653
958.202861	2610.952209
958.502960	2611.045470
958.803022	2608.948350
959.103045	2606.178236
959.403031	2607.839296
959.702979	2605.674121
960.002889	2606.208483
960.302762	2607.294852
960.602596	2604.885180
960.902393	2603.743359
961.202153	2603.423245
961.501875	2606.498349
961.801559	2603.312340
962.101205	2604.675972
962.400814	2606.331991
962.700385	2601.111876
962.999918	2600.940477
963.299414	2597.943511
963.598873	2599.604571
963.898293	2596.786566
964.197677	2599.705394
964.497022	2600.607761
964.796331	2602.450303
965.095601	2601.121959
965.394835	2601.837802
965.694030	2602.727566
965.993189	2603.478698
966.292309	2601.621033
966.591393	2600.010384
966.890439	2601.573142
967.189447	2601.530292
967.488419	2602.112545
967.787353	2602.288986
968.086249	2600.438882
968.385108	2604.222268
968.683930	2601.298399
968.982714	2602.641867
969.281462	2599.599530
969.580172	2602.722525
969.878844	2599.733121
970.177480	2600.620364
970.476078	2600.645570
970.774639	2602.281424
971.073162	2600.438882
971.371649	2600.925354
971.670098	2604.870057
971.968510	2603.851743
972.266885	2601.023656
972.565223	2603.400560
972.863524	2603.458533
973.161788	2602.999788
973.460014	2603.846702
973.758204	2603.428287
974.056356	2599.813779
974.354471	2599.234047
974.652550	2601.197576
974.950591	2603.677824
975.248595	2604.802001
975.546563	2603.524068
975.844493	2601.069027
976.142386	2601.686568
976.440243	2600.459047
976.738062	2602.462906
977.035845	2598.719849
977.333590	2601.258070
977.631299	2600.428800
977.928971	2597.583069
978.226606	2596.620208
978.524204	2596.627770
978.821765	2594.835640
979.119290	2600.638008
979.416777	2597.051227
979.714228	2602.087340
980.011642	2598.082143
980.309020	2600.353183
980.606360	2598.155240
980.903664	2601.547936
981.200931	2601.066506
981.498162	2600.542226
981.795356	2601.797473
982.092513	2601.404263
982.389633	2606.263936
982.686717	2607.002465
982.983764	2611.010182
983.280775	2614.667539
983.577749	2617.324227
983.874686	2618.801285
984.171587	2615.554782
984.468451	2612.721654
984.765279	2608.998762
985.062070	2604.925509
985.358824	2606.770572
985.655543	2605.651435
985.952224	2605.727053
986.248869	2602.725046
986.545478	2599.087853
986.842050	2600.791763
987.138586	2599.445775
987.435086	2598.712287
987.731549	2595.566607
988.027975	2597.482246
988.324366	2597.265476
988.620719	2597.288161
988.917037	2595.458222
989.213318	2599.332349
989.509563	2596.821854
989.805772	2595.957297
990.101944	2597.421752
990.398080	2594.815475
990.694180	2594.349168
990.990244	2595.972420
991.286271	2595.677512
991.582262	2593.983685
991.878217	2595.949735
992.174136	2597.555342
992.470019	2596.093408
992.765865	2596.842019
993.061676	2593.638366
993.357450	2593.824888
993.653188	2595.233891
993.948890	2595.097780
994.244556	2598.092225
994.540186	2597.547781
994.835780	2596.844540
995.131337	2597.068871
995.426859	2597.754468
995.722345	2597.746906
996.017795	2597.431834
996.313208	2600.887545
996.608586	2600.454006
996.903928	2600.111207
997.199234	2599.082812
997.494504	2602.604058
997.789738	2600.086002
998.084936	2600.874942
998.380099	2599.236567
998.675225	2599.070209
998.970316	2597.149529
999.265371	2595.604416
999.560390	2598.089705
999.855373	2597.862853
1000.150320	2596.022832
1000.445232	2595.168356
1000.740108	2595.979982
1001.034948	2595.730445
1001.329752	2596.005187
1001.624521	2596.773963
1001.919254	2594.495362
1002.213951	2595.614498
1002.508613	2594.031576
1002.803239	2597.023501
1003.097829	2594.434868
1003.392384	2597.083994
1003.686903	2592.670464
1003.981386	2595.344796
1004.275834	2595.599375
1004.570246	2593.343458
1004.864623	2594.258428
1005.158964	2594.588623
1005.453270	2590.805237
1005.747540	2592.567121
1006.041775	2594.029055
1006.335974	2594.956627
1006.630138	2593.799683
1006.924266	2592.738520
1007.218359	2591.725248
1007.512416	2590.412027
1007.806438	2588.909763
1008.100425	2593.076277
1008.394376	2589.615525
1008.688292	2593.071236
1008.982172	2594.455033
1009.276017	2592.814137
1009.569827	2594.525609
1009.863602	2594.049220
1010.157341	2592.158787
1010.451045	2595.012080
1010.744714	2591.740371
1011.038347	2593.116606
1011.331945	2593.681216
1011.625508	2594.568459
1011.919036	2593.529981
1012.212528	2593.282964
1012.505986	2593.194744
1012.799408	2591.044692
1013.092795	2592.481421
1013.386147	2593.492172
1013.679464	2591.248859
1013.972745	2593.759353
1014.265992	2593.061154
1014.559204	2590.724579
1014.852380	2594.313880
1015.145521	2593.993767
1015.438628	2593.661051
1015.731699	2593.998808
1016.024736	2591.543766
1016.317737	2591.659713
1016.610703	2592.937645
1016.903635	2593.424117
1017.196531	2591.828592
1017.489393	2589.494537
1017.782219	2591.430340
1018.075011	2593.436720
1018.367768	2592.488983
1018.660490	2591.425299
1018.953177	2591.425299
1019.245829	2591.425299
