Dividing Wavelength (nm)	Counts (n)	Blue Motor Position (mm): 17.200000	Red Motor Position (mm): 0.000000	
326.493990	2177.934737
326.888308	2177.934737
327.282561	2177.934737
327.676750	2137.030815
328.070874	2132.932357
328.464933	2135.770527
328.858929	2136.932513
329.252859	2143.080200
329.646726	2149.830305
330.040528	2163.582572
330.434265	2175.814932
330.827938	2194.696574
331.221547	2209.946064
331.615091	2228.200082
332.008571	2249.383011
332.401986	2266.059148
332.795338	2283.438526
333.188625	2304.097174
333.581847	2323.283806
333.975006	2339.385251
334.368100	2359.252438
334.761129	2377.705582
335.154095	2393.819630
335.546996	2420.605801
335.939833	2443.749738
336.332606	2460.935032
336.725315	2471.511373
337.117960	2486.828919
337.510540	2494.854436
337.903056	2508.155520
338.295508	2517.718589
338.687896	2529.184693
339.080220	2533.308357
339.472480	2540.948226
339.864676	2545.122301
340.256807	2549.833259
340.648875	2553.294012
341.040879	2557.659651
341.432818	2559.073694
341.824694	2562.738613
342.216506	2564.770198
342.608253	2565.412945
342.999937	2564.868501
343.391557	2563.948490
343.783113	2566.017884
344.174605	2563.817420
344.566033	2564.636608
344.957397	2562.325239
345.348697	2561.319528
345.739934	2560.167625
346.131106	2555.842315
346.522215	2556.167469
346.913260	2553.518343
347.304241	2549.956768
347.695159	2552.106820
348.086012	2548.449463
348.476802	2545.760007
348.867528	2543.191539
349.258191	2538.427649
349.648789	2537.651311
350.039324	2536.108718
350.429796	2539.231713
350.820203	2535.097967
351.210548	2533.751979
351.600828	2535.859181
351.991045	2534.072092
352.381198	2530.084539
352.771288	2532.189221
353.161314	2530.979344
353.551276	2530.903727
353.941175	2528.836854
354.331010	2531.468336
354.720782	2531.990095
355.110490	2527.427851
355.500135	2529.136802
355.889717	2531.942204
356.279235	2528.589837
356.668689	2530.828109
357.058080	2531.085208
357.447408	2528.604961
357.836672	2532.247194
358.225873	2529.890455
358.615010	2532.035466
359.004084	2530.606299
359.393095	2533.005888
359.782043	2533.515044
360.170927	2531.904396
360.559748	2532.678213
360.948505	2534.346835
361.337199	2536.547298
361.725830	2534.079654
362.114398	2534.301464
362.502903	2534.278779
362.891344	2536.401105
363.279722	2535.854140
363.668037	2536.121321
364.056289	2538.485622
364.444478	2540.103832
364.832603	2540.618030
365.220665	2536.575025
365.608665	2540.827238
365.996601	2538.473019
366.384474	2540.975952
366.772284	2539.950077
367.160031	2541.601055
367.547715	2543.935109
367.935336	2540.428987
368.322893	2538.949408
368.710388	2537.366486
369.097820	2542.405119
369.485189	2538.099974
369.872495	2544.189688
370.259738	2543.867054
370.646918	2546.826211
371.034035	2546.034750
371.421090	2545.326468
371.808081	2543.534338
372.195010	2548.416695
372.581875	2547.383259
372.968678	2547.153886
373.355418	2546.004503
373.742096	2544.441745
374.128710	2545.729760
374.515262	2547.791592
374.901751	2546.291849
375.288177	2546.448125
375.674540	2547.423588
376.060841	2549.659340
376.447079	2547.577343
376.833254	2548.817467
377.219367	2544.774462
377.605417	2550.128167
377.991404	2549.833259
378.377329	2548.028526
378.763191	2550.470965
379.148991	2550.939793
379.534727	2548.343598
379.920402	2551.380894
380.306013	2552.411810
380.691563	2550.760832
381.077049	2548.262940
381.462474	2550.838970
381.847835	2549.394679
382.233134	2549.777807
382.618371	2551.738816
383.003545	2549.077086
383.388657	2549.291335
383.773706	2552.207643
384.158693	2551.847200
384.543618	2555.607901
384.928480	2553.984650
385.313280	2552.651264
385.698017	2552.830225
386.082692	2554.156049
386.467305	2553.997253
386.851856	2554.632438
387.236344	2553.883827
387.620770	2549.550955
388.005133	2549.782848
388.389435	2551.537169
388.773674	2552.547921
389.157851	2555.504557
389.541965	2555.691080
389.926018	2555.169321
390.310008	2558.239383
390.693936	2556.497665
391.077802	2557.858776
391.461606	2558.950186
391.845348	2553.840977
392.229027	2554.745864
392.612645	2556.714434
392.996200	2558.098231
393.379694	2557.606719
393.763125	2556.190154
394.146494	2558.214178
394.529801	2558.194013
394.913047	2562.262224
395.296230	2560.394477
395.679351	2558.763663
396.062410	2560.185269
396.445408	2559.721483
396.828343	2557.102603
397.211217	2558.171328
397.594028	2560.245763
397.976778	2557.221070
398.359466	2560.039075
398.742092	2562.269786
399.124656	2561.042265
399.507158	2561.009497
399.889598	2562.489076
400.271977	2560.729713
400.654294	2561.508572
401.036549	2560.999415
401.418742	2563.020918
401.800874	2561.392625
402.182944	2561.581668
402.564952	2562.786504
402.946898	2563.651062
403.328783	2564.608881
403.710606	2562.637790
404.092367	2563.315825
404.474067	2565.120558
404.855705	2562.904971
405.237282	2565.062585
405.618797	2564.371947
406.000250	2563.915723
406.381642	2565.667524
406.762972	2563.686350
407.144240	2559.633262
407.525447	2561.435475
407.906593	2562.053016
408.287677	2564.064437
408.668700	2567.152143
409.049661	2565.932184
409.430560	2564.618964
409.811399	2565.052503
410.192176	2565.342369
410.572891	2569.907134
410.953545	2566.958059
411.334138	2567.590724
411.714669	2566.711042
412.095139	2568.102401
412.475547	2569.650035
412.855894	2566.650549
413.236180	2567.787329
413.616405	2567.915878
413.996568	2569.760941
414.376670	2568.117524
414.756711	2568.603996
415.136691	2567.000909
415.516609	2568.964438
415.896466	2568.818245
416.276262	2566.194324
416.655997	2567.641135
417.035670	2565.750703
417.415283	2571.616085
417.794834	2569.970148
418.174324	2569.070302
418.553753	2569.808832
418.933121	2571.830334
419.312428	2571.951322
419.691674	2568.488049
420.070859	2572.152968
420.449983	2569.602144
420.829045	2569.181208
421.208047	2569.934860
421.586988	2570.688513
421.965867	2571.270766
422.344686	2569.385375
422.723444	2574.076168
423.102141	2567.724314
423.480777	2572.276476
423.859352	2570.141548
424.237866	2573.597259
424.616319	2571.971487
424.994712	2573.889646
425.373044	2572.876374
425.751314	2569.191290
426.129524	2568.059551
426.507673	2567.910837
426.885762	2569.065261
427.263789	2573.640108
427.641756	2573.561971
428.019662	2573.569532
428.397508	2569.960066
428.775292	2573.554409
429.153016	2573.582135
429.530679	2572.218503
429.908282	2571.807649
430.285824	2571.449727
430.663305	2576.972311
431.040726	2572.168092
431.418086	2573.516600
431.795385	2574.706312
432.172624	2575.074317
432.549802	2574.108936
432.926920	2574.101374
433.303977	2575.986766
433.680974	2576.115315
434.057910	2576.591704
434.434786	2573.970304
434.811601	2572.470561
435.188355	2575.631364
435.565050	2575.293607
435.941683	2574.875191
436.318257	2577.166396
436.694770	2577.330233
437.071222	2575.916189
437.447614	2574.993658
437.823946	2578.711509
438.200218	2576.470716
438.576429	2575.686817
438.952580	2577.244533
439.328670	2576.727815
439.704700	2575.560788
440.080670	2576.193453
440.456580	2578.245202
440.832429	2578.078844
441.208218	2575.520459
441.583947	2580.909452
441.959616	2574.507187
442.335224	2576.700089
442.710773	2579.316448
443.086261	2576.770665
443.461689	2578.199832
443.837057	2579.757549
444.212365	2580.526325
444.587612	2578.557754
444.962800	2573.030129
445.337927	2577.867116
445.712995	2573.977866
446.088002	2579.402147
446.462949	2579.235789
446.837837	2577.781416
447.212664	2579.755028
447.587431	2581.645461
447.962139	2578.827456
448.336786	2582.081521
448.711374	2581.085893
449.085901	2581.597570
449.460369	2579.087075
449.834776	2579.601273
450.209124	2579.223186
450.583412	2584.478589
450.957640	2586.278281
451.331808	2583.772828
451.705917	2584.254258
452.079965	2583.437591
452.453954	2584.579412
452.827883	2581.267374
453.201752	2581.305183
453.575562	2582.666294
453.949311	2584.748291
454.323001	2583.293918
454.696632	2585.081007
455.070202	2585.716192
455.443713	2584.166038
455.817164	2584.579412
456.190556	2582.504977
456.563888	2584.481110
456.937160	2583.742581
457.310373	2583.840883
457.683526	2584.710482
458.056619	2585.474217
458.429653	2586.686615
458.802628	2585.459094
459.175542	2585.801892
459.548398	2587.289032
459.921194	2585.363312
460.293930	2587.591502
460.666607	2586.742067
461.039224	2587.420103
461.411782	2591.158118
461.784280	2588.312387
462.156719	2589.023189
462.529099	2589.043354
462.901419	2586.646285
463.273680	2585.713672
463.645882	2584.977663
464.018024	2583.407344
464.390106	2585.547314
464.762130	2590.233066
465.134094	2591.934456
465.505999	2590.326328
465.877845	2593.802203
466.249631	2596.806731
466.621358	2596.242122
466.993026	2594.593664
467.364634	2600.635487
467.736184	2593.963520
468.107674	2593.129209
468.479105	2593.396390
468.850477	2592.844384
469.221790	2595.165835
469.593043	2594.003849
469.964238	2592.869590
470.335373	2592.247007
470.706449	2595.027204
471.077467	2593.938314
471.448425	2593.721545
471.819324	2599.332349
472.190164	2598.520723
472.560945	2595.705239
472.931667	2596.766402
473.302330	2595.808582
473.672934	2594.898654
474.043479	2596.844540
474.413965	2595.082656
474.784393	2597.426793
475.154761	2599.581886
475.525070	2598.893769
475.895321	2596.854622
476.265513	2597.492328
476.635645	2599.067688
477.005719	2595.871597
477.375734	2595.861515
477.745691	2601.479881
478.115588	2602.415015
478.485427	2598.518203
478.855207	2600.822010
479.224928	2599.889397
479.594591	2605.301075
479.964194	2604.537340
480.333739	2606.730242
480.703226	2606.702516
481.072653	2606.518514
481.442022	2608.106477
481.811333	2606.468102
482.180584	2604.917947
482.549777	2603.140941
482.918912	2600.022987
483.287988	2608.141765
483.657005	2605.298555
484.025964	2605.709409
484.394864	2607.912393
484.763706	2608.391302
485.132489	2605.681682
485.501213	2608.174533
485.869879	2609.908690
486.238487	2609.633947
486.607036	2607.879625
486.975527	2606.364759
487.343959	2606.866353
487.712333	2607.846858
488.080648	2606.034563
488.448905	2610.949688
488.817104	2610.949688
489.185244	2612.305758
489.553326	2607.239399
489.921350	2612.514966
490.289315	2615.640482
490.657222	2618.536625
491.025070	2622.814044
491.392861	2621.105092
491.760593	2621.284053
492.128267	2618.909670
492.495883	2616.875564
492.863440	2617.631737
493.230939	2615.902622
493.598380	2618.002262
493.965763	2615.506891
494.333088	2615.516973
494.700354	2617.288939
495.067563	2617.593929
495.434713	2616.273147
495.801805	2617.934207
496.168839	2620.994187
496.535815	2618.133332
496.902733	2621.190792
497.269593	2620.225411
497.636395	2618.581995
498.003139	2621.185751
498.369825	2619.265071
498.736453	2620.931173
499.103023	2619.529732
499.469535	2622.720782
499.835989	2625.221195
500.202385	2620.963940
500.568723	2619.706172
500.935003	2623.197171
501.301226	2624.724641
501.667390	2630.668161
502.033497	2632.009108
502.399546	2632.089767
502.765537	2631.666310
503.131470	2634.612864
503.497345	2635.651342
503.863163	2635.626136
504.228923	2638.492032
504.594625	2643.903711
504.960269	2638.267701
505.325856	2644.838845
505.691385	2646.318423
506.056856	2647.850934
506.422270	2649.844711
506.787625	2652.181285
507.152924	2655.621873
507.518164	2659.029693
507.883347	2657.978612
508.248472	2661.913233
508.613540	2667.708039
508.978550	2668.159222
509.343503	2670.868843
509.708398	2674.944616
510.073236	2681.319155
510.438016	2685.306707
510.802738	2686.662778
511.167403	2693.143181
511.532010	2695.714169
511.896561	2705.373020
512.261053	2707.278576
512.625488	2712.559185
512.989866	2717.186964
513.354186	2724.753736
513.718449	2728.337997
514.082655	2741.082033
514.446803	2745.367014
514.810894	2755.494692
515.174927	2757.962337
515.538904	2769.539347
515.902822	2781.935544
516.266684	2787.662295
516.630488	2792.479117
516.994235	2808.666262
517.357925	2817.276553
517.721558	2832.747854
518.085133	2845.370904
518.448651	2857.280630
518.812112	2865.974099
519.175516	2881.631923
519.538863	2896.704973
519.902152	2913.174423
520.265385	2934.359872
520.628560	2949.390072
520.991678	2967.795325
521.354739	2987.072697
521.717743	3009.553723
522.080690	3027.046527
522.443580	3053.431926
522.806413	3073.687282
523.169189	3099.797938
523.531908	3123.211577
523.894569	3141.561377
524.257174	3176.075637
524.619722	3204.023794
524.982213	3225.867114
525.344647	3254.566402
525.707025	3291.429840
526.069345	3324.661126
526.431608	3359.049357
526.793815	3402.592323
527.155964	3413.703027
527.518057	3457.079635
527.880093	3494.250583
528.242072	3533.780791
528.603995	3559.830953
528.965860	3601.516254
529.327669	3652.999038
529.689421	3690.248124
530.051117	3728.787745
530.412755	3792.714617
530.774337	3818.225376
531.135862	3867.656410
531.497331	3925.738064
531.858743	3953.071200
532.220098	4042.556722
532.581396	4058.736305
532.942638	4131.248262
533.303824	4180.921272
533.664953	4246.620109
534.026025	4292.721461
534.387040	4352.507025
534.747999	4437.077422
535.108902	4502.531763
535.469748	4532.682905
535.830537	4620.968632
536.191270	4687.342984
536.551947	4767.865334
536.912567	4774.980923
537.273131	4879.373137
537.633638	4914.144496
537.994089	5038.766860
538.354483	5051.957039
538.714821	5185.550136
539.075103	5281.611843
539.435328	5336.467159
539.795497	5356.674624
540.155609	5490.565150
540.515665	5611.865394
540.875665	5596.101706
541.235609	5708.164035
541.595496	5807.938552
541.955328	5943.918636
542.315102	6027.899218
542.674821	6059.625719
543.034483	6126.350432
543.394090	6216.665223
543.753640	6284.861953
544.113134	6465.181505
544.472571	6526.194590
544.831953	6699.819490
545.191278	6699.877464
545.550548	6802.911087
545.909761	6890.554067
546.268918	7059.999850
546.628019	7138.833414
546.987064	7237.909731
547.346053	7288.638862
547.704986	7387.788276
548.063863	7539.864764
548.422684	7594.614216
548.781449	7648.058008
549.140158	7836.874426
549.498811	7894.131851
549.857408	7896.269300
550.215949	8117.487734
550.574434	8135.517421
550.932864	8306.830952
551.291237	8428.718490
551.649555	8538.229996
552.007817	8674.157147
552.366022	8757.540352
552.724173	8846.100823
553.082267	8963.458884
553.440305	9214.077327
553.798288	9128.433164
554.156215	9396.864524
554.514086	9540.434065
554.871902	9467.735586
555.229661	9658.707096
555.587365	9760.508157
555.945014	9808.331063
556.302606	10041.305468
556.660143	10102.457184
557.017625	10333.563841
557.375050	10302.396907
557.732421	10523.091061
558.089735	10615.099681
558.446994	10730.136291
558.804197	10876.919567
559.161345	11010.742037
559.518437	10979.703653
559.875474	11228.270346
560.232455	11373.531194
560.589381	11476.642955
560.946251	11542.755167
561.303065	11827.333343
561.659825	11991.173364
562.016528	11945.550921
562.373177	11972.097638
562.729770	12209.354502
563.086307	12332.930827
563.442789	12518.871266
563.799216	12569.497053
564.155587	12665.072289
564.511904	12820.569200
564.868164	12875.842932
565.224370	13045.654199
565.580520	13070.597828
565.936615	13291.216364
566.292654	13221.406466
566.648638	13556.570100
567.004567	13545.507288
567.360441	13643.766938
567.716260	13615.559162
568.072023	13940.012864
568.427732	13920.871603
568.783385	13913.350202
569.138982	14149.049350
569.494525	14309.088340
569.850013	14310.850224
570.205445	14451.674856
570.560823	14436.483339
570.916145	14456.852121
571.271412	14617.884219
571.626625	14639.472961
571.981782	14772.934988
572.336884	14755.553090
572.691931	14955.656650
573.046923	14869.664648
573.401860	14955.805364
573.756743	15073.062603
574.111570	15098.354072
574.466342	15159.016797
574.821059	15335.094218
575.175722	15234.863477
575.530330	15376.081319
575.884882	15466.189424
576.239380	15540.528799
576.593823	15541.262287
576.948211	15603.903665
577.302544	15591.257930
577.656823	15615.674759
578.011047	15788.399813
578.365216	15792.226049
578.719330	15798.159487
579.073389	15813.255222
579.427394	16020.839855
579.781344	15923.490133
580.135239	15972.472505
580.489080	16015.193763
580.842866	15907.572690
581.196597	16166.917370
581.550273	16186.431677
581.903895	16240.210706
582.257463	16536.237342
582.610975	16269.121723
582.964434	16562.191723
583.317837	16425.513439
583.671186	16568.614153
584.024481	16619.610465
584.377721	16510.557704
584.730906	16629.380221
585.084037	16739.383239
585.437113	16727.516363
585.790135	16947.043490
586.143103	16603.430882
586.496016	16661.295766
586.848874	16968.223898
587.201679	16970.724310
587.554428	16751.509735
587.907124	17098.552848
588.259765	16966.512426
588.612352	17109.618181
588.964884	16825.372721
589.317362	17020.997217
589.669786	17110.651617
590.022155	17224.886684
590.374470	17429.648271
590.726731	17339.832553
591.078937	17170.603539
591.431090	17313.668965
591.783188	17147.515055
592.135232	17173.996236
592.487222	17332.772417
592.839157	17409.771001
593.191038	17370.870937
593.542866	17301.497099
593.894639	17131.456459
594.246358	17369.819857
594.598022	17325.102302
594.949633	17163.051891
595.301190	17161.542065
595.652692	17357.005244
596.004141	17629.850134
596.355535	17065.682004
596.706876	17120.504552
597.058162	17076.752378
597.409395	17297.065925
597.760573	17446.740303
598.111698	17284.765509
598.462768	17254.503463
598.813785	17248.534737
599.164748	17134.839073
599.515657	17199.612859
599.866511	17035.389711
600.217312	17401.233807
600.568060	17007.103797
600.918753	17332.099423
601.269392	17273.911905
601.619978	17090.774348
601.970510	17336.843149
602.320988	17298.404351
602.671412	17520.295779
603.021783	17440.191844
603.372100	17244.353099
603.722363	17394.816418
604.072572	17347.636259
604.422728	17501.010845
604.772830	17318.901683
605.122878	17280.722504
605.472872	17304.216801
605.822813	17321.218093
606.172701	17286.166950
606.522534	17517.618926
606.872314	17563.790854
607.222041	17410.070950
607.571714	17632.942882
607.921333	17485.448803
608.270899	17575.244356
608.620411	17797.423129
608.969870	17565.792192
609.319276	17592.621213
609.668627	17643.670457
610.017926	17787.628167
610.367171	17920.349145
610.716362	17971.058112
611.065500	17804.836146
611.414585	17949.300492
611.763616	17938.673739
612.112594	17905.339109
612.461518	17888.796563
612.810389	18106.677753
613.159207	17951.853836
613.507971	17876.090335
613.856682	18187.535340
614.205340	18121.344990
614.553945	18275.566489
614.902496	18019.243981
615.250994	18298.392834
615.599439	18232.832628
615.947830	18224.481957
616.296169	18256.193335
616.644454	18235.998472
616.992686	18213.840081
617.340864	18431.191949
617.688990	18206.343885
618.037063	18390.923213
618.385082	18234.105519
618.733048	18521.146299
619.080961	18386.847440
619.428821	18441.473383
619.776628	18347.604578
620.124382	18266.293287
620.472083	18313.924629
620.819731	18343.533846
621.167326	18049.001912
621.514868	18093.908510
621.862357	17858.189198
622.209793	17894.210762
622.557176	17722.869505
622.904506	17565.000731
623.251783	17474.070918
623.599007	17264.351357
623.946179	17210.736165
624.293297	17169.761667
624.640363	16932.116633
624.987376	16941.800690
625.334336	16735.746047
625.681243	16589.401351
626.028097	16594.316476
626.374899	16536.877569
626.721647	16409.749751
627.068343	16235.373719
627.414987	16177.143351
627.761577	16163.023079
628.108115	16211.017384
628.454600	15922.980977
628.801032	16022.992428
629.147412	15949.479802
629.493739	15974.688092
629.840014	15790.191943
630.186236	15890.009310
630.532405	15651.900490
630.878521	15853.778537
631.224585	15743.372227
631.570597	15572.036011
631.916556	15609.902638
632.262462	15585.410192
632.608316	15508.036042
632.954117	15447.741321
633.299866	15443.844509
633.645562	15370.404980
633.991206	15125.241066
634.336797	14991.191744
634.682336	14970.812879
635.027823	14870.413259
635.373257	14758.771866
635.718639	14639.911541
636.063968	14597.354120
636.409245	14357.364950
636.754470	14380.312282
637.099642	14227.819899
637.444762	14009.109440
637.789829	14054.747005
638.134845	13903.318306
638.479808	13926.855453
638.824719	13887.189134
639.169577	13724.064957
639.514383	13780.982105
639.859137	13589.204009
640.203839	13669.116380
640.548489	13505.228469
640.893086	13491.337569
641.237632	13367.655380
641.582125	13516.445036
641.926566	13356.534595
642.270955	13369.109753
642.615292	13337.100947
642.959576	13347.611753
643.303809	13381.052247
643.647990	13310.334940
643.992118	13366.589176
644.336195	13142.222542
644.680219	13338.204959
645.024192	13270.381276
645.368112	13500.736801
645.711981	13563.756265
646.055797	13741.724119
646.399562	13707.587946
646.743274	13976.664573
647.086935	14249.862344
647.430544	14213.248444
647.774101	14239.948915
648.117606	14399.871959
648.461059	14364.225961
648.804460	14362.358213
649.147810	14104.367083
649.491108	13991.306605
649.834354	14006.389737
650.177548	13708.656670
650.520690	13524.442827
650.863781	13440.023664
651.206820	13485.189882
651.549807	13319.038492
651.892742	13119.930560
652.235626	13060.230695
652.578458	13058.819172
652.921238	12750.396339
653.263967	12948.576699
653.606644	12771.909463
653.949269	12740.893764
654.291843	12559.291237
654.634365	12709.192468
654.976836	12553.171277
655.319255	12575.601891
655.661622	12527.211855
656.003938	12446.029113
656.346203	12376.476314
656.688416	12437.426384
657.030577	12402.468503
657.372687	12333.704644
657.714746	12302.245323
658.056753	12487.661482
658.398708	12311.427785
658.740612	12308.176241
659.082465	12406.589646
659.424266	12370.184954
659.766016	12392.855023
660.107715	12303.384624
660.449362	12371.251158
660.790958	12339.759070
661.132503	12288.692181
661.473996	12344.480110
661.815438	12361.985517
662.156829	12372.977753
662.498168	12359.275897
662.839456	12349.337262
663.180693	12372.488761
663.521879	12460.459416
663.863013	12439.097527
664.204097	12418.043148
664.545129	12538.398175
664.886110	12495.016526
665.227040	12589.991864
665.567918	12596.056373
665.908746	12625.826907
666.249522	12603.860079
666.590248	12656.572904
666.930922	12764.561981
667.271545	12755.523192
667.612118	12844.222294
667.952639	12751.969179
668.293109	12743.212694
668.633528	12711.831512
668.973896	12677.975122
669.314213	12770.351746
669.654480	12515.392870
669.994695	12561.582442
670.334859	12598.261877
670.674973	12547.235318
671.015035	12579.294536
671.355047	12525.787729
671.695008	12494.895538
672.034918	12493.025270
672.374777	12534.881971
672.714585	12455.158643
673.054342	12483.265596
673.394049	12434.905807
673.733705	12526.233871
674.073310	12450.004063
674.412864	12462.279273
674.752368	12339.993483
675.091820	12339.980881
675.431223	12343.113958
675.770574	12213.964637
676.109875	12132.923048
676.449125	12093.828900
676.788324	12028.084692
677.127473	11873.258255
677.466571	11861.333405
677.805619	11774.391145
678.144616	11679.584686
678.483562	11655.634164
678.822458	11517.945129
679.161303	11500.724547
679.500098	11492.993938
679.838842	11442.572317
680.177535	11462.290790
680.516179	11524.657425
680.854771	11476.983233
681.193314	11680.529902
681.531805	11836.357008
681.870247	12219.353631
682.208638	12629.829583
682.546978	12954.031228
682.885268	13023.576466
683.223508	12711.057695
683.561697	12548.190617
683.899836	12447.259155
684.237925	12258.667069
684.575963	12168.407730
684.913951	12103.333996
685.251889	12042.583051
685.589776	12139.146353
685.927614	12072.192268
686.265401	12034.431505
686.603137	12077.172928
686.940824	12230.386196
687.278460	12340.918535
687.616046	12398.642267
687.953582	12572.325141
688.291068	12487.543015
688.628504	12723.007750
688.965889	12727.522103
689.303224	12690.328470
689.640510	12600.933689
689.977745	12299.623923
690.314930	12079.267527
690.652065	11989.350987
690.989150	11705.995291
691.326185	11473.159518
691.663170	11270.767273
692.000105	11030.858762
692.336990	10927.333626
692.673825	10672.747795
693.010610	10551.364372
693.347345	10345.276962
693.684030	10148.402260
694.020665	10087.311038
694.357251	9893.277026
694.693786	9853.429225
695.030272	9676.333491
695.366707	9557.299246
695.703093	9494.330193
696.039429	9487.217125
696.375716	9418.367566
696.711952	9291.103637
697.048139	9325.512033
697.384276	9281.394375
697.720363	9289.447618
698.056400	9232.969051
698.392388	9189.426085
698.728326	9143.932192
699.064214	9081.782327
699.400053	9131.702353
699.735842	8941.524824
700.071581	8899.035459
700.407270	8831.128596
700.742910	8751.105320
701.078501	8659.084097
701.414042	8538.091364
701.749533	8472.621899
702.084974	8339.747166
702.420366	8444.797250
702.755709	8328.863315
703.091002	8198.743572
703.426246	8231.057368
703.761440	8175.468565
704.096584	8131.993654
704.431679	8063.547388
704.766725	8053.722179
705.101721	8001.518510
705.436668	8042.810601
705.771565	7938.413346
706.106413	8019.686829
706.441212	8077.216476
706.775961	8022.272941
707.110661	8049.865696
707.445311	8201.251546
707.779913	8102.984334
708.114465	8226.643838
708.448967	8265.438038
708.783421	8398.148933
709.117825	8580.250533
709.452180	8616.173796
709.786485	8700.711425
710.120742	8980.140062
710.454949	8977.465730
710.789107	9079.813756
711.123216	9287.925190
711.457275	9444.435373
711.791286	9613.407288
712.125247	9602.906564
712.459159	9598.709804
712.793023	9856.658084
713.126837	9430.307539
713.460602	9573.428417
713.794318	9406.767871
714.127985	9437.181152
714.461602	9127.858473
714.795171	9074.160102
715.128691	8838.279472
715.462162	8577.175430
715.795584	8528.893779
716.128957	8391.731544
716.462281	8219.515647
716.795556	8261.379909
717.128782	8062.461019
717.461960	7793.165101
717.795088	7855.607353
718.128167	7769.877491
718.461198	7604.416739
718.794180	7539.426184
719.127113	7537.203035
719.459997	7402.263950
719.792833	7159.744120
720.125619	7227.371199
720.458357	7087.847184
720.791046	7070.772796
721.123686	7077.480051
721.456278	6916.934425
721.788821	6935.788340
722.121315	6825.538306
722.453761	6885.507872
722.786158	6838.690676
723.118506	6851.734662
723.450805	6813.500030
723.783056	6885.959055
724.115259	6786.870135
724.447412	6781.271934
724.779518	6828.409243
725.111574	6839.570357
725.443582	6914.663385
725.775542	6895.413739
726.107453	7073.570637
726.439315	6990.593244
726.771129	7040.145266
727.102895	7212.376287
727.434612	7326.749986
727.766281	7348.439550
728.097901	7435.308713
728.429473	7420.767505
728.760996	7393.862867
729.092471	7376.380145
729.423897	7335.821542
729.755276	7342.496030
730.086606	7278.100330
730.417887	7369.756069
730.749120	7552.470170
731.080305	7741.848676
731.411442	7879.757001
731.742530	7877.075107
732.073570	7978.135118
732.404562	8059.272489
732.735506	7911.382679
733.066401	8048.224801
733.397249	7989.684402
733.728048	7756.057168
734.058798	7419.378667
734.389501	7203.579474
734.720156	7026.352669
735.050762	6788.284179
735.381320	6686.130237
735.711831	6648.399721
736.042293	6533.050559
736.372707	6561.094498
736.703073	6417.950935
737.033391	6456.757737
737.363661	6466.678728
737.693883	6484.247149
738.024056	6565.870992
738.354182	6622.944415
738.684260	6661.554612
739.014290	6767.370952
739.344272	6871.241406
739.674207	6899.061014
740.004093	6963.449151
740.333931	6984.213664
740.663722	6988.874211
740.993464	7067.826242
741.323159	7064.977990
741.652806	6819.161246
741.982405	6814.271327
742.311956	6876.282560
742.641460	6731.331743
742.970915	6535.550972
743.300323	6523.610999
743.629683	6469.549665
743.958996	6343.180541
744.288260	6256.031594
744.617477	6194.645463
744.946647	6210.429316
745.275768	6041.381784
745.604842	5998.221945
745.933869	5977.230580
746.262847	5934.809271
746.591778	5926.642602
746.920662	5888.735645
747.249498	5872.951793
747.578286	5918.269245
747.907027	5996.487788
748.235720	6054.289658
748.564365	6024.703126
748.892963	6045.404624
749.221514	6202.610487
749.550017	6055.202107
749.878473	5920.570532
750.206881	5971.392924
750.535242	5914.868987
750.863555	5842.737637
751.191821	5866.925093
751.520039	5870.509353
751.848210	5776.416217
752.176334	5789.611437
752.504411	5850.196024
752.832440	5773.966216
753.160421	5697.275143
753.488356	5745.259366
753.816243	5783.554491
754.144082	5637.464373
754.471875	5601.591522
754.799620	5649.646321
755.127318	5659.796684
755.454969	5610.252224
755.782572	5572.335186
756.110129	5619.815293
756.437638	5615.154747
756.765100	5548.994643
757.092515	5545.954828
757.419882	5586.556281
757.747203	5575.634621
758.074477	5638.336492
758.401703	5634.185102
758.728882	5578.377009
759.056014	5626.285614
759.383099	5766.089413
759.710138	5770.450011
760.037129	5752.193473
760.364073	5758.850316
760.690970	5845.359037
761.017820	5829.529814
761.344623	5776.731289
761.671379	5867.933324
761.998088	5985.639225
762.324751	6211.785387
762.651366	6782.872500
762.977935	8056.963641
763.304456	9660.635338
763.630931	10590.771072
763.957359	10241.406508
764.283740	9317.436104
764.610074	8511.826952
764.936362	7521.454471
765.262602	6932.612413
765.588796	6388.921450
765.914943	6041.006218
766.241044	5889.597683
766.567097	5698.966450
766.893104	5435.251089
767.219064	5256.864819
767.544978	5199.491447
767.870845	5124.723574
768.196665	5012.898179
768.522438	4941.182724
768.848165	4912.301954
769.173846	4844.906768
769.499479	4805.759688
769.825066	4749.916306
770.150607	4689.850958
770.476101	4665.003111
770.801548	4665.746681
771.126949	4595.500723
771.452303	4542.162794
771.777611	4494.443232
772.102872	4509.662476
772.428087	4478.823217
772.753256	4436.205302
773.078378	4397.562337
773.403453	4323.671625
773.728482	4311.721570
774.053465	4266.071401
774.378401	4249.216303
774.703291	4255.457252
775.028135	4186.282539
775.352932	4137.733707
775.677683	4121.632261
776.002388	4143.160509
776.327046	4154.561078
776.651658	4080.695571
776.976224	4017.436652
777.300743	4022.255995
777.625216	4041.167884
777.949643	4041.702246
778.274024	3999.515350
778.598359	3946.076599
778.922647	3969.631390
779.246889	3964.537304
779.571086	3962.838436
779.895236	3948.093061
780.219339	3933.889610
780.543397	3918.045263
780.867409	3975.007781
781.191374	3989.581757
781.515294	3931.316101
781.839167	3918.897218
782.162995	3939.467646
782.486776	3927.973816
782.810511	3933.519085
783.134201	3937.776339
783.457844	3891.911922
783.781441	3835.982840
784.104993	3839.224302
784.428498	3854.743494
784.751958	3855.766848
785.075372	3837.994261
785.398739	3800.999753
785.722061	3807.457471
786.045337	3850.864326
786.368568	3891.072569
786.691752	3800.989671
787.014891	3845.308975
787.337983	3962.606542
787.661030	4119.154534
787.984031	4283.952374
788.306987	4454.870174
788.629897	4535.881517
788.952760	4490.798478
789.275579	4421.273405
789.598351	4363.189230
789.921078	4232.343561
790.243759	4032.976009
790.566395	4006.202441
790.888984	4005.907533
791.211529	3897.570617
791.534027	3838.359744
791.856480	3835.282120
792.178888	3770.712501
792.501249	3717.825756
792.823566	3727.913105
793.145836	3763.110441
793.468062	3711.052966
793.790241	3660.875841
794.112375	3696.552087
794.434464	3754.434615
794.756507	3778.024694
795.078505	3763.561624
795.400457	3791.008186
795.722364	3924.467693
796.044226	4026.971995
796.366042	4101.868417
796.687812	4089.905759
797.009538	4093.709310
797.331218	4051.184657
797.652852	4022.928989
797.974442	4004.523737
798.295986	4005.433665
798.617484	3927.580606
798.938938	3838.543746
799.260346	3877.511866
799.581709	3873.365517
799.903026	3800.271306
800.224299	3767.385339
800.545526	3762.518105
800.866708	3725.518557
801.187845	3659.595388
801.508936	3696.257179
801.829983	3700.809341
802.150984	3622.298411
802.471940	3608.115125
802.792851	3622.474851
803.113717	3617.037967
803.434538	3624.541724
803.755314	3568.484094
804.076045	3537.470915
804.396731	3556.811302
804.717372	3583.554623
805.037967	3570.349321
805.358518	3557.322979
805.679024	3585.339192
805.999485	3597.811006
806.319901	3599.371243
806.640272	3615.039149
806.960598	3632.468939
807.280879	3605.067747
807.601115	3613.093264
807.921306	3630.339051
808.241453	3673.393026
808.561554	3648.656084
808.881611	3585.795416
809.201623	3619.112402
809.521590	3633.792242
809.841513	3601.319649
810.161390	3634.210657
810.481223	3614.570322
810.801011	3556.639903
811.120755	3547.659087
811.440453	3587.464038
811.760107	3588.588215
812.079716	3549.592370
812.399281	3516.015764
812.718801	3532.563352
813.038276	3513.338912
813.357707	3507.660052
813.677093	3528.099410
813.996434	3476.198211
814.315731	3480.946978
814.634983	3486.194819
814.954191	3495.906602
815.273354	3526.818957
815.592473	3526.365253
815.911547	3526.448432
816.230577	3568.584917
816.549562	3615.220631
816.868502	3659.129081
817.187399	3683.298893
817.506250	3682.089016
817.825058	3654.715551
818.143821	3736.079774
818.462539	3841.167667
818.781213	3886.152403
819.099843	3945.819500
819.418429	4172.371475
819.736970	4410.316457
820.055466	4647.532992
820.373919	5005.404504
820.692327	5408.404424
821.010691	5816.455581
821.329011	7109.554393
821.647286	9727.181089
821.965517	14128.874652
822.283704	18140.261920
822.601847	20419.463356
822.919945	18683.083284
823.237999	16189.776482
823.556010	13756.482097
823.873976	11712.463091
824.191897	9637.942584
824.509775	8287.699773
824.827609	7170.761562
825.145398	6614.719772
825.463144	6495.814077
825.780845	6616.743796
826.098502	6778.418641
826.416116	7589.507527
826.733685	8879.629537
827.051210	9997.137398
827.368692	10117.946129
827.686129	8917.468438
828.003522	7414.594612
828.320872	6397.141052
828.638177	5712.161670
828.955439	5164.868803
829.272656	4677.946273
829.589830	4384.639340
829.906960	4207.972103
830.224046	4030.208416
830.541088	3905.308788
830.858086	3859.951006
831.175041	3788.152372
831.491952	3762.124895
831.808819	3773.722070
832.125642	3843.383254
832.442421	3981.621775
832.759157	4238.128285
833.075849	4764.638996
833.392497	5602.531697
833.709101	6369.243306
834.025662	6727.825621
834.342179	6408.241672
834.658653	5752.511065
834.975083	5118.217965
835.291469	4547.821490
835.607811	4141.509531
835.924110	4000.664733
836.240366	3808.435455
836.556578	3603.452057
836.872746	3493.312928
837.188871	3461.457877
837.504952	3393.062022
837.820990	3314.614107
838.136984	3266.193824
838.452935	3290.139305
838.768842	3287.003707
839.084706	3300.634987
839.400526	3450.538738
839.716303	3773.091925
840.032037	4274.091877
840.347727	4560.905804
840.663373	4304.623625
840.978977	3933.693005
841.294537	3630.858290
841.610054	3400.114596
841.925527	3292.632155
842.240957	3223.659088
842.556344	3172.942560
842.871687	3115.513735
843.186987	3063.806620
843.502244	3027.354037
843.817458	2998.473267
844.132629	2962.378605
844.447756	2972.060141
844.762840	2960.987247
845.077881	2929.318718
845.392879	2909.348187
845.707833	2907.525810
846.022745	2905.438772
846.337613	2906.139493
846.652438	2896.762947
846.967221	2890.521998
847.281960	2880.432129
847.596656	2873.535830
847.911309	2874.032384
848.225919	2865.583410
848.540485	2860.809437
848.855009	2863.534181
849.169490	2852.914990
849.483928	2843.404854
849.798323	2839.276149
850.112675	2839.739935
850.426984	2850.485154
850.741251	2848.267047
851.055474	2837.211796
851.369654	2833.993019
851.683792	2836.359841
851.997887	2845.696058
852.311938	2849.310565
852.625947	2838.703978
852.939914	2839.772702
853.253837	2845.199504
853.567718	2828.929180
853.881555	2823.847697
854.195350	2843.127590
854.509103	2840.390244
854.822812	2834.267762
855.136479	2829.839109
855.450103	2829.224088
855.763685	2822.504230
856.077224	2818.438539
856.390720	2832.082422
856.704173	2843.457786
857.017584	2835.898576
857.330953	2831.467401
857.644278	2839.462671
857.957561	2852.892305
858.270802	2855.120495
858.584000	2853.232583
858.897155	2840.559122
859.210268	2836.523679
859.523339	2838.275480
859.836367	2838.093998
860.149352	2831.684171
860.462295	2827.578151
860.775195	2837.060562
861.088054	2835.729697
861.400869	2818.708241
861.713642	2815.141625
862.026373	2829.014880
862.339062	2832.130313
862.651708	2834.865139
862.964312	2842.043742
863.276873	2837.247084
863.589392	2842.613392
863.901869	2856.133767
864.214303	2877.203270
864.526696	2891.830178
864.839045	2888.011503
865.151353	2888.571072
865.463619	2886.042933
865.775842	2886.189126
866.088023	2903.951632
866.400162	2913.726429
866.712258	2886.685680
867.024313	2873.084647
867.336325	2879.441542
867.648296	2902.267887
867.960224	2894.239849
868.272110	2882.100751
868.583954	2885.430433
868.895755	2902.202352
869.207515	2888.805485
869.519233	2889.304559
869.830909	2899.265879
870.142542	2912.425812
870.454134	2910.167375
870.765684	2911.437745
871.077191	2911.921696
871.388657	2919.039805
871.700081	2933.283586
872.011463	2941.674586
872.322803	2943.318002
872.634101	2943.597786
872.945357	2959.711835
873.256571	2985.257882
873.567744	2977.706233
873.878874	2968.982517
874.189963	2992.484376
874.501010	2997.006291
874.812015	2987.314672
875.122979	2984.990701
875.433900	2979.730257
875.744780	2985.257882
876.055618	2994.198368
876.366415	2990.440188
876.677169	3002.619616
876.987882	2999.867146
877.298554	2991.297184
877.609183	3010.095647
877.919771	3036.528937
878.230317	3060.484500
878.540822	3109.885287
878.851285	3149.410454
879.161707	3184.703572
879.472087	3280.409878
879.782425	3491.719923
880.092722	3904.416504
880.402977	4418.425153
880.713191	5017.309188
881.023363	6117.326766
881.333494	7376.470886
881.643583	7944.271167
881.953631	7659.824061
882.263637	7074.619197
882.573602	6513.735378
882.883526	5946.255211
883.193408	5382.407194
883.503248	4921.038273
883.813048	4627.383500
884.122806	4343.700129
884.432522	4035.312584
884.742197	3806.310609
885.051831	3612.160651
885.361424	3477.251812
885.670975	3407.058786
885.980485	3325.225735
886.289954	3252.580188
886.599382	3210.998230
886.908768	3172.541788
887.218113	3126.130405
887.527417	3074.750965
887.836680	3027.611136
888.145901	3022.345651
888.455082	3011.436594
888.764221	2963.487659
889.073319	2934.493463
889.382376	2932.376178
889.691392	2938.599482
890.000366	2935.400870
890.309300	2920.582398
890.618193	2933.366765
890.927044	2949.551389
891.235855	2952.518108
891.544625	2938.685182
891.853353	2945.241203
892.162041	2963.260807
892.470687	3000.653566
892.779293	3053.873027
893.087858	3095.099583
893.396381	3165.960562
893.704864	3276.833179
894.013306	3501.784587
894.321707	3796.729896
894.630068	4003.762522
894.938387	4005.552132
895.246665	3959.047488
895.554903	3845.860981
895.863100	3653.450221
896.171256	3489.960561
896.479371	3355.749922
896.787446	3236.607292
897.095480	3135.151550
897.403473	3073.904052
897.711425	3036.271838
898.019336	3025.750950
898.327207	3002.163391
898.635038	2968.221302
898.942827	2949.377469
899.250576	2946.773713
899.558284	2909.834658
899.865952	2891.310939
900.173579	2873.571118
900.481165	2866.516023
900.788711	2854.709641
901.096216	2831.631239
901.403681	2815.428970
901.711105	2824.639158
902.018489	2822.549600
902.325832	2821.390135
902.633135	2829.118224
902.940397	2860.837164
903.247619	2937.545881
903.554800	3112.937706
903.861941	3437.938374
904.169041	3847.549768
904.476101	4155.584432
904.783121	4127.048981
905.090100	3898.656985
905.397039	3632.993219
905.703938	3387.146228
906.010796	3204.321222
906.317614	3095.011363
906.624391	3003.466529
906.931129	2932.953390
907.237826	2875.645553
907.544483	2828.835919
907.851099	2799.511527
908.157675	2778.699123
908.464211	2758.952924
908.770707	2743.645460
909.077163	2734.823441
909.383578	2721.051009
909.689954	2710.038608
909.996289	2710.192363
910.302584	2710.212528
910.608839	2711.520707
910.915054	2706.887887
911.221229	2698.040662
911.527363	2700.949408
911.833458	2704.800849
912.139513	2708.007023
912.445527	2712.193701
912.751502	2724.181565
913.057436	2731.024932
913.363331	2742.344842
913.669186	2759.000815
913.975000	2795.818882
914.280775	2849.774352
914.586510	2916.985535
914.892205	2994.213492
915.197859	3111.115329
915.503475	3293.819347
915.809050	3499.490862
916.114585	3641.127121
916.420081	3668.878672
916.725536	3614.678707
917.030952	3501.086387
917.336328	3379.942419
917.641665	3251.289653
917.946961	3154.388593
918.252218	3087.641196
918.557435	3015.351050
918.862612	2956.535908
919.167750	2908.985224
919.472848	2871.978114
919.777906	2844.410564
920.082925	2819.885350
920.387904	2790.818057
920.692843	2773.032867
920.997743	2761.460898
921.302603	2748.684093
921.607423	2739.957856
921.912204	2729.041237
922.216946	2719.377346
922.521647	2712.067672
922.826310	2703.550643
923.130932	2697.498738
923.435516	2687.532377
923.740059	2680.318486
924.044564	2675.720953
924.349028	2665.981444
924.653454	2659.518685
924.957840	2653.678508
925.262186	2650.994094
925.566493	2647.238434
925.870761	2641.809111
926.174989	2638.940695
926.479178	2634.653193
926.783328	2631.570528
927.087438	2628.167749
927.391509	2627.993829
927.695541	2625.173304
927.999533	2621.309259
928.303486	2618.027468
928.607400	2618.607201
928.911275	2614.808691
929.215110	2616.709206
929.518906	2616.487396
929.822663	2615.174175
930.126381	2616.131994
930.430060	2615.690893
930.733699	2616.005965
931.037299	2617.362036
931.340861	2618.602160
931.644383	2619.749022
931.947866	2620.003600
932.251309	2617.825822
932.554714	2616.174844
932.858080	2615.869854
933.161407	2612.993876
933.464694	2610.359873
933.767943	2608.156889
934.071153	2610.022116
934.374323	2609.351642
934.677455	2607.614965
934.980548	2607.945160
935.283602	2607.851899
935.586617	2609.026488
935.889593	2607.559512
936.192530	2606.334512
936.495428	2606.818462
936.798287	2608.718978
937.101108	2612.668722
937.403890	2614.886829
937.706632	2621.475617
938.009336	2623.771863
938.312002	2637.050262
938.614628	2643.218114
938.917216	2651.707417
939.219765	2652.050215
939.522275	2649.801861
939.824747	2646.668784
940.127179	2645.005203
940.429573	2641.937661
940.731929	2638.058493
941.034246	2637.733338
941.336524	2633.259314
941.638763	2630.413583
941.940964	2629.518778
942.243126	2624.192799
942.545250	2626.242028
942.847335	2624.207923
943.149381	2622.413272
943.451389	2616.706686
943.753359	2614.501181
944.055290	2612.968670
944.357182	2614.425564
944.659036	2610.619492
944.960851	2610.367435
945.262628	2608.545058
945.564367	2609.384410
945.866067	2610.927003
946.167729	2608.998762
946.469352	2609.167640
946.770937	2612.474637
947.072484	2606.770572
947.373992	2607.521703
947.675462	2605.043976
947.976893	2604.539861
948.278286	2601.590786
948.579641	2600.209510
948.880958	2600.416197
949.182236	2600.365786
949.483476	2601.116917
949.784678	2598.775302
950.085841	2600.582555
950.386967	2602.049531
950.688054	2603.420725
950.989103	2602.876280
951.290114	2602.409973
951.591087	2606.725201
951.892021	2604.479367
952.192917	2610.067486
952.493776	2610.944647
952.794596	2614.423043
953.095378	2611.035388
953.396122	2614.554113
953.696828	2612.406582
953.997496	2610.508587
954.298126	2606.493308
954.598718	2605.623709
954.899272	2603.652618
955.199788	2600.464088
955.500266	2597.837647
955.800706	2595.453181
956.101108	2595.407811
956.401472	2589.814651
956.701798	2587.054619
957.002087	2589.232397
957.302337	2585.721234
957.602550	2585.960688
957.902724	2584.380287
958.202861	2583.407344
958.502960	2581.020358
958.803022	2582.179823
959.103045	2580.022209
959.403031	2579.933989
959.702979	2579.482806
960.002889	2579.744946
960.302762	2575.470047
960.602596	2577.267219
960.902393	2578.731674
961.202153	2578.497260
961.501875	2576.710171
961.801559	2576.397620
962.101205	2576.445511
962.400814	2576.793350
962.700385	2576.069945
962.999918	2572.619275
963.299414	2570.237330
963.598873	2572.868812
963.898293	2569.617268
964.197677	2571.084243
964.497022	2577.115984
964.796331	2571.875705
965.095601	2569.385375
965.394835	2571.333781
965.694030	2570.854871
965.993189	2574.020716
966.292309	2574.880232
966.591393	2572.954512
966.890439	2574.020716
967.189447	2574.373596
967.488419	2574.088771
967.787353	2572.599110
968.086249	2573.249419
968.385108	2572.258832
968.683930	2574.996179
968.982714	2572.251271
969.281462	2572.636919
969.580172	2573.619944
969.878844	2574.429049
970.177480	2574.421487
970.476078	2575.134811
970.774639	2575.369224
971.073162	2573.042732
971.371649	2576.987435
971.670098	2575.152455
971.968510	2574.562640
972.266885	2575.865778
972.565223	2573.597259
972.863524	2574.686148
973.161788	2578.940882
973.460014	2575.344018
973.758204	2576.022054
974.056356	2573.151117
974.354471	2574.330747
974.652550	2571.053997
974.950591	2573.352763
975.248595	2573.430901
975.546563	2574.139183
975.844493	2572.878894
976.142386	2575.898545
976.440243	2573.554409
976.738062	2574.945767
977.035845	2572.962073
977.333590	2572.977197
977.631299	2572.836044
977.928971	2570.532237
978.226606	2570.549881
978.524204	2568.888821
978.821765	2567.285734
979.119290	2572.957032
979.416777	2568.309088
979.714228	2572.102557
980.011642	2569.765982
980.309020	2570.050807
980.606360	2571.197669
980.903664	2573.952660
981.200931	2574.706312
981.498162	2574.129100
981.795356	2573.163719
982.092513	2574.295458
982.389633	2575.873340
982.686717	2580.120512
982.983764	2584.997828
983.280775	2586.545462
983.577749	2590.671647
983.874686	2588.443457
984.171587	2585.317941
984.468451	2583.737540
984.765279	2579.656726
985.062070	2579.271077
985.358824	2578.756880
985.655543	2575.175140
985.952224	2574.502146
986.248869	2574.318144
986.545478	2576.558937
986.842050	2571.706826
987.138586	2574.197156
987.435086	2571.606003
987.731549	2570.607854
988.027975	2568.218347
988.324366	2568.006619
988.620719	2570.592731
988.917037	2571.205231
989.213318	2569.556774
989.509563	2569.788667
989.805772	2567.575600
990.101944	2569.556774
990.398080	2568.460323
990.694180	2568.601475
990.990244	2567.295816
991.286271	2566.234653
991.582262	2569.413101
991.878217	2568.261197
992.174136	2568.190621
992.470019	2566.627863
992.765865	2564.659293
993.061676	2565.410425
993.357450	2564.573593
993.653188	2560.951524
993.948890	2568.813204
994.244556	2568.765313
994.540186	2569.077864
994.835780	2568.195662
995.131337	2570.912844
995.426859	2567.668862
995.722345	2571.268246
996.017795	2571.364027
996.313208	2575.434759
996.608586	2572.561302
996.903928	2571.162381
997.199234	2572.891497
997.494504	2572.437793
997.789738	2572.468040
998.084936	2573.231775
998.380099	2569.569377
998.675225	2570.544840
998.970316	2569.276990
999.265371	2571.782443
999.560390	2568.687175
999.855373	2568.036866
1000.150320	2567.653738
1000.445232	2567.247925
1000.740108	2568.399829
1001.034948	2567.847823
1001.329752	2566.721125
1001.624521	2566.552246
1001.919254	2566.973182
1002.213951	2566.181721
1002.508613	2566.726166
1002.803239	2567.794891
1003.097829	2565.057544
1003.392384	2568.518296
1003.686903	2566.771536
1003.981386	2569.292113
1004.275834	2567.005950
1004.570246	2568.757751
1004.864623	2567.923440
1005.158964	2564.150136
1005.453270	2567.184911
1005.747540	2565.735579
1006.041775	2565.410425
1006.335974	2567.747000
1006.630138	2567.474777
1006.924266	2565.985116
1007.218359	2567.298337
1007.512416	2566.020404
1007.806438	2563.746844
1008.100425	2563.993861
1008.394376	2561.780794
1008.688292	2567.429407
1008.982172	2565.788511
1009.276017	2565.191135
1009.569827	2565.150805
1009.863602	2566.085939
1010.157341	2565.896896
1010.451045	2566.552246
1010.744714	2567.449572
1011.038347	2564.303892
1011.331945	2564.109807
1011.625508	2567.240364
1011.919036	2565.634756
1012.212528	2566.612740
1012.505986	2567.126938
1012.799408	2567.457133
1013.092795	2563.966134
1013.386147	2566.940415
1013.679464	2565.337328
1013.972745	2566.232133
1014.265992	2564.228274
1014.559204	2564.397153
1014.852380	2563.809858
1015.145521	2565.450754
1015.438628	2566.698440
1015.731699	2563.600651
1016.024736	2566.365723
1016.317737	2564.898748
1016.610703	2564.802966
1016.903635	2566.234653
1017.196531	2563.807338
1017.489393	2567.454613
1017.782219	2565.360013
1018.075011	2564.951680
1018.367768	2564.560990
1018.660490	2564.422359
1018.953177	2564.422359
1019.245829	2564.422359
