Dividing Wavelength (nm)	Counts (n)	Blue Motor Position (mm): 42.900000	Red Motor Position (mm): 0.000000	
326.493990	2258.046234
326.888308	2258.046234
327.282561	2258.046234
327.676750	2218.074925
328.070874	2213.643751
328.464933	2217.583412
328.858929	2220.212374
329.252859	2224.270503
329.646726	2234.703171
330.040528	2244.384707
330.434265	2257.607653
330.827938	2276.232196
331.221547	2292.472273
331.615091	2309.831487
332.008571	2328.758499
332.401986	2346.541169
332.795338	2369.128059
333.188625	2388.574310
333.581847	2404.035528
333.975006	2426.778694
334.368100	2444.730243
334.761129	2465.915692
335.154095	2478.120325
335.546996	2507.154851
335.939833	2547.537014
336.332606	2559.968499
336.725315	2576.281673
337.117960	2588.808940
337.510540	2599.203800
337.903056	2611.337857
338.295508	2620.043930
338.687896	2627.514920
339.080220	2637.693009
339.472480	2640.067393
339.864676	2649.695997
340.256807	2651.851090
340.648875	2657.325783
341.040879	2657.940804
341.432818	2657.582882
341.824694	2663.617143
342.216506	2663.251659
342.608253	2663.922133
342.999937	2664.655621
343.391557	2662.334169
343.783113	2663.612102
344.174605	2664.935405
344.566033	2662.868532
344.957397	2661.280568
345.348697	2659.916936
345.739934	2658.094559
346.131106	2658.432316
346.522215	2655.452994
346.913260	2656.395690
347.304241	2652.786224
347.695159	2647.482930
348.086012	2649.146511
348.476802	2646.822539
348.867528	2641.577218
349.258191	2640.286683
349.648789	2638.875160
350.039324	2635.096815
350.429796	2639.139820
350.820203	2638.658390
351.210548	2636.546147
351.600828	2637.259470
351.991045	2637.350211
352.381198	2635.815179
352.771288	2634.136475
353.161314	2633.952473
353.551276	2635.290899
353.941175	2633.183697
354.331010	2634.204531
354.720782	2632.036835
355.110490	2632.901392
355.500135	2631.603295
355.889717	2633.009777
356.279235	2633.029942
356.668689	2632.278810
357.058080	2632.777884
357.447408	2631.948614
357.836672	2633.713018
358.225873	2635.023718
358.615010	2632.896351
359.004084	2638.129069
359.393095	2633.110600
359.782043	2637.917341
360.170927	2636.906589
360.559748	2638.799542
360.948505	2640.989924
361.337199	2640.206024
361.725830	2638.847433
362.114398	2640.737866
362.502903	2643.354225
362.891344	2641.075623
363.279722	2642.106539
363.668037	2643.233237
364.056289	2645.093423
364.444478	2646.303300
364.832603	2645.186684
365.220665	2644.407826
365.608665	2643.938999
365.996601	2647.903866
366.384474	2648.554175
366.772284	2647.500574
367.160031	2648.223980
367.547715	2647.523259
367.935336	2650.641213
368.322893	2647.734988
368.710388	2648.080307
369.097820	2645.700882
369.485189	2645.438742
369.872495	2651.316727
370.259738	2653.544917
370.646918	2653.920483
371.034035	2652.990391
371.421090	2653.502068
371.808081	2654.366626
372.195010	2656.420896
372.581875	2654.187665
372.968678	2654.916111
373.355418	2655.647079
373.742096	2657.822337
374.128710	2656.884682
374.515262	2658.114723
374.901751	2657.532470
375.288177	2660.668068
375.674540	2660.073212
376.060841	2659.175886
376.447079	2661.925836
376.833254	2664.143943
377.219367	2665.598316
377.605417	2663.695281
377.991404	2663.208809
378.377329	2665.439520
378.763191	2667.798780
379.148991	2670.594100
379.534727	2670.641991
379.920402	2673.825479
380.306013	2678.574246
380.691563	2690.194106
381.077049	2694.179138
381.462474	2706.666076
381.847835	2721.570247
382.233134	2735.824110
382.618371	2754.599887
383.003545	2779.351953
383.388657	2807.063176
383.773706	2840.768330
384.158693	2874.418032
384.543618	2911.412540
384.928480	2955.555403
385.313280	2999.393277
385.698017	3041.262580
386.082692	3106.278342
386.467305	3137.132724
386.851856	3188.607946
387.236344	3261.893720
387.620770	3312.335505
388.005133	3373.167108
388.389435	3435.690019
388.773674	3482.222390
389.157851	3568.463929
389.541965	3643.214158
389.926018	3662.027744
390.310008	3768.731327
390.693936	3844.903162
391.077802	3909.462699
391.461606	3943.850930
391.845348	4032.023231
392.229027	4115.335860
392.612645	4147.795850
392.996200	4261.304990
393.379694	4348.539637
393.763125	4465.529694
394.146494	4517.483826
394.529801	4600.998101
394.913047	4701.828740
395.296230	4679.488866
395.679351	4810.132889
396.062410	4877.001274
396.445408	4876.895410
396.828343	4949.150268
397.211217	5022.678017
397.594028	4922.316206
397.976778	5046.578128
398.359466	5102.502168
398.742092	5137.694463
399.124656	5060.484151
399.507158	5186.323953
399.889598	5257.459675
400.271977	5381.247729
400.654294	5378.999374
401.036549	5428.627013
401.418742	5348.936453
401.800874	5558.749276
402.182944	5619.782526
402.564952	5726.682714
402.946898	5788.940964
403.328783	5631.871213
403.710606	5644.189272
404.092367	5968.269929
404.474067	5985.712322
404.855705	5892.110698
405.237282	5832.148693
405.618797	6078.746816
406.000250	6061.957253
406.381642	6264.457883
406.762972	6284.289782
407.144240	6345.224729
407.525447	6327.779816
407.906593	6354.724783
408.287677	6509.861252
408.668700	6418.896151
409.049661	6533.463934
409.430560	6568.235293
409.811399	6421.827582
410.192176	6697.432504
410.572891	6698.569284
410.953545	6908.233393
411.334138	6639.948227
411.714669	6806.581047
412.095139	6598.310817
412.475547	6846.713672
412.855894	6913.143477
413.236180	7093.510921
413.616405	6764.628564
413.996568	6986.635938
414.376670	7021.424941
414.756711	6922.724190
415.136691	7013.142325
415.516609	7219.028090
415.896466	7209.883437
416.276262	7408.978767
416.655997	7391.231384
417.035670	7577.224756
417.415283	7916.184378
417.794834	7972.219324
418.174324	7835.815783
418.553753	7752.488031
418.933121	8063.048313
419.312428	8164.274683
419.691674	7941.133049
420.070859	8413.731140
420.449983	8100.965352
420.829045	8465.042524
421.208047	8235.281855
421.586988	8537.241929
421.965867	8556.461328
422.344686	8662.857401
422.723444	8709.830872
423.102141	8067.373623
423.480777	8824.091145
423.859352	8349.148918
424.237866	8968.207651
424.616319	8835.136313
424.994712	9256.453266
425.373044	8806.061458
425.751314	9271.942212
426.129524	9146.356987
426.507673	9258.542825
426.885762	9409.822810
427.263789	9326.001025
427.641756	9258.661292
428.019662	9350.019602
428.397508	9601.426986
428.775292	9281.911093
429.153016	9661.610801
429.530679	9492.953958
429.908282	9521.116364
430.285824	9239.988858
430.663305	9930.296739
431.040726	9378.471875
431.418086	9365.737920
431.795385	9691.570378
432.172624	9786.182754
432.549802	9694.804278
432.926920	9767.805227
433.303977	9642.348552
433.680974	9850.855716
434.057910	9941.503224
434.434786	10011.361014
434.811601	9844.004788
435.188355	10406.655531
435.565050	10147.638526
435.941683	10066.591895
436.318257	10557.996010
436.694770	10707.907323
437.071222	10762.248441
437.447614	10601.337331
437.823946	10510.692343
438.200218	10621.965732
438.576429	10455.569847
438.952580	10699.181086
439.328670	10739.180121
439.704700	10535.736796
440.080670	10516.030925
440.456580	11053.705271
440.832429	10831.014820
441.208218	10424.418036
441.583947	10741.584751
441.959616	10906.891748
442.335224	10717.175484
442.710773	10837.291057
443.086261	11059.459748
443.461689	10328.608387
443.837057	11009.401090
444.212365	11260.490881
444.587612	10894.548482
444.962800	11116.359252
445.337927	10866.880109
445.712995	10503.468370
446.088002	11561.896428
446.462949	11244.276010
446.837837	11215.012112
447.212664	11166.251551
447.587431	11726.810215
447.962139	12465.198101
448.336786	14745.914403
448.711374	15261.193423
449.085901	13089.030807
449.460369	12719.113458
449.834776	12170.487206
450.209124	13076.125453
450.583412	13499.542047
450.957640	14431.679120
451.331808	13511.913039
451.705917	12547.255483
452.079965	11817.613998
452.453954	12743.537849
452.827883	12374.706869
453.201752	12670.103361
453.575562	12203.310159
453.949311	12622.814817
454.323001	12598.579470
454.696632	12828.456085
455.070202	13106.889095
455.443713	13317.558914
455.817164	13811.496209
456.190556	13779.051343
456.563888	14141.596004
456.937160	14303.270849
457.310373	13651.394204
457.683526	13747.034975
458.056619	13275.369497
458.429653	13469.257315
458.802628	12852.278058
459.175542	13246.904622
459.548398	14208.018247
459.921194	14563.669130
460.293930	14625.698008
460.666607	15477.756351
461.039224	16542.813527
461.411782	17255.622599
461.784280	17065.911377
462.156719	17161.295049
462.529099	16835.255903
462.901419	15774.856753
463.273680	15554.316355
463.645882	15447.653101
464.018024	15165.494679
464.390106	15387.476848
464.762130	16108.598782
465.134094	16899.046664
465.505999	18938.158107
465.877845	22195.918080
466.249631	25023.138309
466.621358	24651.917822
466.993026	23227.144072
467.364634	22646.685454
467.736184	21176.581649
468.107674	20372.694051
468.479105	20507.179432
468.850477	19962.286154
469.221790	19564.821421
469.593043	18874.453045
469.964238	18313.947314
470.335373	17960.559909
470.706449	18445.168548
471.077467	18013.580244
471.448425	19879.381859
471.819324	23983.773374
472.190164	25882.566820
472.560945	22238.467939
472.931667	19915.305121
473.302330	19303.500608
473.672934	18901.992869
474.043479	19169.315175
474.413965	18966.691037
474.784393	18567.376200
475.154761	19319.206323
475.525070	19261.495194
475.895321	18949.656978
476.265513	19561.368230
476.635645	20159.468367
477.005719	19919.133877
477.375734	20103.690520
477.745691	20584.293963
478.115588	21130.699587
478.485427	21679.678720
478.855207	22756.776692
479.224928	24550.368819
479.594591	26780.537472
479.964194	26725.833391
480.333739	26946.658615
480.703226	26512.272470
481.072653	26231.331487
481.442022	26834.477818
481.811333	27756.943437
482.180584	27644.634091
482.549777	26686.900560
482.918912	26366.736879
483.287988	26508.405905
483.657005	26134.150644
484.025964	25906.061117
484.394864	25791.591637
484.763706	25452.773166
485.132489	24915.975981
485.501213	25095.463743
485.869879	25009.907801
486.238487	24837.286090
486.607036	24968.666121
486.975527	24698.606469
487.343959	24999.139896
487.712333	24924.495531
488.080648	24581.790331
488.448905	25095.471305
488.817104	24848.185065
489.185244	25549.742281
489.553326	25489.702139
489.921350	26530.125717
490.289315	28868.187665
490.657222	30602.478178
491.025070	31104.325044
491.392861	30859.960152
491.760593	30000.690438
492.128267	29093.426418
492.495883	28037.680254
492.863440	27158.676943
493.230939	26293.340200
493.598380	26129.137216
493.965763	25751.711069
494.333088	25252.694811
494.700354	25231.098508
495.067563	25086.853453
495.434713	24816.821526
495.801805	24997.191490
496.168839	24775.897439
496.535815	24646.629652
496.902733	24857.181004
497.269593	24544.999990
497.636395	24711.063160
498.003139	24653.757843
498.369825	24399.209821
498.736453	24611.238231
499.103023	24486.056299
499.469535	24484.548994
499.835989	24704.602921
500.202385	24726.574790
500.568723	24249.154836
500.935003	24453.490445
501.301226	24123.637667
501.667390	24978.566948
502.033497	25175.043398
502.399546	24911.406175
502.765537	24454.806186
503.131470	24847.565003
503.497345	24984.487783
503.863163	24222.237595
504.228923	24781.835919
504.594625	25014.157494
504.960269	24561.976076
505.325856	25044.480034
505.691385	24439.370173
506.056856	25053.806169
506.422270	25032.494691
506.787625	24556.559356
507.152924	24984.530633
507.518164	25034.150710
507.883347	24840.182233
508.248472	24517.560990
508.613540	25309.498533
508.978550	25099.988179
509.343503	25111.545024
509.708398	25319.883310
510.073236	25488.928322
510.438016	25701.145775
510.802738	25356.686253
511.167403	25618.493537
511.532010	25362.407963
511.896561	26102.903052
512.261053	26067.511631
512.625488	25895.633491
512.989866	25798.029190
513.354186	25623.635514
513.718449	25754.841625
514.082655	26125.028676
514.446803	25853.015576
514.810894	26340.474988
515.174927	25820.416955
515.538904	25855.268972
515.902822	26340.177560
516.266684	26104.387671
516.630488	26005.583577
516.994235	25950.806399
517.357925	26288.089838
517.721558	26453.963964
518.085133	26573.025936
518.448651	26457.626362
518.812112	26227.013739
519.175516	26447.397861
519.538863	26597.185666
519.902152	26379.516204
520.265385	26642.682079
520.628560	26433.877487
520.991678	26428.087722
521.354739	26490.761867
521.717743	26573.734218
522.080690	26355.187596
522.443580	26683.066762
522.806413	26663.401221
523.169189	26773.048838
523.531908	26812.027040
523.894569	26442.686903
524.257174	26529.971961
524.619722	26677.949991
524.982213	26385.346299
525.344647	26430.086539
525.707025	26581.348881
526.069345	26544.523252
526.431608	26519.279674
526.793815	26680.067276
527.155964	26181.416502
527.518057	26349.632244
527.880093	26256.771670
528.242072	26491.933935
528.603995	26204.502466
528.965860	25992.658058
529.327669	26039.475254
529.689421	26020.581009
530.051117	25872.234975
530.412755	26038.441817
530.774337	25828.140002
531.135862	25711.366715
531.497331	25908.861478
531.858743	25486.518650
532.220098	25949.210874
532.581396	25647.139894
532.942638	25547.556941
533.303824	25664.710836
533.664953	25656.128271
534.026025	25308.611290
534.387040	25567.809777
534.747999	25608.842248
535.108902	25786.643744
535.469748	25278.475272
535.830537	25439.310765
536.191270	25586.071356
536.551947	25410.117443
536.912567	25047.661002
537.273131	25462.923530
537.633638	25133.756348
537.994089	25363.511976
538.354483	24860.233423
538.714821	25374.950354
539.075103	25415.960140
539.435328	25189.584606
539.795497	24783.151660
540.155609	25130.088909
540.515665	25445.713030
540.875665	24661.511138
541.235609	24987.157074
541.595496	24922.315232
541.955328	25296.278107
542.315102	25207.861310
542.674821	24727.923299
543.034483	24607.404434
543.394090	24774.622027
543.753640	24595.938329
544.113134	25216.844646
544.472571	24803.149917
544.831953	25109.989828
545.191278	24754.165025
545.550548	24640.040864
545.909761	24841.432439
546.268918	25074.784930
546.628019	25055.588217
546.987064	24736.906635
547.346053	24476.246214
547.704986	24585.034314
548.063863	24753.182000
548.422684	24778.982626
548.781449	24275.507467
549.140158	24690.094480
549.498811	24269.596715
549.857408	24013.299412
550.215949	24404.576129
550.574434	24107.987405
550.932864	24318.193438
551.291237	24491.162988
551.649555	24335.532486
552.007817	24403.530090
552.366022	24250.016873
552.724173	24277.360092
553.082267	24243.133177
553.440305	24725.732917
553.798288	23963.487771
554.156215	24457.604027
554.514086	24589.709984
554.871902	23977.212312
555.229661	24238.449946
555.587365	24088.813376
555.945014	24001.354398
556.302606	24212.051943
556.660143	24201.334450
557.017625	24428.582104
557.375050	23951.991419
557.732421	24329.069727
558.089735	24160.468337
558.446994	24207.877868
558.804197	24259.186732
559.161345	24145.004597
559.518437	23939.373411
559.875474	24127.526917
560.232455	24304.806654
560.589381	24106.633855
560.946251	24104.940027
561.303065	24411.996708
561.659825	24509.863148
562.016528	24107.790800
562.373177	23844.559390
562.729770	24210.506830
563.086307	24061.568460
563.442789	24235.994904
563.799216	24066.992742
564.155587	24063.295055
564.511904	24046.276120
564.868164	24007.739019
565.224370	23959.966525
565.580520	23895.288521
565.936615	24016.581203
566.292654	23712.249266
566.648638	23961.373007
567.004567	23795.710609
567.360441	23739.673143
567.716260	23466.218273
568.072023	23785.950935
568.427732	23560.417274
568.783385	23328.264578
569.138982	23579.946704
569.494525	23616.502631
569.850013	23364.656667
570.205445	23463.843890
570.560823	23283.978041
570.916145	23044.046844
571.271412	23231.950813
571.626625	22983.641218
571.981782	23077.457091
572.336884	22894.571592
572.691931	23035.275237
573.046923	22769.550976
573.401860	22640.104228
573.756743	22681.597965
574.111570	22565.046488
574.466342	22480.213951
574.821059	22566.163104
575.175722	22283.014095
575.530330	22240.953228
575.884882	22254.052666
576.239380	22173.421931
576.593823	22068.712124
576.948211	22046.566336
577.302544	21884.785626
577.656823	21750.295203
578.011047	21862.617152
578.365216	21731.688305
578.719330	21605.283892
579.073389	21494.093683
579.427394	21656.524701
579.781344	21401.817882
580.135239	21288.661622
580.489080	21242.467009
580.842866	21019.784120
581.196597	21230.390925
581.550273	21196.378260
581.903895	21067.183569
582.257463	21397.222870
582.610975	20908.848489
582.964434	21247.999675
583.317837	20920.226373
583.671186	21000.899958
584.024481	20987.334213
584.377721	20746.682131
584.730906	20837.238898
585.084037	20828.006025
585.437113	20759.564800
585.790135	20962.209102
586.143103	20417.189795
586.496016	20432.383833
586.848874	20675.455668
587.201679	20588.137843
587.554428	20291.082811
587.907124	20617.855445
588.259765	20380.570854
588.612352	20448.568457
588.964884	20025.076246
589.317362	20198.474294
589.669786	20255.968654
590.022155	20263.038872
590.374470	20489.434571
590.726731	20254.322717
591.078937	20043.267250
591.431090	20115.746439
591.783188	19890.096831
592.135232	19858.529126
592.487222	19949.393403
592.839157	19969.540375
593.191038	19838.218317
593.542866	19732.170084
593.894639	19438.878274
594.246358	19664.779940
594.598022	19551.658968
594.949633	19292.836047
595.301190	19280.767525
595.652692	19459.599937
596.004141	19683.636376
596.355535	19008.300721
596.706876	19034.696203
597.058162	18914.021062
597.409395	19163.515327
597.760573	19211.287822
598.111698	18984.072936
598.462768	18929.313402
598.813785	18902.605369
599.164748	18701.589359
599.515657	18756.048944
599.866511	18551.214261
600.217312	18902.139062
600.568060	18416.741482
600.918753	18742.374815
601.269392	18626.796280
601.619978	18415.405576
601.970510	18605.328527
602.320988	18561.919151
602.671412	18768.850955
603.021783	18694.486374
603.372100	18394.865395
603.722363	18555.166525
604.072572	18497.735180
604.422728	18643.845463
604.772830	18395.243481
605.122878	18358.251494
605.472872	18329.378286
605.822813	18317.597109
606.172701	18309.979926
606.522534	18483.751019
606.872314	18513.897119
607.222041	18351.604733
607.571714	18559.408656
607.921333	18391.729797
608.270899	18464.458524
608.620411	18631.681158
608.969870	18420.744158
609.319276	18416.459177
609.668627	18442.030430
610.017926	18581.317511
610.367171	18697.493422
610.716362	18749.392101
611.065500	18547.866935
611.414585	18703.406695
611.763616	18689.170477
612.112594	18614.644579
612.461518	18588.254139
612.810389	18777.264640
613.159207	18639.923445
613.507971	18548.529846
613.856682	18805.658939
614.205340	18722.525271
614.553945	18888.127175
614.902496	18645.912336
615.250994	18844.574127
615.599439	18800.469072
615.947830	18775.911091
616.296169	18858.359162
616.644454	18810.921904
616.992686	18791.543709
617.340864	19003.488940
617.688990	18748.235156
618.037063	18930.435059
618.385082	18774.943189
618.733048	19051.717659
619.080961	18938.480740
619.428821	18964.861098
619.776628	18848.090331
620.124382	18776.712634
620.472083	18831.068875
620.819731	18839.817798
621.167326	18538.051808
621.514868	18568.608762
621.862357	18358.387606
622.209793	18355.869549
622.557176	18193.804015
622.904506	18012.640069
623.251783	17949.237477
623.599007	17699.634827
623.946179	17632.658057
624.293297	17562.404537
624.640363	17306.311401
624.987376	17322.574163
625.334336	17126.669883
625.681243	16975.009291
626.028097	16988.975807
626.374899	16910.485042
626.721647	16775.029238
627.068343	16618.352697
627.414987	16549.639250
627.761577	16516.012233
628.108115	16544.492232
628.454600	16267.914367
628.801032	16373.120727
629.147412	16315.586038
629.493739	16321.688355
629.840014	16123.571009
630.186236	16229.909108
630.532405	15999.372102
630.878521	16203.642176
631.224585	16097.074704
631.570597	15905.752833
631.916556	15938.600992
632.262462	15916.936633
632.608316	15836.958728
632.954117	15770.541526
633.299866	15768.020949
633.645562	15682.853175
633.991206	15450.143431
634.336797	15328.165152
634.682336	15284.861641
635.027823	15154.837680
635.373257	15029.229770
635.718639	14943.641060
636.063968	14884.001690
636.409245	14643.079906
636.754470	14672.477395
637.099642	14522.500547
637.444762	14288.996822
637.789829	14331.710518
638.134845	14164.901258
638.479808	14196.501731
638.824719	14108.092495
639.169577	13985.113547
639.514383	14027.325649
639.859137	13858.058826
640.203839	13953.059371
640.548489	13791.177838
640.893086	13777.780972
641.237632	13653.786231
641.582125	13811.211384
641.926566	13621.464873
642.270955	13641.556392
642.615292	13597.660545
642.959576	13611.594294
643.303809	13632.343683
643.647990	13571.809508
643.992118	13635.043221
644.336195	13398.207293
644.680219	13624.620636
645.024192	13532.359959
645.368112	13779.424388
645.711981	13825.314012
646.055797	14010.823432
646.399562	13984.974916
646.743274	14246.961160
647.086935	14507.689637
647.430544	14487.038551
647.774101	14526.707390
648.117606	14661.969110
648.461059	14634.280572
648.804460	14624.160456
649.147810	14345.092261
649.491108	14251.533487
649.834354	14274.899235
650.177548	13944.817084
650.520690	13761.891255
650.863781	13685.858052
651.206820	13735.878901
651.549807	13566.690216
651.892742	13356.839585
652.235626	13290.800469
652.578458	13291.748206
652.921238	12990.589675
653.263967	13194.353114
653.606644	13031.733053
653.949269	13006.239937
654.291843	12800.487764
654.634365	12961.487094
654.976836	12813.413282
655.319255	12814.776914
655.661622	12779.909774
656.003938	12694.275693
656.346203	12620.737862
656.688416	12702.190305
657.030577	12651.277172
657.372687	12561.537072
657.714746	12545.710369
658.056753	12738.108526
658.398708	12545.745657
658.740612	12544.404710
659.082465	12657.608861
659.424266	12624.075106
659.766016	12649.611070
660.107715	12562.734346
660.449362	12641.010862
660.790958	12592.298192
661.132503	12529.019109
661.473996	12614.547325
661.815438	12626.830096
662.156829	12647.334989
662.498168	12622.799694
662.839456	12618.676030
663.180693	12639.261582
663.521879	12739.026016
663.863013	12701.958412
664.204097	12671.832477
664.545129	12812.594095
664.886110	12781.404476
665.227040	12875.003579
665.567918	12870.194319
665.908746	12899.382599
666.249522	12889.771640
666.590248	12940.170575
666.930922	13058.458730
667.271545	13027.811035
667.612118	13114.234056
667.952639	13007.979136
668.293109	13042.100185
668.633528	12981.208088
668.973896	12958.444758
669.314213	13026.880942
669.654480	12769.782096
669.994695	12856.595806
670.334859	12880.347203
670.674973	12825.075992
671.015035	12850.054909
671.355047	12797.536168
671.695008	12770.669339
672.034918	12778.520936
672.374777	12820.423007
672.714585	12737.027199
673.054342	12770.629010
673.394049	12721.457595
673.733705	12823.513234
674.073310	12714.460473
674.412864	12733.281621
674.752368	12582.052047
675.091820	12631.687248
675.431223	12609.798558
675.770574	12476.031541
676.109875	12389.679096
676.449125	12352.389681
676.788324	12298.847586
677.127473	12124.625309
677.466571	12124.955504
677.805619	12014.523988
678.144616	11954.146089
678.483562	11919.841037
678.822458	11788.748352
679.161303	11767.789754
679.500098	11752.799883
679.838842	11705.428161
680.177535	11739.211453
680.516179	11809.666619
680.854771	11750.352403
681.193314	11966.892646
681.531805	12133.381793
681.870247	12571.591653
682.208638	12985.402328
682.546978	13278.366463
682.885268	13307.557265
683.223508	13008.778158
683.561697	12854.415507
683.899836	12761.754058
684.237925	12551.996688
684.575963	12471.996097
684.913951	12387.271945
685.251889	12343.282836
685.589776	12448.234618
685.927614	12356.009229
686.265401	12334.969974
686.603137	12391.962738
686.940824	12533.853575
687.278460	12670.733505
687.616046	12703.748022
687.953582	12862.703164
688.291068	12799.325778
688.628504	13034.248588
688.965889	13040.101368
689.303224	13000.298938
689.640510	12886.121844
689.977745	12560.485991
690.314930	12344.422137
690.652065	12255.297058
690.989150	11958.635236
691.326185	11733.565361
691.663170	11530.059021
692.000105	11287.307299
692.336990	11168.459577
692.673825	10913.780484
693.010610	10803.830398
693.347345	10592.984139
693.684030	10401.155632
694.020665	10329.911525
694.357251	10137.969593
694.693786	10060.139218
695.030272	9915.828628
695.366707	9799.307398
695.703093	9734.087470
696.039429	9726.828208
696.375716	9635.878231
696.711952	9508.279066
697.048139	9560.747395
697.384276	9509.824179
697.720363	9536.338128
698.056400	9462.593609
698.392388	9414.579139
698.728326	9375.139672
699.064214	9315.747318
699.400053	9357.281384
699.735842	9171.272890
700.071581	9128.745716
700.407270	9053.957678
700.742910	8983.953695
701.078501	8882.049291
701.414042	8751.140608
701.749533	8692.038120
702.084974	8553.857572
702.420366	8677.159154
702.755709	8548.372797
703.091002	8417.567458
703.426246	8446.919576
703.761440	8400.306547
704.096584	8356.665278
704.431679	8289.340668
704.766725	8271.288297
705.101721	8225.207109
705.436668	8278.237527
705.771565	8170.911362
706.106413	8255.144001
706.441212	8283.581150
706.775961	8247.781396
707.110661	8298.437431
707.445311	8424.473838
707.779913	8323.587747
708.114465	8455.723951
708.448967	8491.664858
708.783421	8643.325450
709.117825	8823.004776
709.452180	8857.667750
709.786485	8947.274260
710.120742	9229.614163
710.454949	9236.722190
710.789107	9344.166823
711.123216	9567.477335
711.457275	9736.227440
711.791286	9880.099450
712.125247	9879.471826
712.459159	9871.204334
712.793023	10108.604871
713.126837	9679.128811
713.460602	9830.096245
713.794318	9664.930401
714.127985	9690.239514
714.461602	9356.275674
714.795171	9305.226430
715.128691	9055.588491
715.462162	8813.638312
715.795584	8752.524404
716.128957	8594.131351
716.462281	8423.649610
716.795556	8472.778175
717.128782	8261.581555
717.461960	8011.875561
717.795088	8080.702434
718.128167	7986.213567
718.461198	7819.691653
718.794180	7763.802901
719.127113	7753.871827
719.459997	7585.734223
719.792833	7367.384206
720.125619	7440.279291
720.458357	7285.341948
720.791046	7277.407172
721.123686	7267.904597
721.456278	7107.013651
721.788821	7129.061137
722.121315	7023.675816
722.453761	7097.173319
722.786158	7031.540016
723.118506	7048.092645
723.450805	7005.056315
723.783056	7073.721871
724.115259	6990.479818
724.447412	6986.333469
724.779518	7034.610079
725.111574	7034.799122
725.443582	7115.336596
725.775542	7094.506548
726.107453	7288.437216
726.439315	7203.461007
726.771129	7276.686287
727.102895	7449.633152
727.434612	7547.038326
727.766281	7595.098167
728.097901	7666.639701
728.429473	7675.945671
728.760996	7658.044534
729.092471	7630.114021
729.423897	7563.913589
729.755276	7562.300420
730.086606	7485.417782
730.417887	7596.839885
730.749120	7810.199160
731.080305	7996.492480
731.411442	8101.161957
731.742530	8095.094928
732.073570	8201.425466
732.404562	8288.657592
732.735506	8151.525605
733.066401	8277.693083
733.397249	8203.119294
733.728048	7958.882952
734.058798	7627.071685
734.389501	7395.418063
734.720156	7220.679067
735.050762	6993.630539
735.381320	6904.949082
735.711831	6845.513878
736.042293	6738.442291
736.372707	6754.599189
736.703073	6618.281348
737.033391	6661.957904
737.363661	6670.328740
737.693883	6711.890533
738.024056	6787.868283
738.354182	6825.124931
738.684260	6862.099274
739.014290	6990.210117
739.344272	7089.208296
739.674207	7126.175077
740.004093	7196.675613
740.333931	7208.577778
740.663722	7214.254117
740.993464	7293.944677
741.323159	7271.093127
741.652806	7027.340735
741.982405	7059.432721
742.311956	7100.419822
742.641460	6917.506596
742.970915	6730.820066
743.300323	6721.516617
743.629683	6676.284864
743.958996	6547.553959
744.288260	6450.282375
744.617477	6399.354118
744.946647	6391.628550
745.275768	6233.999231
745.604842	6188.689340
745.933869	6170.279046
746.262847	6130.093488
746.591778	6112.951045
746.920662	6071.696762
747.249498	6071.606022
747.578286	6118.952538
747.907027	6197.166040
748.235720	6250.723259
748.564365	6226.500515
748.892963	6268.274036
749.221514	6404.244037
749.550017	6221.202262
749.878473	6114.140757
750.206881	6175.156363
750.535242	6115.504389
750.863555	6047.032917
751.191821	6060.414660
751.520039	6055.040790
751.848210	5963.856399
752.176334	5995.255226
752.504411	6041.406989
752.832440	5963.407737
753.160421	5897.038426
753.488356	5945.695643
753.816243	5970.823274
754.144082	5825.489329
754.471875	5796.167458
754.799620	5839.292008
755.127318	5850.188462
755.454969	5808.251103
755.782572	5773.638541
756.110129	5814.665972
756.437638	5793.326768
756.765100	5737.664867
757.092515	5747.379171
757.419882	5798.055370
757.747203	5773.164673
758.074477	5833.487120
758.401703	5818.610675
758.728882	5773.099138
759.056014	5839.544066
759.383099	5953.524554
759.710138	5969.096679
760.037129	5956.612261
760.364073	5961.774403
760.690970	6040.260127
761.017820	6020.292117
761.344623	5984.358772
761.671379	6088.637560
761.998088	6211.979471
762.324751	6475.525953
762.651366	7114.792152
762.977935	8484.138415
763.304456	10140.459923
763.630931	10997.990439
763.957359	10551.356811
764.283740	9580.135672
764.610074	8716.104588
764.936362	7711.069911
765.262602	7126.517875
765.588796	6586.738848
765.914943	6253.238795
766.241044	6086.147230
766.567097	5870.955496
766.893104	5613.034941
767.219064	5438.227891
767.544978	5379.135485
767.870845	5293.425788
768.196665	5189.903173
768.522438	5115.107573
768.848165	5081.919137
769.173846	5015.506976
769.499479	4967.197599
769.825066	4916.559208
770.150607	4855.417574
770.476101	4835.303370
770.801548	4827.930682
771.126949	4741.177466
771.452303	4693.445301
771.777611	4654.978776
772.102872	4677.232950
772.428087	4632.545642
772.753256	4596.380404
773.078378	4543.939801
773.403453	4478.679544
773.728482	4455.840597
774.053465	4416.345677
774.378401	4405.217330
774.703291	4395.992018
775.028135	4321.866892
775.352932	4276.181435
775.677683	4265.736164
776.002388	4280.786529
776.327046	4294.909322
776.651658	4218.107343
776.976224	4157.454700
777.300743	4163.950227
777.625216	4185.475954
777.949643	4177.180735
778.274024	4133.889827
778.598359	4095.766101
778.922647	4118.985655
779.246889	4108.023666
779.571086	4099.141153
779.895236	4083.627002
780.219339	4069.824323
780.543397	4067.369281
780.867409	4124.483034
781.191374	4136.375116
781.515294	4072.806166
781.839167	4062.292839
782.162995	4090.072117
782.486776	4070.754416
782.810511	4085.404009
783.134201	4075.929160
783.457844	4025.356305
783.781441	3972.832523
784.104993	3978.932319
784.428498	3998.885206
784.751958	3988.223166
785.075372	3972.772029
785.398739	3933.682922
785.722061	3947.730097
786.045337	3996.813292
786.368568	4022.538300
786.691752	3932.218467
787.014891	3992.674505
787.337983	4123.590749
787.661030	4288.955719
787.984031	4451.487560
788.306987	4615.788846
788.629897	4699.618194
788.952760	4657.252337
789.275579	4590.656174
789.598351	4517.191439
789.921078	4365.803068
790.243759	4167.388294
790.566395	4160.315555
790.888984	4147.899193
791.211529	4040.056310
791.534027	3980.318637
791.856480	3965.573262
792.178888	3906.193510
792.501249	3859.109133
792.823566	3871.890979
793.145836	3894.573651
793.468062	3841.954087
793.790241	3800.682160
794.112375	3832.113755
794.434464	3898.568765
794.756507	3917.606683
795.078505	3893.946027
795.400457	3936.989919
795.722364	4080.340170
796.044226	4185.901932
796.366042	4257.261985
796.687812	4230.584199
797.009538	4236.429417
797.331218	4196.838715
797.652852	4173.588913
797.974442	4151.566633
798.295986	4145.645798
798.617484	4063.273344
798.938938	3979.484326
799.260346	4021.424205
799.581709	4014.638812
799.903026	3940.107873
800.224299	3902.447933
800.545526	3895.229001
800.866708	3857.760625
801.187845	3800.858601
801.508936	3834.863704
801.829983	3823.790810
802.150984	3749.627875
802.471940	3740.321905
802.792851	3747.472782
803.113717	3754.139708
803.434538	3751.150303
803.755314	3688.922300
804.076045	3667.459588
804.396731	3690.285932
804.717372	3716.782237
805.037967	3697.146943
805.358518	3686.883153
805.679024	3715.693348
805.999485	3729.695153
806.319901	3735.870566
806.640272	3749.673245
806.960598	3758.835542
807.280879	3736.402408
807.601115	3751.425046
807.921306	3766.780401
808.241453	3806.575269
808.561554	3777.984365
808.881611	3713.392061
809.201623	3754.749687
809.521590	3763.947272
809.841513	3738.897779
810.161390	3765.746964
810.481223	3739.432141
810.801011	3687.339378
811.120755	3683.704706
811.440453	3717.772824
811.760107	3713.160168
812.079716	3673.342614
812.399281	3641.870691
812.718801	3668.523271
813.038276	3639.196359
813.357707	3637.537819
813.677093	3654.849141
813.996434	3598.448712
814.315731	3614.167030
814.634983	3615.946557
814.954191	3634.077067
815.273354	3660.417096
815.592473	3650.468379
815.911547	3663.721572
816.230577	3707.161195
816.549562	3760.683125
816.868502	3800.190648
817.187399	3821.212259
817.506250	3821.008093
817.825058	3799.152170
818.143821	3896.844691
818.462539	3993.755832
818.781213	4038.826268
819.099843	4102.191051
819.418429	4368.353892
819.736970	4611.589565
820.055466	4870.906519
820.373919	5240.261779
820.692327	5659.383310
821.010691	6144.763246
821.329011	7630.366079
821.647286	10517.354228
821.965517	15254.675211
822.283704	19293.546850
822.601847	21289.624483
822.919945	19377.628255
823.237999	16708.261676
823.556010	14177.862065
823.873976	12022.320133
824.191897	9909.471733
824.509775	8561.686484
824.827609	7428.311592
825.145398	6902.584780
825.463144	6786.857532
825.780845	6894.103039
826.098502	7117.998325
826.416116	8067.192142
826.733685	9427.988608
827.051210	10528.580878
827.368692	10483.875925
827.686129	9155.552052
828.003522	7641.086093
828.320872	6612.811696
828.638177	5890.258074
828.955439	5323.032484
829.272656	4822.869364
829.589830	4550.241243
829.906960	4369.783059
830.224046	4176.394315
830.541088	4055.986356
830.858086	4003.071884
831.175041	3926.330399
831.491952	3913.813214
831.808819	3924.235800
832.125642	4005.232019
832.442421	4162.737830
832.759157	4457.476451
833.075849	5034.948186
833.392497	5932.084527
833.709101	6722.000567
834.025662	7032.530603
834.342179	6619.029959
834.658653	5936.419919
834.975083	5274.834012
835.291469	4691.007903
835.607811	4288.678456
835.924110	4143.561280
836.240366	3940.790949
836.556578	3734.937953
836.872746	3625.665902
837.188871	3582.987493
837.504952	3513.522914
837.820990	3429.348248
838.136984	3389.674367
838.452935	3413.917276
838.768842	3406.814290
839.084706	3430.054009
839.400526	3603.893158
839.716303	3966.029486
840.032037	4514.186911
840.347727	4753.659363
840.663373	4445.962456
840.978977	4053.158268
841.294537	3742.056062
841.610054	3514.614324
841.925527	3407.888056
842.240957	3339.267869
842.556344	3282.330557
842.871687	3220.941906
843.186987	3171.644463
843.502244	3134.574338
843.817458	3099.354317
844.132629	3072.051427
844.447756	3080.444949
844.762840	3061.623801
845.077881	3029.678009
845.392879	3014.511698
845.707833	3009.316788
846.022745	3009.200842
846.337613	3007.033146
846.652438	2993.195178
846.967221	2991.518995
847.281960	2981.902994
847.596656	2974.774802
847.911309	2978.152375
848.225919	2968.735500
848.540485	2962.736527
848.855009	2961.413224
849.169490	2951.459466
849.483928	2944.898404
849.798323	2943.761624
850.112675	2939.824483
850.426984	2953.798561
850.741251	2947.149279
851.055474	2936.013370
851.369654	2930.979778
851.683792	2938.420521
851.997887	2946.688014
852.311938	2949.448045
852.625947	2937.596293
852.939914	2940.263063
853.253837	2940.623506
853.567718	2928.819644
853.881555	2932.492124
854.195350	2946.372942
854.509103	2939.113680
854.822812	2931.710746
855.136479	2927.594643
855.450103	2930.861311
855.763685	2925.903336
856.077224	2923.632297
856.390720	2937.442538
856.704173	2941.924123
857.017584	2935.610078
857.330953	2933.293668
857.644278	2943.741459
857.957561	2950.098354
858.270802	2957.249231
858.584000	2953.206226
858.897155	2939.181736
859.210268	2940.205090
859.523339	2936.857764
859.836367	2939.847168
860.149352	2933.858277
860.462295	2927.569438
860.775195	2934.558998
861.088054	2932.592948
861.400869	2920.446287
861.713642	2914.583425
862.026373	2933.371806
862.339062	2938.327260
862.651708	2940.373968
862.964312	2942.007302
863.276873	2933.666713
863.589392	2948.444856
863.901869	2958.839715
864.214303	2983.506081
864.526696	2994.957062
864.839045	2991.405569
865.151353	2990.619149
865.463619	2992.113851
865.775842	2994.382370
866.088023	3015.527490
866.400162	3017.705268
866.712258	2987.523880
867.024313	2977.063486
867.336325	2988.247286
867.648296	3010.864423
867.960224	3002.435613
868.272110	2984.821822
868.583954	2992.108810
868.895755	3006.607168
869.207515	2990.160404
869.519233	2999.995695
869.830909	3010.360307
870.142542	3019.431864
870.454134	3018.037985
870.765684	3020.951772
871.077191	3020.828263
871.388657	3028.858821
871.700081	3044.171326
872.011463	3052.247255
872.322803	3052.191802
872.634101	3052.753891
872.945357	3072.749627
873.256571	3098.749378
873.567744	3089.030034
873.878874	3082.625248
874.189963	3111.931996
874.501010	3106.338835
874.812015	3097.945314
875.122979	3098.502362
875.433900	3093.143615
875.744780	3104.430759
876.055618	3109.388733
876.366415	3105.343207
876.677169	3117.835187
876.987882	3113.464506
877.298554	3112.105915
877.609183	3130.632156
877.919771	3154.693583
878.230317	3182.674507
878.540822	3239.440420
878.851285	3278.053138
879.161707	3325.989470
879.472087	3434.449895
879.782425	3686.111857
880.092722	4144.022546
880.402977	4686.831307
880.713191	5351.023491
881.023363	6574.456077
881.333494	7890.960965
881.643583	8404.188235
881.953631	8080.505829
882.263637	7404.051039
882.573602	6782.093642
882.883526	6197.960022
883.193408	5619.782526
883.503248	5162.665818
883.813048	4850.389023
884.122806	4523.576060
884.432522	4198.431719
884.742197	3951.853761
885.051831	3763.168414
885.361424	3629.015748
885.670975	3553.088410
885.980485	3462.698001
886.289954	3381.810167
886.599382	3338.355421
886.908768	3301.577683
887.218113	3256.708893
887.527417	3197.034234
887.836680	3144.457520
888.145901	3139.239926
888.455082	3126.755508
888.764221	3074.866912
889.073319	3045.260215
889.382376	3044.894732
889.691392	3051.004610
890.000366	3045.731563
890.309300	3032.669934
890.618193	3046.601162
890.927044	3065.603792
891.235855	3061.444840
891.544625	3049.676266
891.853353	3064.048596
892.162041	3083.000814
892.470687	3125.691825
892.779293	3176.841892
893.087858	3226.073801
893.396381	3302.893424
893.704864	3430.076694
894.013306	3685.355684
894.321707	3999.906040
894.630068	4198.638407
894.938387	4187.489895
895.246665	4145.774347
895.554903	4013.421373
895.863100	3808.997544
896.171256	3635.758292
896.479371	3490.346209
896.787446	3362.522712
897.095480	3255.904829
897.403473	3194.526260
897.711425	3159.538132
898.019336	3147.479692
898.327207	3117.283180
898.635038	3079.391347
898.942827	3066.397773
899.250576	3052.458983
899.558284	3023.288346
899.865952	3004.134482
900.173579	2980.224290
900.481165	2975.362097
900.788711	2959.910960
901.096216	2936.373813
901.403681	2925.232863
901.711105	2933.089501
902.018489	2926.820826
902.325832	2927.231680
902.633135	2939.388423
902.940397	2976.168681
903.247619	3064.255283
903.554800	3272.762447
903.861941	3644.872698
904.169041	4090.861058
904.476101	4387.595976
904.783121	4319.679031
905.090100	4050.095767
905.397039	3767.004732
905.703938	3514.052235
906.010796	3326.218843
906.317614	3213.720453
906.624391	3113.456945
906.931129	3042.991696
907.237826	2977.567602
907.544483	2931.856939
907.851099	2899.643966
908.157675	2881.725185
908.464211	2857.681401
908.770707	2843.094823
909.077163	2832.016887
909.383578	2815.870071
909.689954	2802.170736
909.996289	2802.125365
910.302584	2806.458237
910.608839	2803.365489
910.915054	2797.487504
911.221229	2789.766977
911.527363	2790.926442
911.833458	2802.783236
912.139513	2806.173412
912.445527	2809.475368
912.751502	2818.093220
913.057436	2829.571927
913.363331	2841.950481
913.669186	2867.423431
913.975000	2904.506159
914.280775	2967.538226
914.586510	3037.000285
914.892205	3125.424644
915.197859	3260.174686
915.503475	3467.045996
915.809050	3691.931869
916.114585	3840.003160
916.420081	3850.312320
916.725536	3783.690951
917.030952	3660.417096
917.336328	3524.079090
917.641665	3391.164028
917.946961	3288.107720
918.252218	3213.743139
918.557435	3133.785397
918.862612	3069.077147
919.167750	3019.325999
919.472848	2981.540031
919.777906	2952.545834
920.082925	2926.435178
920.387904	2892.112482
920.692843	2873.480378
920.997743	2863.705580
921.302603	2849.575226
921.607423	2840.226406
921.912204	2823.678819
922.216946	2812.399237
922.521647	2805.565953
922.826310	2796.428862
923.130932	2790.225722
923.435516	2780.266922
923.740059	2772.654780
924.044564	2764.200765
924.349028	2758.678181
924.653454	2754.128540
924.957840	2744.991448
925.262186	2741.240830
925.566493	2736.396281
925.870761	2732.249932
926.174989	2728.466546
926.479178	2722.228118
926.783328	2717.496995
927.087438	2717.628065
927.391509	2715.795606
927.695541	2712.561706
927.999533	2708.995089
928.303486	2705.927547
928.607400	2707.306303
928.911275	2705.604913
929.215110	2703.008719
929.518906	2702.786908
929.822663	2703.739686
930.126381	2703.215406
930.430060	2706.066179
930.733699	2704.097608
931.037299	2704.717670
931.340861	2705.557022
931.644383	2708.604400
931.947866	2704.947043
932.251309	2704.783205
932.554714	2702.600386
932.858080	2701.181301
933.161407	2698.597709
933.464694	2699.752134
933.767943	2695.736855
934.071153	2696.866073
934.374323	2697.980168
934.677455	2695.794828
934.980548	2694.232070
935.283602	2695.799869
935.586617	2695.295754
935.889593	2693.367512
936.192530	2694.579910
936.495428	2694.572348
936.798287	2695.469673
937.101108	2702.207176
937.403890	2705.032742
937.706632	2708.203628
938.009336	2714.026161
938.312002	2725.852708
938.614628	2735.130951
938.917216	2739.405850
939.219765	2742.251581
939.522275	2739.171436
939.824747	2736.338308
940.127179	2735.622464
940.429573	2731.957545
940.731929	2729.999057
941.034246	2725.794734
941.336524	2720.173848
941.638763	2720.869527
941.940964	2718.217880
942.243126	2716.380380
942.545250	2712.995245
942.847335	2712.755790
943.149381	2706.734132
943.451389	2703.505273
943.753359	2703.107022
944.055290	2700.162988
944.357182	2700.581403
944.659036	2697.796166
944.960851	2698.171732
945.262628	2694.705939
945.564367	2695.830116
945.866067	2697.632328
946.167729	2699.747092
946.469352	2695.935980
946.770937	2697.566793
947.072484	2695.837678
947.373992	2696.994622
947.675462	2690.657892
947.976893	2686.821574
948.278286	2684.253106
948.579641	2687.635720
948.880958	2685.803261
949.182236	2686.592202
949.483476	2685.243693
949.784678	2687.083714
950.085841	2687.698735
950.386967	2689.107737
950.688054	2688.475072
950.989103	2689.591688
951.290114	2690.360464
951.591087	2692.581092
951.892021	2694.947914
952.192917	2697.667617
952.493776	2701.498893
952.794596	2700.863708
953.095378	2701.902186
953.396122	2698.937987
953.696828	2698.002853
953.997496	2696.694674
954.298126	2695.376412
954.598718	2692.109744
954.899272	2686.388035
955.199788	2687.532377
955.500266	2683.718744
955.800706	2683.930472
956.101108	2678.362518
956.401472	2676.661128
956.701798	2676.628361
957.002087	2674.707681
957.302337	2671.912362
957.602550	2672.303051
957.902724	2669.338852
958.202861	2668.738955
958.502960	2666.440189
958.803022	2668.144099
959.103045	2665.873059
959.403031	2662.175373
959.702979	2663.690240
960.002889	2666.835920
960.302762	2664.600168
960.602596	2661.608243
960.902393	2664.615291
961.202153	2663.191165
961.501875	2661.535146
961.801559	2661.144457
962.101205	2661.439364
962.400814	2661.106648
962.700385	2660.756288
962.999918	2657.398880
963.299414	2657.653458
963.598873	2658.568427
963.898293	2655.926863
964.197677	2660.050527
964.497022	2657.197233
964.796331	2660.491627
965.095601	2659.440547
965.394835	2659.077584
965.694030	2655.258910
965.993189	2660.151350
966.292309	2659.317039
966.591393	2658.245793
966.890439	2658.835608
967.189447	2660.206802
967.488419	2659.135557
967.787353	2658.056750
968.086249	2659.695125
968.385108	2655.909219
968.683930	2659.185969
968.982714	2659.969868
969.281462	2658.190341
969.580172	2660.330311
969.878844	2656.733447
970.177480	2658.538180
970.476078	2657.550114
970.774639	2659.402738
971.073162	2659.606905
971.371649	2657.502223
971.670098	2662.419869
971.968510	2657.212357
972.266885	2657.897954
972.565223	2659.642193
972.863524	2659.816113
973.161788	2659.342244
973.460014	2658.366781
973.758204	2660.975578
974.056356	2658.455001
974.354471	2655.510967
974.652550	2658.586071
974.950591	2661.013387
975.248595	2659.879127
975.546563	2659.624549
975.844493	2656.433499
976.142386	2660.322749
976.440243	2658.679333
976.738062	2657.414003
977.035845	2658.908705
977.333590	2658.122285
977.631299	2656.340237
977.928971	2654.810247
978.226606	2652.269506
978.524204	2655.886533
978.821765	2650.852941
979.119290	2657.262768
979.416777	2657.930721
979.714228	2658.218067
980.011642	2656.728406
980.309020	2656.642707
980.606360	2654.490134
980.903664	2656.493992
981.200931	2658.331493
981.498162	2658.328972
981.795356	2659.105310
982.092513	2660.695794
982.389633	2663.118069
982.686717	2666.840961
982.983764	2673.003771
983.280775	2674.006961
983.577749	2674.697599
983.874686	2675.040397
984.171587	2672.330777
984.468451	2668.267607
984.765279	2667.077895
985.062070	2665.353820
985.358824	2665.212668
985.655543	2661.978768
985.952224	2661.101607
986.248869	2659.304436
986.545478	2661.184786
986.842050	2655.188334
987.138586	2655.218581
987.435086	2654.240597
987.731549	2656.284785
988.027975	2653.650782
988.324366	2655.674805
988.620719	2652.882006
988.917037	2654.419558
989.213318	2655.057264
989.509563	2652.803868
989.805772	2652.871923
990.101944	2653.302942
990.398080	2651.858652
990.694180	2651.205822
990.990244	2653.917963
991.286271	2654.210350
991.582262	2652.398055
991.878217	2652.554331
992.174136	2650.948723
992.470019	2652.395534
992.765865	2649.237252
993.061676	2649.143990
993.357450	2652.695483
993.653188	2648.523928
993.948890	2652.340082
994.244556	2652.698004
994.540186	2653.250010
994.835780	2654.563231
995.131337	2652.594660
995.426859	2656.851914
995.722345	2656.700680
996.017795	2656.630104
996.313208	2658.512975
996.608586	2658.714621
996.903928	2659.276709
997.199234	2657.088849
997.494504	2658.608757
997.789738	2656.287305
998.084936	2657.431647
998.380099	2657.910557
998.675225	2655.034578
998.970316	2656.927532
999.265371	2653.073570
999.560390	2652.478713
999.855373	2654.260761
1000.150320	2650.066521
1000.445232	2652.266985
1000.740108	2651.478044
1001.034948	2650.121974
1001.329752	2651.909063
1001.624521	2652.103147
1001.919254	2650.459731
1002.213951	2654.066677
1002.508613	2652.501399
1002.803239	2651.689773
1003.097829	2651.427633
1003.392384	2651.515853
1003.686903	2650.323620
1003.981386	2650.442087
1004.275834	2649.675832
1004.570246	2651.021820
1004.864623	2651.714979
1005.158964	2650.610966
1005.453270	2649.191881
1005.747540	2652.758497
1006.041775	2649.751449
1006.335974	2650.179947
1006.630138	2649.446459
1006.924266	2649.917807
1007.218359	2650.406799
1007.512416	2649.196922
1007.806438	2648.556696
1008.100425	2649.786737
1008.394376	2647.099802
1008.688292	2651.581388
1008.982172	2650.825215
1009.276017	2649.333033
1009.569827	2650.000986
1009.863602	2650.318579
1010.157341	2649.035605
1010.451045	2651.352016
1010.744714	2650.633651
1011.038347	2649.597694
1011.331945	2649.562406
1011.625508	2650.837818
1011.919036	2650.139618
1012.212528	2649.030564
1012.505986	2649.154072
1012.799408	2651.672129
1013.092795	2652.080462
1013.386147	2650.779845
1013.679464	2651.379742
1013.972745	2648.302117
1014.265992	2650.043836
1014.559204	2648.118115
1014.852380	2647.543424
1015.145521	2649.927890
1015.438628	2648.208856
1015.731699	2648.173568
1016.024736	2649.658188
1016.317737	2646.951088
1016.610703	2647.674494
1016.903635	2650.905873
1017.196531	2648.418064
1017.489393	2649.506953
1017.782219	2649.499392
1018.075011	2649.380924
1018.367768	2651.770431
1018.660490	2649.441418
1018.953177	2649.441418
1019.245829	2649.441418
