Dividing Wavelength (nm)	Counts (n)	Blue Motor Position (mm): 13.900000	Red Motor Position (mm): 0.000000	
326.493990	2170.683038
326.888308	2170.683038
327.282561	2170.683038
327.676750	2128.549074
328.070874	2126.739299
328.464933	2127.543363
328.858929	2129.920268
329.252859	2133.660804
329.646726	2142.462658
330.040528	2155.834319
330.434265	2167.572646
330.827938	2189.630214
331.221547	2204.796526
331.615091	2219.763711
332.008571	2239.199880
332.401986	2257.474063
332.795338	2276.622886
333.188625	2295.101235
333.581847	2314.981025
333.975006	2332.536843
334.368100	2349.651561
334.761129	2368.525641
335.154095	2386.875441
335.546996	2407.103071
335.939833	2434.171546
336.332606	2446.905501
336.725315	2462.475104
337.117960	2472.015488
337.510540	2484.300780
337.903056	2495.411483
338.295508	2506.620489
338.687896	2513.108454
339.080220	2519.820750
339.472480	2524.627490
339.864676	2532.400949
340.256807	2536.547298
340.648875	2542.652136
341.040879	2544.711447
341.432818	2547.219421
341.824694	2548.822508
342.216506	2550.055070
342.608253	2551.375852
342.999937	2551.534649
343.391557	2552.721841
343.783113	2552.391645
344.174605	2550.024823
344.566033	2552.124464
344.957397	2548.066335
345.348697	2548.257899
345.739934	2547.708413
346.131106	2542.894111
346.522215	2545.003834
346.913260	2541.802701
347.304241	2538.142824
347.695159	2534.939170
348.086012	2535.655014
348.476802	2531.657379
348.867528	2529.610671
349.258191	2524.052799
349.648789	2528.597399
350.039324	2521.640607
350.429796	2527.110258
350.820203	2524.372912
351.210548	2526.679240
351.600828	2524.372912
351.991045	2518.247910
352.381198	2519.253620
352.771288	2519.450225
353.161314	2518.799916
353.551276	2518.066428
353.941175	2518.749505
354.331010	2518.510050
354.720782	2516.725482
355.110490	2518.406706
355.500135	2514.000738
355.889717	2516.601973
356.279235	2516.707837
356.668689	2517.010307
357.058080	2517.408558
357.447408	2516.982580
357.836672	2516.949813
358.225873	2517.799247
358.615010	2520.092972
359.004084	2519.752694
359.393095	2519.477952
359.782043	2520.549197
360.170927	2523.525998
360.559748	2522.633714
360.948505	2522.593385
361.337199	2520.014834
361.725830	2523.150432
362.114398	2523.775535
362.502903	2522.270751
362.891344	2524.309898
363.279722	2526.172604
363.668037	2523.163035
364.056289	2522.878210
364.444478	2525.560104
364.832603	2527.705115
365.220665	2529.913140
365.608665	2529.081350
365.996601	2529.809796
366.384474	2526.278468
366.772284	2529.194776
367.160031	2527.770650
367.547715	2530.240815
367.935336	2529.081350
368.322893	2527.334590
368.710388	2526.260824
369.097820	2526.152439
369.485189	2529.986237
369.872495	2529.663603
370.259738	2530.490352
370.646918	2531.785929
371.034035	2531.180990
371.421090	2531.637215
371.808081	2534.946732
372.195010	2533.668800
372.581875	2533.512524
372.968678	2536.101156
373.355418	2534.455220
373.742096	2534.014119
374.128710	2534.709798
374.515262	2535.854140
374.901751	2533.653676
375.288177	2538.052083
375.674540	2531.710311
376.060841	2538.326826
376.447079	2534.840868
376.833254	2533.187369
377.219367	2535.365148
377.605417	2536.607792
377.991404	2538.432690
378.377329	2536.476722
378.763191	2533.636032
379.148991	2538.331867
379.534727	2533.789787
379.920402	2536.887576
380.306013	2534.848430
380.691563	2536.575025
381.077049	2537.984027
381.462474	2536.799356
381.847835	2536.602751
382.233134	2539.060314
382.618371	2537.495035
383.003545	2539.372865
383.388657	2538.672145
383.773706	2537.616023
384.158693	2541.815304
384.543618	2539.400592
384.928480	2540.388658
385.313280	2538.215920
385.698017	2538.702392
386.082692	2540.098791
386.467305	2539.362783
386.851856	2542.563916
387.236344	2542.251364
387.620770	2538.518390
388.005133	2536.123842
388.389435	2537.883204
388.773674	2536.880015
389.157851	2541.112063
389.541965	2539.604758
389.926018	2543.327650
390.310008	2543.047866
390.693936	2545.855789
391.077802	2541.533000
391.461606	2542.523586
391.845348	2542.586601
392.229027	2543.196580
392.612645	2546.763197
392.996200	2543.884698
393.379694	2544.824873
393.763125	2546.251520
394.146494	2544.560213
394.529801	2545.714637
394.913047	2546.319575
395.296230	2543.796478
395.679351	2547.461397
396.062410	2546.833773
396.445408	2548.280584
396.828343	2546.748073
397.211217	2545.076931
397.594028	2545.129863
397.976778	2547.060625
398.359466	2545.545758
398.742092	2545.253371
399.124656	2549.049360
399.507158	2546.226314
399.889598	2547.360573
400.271977	2547.272353
400.654294	2550.123126
401.036549	2548.126829
401.418742	2549.329144
401.800874	2547.829401
402.182944	2548.346119
402.564952	2547.879812
402.946898	2548.633465
403.328783	2549.974412
403.710606	2550.271840
404.092367	2548.336037
404.474067	2551.055739
404.855705	2552.711758
405.237282	2549.142621
405.618797	2549.006510
406.000250	2551.423743
406.381642	2551.272509
406.762972	2548.903167
407.144240	2548.225131
407.525447	2547.277394
407.906593	2546.196067
408.287677	2551.907694
408.668700	2551.708569
409.049661	2552.885678
409.430560	2551.811912
409.811399	2555.617983
410.192176	2552.482386
410.572891	2553.165462
410.953545	2554.642520
411.334138	2554.733261
411.714669	2557.417675
412.095139	2552.610935
412.475547	2557.861297
412.855894	2552.726882
413.236180	2554.619835
413.616405	2552.805020
413.996568	2553.805689
414.376670	2553.372149
414.756711	2554.405586
415.136691	2552.757129
415.516609	2554.108158
415.896466	2555.746533
416.276262	2551.615307
416.655997	2557.868859
417.035670	2555.789383
417.415283	2555.028168
417.794834	2552.351316
418.174324	2555.650751
418.553753	2555.799465
418.933121	2558.932542
419.312428	2556.517829
419.691674	2556.653941
420.070859	2555.060936
420.449983	2556.338868
420.829045	2555.393652
421.208047	2557.752912
421.586988	2556.885834
421.965867	2557.452963
422.344686	2557.417675
422.723444	2557.571431
423.102141	2558.075546
423.480777	2556.681667
423.859352	2555.391132
424.237866	2558.047820
424.616319	2556.961451
424.994712	2558.834240
425.373044	2557.309291
425.751314	2555.118909
426.129524	2554.884496
426.507673	2555.403734
426.885762	2554.357695
427.263789	2559.235011
427.641756	2557.185782
428.019662	2561.690053
428.397508	2556.646379
428.775292	2559.900444
429.153016	2558.279713
429.530679	2558.985474
429.908282	2560.913716
430.285824	2559.502192
430.663305	2557.979764
431.040726	2558.572100
431.418086	2557.707542
431.795385	2559.751730
432.172624	2559.613098
432.549802	2560.308777
432.926920	2562.063099
433.303977	2561.425393
433.680974	2559.376164
434.057910	2558.151163
434.434786	2562.552091
434.811601	2561.939590
435.188355	2560.144940
435.565050	2562.398335
435.941683	2560.954045
436.318257	2561.795917
436.694770	2561.659806
437.071222	2557.904147
437.447614	2558.433468
437.823946	2562.297512
438.200218	2561.475804
438.576429	2560.979251
438.952580	2561.100238
439.328670	2561.543860
439.704700	2562.252142
440.080670	2560.364230
440.456580	2561.075032
440.832429	2562.942780
441.208218	2563.978737
441.583947	2562.632749
441.959616	2562.811710
442.335224	2560.941442
442.710773	2562.264745
443.086261	2564.815569
443.461689	2562.925136
443.837057	2563.651062
444.212365	2563.797256
444.587612	2562.063099
444.962800	2560.555794
445.337927	2559.751730
445.712995	2556.969013
446.088002	2561.962276
446.462949	2561.377502
446.837837	2564.908830
447.212664	2561.594271
447.587431	2564.104766
447.962139	2562.204251
448.336786	2563.668706
448.711374	2565.791032
449.085901	2565.972513
449.460369	2563.830023
449.834776	2565.160888
450.209124	2565.241546
450.583412	2565.733059
450.957640	2563.895558
451.331808	2566.620302
451.705917	2565.526371
452.079965	2565.705332
452.453954	2563.577965
452.827883	2564.308933
453.201752	2567.086608
453.575562	2567.381516
453.949311	2566.912689
454.323001	2567.152143
454.696632	2566.237174
455.070202	2565.785991
455.443713	2565.801114
455.817164	2567.802452
456.190556	2566.675754
456.563888	2570.204562
456.937160	2566.479149
457.310373	2567.704150
457.683526	2569.042576
458.056619	2567.530230
458.429653	2566.879921
458.802628	2566.206927
459.175542	2568.946794
459.548398	2567.588203
459.921194	2567.378995
460.293930	2568.684654
460.666607	2570.481826
461.039224	2566.479149
461.411782	2571.951322
461.784280	2570.023081
462.156719	2567.542833
462.529099	2570.257494
462.901419	2569.581980
463.273680	2568.495611
463.645882	2567.565518
464.018024	2568.883780
464.390106	2567.542833
464.762130	2570.960735
465.134094	2571.273287
465.505999	2572.566343
465.877845	2572.135324
466.249631	2574.071127
466.621358	2573.980386
466.993026	2576.813515
467.364634	2578.459452
467.736184	2571.984089
468.107674	2573.284707
468.479105	2574.718915
468.850477	2575.827969
469.221790	2574.076168
469.593043	2573.952660
469.964238	2575.459965
470.335373	2572.510890
470.706449	2574.461817
471.077467	2574.484502
471.448425	2576.856365
471.819324	2576.246385
472.190164	2578.502301
472.560945	2575.641447
472.931667	2574.655901
473.302330	2575.434759
473.672934	2574.812177
474.043479	2578.509863
474.413965	2572.924265
474.784393	2573.103226
475.154761	2576.236303
475.525070	2574.479461
475.895321	2576.382496
476.265513	2575.853175
476.635645	2576.281673
477.005719	2573.758576
477.375734	2575.953998
477.745691	2575.127249
478.115588	2578.761921
478.485427	2577.221848
478.855207	2576.548854
479.224928	2580.458269
479.594591	2582.280646
479.964194	2582.603280
480.333739	2581.090934
480.703226	2579.502970
481.072653	2580.221335
481.442022	2579.651684
481.811333	2580.710327
482.180584	2576.354770
482.549777	2577.708320
482.918912	2578.146900
483.287988	2582.457087
483.657005	2577.675552
484.025964	2584.788620
484.394864	2580.425502
484.763706	2582.827611
485.132489	2581.874833
485.501213	2580.652353
485.869879	2581.821901
486.238487	2585.247365
486.607036	2581.678228
486.975527	2581.877354
487.343959	2584.592015
487.712333	2582.343661
488.080648	2582.194947
488.448905	2582.479772
488.817104	2583.752663
489.185244	2582.283167
489.553326	2582.399113
489.921350	2587.404979
490.289315	2586.474886
490.657222	2589.169383
491.025070	2587.283991
491.392861	2586.739547
491.760593	2587.374732
492.128267	2587.525967
492.495883	2584.523960
492.863440	2584.685277
493.230939	2585.572520
493.598380	2587.609146
493.965763	2587.697366
494.333088	2584.579412
494.700354	2583.271233
495.067563	2584.796182
495.434713	2582.769638
495.801805	2585.900195
496.168839	2584.312231
496.535815	2584.246696
496.902733	2585.948086
497.269593	2588.866914
497.636395	2584.750812
498.003139	2585.111254
498.369825	2582.772159
498.736453	2586.878178
499.103023	2586.096800
499.469535	2585.766604
499.835989	2584.826429
500.202385	2582.653692
500.568723	2581.486664
500.935003	2583.457756
501.301226	2581.330389
501.667390	2586.318610
502.033497	2590.480083
502.399546	2588.778693
502.765537	2587.883889
503.131470	2588.604774
503.497345	2588.410689
503.863163	2589.224836
504.228923	2586.263158
504.594625	2589.872624
504.960269	2588.932449
505.325856	2590.475042
505.691385	2591.203488
506.056856	2591.188365
506.422270	2592.277254
506.787625	2589.993612
507.152924	2591.231215
507.518164	2591.924373
507.883347	2591.611822
508.248472	2593.340938
508.613540	2592.735999
508.978550	2593.691298
509.343503	2595.501072
509.708398	2597.754468
510.073236	2596.915116
510.438016	2596.045517
510.802738	2599.140785
511.167403	2598.770260
511.532010	2598.956783
511.896561	2600.131372
512.261053	2600.839654
512.625488	2601.885693
512.989866	2601.769747
513.354186	2604.514655
513.718449	2603.483739
514.082655	2600.819489
514.446803	2603.824017
514.810894	2604.663369
515.174927	2606.178236
515.538904	2608.131683
515.902822	2605.162443
516.266684	2604.716301
516.630488	2608.625716
516.994235	2608.507249
517.357925	2611.113526
517.721558	2613.377004
518.085133	2612.943464
518.448651	2611.494133
518.812112	2607.950202
519.175516	2614.024792
519.538863	2609.737291
519.902152	2618.110647
520.265385	2618.085441
520.628560	2618.022427
520.991678	2618.748353
521.354739	2620.880761
521.717743	2619.539814
522.080690	2621.599126
522.443580	2624.016359
522.806413	2625.498458
523.169189	2625.392594
523.531908	2625.909312
523.894569	2627.635907
524.257174	2625.639610
524.619722	2628.336628
524.982213	2631.363841
525.344647	2629.470887
525.707025	2632.861063
526.069345	2631.673872
526.431608	2631.999026
526.793815	2633.561784
527.155964	2635.517751
527.518057	2635.381640
527.880093	2636.394912
528.242072	2638.683596
528.603995	2638.381127
528.965860	2639.212917
529.327669	2639.676703
529.689421	2643.142497
530.051117	2641.814152
530.412755	2643.455048
530.774337	2646.449493
531.135862	2643.865902
531.497331	2645.216931
531.858743	2645.355563
532.220098	2648.768424
532.581396	2651.190699
532.942638	2651.246151
533.303824	2653.063487
533.664953	2654.664054
534.026025	2652.647592
534.387040	2658.218067
534.747999	2657.983653
535.108902	2659.674961
535.469748	2658.891061
535.830537	2661.552790
536.191270	2666.175528
536.551947	2660.358037
536.912567	2661.164622
537.273131	2665.011022
537.633638	2664.292657
537.994089	2669.507731
538.354483	2669.439676
538.714821	2675.234482
539.075103	2676.046108
539.435328	2676.467044
539.795497	2678.475944
540.155609	2681.195646
540.515665	2678.864113
540.875665	2681.573733
541.235609	2685.347037
541.595496	2685.825946
541.955328	2690.786442
542.315102	2694.589992
542.674821	2693.601926
543.034483	2692.908767
543.394090	2699.399253
543.753640	2699.522761
544.113134	2707.006354
544.472571	2705.093236
544.831953	2707.099615
545.191278	2711.187991
545.550548	2717.063456
545.909761	2715.946840
546.268918	2721.681153
546.628019	2723.677450
546.987064	2727.052502
547.346053	2731.075343
547.704986	2733.132134
548.063863	2737.782598
548.422684	2739.335274
548.781449	2738.190932
549.140158	2745.561099
549.498811	2750.035123
549.857408	2748.868096
550.215949	2756.767584
550.574434	2757.957296
550.932864	2763.923502
551.291237	2770.648401
551.649555	2776.428084
552.007817	2779.533434
552.366022	2782.270781
552.724173	2784.284722
553.082267	2792.635393
553.440305	2800.146712
553.798288	2800.975982
554.156215	2813.137766
554.514086	2819.925680
554.871902	2815.968374
555.229661	2824.061946
555.587365	2831.074191
555.945014	2842.855368
556.302606	2853.209898
556.660143	2858.750126
557.017625	2874.435676
557.375050	2876.918444
557.732421	2882.441028
558.089735	2893.123233
558.446994	2898.948287
558.804197	2913.718868
559.161345	2925.363933
559.518437	2927.791248
559.875474	2940.411777
560.232455	2952.661781
560.589381	2960.354582
560.946251	2968.977475
561.303065	2989.817605
561.659825	3001.881087
562.016528	3008.525327
562.373177	3017.339785
562.729770	3028.231198
563.086307	3050.951678
563.442789	3066.087743
563.799216	3079.562747
564.155587	3091.341403
564.511904	3113.073817
564.868164	3114.825618
565.224370	3139.847385
565.580520	3145.652274
565.936615	3176.123528
566.292654	3177.237623
566.648638	3211.837582
567.004567	3217.534086
567.360441	3236.388002
567.716260	3242.974269
568.072023	3282.391051
568.427732	3298.605923
568.783385	3309.923313
569.138982	3335.799556
569.494525	3369.746686
569.850013	3391.269892
570.205445	3410.847213
570.560823	3419.530600
570.916145	3449.858182
571.271412	3467.618167
571.626625	3502.066892
571.981782	3525.838453
572.336884	3540.384702
572.691931	3574.556163
573.046923	3577.863160
573.401860	3613.506639
573.756743	3653.452742
574.111570	3677.975435
574.466342	3698.800441
574.821059	3734.801841
575.175722	3741.294848
575.530330	3785.425108
575.884882	3811.276145
576.239380	3848.578163
576.593823	3874.099004
576.948211	3899.849218
577.302544	3921.347219
577.656823	3946.691620
578.011047	3995.472345
578.365216	4018.548227
578.719330	4056.278743
579.073389	4077.741455
579.427394	4142.888286
579.781344	4140.264366
580.135239	4192.014331
580.489080	4215.375038
580.842866	4228.348447
581.196597	4309.944563
581.550273	4322.595339
581.903895	4390.824835
582.257463	4444.313998
582.610975	4459.823108
582.964434	4521.841903
583.317837	4549.064134
583.671186	4603.017083
584.024481	4655.694620
584.377721	4661.716278
584.730906	4716.604362
585.084037	4775.298516
585.437113	4809.099452
585.790135	4866.566086
586.143103	4860.390672
586.496016	4890.435949
586.848874	4997.318493
587.201679	5024.139952
587.554428	5034.968350
587.907124	5128.345643
588.259765	5150.758613
588.612352	5235.933948
588.964884	5225.309717
589.317362	5293.695489
589.669786	5355.807546
590.022155	5408.086832
590.374470	5500.985215
590.726731	5527.340367
591.078937	5538.020052
591.431090	5601.432726
591.783188	5607.048571
592.135232	5642.369416
592.487222	5742.706021
592.839157	5786.622033
593.191038	5834.712120
593.542866	5847.292319
593.894639	5869.750660
594.246358	5965.441842
594.598022	5992.822869
594.949633	6009.335169
595.301190	6042.873965
595.652692	6136.957019
596.004141	6234.450414
596.355535	6162.543396
596.706876	6217.912909
597.058162	6260.377068
597.409395	6340.486044
597.760573	6433.253357
598.111698	6441.805675
598.462768	6487.322253
598.813785	6526.502101
599.164748	6548.224432
599.515657	6609.514781
599.866511	6618.553570
600.217312	6753.129692
600.568060	6700.179933
600.918753	6846.711152
601.269392	6898.100674
601.619978	6884.723972
601.970510	7023.000302
602.320988	7045.277161
602.671412	7162.602455
603.021783	7197.305758
603.372100	7180.788417
603.722363	7289.490817
604.072572	7337.558219
604.422728	7408.817450
604.772830	7444.322296
605.122878	7444.060156
605.472872	7537.964249
605.822813	7607.461596
606.172701	7653.401631
606.522534	7773.547451
606.872314	7845.411620
607.222041	7834.028694
607.571714	7981.426992
607.921333	7996.416862
608.270899	8077.844100
608.620411	8237.240343
608.969870	8170.256012
609.319276	8253.142663
609.668627	8347.974329
610.017926	8457.649672
610.367171	8555.221205
610.716362	8658.073346
611.065500	8630.339438
611.414585	8748.259588
611.763616	8815.014547
612.112594	8865.617650
612.461518	8891.090600
612.810389	9042.602479
613.159207	9022.407617
613.507971	9071.019463
613.856682	9285.051732
614.205340	9313.511566
614.553945	9461.648392
614.902496	9377.531699
615.250994	9588.035161
615.599439	9614.647412
615.947830	9660.353033
616.296169	9723.397703
616.644454	9801.157501
616.992686	9815.078647
617.340864	9992.867541
617.688990	9962.083735
618.037063	10130.831319
618.385082	10109.078740
618.733048	10291.364342
619.080961	10288.246389
619.428821	10391.653057
619.776628	10422.436863
620.124382	10429.249982
620.472083	10527.834787
620.819731	10610.918043
621.167326	10508.784267
621.514868	10584.038611
621.862357	10543.147292
622.209793	10605.957548
622.557176	10589.140259
622.904506	10538.433813
623.251783	10550.898066
623.599007	10529.878975
623.946179	10552.528879
624.293297	10582.004506
624.640363	10512.118990
624.987376	10562.437267
625.334336	10506.518268
625.681243	10484.405247
626.028097	10524.192553
626.374899	10596.432288
626.721647	10528.525425
627.068343	10485.239558
627.414987	10514.836172
627.761577	10577.094422
628.108115	10658.304890
628.454600	10523.305310
628.801032	10612.238826
629.147412	10640.363423
629.493739	10698.308966
629.840014	10649.261060
630.186236	10743.631460
630.532405	10659.403861
630.878521	10824.940230
631.224585	10794.045519
631.570597	10757.323233
631.916556	10798.547269
632.262462	10834.518422
632.608316	10847.849754
632.954117	10841.611326
633.299866	10893.421784
633.645562	10893.255426
633.991206	10763.604511
634.336797	10715.859743
634.682336	10773.797724
635.027823	10727.081352
635.373257	10722.118336
635.718639	10670.617908
636.063968	10675.147385
636.409245	10575.425800
636.754470	10632.146342
637.099642	10574.283978
637.444762	10451.824269
637.789829	10550.953518
638.134845	10465.100148
638.479808	10516.144351
638.824719	10529.213543
639.169577	10450.720257
639.514383	10530.156238
639.859137	10439.344893
640.203839	10530.695642
640.548489	10445.515265
640.893086	10490.048818
641.237632	10400.918698
641.582125	10574.082332
641.926566	10490.028654
642.270955	10527.474344
642.615292	10533.828719
642.959576	10565.020858
643.303809	10638.954421
643.647990	10605.655079
643.992118	10697.000787
644.336195	10536.825685
644.680219	10718.642460
645.024192	10709.167611
645.368112	10906.611963
645.711981	10984.233130
646.055797	11137.753908
646.399562	11138.810030
646.743274	11357.364214
647.086935	11616.177053
647.430544	11606.515681
647.774101	11644.059674
648.117606	11813.697022
648.461059	11792.332612
648.804460	11854.376613
649.147810	11673.938593
649.491108	11609.353851
649.834354	11674.215857
650.177548	11470.686832
650.520690	11365.906449
650.863781	11326.842548
651.206820	11388.263967
651.549807	11285.900817
651.892742	11173.057109
652.235626	11141.161728
652.578458	11173.528457
652.921238	10939.956676
653.263967	11119.673810
653.606644	11013.386123
653.949269	11001.720893
654.291843	10903.219267
654.634365	11033.535614
654.976836	10934.744123
655.319255	10973.699639
655.661622	10958.059459
656.003938	10909.929043
656.346203	10873.239525
656.688416	10955.634664
657.030577	10945.736358
657.372687	10908.467108
657.714746	10909.175390
658.056753	11072.551625
658.398708	10961.089192
658.740612	10979.476801
659.082465	11079.430279
659.424266	11057.130735
659.766016	11098.372415
660.107715	11042.828982
660.449362	11118.221958
660.790958	11109.858684
661.132503	11084.221896
661.473996	11144.594754
661.815438	11187.709222
662.156829	11212.141175
662.498168	11214.535723
662.839456	11233.777807
663.180693	11271.893971
663.521879	11354.667197
663.863013	11376.487831
664.204097	11362.044925
664.545129	11475.712862
664.886110	11463.866151
665.227040	11543.879345
665.567918	11579.106928
665.908746	11627.499484
666.249522	11617.270983
666.590248	11667.566575
666.930922	11782.157043
667.271545	11791.526027
667.612118	11876.870241
667.952639	11817.203144
668.293109	11826.201604
668.633528	11810.899182
668.973896	11804.166721
669.314213	11906.217318
669.654480	11690.415605
669.994695	11744.280333
670.334859	11793.020729
670.674973	11755.194432
671.015035	11815.116107
671.355047	11774.623038
671.695008	11754.261818
672.034918	11769.927204
672.374777	11817.543422
672.714585	11753.717373
673.054342	11784.841457
673.394049	11755.474216
673.733705	11843.719614
674.073310	11793.308075
674.412864	11826.022643
674.752368	11718.946015
675.091820	11719.775285
675.431223	11748.146898
675.770574	11638.655558
676.109875	11580.818399
676.449125	11560.379041
676.788324	11504.757470
677.127473	11368.331244
677.466571	11365.883764
677.805619	11298.891871
678.144616	11220.932947
678.483562	11200.962416
678.822458	11083.816083
679.161303	11073.711090
679.500098	11075.646893
679.838842	11040.605833
680.177535	11060.755325
680.516179	11124.815787
680.854771	11081.653428
681.193314	11300.268106
681.531805	11434.297263
681.870247	11809.495220
682.208638	12179.513392
682.546978	12502.986590
682.885268	12581.217736
683.223508	12297.078141
683.561697	12162.562512
683.899836	12065.679097
684.237925	11890.453630
684.575963	11816.608288
684.913951	11754.183680
685.251889	11701.475896
685.589776	11798.437449
685.927614	11737.691545
686.265401	11702.887419
686.603137	11742.904098
686.940824	11906.618090
687.278460	11998.926658
687.616046	12056.196687
687.953582	12224.498128
688.291068	12138.707772
688.628504	12348.308867
688.965889	12366.620858
689.303224	12353.090401
689.640510	12265.180240
689.977745	11994.881132
690.314930	11785.050665
690.652065	11714.093904
690.989150	11447.895775
691.326185	11230.843855
691.663170	11044.679085
692.000105	10806.197220
692.336990	10713.225740
692.673825	10474.116252
693.010610	10356.725423
693.347345	10171.170632
693.684030	9969.779056
694.020665	9917.093957
694.357251	9730.498168
694.693786	9694.050626
695.030272	9525.008135
695.366707	9413.911186
695.703093	9343.824024
696.039429	9346.211011
696.375716	9283.816649
696.711952	9158.115478
697.048139	9193.970685
697.384276	9146.089806
697.720363	9160.978854
698.056400	9100.253114
698.392388	9063.626611
698.728326	9025.951548
699.064214	8959.269685
699.400053	9013.865382
699.735842	8834.629677
700.071581	8797.388153
700.407270	8732.626970
700.742910	8651.592943
701.078501	8570.400119
701.414042	8448.603321
701.749533	8384.951192
702.084974	8253.213239
702.420366	8357.633180
702.755709	8246.342147
703.091002	8123.690874
703.426246	8140.659397
703.761440	8098.061648
704.096584	8050.962147
704.431679	7988.764391
704.766725	7982.150397
705.101721	7927.370699
705.436668	7971.644632
705.771565	7872.180147
706.106413	7945.735622
706.441212	7999.234867
706.775961	7950.655788
707.110661	7976.300138
707.445311	8130.972820
707.779913	8027.359465
708.114465	8156.019793
708.448967	8204.785395
708.783421	8328.581010
709.117825	8507.733535
709.452180	8553.222387
709.786485	8630.825909
710.120742	8902.266838
710.454949	8907.093743
710.789107	9006.215431
711.123216	9204.930153
711.457275	9362.380512
711.791286	9527.826140
712.125247	9519.326754
712.459159	9512.438018
712.793023	9773.380743
713.126837	9346.634468
713.460602	9501.481070
713.794318	9318.356115
714.127985	9353.366928
714.461602	9059.074449
714.795171	9005.423969
715.128691	8773.399822
715.462162	8516.013631
715.795584	8462.786608
716.128957	8337.445879
716.462281	8161.282758
716.795556	8209.476189
717.128782	8015.986622
717.461960	7738.692913
717.795088	7808.699417
718.128167	7718.495530
718.461198	7552.392032
718.794180	7496.195769
719.127113	7489.846436
719.459997	7350.975250
719.792833	7116.029755
720.125619	7178.940834
720.458357	7039.278187
720.791046	7025.188163
721.123686	7031.219903
721.456278	6875.183589
721.788821	6893.122535
722.121315	6788.410208
722.453761	6844.165369
722.786158	6797.257433
723.118506	6807.062477
723.450805	6776.480317
723.783056	6846.431368
724.115259	6744.809268
724.447412	6741.151911
724.779518	6785.105731
725.111574	6791.976824
725.443582	6872.597477
725.775542	6852.616863
726.107453	7028.510283
726.439315	6949.575896
726.771129	6995.515931
727.102895	7161.652197
727.434612	7277.815505
727.766281	7296.568598
728.097901	7388.350365
728.429473	7370.015688
728.760996	7340.933272
729.092471	7329.290727
729.423897	7285.997298
729.755276	7298.582538
730.086606	7232.934112
730.417887	7328.456416
730.749120	7497.871953
731.080305	7688.593926
731.411442	7826.260276
731.742530	7826.749268
732.073570	7922.833660
732.404562	8006.922627
732.735506	7856.121551
733.066401	8002.861978
733.397249	7940.137421
733.728048	7705.479271
734.058798	7377.514405
734.389501	7161.155643
734.720156	6987.109807
735.050762	6753.492655
735.381320	6645.014586
735.711831	6605.466734
736.042293	6495.388099
736.372707	6518.254773
736.703073	6381.190841
737.033391	6419.405308
737.363661	6427.713129
737.693883	6444.593433
738.024056	6529.415888
738.354182	6581.377581
738.684260	6621.918540
739.014290	6721.625001
739.344272	6833.654563
739.674207	6857.292534
740.004093	6919.223109
740.333931	6940.877385
740.663722	6947.783766
740.993464	7024.573142
741.323159	7022.798656
741.652806	6781.166069
741.982405	6765.021774
742.311956	6836.144893
742.641460	6697.810591
742.970915	6499.526886
743.300323	6487.685216
743.629683	6425.212717
743.958996	6297.807636
744.288260	6215.840995
744.617477	6158.512993
744.946647	6173.618811
745.275768	6011.724676
745.604842	5962.792716
745.933869	5939.605929
746.262847	5897.207304
746.591778	5888.579369
746.920662	5849.268452
747.249498	5834.540721
747.578286	5878.683584
747.907027	5959.331964
748.235720	6014.414131
748.564365	5988.510162
748.892963	6003.588253
749.221514	6165.051370
749.550017	6014.948493
749.878473	5885.799173
750.206881	5932.013951
750.535242	5873.660075
750.863555	5808.687163
751.191821	5830.545606
751.520039	5831.445452
751.848210	5744.483028
752.176334	5756.039873
752.504411	5815.096990
752.832440	5735.650926
753.160421	5658.788454
753.488356	5712.864911
753.816243	5744.835909
754.144082	5603.822233
754.471875	5566.089196
754.799620	5613.697853
755.127318	5623.951560
755.454969	5573.872738
755.782572	5539.255134
756.110129	5583.370272
756.437638	5578.029169
756.765100	5515.216392
757.092515	5511.884189
757.419882	5551.797525
757.747203	5538.418303
758.074477	5600.779896
758.401703	5595.045584
758.728882	5540.333941
759.056014	5582.306588
759.383099	5725.583742
759.710138	5731.670935
760.037129	5715.942535
760.364073	5723.607610
760.690970	5803.923273
761.017820	5795.108815
761.344623	5737.642182
761.671379	5830.737170
761.998088	5942.207164
762.324751	6169.716958
762.651366	6730.565488
762.977935	7976.249727
763.304456	9565.453312
763.630931	10498.517957
763.957359	10170.727010
764.283740	9260.052650
764.610074	8459.719066
764.936362	7484.638924
765.262602	6893.566156
765.588796	6348.289750
765.914943	6004.881309
766.241044	5852.782136
766.567097	5660.028577
766.893104	5403.103651
767.219064	5224.994645
767.544978	5164.692362
767.870845	5091.840128
768.196665	4984.657635
768.522438	4911.162653
768.848165	4882.236512
769.173846	4819.617820
769.499479	4778.744144
769.825066	4725.212132
770.150607	4659.782996
770.476101	4634.247031
770.801548	4630.196464
771.126949	4566.597267
771.452303	4512.994678
771.777611	4465.817040
772.102872	4481.343794
772.428087	4446.577476
772.753256	4408.471394
773.078378	4368.101834
773.403453	4299.350578
773.728482	4284.716109
774.053465	4237.316660
774.378401	4226.067325
774.703291	4228.285433
775.028135	4161.812778
775.352932	4110.708081
775.677683	4098.790793
776.002388	4118.635295
776.327046	4134.938387
776.651658	4056.296387
776.976224	3991.240296
777.300743	3999.601050
777.625216	4018.538144
777.949643	4020.360522
778.274024	3973.472750
778.598359	3923.497271
778.922647	3942.880507
779.246889	3942.013429
779.571086	3941.562246
779.895236	3927.731840
780.219339	3905.550763
780.543397	3897.129516
780.867409	3948.045170
781.191374	3964.355823
781.515294	3907.166453
781.839167	3900.779311
782.162995	3912.951177
782.486776	3901.482552
782.810511	3912.683996
783.134201	3913.180550
783.457844	3872.067419
783.781441	3814.194973
784.104993	3816.516425
784.428498	3833.774815
784.751958	3838.848736
785.075372	3814.900735
785.398739	3781.016619
785.722061	3784.747073
786.045337	3824.045388
786.368568	3863.452087
786.691752	3776.613171
787.014891	3823.352229
787.337983	3937.761216
787.661030	4091.032457
787.984031	4250.063217
788.306987	4429.097275
788.629897	4505.586703
788.952760	4460.932162
789.275579	4394.464548
789.598351	4335.157894
789.921078	4206.210220
790.243759	4009.544726
790.566395	3980.732011
790.888984	3979.648163
791.211529	3874.146895
791.534027	3817.348215
791.856480	3814.043739
792.178888	3751.578801
792.501249	3695.894216
792.823566	3704.784291
793.145836	3734.985843
793.468062	3688.322403
793.790241	3640.416318
794.112375	3668.142664
794.434464	3727.240111
794.756507	3755.949482
795.078505	3740.528592
795.400457	3765.131943
795.722364	3896.267478
796.044226	3999.492665
796.366042	4073.368254
796.687812	4058.675811
797.009538	4068.990012
797.331218	4017.358514
797.652852	3994.023013
797.974442	3976.111794
798.295986	3978.269407
798.617484	3904.560177
798.938938	3813.796722
799.260346	3851.101261
799.581709	3849.598997
799.903026	3781.271198
800.224299	3741.274683
800.545526	3737.123293
800.866708	3701.757078
801.187845	3636.625370
801.508936	3671.915968
801.829983	3679.457534
802.150984	3594.851849
802.471940	3585.190477
802.792851	3596.528032
803.113717	3594.090635
803.434538	3598.688167
803.755314	3548.430384
804.076045	3517.112215
804.396731	3533.543856
804.717372	3560.592167
805.037967	3549.915003
805.358518	3539.691543
805.679024	3560.458577
805.999485	3573.336204
806.319901	3577.293510
806.640272	3592.621138
806.960598	3611.497739
807.280879	3578.362235
807.601115	3590.191302
807.921306	3608.493211
808.241453	3646.755569
808.561554	3630.175214
808.881611	3564.788928
809.201623	3594.259513
809.521590	3608.863736
809.841513	3579.085640
810.161390	3608.100001
810.481223	3593.110130
810.801011	3535.401522
811.120755	3523.670757
811.440453	3558.835325
811.760107	3562.535532
812.079716	3528.883310
812.399281	3493.628000
812.718801	3513.444776
813.038276	3485.231958
813.357707	3483.764983
813.677093	3507.458406
813.996434	3457.561065
814.315731	3461.593988
814.634983	3461.609112
814.954191	3473.677634
815.273354	3507.619723
815.592473	3504.879856
815.911547	3506.215761
816.230577	3542.007954
816.549562	3590.458483
816.868502	3632.660503
817.187399	3661.407683
817.506250	3658.254441
817.825058	3622.363946
818.143821	3711.267215
818.462539	3814.736897
818.781213	3862.176676
819.099843	3910.846495
819.418429	4132.425372
819.736970	4369.364643
820.055466	4601.585395
820.373919	4955.673521
820.692327	5356.697309
821.010691	5751.946456
821.329011	7011.115782
821.647286	9576.755579
821.965517	13906.814346
822.283704	17876.037403
822.601847	20175.345481
822.919945	18477.731882
823.237999	16026.354878
823.556010	13609.925672
823.873976	11599.349681
824.191897	9554.861848
824.509775	8211.779996
824.827609	7102.549709
825.145398	6548.728548
825.463144	6434.276712
825.780845	6549.109155
826.098502	6705.677311
826.416116	7495.822724
826.733685	8755.791072
827.051210	9878.912258
827.368692	10005.437658
827.686129	8833.792846
828.003522	7344.184816
828.320872	6351.251428
828.638177	5665.967057
828.955439	5122.906238
829.272656	4634.277278
829.589830	4348.834544
829.906960	4178.282228
830.224046	3997.254393
830.541088	3875.026577
830.858086	3831.997808
831.175041	3758.218001
831.491952	3737.816451
831.808819	3746.610744
832.125642	3807.520486
832.442421	3944.317236
832.759157	4200.201164
833.075849	4715.134865
833.392497	5540.696904
833.709101	6288.862108
834.025662	6655.013715
834.342179	6345.020562
834.658653	5699.911666
834.975083	5080.550463
835.291469	4519.691851
835.607811	4105.031742
835.924110	3968.950835
836.240366	3782.042494
836.556578	3576.365938
836.872746	3467.227478
837.188871	3433.381171
837.504952	3371.296840
837.820990	3288.967236
838.136984	3241.219948
838.452935	3266.960079
838.768842	3261.465222
839.084706	3283.127060
839.400526	3423.266095
839.716303	3735.008529
840.032037	4230.521184
840.347727	4513.806304
840.663373	4273.255045
840.978977	3904.739137
841.294537	3605.097994
841.610054	3381.537944
841.925527	3270.004936
842.240957	3201.478011
842.556344	3152.006648
842.871687	3099.029162
843.186987	3045.434135
843.502244	3013.919362
843.817458	2976.763538
844.132629	2944.719443
844.447756	2952.281174
844.762840	2942.995368
845.077881	2911.470513
845.392879	2893.309756
845.707833	2889.657440
846.022745	2884.931358
846.337613	2887.058725
846.652438	2876.782333
846.967221	2875.257384
847.281960	2860.398583
847.596656	2859.269365
847.911309	2857.252903
848.225919	2849.784434
848.540485	2842.704133
848.855009	2844.387879
849.169490	2839.213134
849.483928	2827.071515
849.798323	2827.265600
850.112675	2819.552634
850.426984	2830.920436
850.741251	2832.465550
851.055474	2822.690752
851.369654	2815.428970
851.683792	2821.395176
851.997887	2829.476146
852.311938	2831.348934
852.625947	2819.605566
852.939914	2821.470793
853.253837	2827.769715
853.567718	2811.864875
853.881555	2807.660552
854.195350	2824.026658
854.509103	2822.426092
854.822812	2818.395689
855.136479	2815.320586
855.450103	2816.472489
855.763685	2806.969914
856.077224	2802.276600
856.390720	2814.415698
856.704173	2828.457832
857.017584	2818.998107
857.330953	2814.806388
857.644278	2824.354333
857.957561	2835.107114
858.270802	2834.303050
858.584000	2834.272803
858.897155	2823.706545
859.210268	2822.416010
859.523339	2821.861483
859.836367	2818.413333
860.149352	2813.578867
860.462295	2810.360090
860.775195	2818.703200
861.088054	2819.227480
861.400869	2803.178967
861.713642	2794.979530
862.026373	2812.162303
862.339062	2815.791933
862.651708	2821.082624
862.964312	2823.608242
863.276873	2817.752942
863.589392	2827.298367
863.901869	2837.872187
864.214303	2857.802389
864.526696	2875.403578
864.839045	2871.075747
865.151353	2870.344780
865.463619	2867.708256
865.775842	2870.869060
866.088023	2884.563354
866.400162	2894.963255
866.712258	2868.542567
867.024313	2855.087728
867.336325	2860.983357
867.648296	2886.037892
867.960224	2879.610421
868.272110	2861.910929
868.583954	2867.584748
868.895755	2883.366080
869.207515	2871.582383
869.519233	2868.915613
869.830909	2880.280894
870.142542	2892.069632
870.454134	2892.064591
870.765684	2897.123389
871.077191	2896.699932
871.388657	2898.731517
871.700081	2913.013106
872.011463	2923.808737
872.322803	2925.600867
872.634101	2923.959972
872.945357	2940.084102
873.256571	2965.920016
873.567744	2963.162504
873.878874	2948.722119
874.189963	2974.303454
874.501010	2977.963332
874.812015	2963.384315
875.122979	2966.653503
875.433900	2960.944397
875.744780	2965.851960
876.055618	2973.063331
876.366415	2971.432517
876.677169	2984.171513
876.987882	2978.202787
877.298554	2973.736325
877.609183	2991.350116
877.919771	3011.693693
878.230317	3039.102446
878.540822	3089.067842
878.851285	3126.657206
879.161707	3161.630211
879.472087	3250.251175
879.782425	3456.136939
880.092722	3861.317159
880.402977	4364.078994
880.713191	4951.312923
881.023363	6030.439959
881.333494	7260.456292
881.643583	7835.185639
881.953631	7564.127838
882.263637	6986.136864
882.573602	6437.944151
882.883526	5880.659717
883.193408	5323.445859
883.503248	4861.870251
883.813048	4576.200665
884.122806	4298.062563
884.432522	3999.142305
884.742197	3769.565638
885.051831	3579.524221
885.361424	3445.124538
885.670975	3380.118860
885.980485	3299.493166
886.289954	3227.944069
886.599382	3187.340095
886.908768	3147.656132
887.218113	3106.217848
887.527417	3053.527708
887.836680	3002.677589
888.145901	2995.688029
888.455082	2989.873058
888.764221	2939.267435
889.073319	2913.580236
889.382376	2912.123342
889.691392	2915.289187
890.000366	2914.590987
890.309300	2902.451889
890.618193	2915.425298
890.927044	2932.235026
891.235855	2930.745365
891.544625	2913.686100
891.853353	2924.522060
892.162041	2941.326747
892.470687	2980.156234
892.779293	3032.077598
893.087858	3071.053279
893.396381	3139.297899
893.704864	3247.105495
894.013306	3469.037252
894.321707	3752.513935
894.630068	3961.570585
894.938387	3963.040082
895.246665	3915.973349
895.554903	3808.397646
895.863100	3618.184829
896.171256	3457.651806
896.479371	3329.372084
896.787446	3211.202397
897.095480	3114.255967
897.403473	3051.501164
897.711425	3011.464320
898.019336	3006.692868
898.327207	2982.633961
898.635038	2948.404527
898.942827	2932.862649
899.250576	2920.998294
899.558284	2893.090466
899.865952	2873.339225
900.173579	2853.562779
900.481165	2843.959381
900.788711	2836.707681
901.096216	2811.607776
901.403681	2800.207206
901.711105	2802.715180
902.018489	2804.015798
902.325832	2803.005047
902.633135	2811.774134
902.940397	2839.828155
903.247619	2912.894639
903.554800	3088.538521
903.861941	3405.317067
904.169041	3807.712049
904.476101	4105.004015
904.783121	4085.895522
905.090100	3859.068804
905.397039	3599.671192
905.703938	3355.999459
906.010796	3179.438087
906.317614	3071.769123
906.624391	2987.259220
906.931129	2915.148035
907.237826	2858.500589
907.544483	2810.108032
907.851099	2781.806995
908.157675	2761.967534
908.464211	2742.291910
908.770707	2732.048286
909.077163	2716.329968
909.383578	2703.505273
909.689954	2692.293747
909.996289	2690.662933
910.302584	2691.572862
910.608839	2693.138140
910.915054	2686.524146
911.221229	2680.540296
911.527363	2686.665298
911.833458	2689.649661
912.139513	2695.477235
912.445527	2698.617874
912.751502	2704.389995
913.057436	2714.578167
913.363331	2725.767008
913.669186	2745.999679
913.975000	2774.083947
914.280775	2831.202741
914.586510	2896.311763
914.892205	2970.202476
915.197859	3085.849066
915.503475	3263.343051
915.809050	3461.352013
916.114585	3601.622118
916.420081	3631.445585
916.725536	3578.026998
917.030952	3469.438023
917.336328	3351.437215
917.641665	3224.513564
917.946961	3127.741054
918.252218	3062.309398
918.557435	2989.898264
918.862612	2935.761313
919.167750	2888.571072
919.472848	2848.998014
919.777906	2827.956238
920.082925	2802.092598
920.387904	2773.884822
920.692843	2757.001997
920.997743	2748.492530
921.302603	2734.397463
921.607423	2727.791031
921.912204	2711.361911
922.216946	2703.011240
922.521647	2695.086546
922.826310	2687.063549
923.130932	2680.328568
923.435516	2671.002433
923.740059	2665.762154
924.044564	2659.977430
924.349028	2655.359733
924.653454	2648.105512
924.957840	2640.982362
925.262186	2636.140334
925.566493	2633.345014
925.870761	2630.605147
926.174989	2622.534260
926.479178	2621.546193
926.783328	2613.407251
927.087438	2615.209463
927.391509	2615.310286
927.695541	2609.696961
927.999533	2607.158740
928.303486	2603.395519
928.607400	2604.065992
928.911275	2605.227978
929.215110	2601.852926
929.518906	2600.670775
929.822663	2600.118769
930.126381	2600.597679
930.430060	2600.567432
930.733699	2601.658842
931.037299	2600.912751
931.340861	2604.071034
931.644383	2606.684872
931.947866	2604.151692
932.251309	2602.193204
932.554714	2599.786053
932.858080	2600.317895
933.161407	2598.399736
933.464694	2598.011567
933.767943	2596.345465
934.071153	2595.851432
934.374323	2594.061823
934.677455	2597.257914
934.980548	2593.046030
935.283602	2594.303798
935.586617	2595.417893
935.889593	2595.125506
936.192530	2593.308170
936.495428	2596.610126
936.798287	2593.507296
937.101108	2596.080805
937.403890	2603.985334
937.706632	2608.340891
938.009336	2612.537652
938.312002	2622.514095
938.614628	2627.497276
938.917216	2637.463637
939.219765	2638.824748
939.522275	2636.329377
939.824747	2633.239150
940.127179	2630.973151
940.429573	2627.867800
940.731929	2624.921246
941.034246	2622.955196
941.336524	2622.433437
941.638763	2616.603342
941.940964	2612.744339
942.243126	2614.538990
942.545250	2614.102930
942.847335	2611.340377
943.149381	2605.502721
943.451389	2602.052052
943.753359	2597.540219
944.055290	2600.670775
944.357182	2598.465271
944.659036	2598.818151
944.960851	2593.797162
945.262628	2594.470156
945.564367	2596.781525
945.866067	2596.216916
946.167729	2596.405959
946.469352	2596.925198
946.770937	2596.700867
947.072484	2593.958479
947.373992	2595.191041
947.675462	2591.634507
947.976893	2588.224167
948.278286	2588.924887
948.579641	2588.216605
948.880958	2585.254927
949.182236	2588.748447
949.483476	2587.531008
949.784678	2588.912284
950.085841	2587.641913
950.386967	2589.607963
950.688054	2588.231728
950.989103	2588.776173
951.290114	2587.828436
951.591087	2593.403952
951.892021	2594.008891
952.192917	2595.932091
952.493776	2596.597523
952.794596	2602.021805
953.095378	2598.334201
953.396122	2599.995261
953.696828	2597.421752
953.997496	2593.280444
954.298126	2593.986205
954.598718	2591.568972
954.899272	2588.511512
955.199788	2586.580750
955.500266	2586.530339
955.800706	2582.905749
956.101108	2580.370049
956.401472	2578.673701
956.701798	2577.846951
957.002087	2575.298648
957.302337	2574.129100
957.602550	2577.037846
957.902724	2572.974676
958.202861	2568.755230
958.502960	2568.780436
958.803022	2569.186249
959.103045	2567.144582
959.403031	2567.114335
959.702979	2565.768347
960.002889	2567.358831
960.302762	2565.753223
960.602596	2566.368244
960.902393	2565.165929
961.202153	2565.347410
961.501875	2563.900599
961.801559	2565.191135
962.101205	2564.054354
962.400814	2564.233315
962.700385	2564.555949
962.999918	2560.822975
963.299414	2559.890361
963.598873	2560.412121
963.898293	2560.848181
964.197677	2563.772050
964.497022	2561.138047
964.796331	2563.154508
965.095601	2563.703994
965.394835	2561.221226
965.694030	2560.797769
965.993189	2564.891186
966.292309	2562.035372
966.591393	2564.871021
966.890439	2561.470763
967.189447	2560.452450
967.488419	2560.906154
967.787353	2563.182235
968.086249	2561.281720
968.385108	2560.684343
968.683930	2560.616287
968.982714	2564.969324
969.281462	2563.593089
969.580172	2560.654096
969.878844	2561.543860
970.177480	2563.799776
970.476078	2564.339180
970.774639	2561.692574
971.073162	2564.177863
971.371649	2560.757440
971.670098	2562.839436
971.968510	2559.038406
972.266885	2565.884293
972.565223	2561.286761
972.863524	2564.538305
973.161788	2561.526216
973.460014	2560.454971
973.758204	2562.272307
974.056356	2559.693756
974.354471	2560.293654
974.652550	2561.740465
974.950591	2562.141237
975.248595	2565.448233
975.546563	2564.205589
975.844493	2561.909343
976.142386	2562.849519
976.440243	2561.503531
976.738062	2562.932698
977.035845	2560.028993
977.333590	2558.277192
977.631299	2561.722821
977.928971	2559.310629
978.226606	2557.011862
978.524204	2559.890361
978.821765	2555.895247
979.119290	2558.577141
979.416777	2560.926318
979.714228	2560.162584
980.011642	2560.956565
980.309020	2559.804662
980.606360	2558.796431
980.903664	2560.729713
981.200931	2560.318859
981.498162	2562.189127
981.795356	2561.004456
982.092513	2564.308933
982.389633	2566.053172
982.686717	2570.431414
982.983764	2572.556260
983.280775	2573.166240
983.577749	2576.289235
983.874686	2572.999882
984.171587	2573.025088
984.468451	2572.059707
984.765279	2568.513255
985.062070	2565.133161
985.358824	2568.097360
985.655543	2563.580486
985.952224	2564.497976
986.248869	2562.773901
986.545478	2560.341545
986.842050	2563.651062
987.138586	2559.413972
987.435086	2559.671071
987.731549	2559.565207
988.027975	2559.716442
988.324366	2560.001267
988.620719	2561.135526
988.917037	2558.378015
989.213318	2559.076215
989.509563	2556.868190
989.805772	2557.266441
990.101944	2560.341545
990.398080	2558.854404
990.694180	2557.705021
990.990244	2559.086297
991.286271	2558.481359
991.582262	2553.921635
991.878217	2560.018911
992.174136	2556.537994
992.470019	2555.814588
992.765865	2553.788045
993.061676	2553.281409
993.357450	2553.445246
993.653188	2553.230997
993.948890	2557.836091
994.244556	2559.108982
994.540186	2557.367264
994.835780	2559.325752
995.131337	2556.714434
995.426859	2559.663509
995.722345	2562.461350
996.017795	2560.515464
996.313208	2561.579148
996.608586	2559.666030
996.903928	2563.789694
997.199234	2561.193500
997.494504	2561.248952
997.789738	2560.714590
998.084936	2560.908674
998.380099	2561.727862
998.675225	2560.485218
998.970316	2557.405072
999.265371	2560.069322
999.560390	2558.526729
999.855373	2556.656461
1000.150320	2557.596636
1000.445232	2560.117213
1000.740108	2558.882131
1001.034948	2559.880279
1001.329752	2557.359702
1001.624521	2554.443395
1001.919254	2554.929866
1002.213951	2558.158725
1002.508613	2554.135884
1002.803239	2558.829198
1003.097829	2555.791903
1003.392384	2555.373487
1003.686903	2556.548076
1003.981386	2554.554300
1004.275834	2555.764177
1004.570246	2553.699824
1004.864623	2554.534135
1005.158964	2555.877603
1005.453270	2555.527243
1005.747540	2557.084959
1006.041775	2556.830381
1006.335974	2553.760318
1006.630138	2555.217212
1006.924266	2555.801986
1007.218359	2558.609908
1007.512416	2555.426420
1007.806438	2553.601522
1008.100425	2555.595298
1008.394376	2549.185471
1008.688292	2555.862479
1008.982172	2557.251317
1009.276017	2555.081101
1009.569827	2553.916594
1009.863602	2554.435833
1010.157341	2555.237376
1010.451045	2555.680998
1010.744714	2557.062274
1011.038347	2557.609239
1011.331945	2555.270144
1011.625508	2555.635627
1011.919036	2556.648899
1012.212528	2555.532284
1012.505986	2554.181255
1012.799408	2556.104455
1013.092795	2554.763508
1013.386147	2554.972716
1013.679464	2554.075390
1013.972745	2555.494475
1014.265992	2555.343241
1014.559204	2555.728889
1014.852380	2554.881975
1015.145521	2555.998591
1015.438628	2553.488096
1015.731699	2555.373487
1016.024736	2556.989177
1016.317737	2556.124619
1016.610703	2558.153684
1016.903635	2554.040102
1017.196531	2552.341233
1017.489393	2555.650751
1017.782219	2555.887685
1018.075011	2554.186296
1018.367768	2557.329455
1018.660490	2555.502037
1018.953177	2555.502037
1019.245829	2555.502037
