Dividing Wavelength (nm)	Counts (n)	Blue Motor Position (mm): 26.800000	Red Motor Position (mm): 0.000000	
326.493990	2203.478264
326.888308	2203.478264
327.282561	2203.478264
327.676750	2162.763385
328.070874	2161.321615
328.464933	2160.041162
328.858929	2164.774805
329.252859	2169.349652
329.646726	2175.550272
330.040528	2190.908147
330.434265	2203.758048
330.827938	2221.475183
331.221547	2235.693758
331.615091	2256.145719
332.008571	2275.453338
332.401986	2293.102418
332.795338	2312.062197
333.188625	2329.718838
333.581847	2348.557630
333.975006	2369.032277
334.368100	2387.969371
334.761129	2405.694068
335.154095	2421.740061
335.546996	2448.274174
335.939833	2484.552838
336.332606	2498.685713
336.725315	2509.055366
337.117960	2524.871986
337.510540	2534.636701
337.903056	2545.840666
338.295508	2558.372974
338.687896	2562.746175
339.080220	2571.742114
339.472480	2579.225707
339.864676	2587.725092
340.256807	2590.633838
340.648875	2594.492841
341.040879	2594.303798
341.432818	2599.450816
341.824694	2601.358893
342.216506	2603.960128
342.608253	2601.799994
342.999937	2604.073554
343.391557	2605.888370
343.783113	2603.995416
344.174605	2605.432145
344.566033	2601.568101
344.957397	2601.792432
345.348697	2600.670775
345.739934	2598.019128
346.131106	2596.610126
346.522215	2593.618201
346.913260	2592.355392
347.304241	2590.437233
347.695159	2587.911615
348.086012	2589.038313
348.476802	2585.038157
348.867528	2580.932137
349.258191	2579.092116
349.648789	2575.883422
350.039324	2574.345870
350.429796	2577.728484
350.820203	2574.766806
351.210548	2576.024574
351.600828	2574.378637
351.991045	2571.081723
352.381198	2572.810839
352.771288	2571.358986
353.161314	2571.114490
353.551276	2569.662638
353.941175	2569.246743
354.331010	2569.123235
354.720782	2570.630540
355.110490	2571.341342
355.500135	2571.348904
355.889717	2569.886969
356.279235	2568.170457
356.668689	2569.178687
357.058080	2568.175498
357.447408	2568.016701
357.836672	2570.141548
358.225873	2572.974676
358.615010	2570.275138
359.004084	2571.147258
359.393095	2570.512072
359.782043	2572.258832
360.170927	2572.422670
360.559748	2571.018708
360.948505	2576.682445
361.337199	2576.266550
361.725830	2574.020716
362.114398	2577.967939
362.502903	2575.182702
362.891344	2577.108422
363.279722	2576.982393
363.668037	2574.272773
364.056289	2574.792012
364.444478	2579.858372
364.832603	2577.708320
365.220665	2578.961046
365.608665	2579.344174
365.996601	2580.760738
366.384474	2581.821901
366.772284	2580.612024
367.160031	2581.237127
367.547715	2579.344174
367.935336	2581.567323
368.322893	2579.344174
368.710388	2576.785788
369.097820	2580.014647
369.485189	2577.030284
369.872495	2583.624114
370.259738	2584.108064
370.646918	2584.413054
371.034035	2583.798033
371.421090	2584.193764
371.808081	2582.999011
372.195010	2585.413723
372.581875	2585.953127
372.968678	2584.642427
373.355418	2583.664443
373.742096	2587.578899
374.128710	2585.325503
374.515262	2585.706110
374.901751	2585.141501
375.288177	2585.489341
375.674540	2588.004876
376.060841	2584.566809
376.447079	2587.329362
376.833254	2588.433374
377.219367	2586.800041
377.605417	2588.607294
377.991404	2589.509661
378.377329	2589.814651
378.763191	2587.447829
379.148991	2592.279775
379.534727	2589.537387
379.920402	2588.204002
380.306013	2591.568972
380.691563	2590.878334
381.077049	2591.384970
381.462474	2589.096286
381.847835	2587.765422
382.233134	2593.429158
382.618371	2594.699529
383.003545	2590.270875
383.388657	2590.354054
383.773706	2596.307657
384.158693	2594.631473
384.543618	2594.732296
384.928480	2593.497213
385.313280	2595.175918
385.698017	2595.206165
386.082692	2595.087697
386.467305	2594.805393
386.851856	2596.723552
387.236344	2596.647935
387.620770	2591.705083
388.005133	2590.396904
388.389435	2595.180959
388.773674	2593.310691
389.157851	2599.057606
389.541965	2598.124993
389.926018	2596.836978
390.310008	2596.973089
390.693936	2597.860332
391.077802	2599.226485
391.461606	2599.415528
391.845348	2599.859150
392.229027	2600.892586
392.612645	2598.840837
392.996200	2600.577514
393.379694	2600.300251
393.763125	2599.728080
394.146494	2601.457195
394.529801	2601.207658
394.913047	2602.644387
395.296230	2604.078595
395.679351	2601.147164
396.062410	2599.778491
396.445408	2601.346290
396.828343	2603.544233
397.211217	2602.316712
397.594028	2607.859461
397.976778	2604.728904
398.359466	2606.677310
398.742092	2603.778647
399.124656	2604.202104
399.507158	2605.469954
399.889598	2604.625561
400.271977	2605.860643
400.654294	2608.441714
401.036549	2603.246805
401.418742	2605.482557
401.800874	2607.720829
402.182944	2606.387444
402.564952	2607.136055
402.946898	2606.069851
403.328783	2608.169492
403.710606	2609.412136
404.092367	2610.001951
404.474067	2608.134204
404.855705	2609.704523
405.237282	2609.480192
405.618797	2611.128649
406.000250	2609.472630
406.381642	2611.489092
406.762972	2609.790223
407.144240	2605.653956
407.525447	2607.902311
407.906593	2608.174533
408.287677	2609.840634
408.668700	2612.598145
409.049661	2614.849021
409.430560	2611.990686
409.811399	2614.901953
410.192176	2615.678290
410.572891	2613.480347
410.953545	2611.554627
411.334138	2613.160234
411.714669	2613.296345
412.095139	2615.055708
412.475547	2616.792385
412.855894	2617.034361
413.236180	2614.397837
413.616405	2616.361367
413.996568	2616.061418
414.376670	2617.039402
414.756711	2616.517642
415.136691	2619.108796
415.516609	2617.021758
415.896466	2617.898919
416.276262	2618.665174
416.655997	2618.740791
417.035670	2619.290277
417.415283	2621.919239
417.794834	2619.179372
418.174324	2619.449073
418.553753	2620.540483
418.933121	2622.526698
419.312428	2621.031996
419.691674	2618.791203
420.070859	2625.047275
420.449983	2621.921759
420.829045	2621.538632
421.208047	2621.508385
421.586988	2624.281019
421.965867	2623.383694
422.344686	2626.894858
422.723444	2624.076853
423.102141	2622.317490
423.480777	2628.434930
423.859352	2624.956534
424.237866	2627.106586
424.616319	2630.398460
424.994712	2628.477780
425.373044	2628.523150
425.751314	2626.423510
426.129524	2625.120372
426.507673	2629.397791
426.885762	2627.764457
427.263789	2631.043727
427.641756	2631.552884
428.019662	2629.712863
428.397508	2633.155971
428.775292	2629.816206
429.153016	2635.278297
429.530679	2631.875518
429.908282	2633.972638
430.285824	2633.392905
430.663305	2635.341311
431.040726	2636.001702
431.418086	2635.250570
431.795385	2637.413225
432.172624	2636.828451
432.549802	2638.751652
432.926920	2636.677217
433.303977	2638.759213
433.680974	2641.000006
434.057910	2644.526293
434.434786	2641.887249
434.811601	2643.976808
435.188355	2646.444452
435.565050	2646.363794
435.941683	2648.065183
436.318257	2651.256234
436.694770	2652.145997
437.071222	2653.071049
437.447614	2657.671102
437.823946	2659.904333
438.200218	2659.896771
438.576429	2665.207627
438.952580	2666.893893
439.328670	2672.671055
439.704700	2676.028464
440.080670	2680.613393
440.456580	2688.175124
440.832429	2696.273737
441.208218	2697.728110
441.583947	2710.083978
441.959616	2721.033365
442.335224	2728.353120
442.710773	2742.682600
443.086261	2756.187851
443.461689	2761.607091
443.837057	2786.553241
444.212365	2809.939154
444.587612	2821.969867
444.962800	2844.955008
445.337927	2868.320757
445.712995	2877.563712
446.088002	2940.409257
446.462949	2963.401959
446.837837	2997.268431
447.212664	3034.716642
447.587431	3102.683999
447.962139	3184.504446
448.336786	3383.539283
448.711374	3499.868949
449.085901	3402.360430
449.460369	3424.677618
449.834776	3448.239972
450.209124	3592.701797
450.583412	3719.595201
450.957640	3909.034201
451.331808	3898.382242
451.705917	3861.985112
452.079965	3852.401878
452.453954	4066.348447
452.827883	4100.656020
453.201752	4242.856888
453.575562	4255.464813
453.949311	4416.207045
454.323001	4517.146068
454.696632	4656.271832
455.070202	4822.405578
455.443713	4984.030011
455.817164	5213.687337
456.190556	5329.046581
456.563888	5549.881887
456.937160	5719.912444
457.310373	5665.185678
457.683526	5796.779958
458.056619	5802.310104
458.429653	5963.208611
458.802628	5938.645589
459.175542	6173.399521
459.548398	6608.009997
459.921194	6890.866618
460.293930	7040.208280
460.666607	7532.164402
461.039224	8092.153415
461.411782	8562.125065
461.784280	8703.816776
462.156719	8901.755161
462.529099	8915.315865
462.901419	8631.629973
463.273680	8701.528092
463.645882	8788.266185
464.018024	8816.080752
464.390106	9085.560672
464.762130	9635.865628
465.134094	10150.446448
465.505999	11303.814557
465.877845	13248.205240
466.249631	15067.081274
466.621358	15217.373193
466.993026	14687.197564
467.364634	14612.444814
467.736184	14020.031099
468.107674	13724.004463
468.479105	13984.707734
468.850477	13862.437068
469.221790	13770.738480
469.593043	13511.948327
469.964238	13350.626363
470.335373	13282.384263
470.706449	13726.877921
471.077467	13547.957289
471.448425	14968.423372
471.819324	18033.349129
472.190164	19859.877635
472.560945	17506.634252
472.931667	15826.909187
473.302330	15487.218597
473.672934	15199.124217
474.043479	15662.799465
474.413965	15653.158258
474.784393	15499.153529
475.154761	16155.259702
475.525070	16322.631051
475.895321	16136.428472
476.265513	16738.228815
476.635645	17346.199531
477.005719	17301.126574
477.375734	17582.412876
477.745691	18145.814751
478.115588	18677.139763
478.485427	19252.597557
478.855207	20290.099786
479.224928	21895.540928
479.594591	24013.284288
479.964194	24233.098761
480.333739	24615.477842
480.703226	24318.873993
481.072653	24134.012361
481.442022	24717.117586
481.811333	25636.099767
482.180584	25690.461050
482.549777	24895.345059
482.918912	24633.623475
483.287988	24821.063657
483.657005	24610.103972
484.025964	24396.374172
484.394864	24423.009108
484.763706	24204.669174
485.132489	23703.172668
485.501213	23909.307970
485.869879	23892.999837
486.238487	23711.969482
486.607036	23927.428397
486.975527	23644.251662
487.343959	24025.088150
487.712333	24021.110680
488.080648	23714.878228
488.448905	24206.630182
488.817104	23978.344051
489.185244	24645.896164
489.553326	24665.211345
489.921350	25598.850681
490.289315	27838.620212
490.657222	29666.572843
491.025070	30175.285760
491.392861	30003.122795
491.760593	29199.141935
492.128267	28333.222939
492.495883	27334.104055
492.863440	26463.199358
493.230939	25612.618072
493.598380	25458.429341
493.965763	25075.737708
494.333088	24650.909592
494.700354	24565.353649
495.067563	24483.550846
495.434713	24236.942641
495.801805	24379.113261
496.168839	24208.422313
496.535815	24032.843965
496.902733	24249.545525
497.269593	23921.830196
497.636395	24124.459375
498.003139	24108.483958
498.369825	23860.123952
498.736453	24052.078488
499.103023	23930.155662
499.469535	23963.500374
499.835989	24158.041021
500.202385	24188.726525
500.568723	23692.082130
500.935003	23966.842659
501.301226	23548.419328
501.667390	24368.088258
502.033497	24628.834379
502.399546	24358.827658
502.765537	23951.489825
503.131470	24324.053779
503.497345	24463.144255
503.863163	23667.935003
504.228923	24312.615401
504.594625	24483.303829
504.960269	23996.824921
505.325856	24501.058773
505.691385	23908.526591
506.056856	24516.638459
506.422270	24486.883048
506.787625	24085.881945
507.152924	24474.300328
507.518164	24511.156204
507.883347	24305.613238
508.248472	23996.829962
508.613540	24783.388594
508.978550	24551.288830
509.343503	24551.286309
509.708398	24831.284597
510.073236	24987.832588
510.438016	25186.196951
510.802738	24870.726584
511.167403	25111.870179
511.532010	24807.094620
511.896561	25597.517296
512.261053	25568.742390
512.625488	25412.406127
512.989866	25290.652179
513.354186	25160.116542
513.718449	25245.952268
514.082655	25631.570290
514.446803	25366.813932
514.810894	25820.842932
515.174927	25314.262423
515.538904	25349.502609
515.902822	25838.028226
516.266684	25578.993576
516.630488	25484.545038
516.994235	25481.767363
517.357925	25766.995847
517.721558	25952.228004
518.085133	26044.133280
518.448651	25963.220240
518.812112	25693.803335
519.175516	25874.165737
519.538863	26044.362653
519.902152	25823.822254
520.265385	26122.868541
520.628560	25898.282617
520.991678	25927.349910
521.354739	26007.544585
521.717743	26051.009414
522.080690	25839.457393
522.443580	26178.041450
522.806413	26175.019278
523.169189	26265.875994
523.531908	26318.225856
523.894569	25924.673057
524.257174	25994.014128
524.619722	26201.734873
524.982213	25877.651695
525.344647	25960.583717
525.707025	26063.486270
526.069345	26068.628247
526.431608	26019.378694
526.793815	26218.113582
527.155964	25655.041903
527.518057	25826.037841
527.880093	25758.428406
528.242072	25993.053789
528.603995	25691.073550
528.965860	25489.734906
529.327669	25545.762290
529.689421	25533.781988
530.051117	25364.631112
530.412755	25547.877054
530.774337	25351.330027
531.135862	25215.450767
531.497331	25419.080615
531.858743	24955.402846
532.220098	25444.208246
532.581396	25118.617763
532.942638	25071.798047
533.303824	25166.702809
533.664953	25191.522930
534.026025	24842.148283
534.387040	25079.206022
534.747999	25145.562730
535.108902	25313.801158
535.469748	24798.794360
535.830537	24991.386602
536.191270	25093.117086
536.551947	25002.956050
536.912567	24657.538709
537.273131	24970.508663
537.633638	24687.092473
537.994089	24898.387396
538.354483	24448.287974
538.714821	24948.728358
539.075103	24986.002649
539.435328	24777.734940
539.795497	24313.353930
540.155609	24725.987496
540.515665	25021.938515
540.875665	24273.382621
541.235609	24541.168713
541.595496	24522.526527
541.955328	24866.665935
542.315102	24782.965137
542.674821	24350.895403
543.034483	24212.931625
543.394090	24394.256888
543.753640	24181.429454
544.113134	24801.098168
544.472571	24406.756428
544.831953	24692.224368
545.191278	24305.104082
545.550548	24239.430450
545.909761	24453.989519
546.268918	24676.349774
546.628019	24639.415761
546.987064	24344.977088
547.346053	24096.798564
547.704986	24235.021961
548.063863	24396.333843
548.422684	24388.275558
548.781449	23935.595067
549.140158	24332.348998
549.498811	23910.898454
549.857408	23656.491584
550.215949	24088.556277
550.574434	23761.125773
550.932864	23992.774354
551.291237	24131.247288
551.649555	24007.302959
552.007817	24055.055289
552.366022	23931.357977
552.724173	23970.782320
553.082267	23911.916767
553.440305	24373.681418
553.798288	23645.199399
554.156215	24185.076729
554.514086	24252.945783
554.871902	23624.462613
555.229661	23918.339197
555.587365	23773.872331
555.945014	23627.053766
556.302606	23882.327714
556.660143	23812.946314
557.017625	24086.121400
557.375050	23619.474391
557.732421	24009.357230
558.089735	23811.549914
558.446994	23878.362847
558.804197	23894.688624
559.161345	23861.537996
559.518437	23602.205919
559.875474	23795.483757
560.232455	23983.181038
560.589381	23804.719151
560.946251	23771.681949
561.303065	24108.942703
561.659825	24182.888868
562.016528	23794.236072
562.373177	23538.745353
562.729770	23889.990268
563.086307	23760.586370
563.442789	23924.754065
563.799216	23746.859308
564.155587	23774.457104
564.511904	23750.347786
564.868164	23682.781201
565.224370	23674.556559
565.580520	23572.982350
565.936615	23700.097565
566.292654	23377.463718
566.648638	23699.258213
567.004567	23508.417772
567.360441	23461.219969
567.716260	23194.565616
568.072023	23522.815307
568.427732	23268.988170
568.783385	23063.467889
569.138982	23292.474906
569.494525	23331.576616
569.850013	23082.193255
570.205445	23176.409900
570.560823	22984.074757
570.916145	22742.192634
571.271412	22916.326691
571.626625	22669.784021
571.981782	22795.717085
572.336884	22594.111261
572.691931	22725.440880
573.046923	22457.468265
573.401860	22349.146472
573.756743	22342.217406
574.111570	22264.046754
574.466342	22193.457997
574.821059	22289.028192
575.175722	21991.138849
575.530330	21973.353658
575.884882	22007.399091
576.239380	21899.752812
576.593823	21806.955252
576.948211	21767.979571
577.302544	21619.560440
577.656823	21496.677274
578.011047	21587.402920
578.365216	21458.417437
578.719330	21346.866785
579.073389	21241.874673
579.427394	21388.199205
579.781344	21160.684370
580.135239	21047.003830
580.489080	21014.677431
580.842866	20779.724374
581.196597	20986.026033
581.550273	20957.120057
581.903895	20843.994044
582.257463	21166.113693
582.610975	20694.395283
582.964434	20996.627580
583.317837	20698.138340
583.671186	20790.041095
584.024481	20752.696228
584.377721	20531.313957
584.730906	20588.863769
585.084037	20620.512133
585.437113	20533.516941
585.790135	20723.928883
586.143103	20194.925322
586.496016	20204.871519
586.848874	20444.003692
587.201679	20379.318127
587.554428	20042.758093
587.907124	20385.932121
588.259765	20166.341980
588.612352	20244.684031
588.964884	19801.370003
589.317362	19980.031016
589.669786	20035.672752
590.022155	20080.329813
590.374470	20263.931157
590.726731	20064.520754
591.078937	19821.176697
591.431090	19922.690412
591.783188	19664.411935
592.135232	19643.639861
592.487222	19734.282328
592.839157	19765.295506
593.191038	19644.595160
593.542866	19527.693323
593.894639	19256.363299
594.246358	19480.054419
594.598022	19380.438698
594.949633	19135.869640
595.301190	19090.032948
595.652692	19245.958358
596.004141	19503.480661
596.355535	18829.775819
596.706876	18852.181228
597.058162	18729.968535
597.409395	18960.137537
597.760573	19036.886584
598.111698	18812.761925
598.462768	18747.786493
598.813785	18724.864367
599.164748	18543.985246
599.515657	18568.240758
599.866511	18361.412298
600.217312	18725.769254
600.568060	18247.474659
600.918753	18563.048369
601.269392	18471.995049
601.619978	18230.604438
601.970510	18454.366134
602.320988	18393.242143
602.671412	18600.889791
603.021783	18505.770779
603.372100	18245.833764
603.722363	18372.913690
604.072572	18319.510227
604.422728	18455.167677
604.772830	18224.373572
605.122878	18170.040016
605.472872	18169.011620
605.822813	18149.431779
606.172701	18110.226725
606.522534	18317.995360
606.872314	18331.558585
607.222041	18171.186878
607.571714	18380.666985
607.921333	18207.463021
608.270899	18288.320608
608.620411	18478.107448
608.969870	18238.876971
609.319276	18239.466786
609.668627	18271.863762
610.017926	18405.252692
610.367171	18522.729221
610.716362	18557.772802
611.065500	18375.272950
611.414585	18515.401904
611.763616	18494.103029
612.112594	18442.955482
612.461518	18409.595646
612.810389	18608.330534
613.159207	18452.256411
613.507971	18371.366056
613.856682	18649.778901
614.205340	18576.820802
614.553945	18722.159788
614.902496	18466.963977
615.250994	18708.906594
615.599439	18641.675246
615.947830	18634.899935
616.296169	18673.956275
616.644454	18643.908477
616.992686	18610.074773
617.340864	18826.814142
617.688990	18579.467407
618.037063	18758.415766
618.385082	18595.999872
618.733048	18895.091529
619.080961	18747.403366
619.428821	18808.469383
619.776628	18686.629735
620.124382	18604.688300
620.472083	18646.446698
620.819731	18672.746398
621.167326	18365.843472
621.514868	18394.202483
621.862357	18173.256272
622.209793	18180.628959
622.557176	18016.960338
622.904506	17835.942586
623.251783	17750.918485
623.599007	17508.754057
623.946179	17462.602293
624.293297	17397.778096
624.640363	17156.682393
624.987376	17174.853232
625.334336	16970.701625
625.681243	16808.794887
626.028097	16824.029253
626.374899	16748.480001
626.721647	16615.136441
627.068343	16443.139833
627.414987	16380.690020
627.761577	16346.037128
628.108115	16403.617187
628.454600	16118.393744
628.801032	16214.972169
629.147412	16140.005170
629.493739	16169.231260
629.840014	15977.238916
630.186236	16082.074751
630.532405	15836.452092
630.878521	16042.163936
631.224585	15929.322748
631.570597	15746.797691
631.916556	15782.746159
632.262462	15762.072387
632.608316	15682.767475
632.954117	15626.049453
633.299866	15616.720798
633.645562	15535.076791
633.991206	15296.960410
634.336797	15165.713969
634.682336	15131.597961
635.027823	15022.247772
635.373257	14905.963476
635.718639	14801.573783
636.063968	14755.129633
636.409245	14503.157640
636.754470	14534.916909
637.099642	14384.370411
637.444762	14147.093382
637.789829	14195.881669
638.134845	14032.160116
638.479808	14053.920256
638.824719	14007.546682
639.169577	13857.095966
639.514383	13907.878029
639.859137	13730.061410
640.203839	13809.482268
640.548489	13645.851455
640.893086	13642.824242
641.237632	13511.446732
641.582125	13657.551973
641.926566	13490.021828
642.270955	13496.565246
642.615292	13460.808342
642.959576	13473.557420
643.303809	13512.207946
643.647990	13436.305813
643.992118	13499.834434
644.336195	13271.573508
644.680219	13470.883088
645.024192	13396.132858
645.368112	13642.645281
645.711981	13694.304505
646.055797	13872.920148
646.399562	13842.718595
646.743274	14111.747332
647.086935	14392.892482
647.430544	14347.496892
647.774101	14375.863464
648.117606	14537.540830
648.461059	14501.141178
648.804460	14495.442154
649.147810	14220.323703
649.491108	14120.846615
649.834354	14137.391682
650.177548	13833.851206
650.520690	13644.507988
650.863781	13562.170822
651.206820	13614.747536
651.549807	13441.241103
651.892742	13242.092841
652.235626	13179.264940
652.578458	13186.171321
652.921238	12863.383720
653.263967	13076.891709
653.606644	12887.724931
653.949269	12873.997869
654.291843	12676.465297
654.634365	12829.784429
654.976836	12686.671113
655.319255	12693.917772
655.661622	12652.602995
656.003938	12570.177609
656.346203	12498.787309
656.688416	12564.765931
657.030577	12529.263605
657.372687	12448.138836
657.714746	12415.169690
658.056753	12611.852828
658.398708	12428.914396
658.740612	12431.273656
659.082465	12524.991227
659.424266	12484.558652
659.766016	12516.970751
660.107715	12430.061259
660.449362	12497.451403
660.790958	12460.182153
661.132503	12402.685273
661.473996	12465.949233
661.815438	12487.545536
662.156829	12500.743277
662.498168	12483.956234
662.839456	12481.866676
663.180693	12496.501146
663.521879	12587.869539
663.863013	12568.350191
664.204097	12541.206098
664.545129	12655.433603
664.886110	12629.879994
665.227040	12714.344527
665.567918	12727.113770
665.908746	12763.795726
666.249522	12742.491809
666.590248	12788.557873
666.930922	12905.167323
667.271545	12882.106565
667.612118	12968.554792
667.952639	12873.405534
668.293109	12884.372564
668.633528	12840.113754
668.973896	12810.509578
669.314213	12899.627095
669.654480	12635.659677
669.994695	12696.932382
670.334859	12730.876991
670.674973	12670.519256
671.015035	12707.579298
671.355047	12643.952375
671.695008	12624.521248
672.034918	12632.700520
672.374777	12667.464317
672.714585	12583.047675
673.054342	12623.074437
673.394049	12564.932289
673.733705	12660.441989
674.073310	12575.463259
674.412864	12594.226434
674.752368	12445.943414
675.091820	12467.421250
675.431223	12463.242133
675.770574	12329.666680
676.109875	12245.827250
676.449125	12212.595964
676.788324	12152.407108
677.127473	11990.223106
677.466571	11979.954276
677.805619	11882.158412
678.144616	11793.855040
678.483562	11771.482400
678.822458	11637.402831
679.161303	11616.928184
679.500098	11603.009559
679.838842	11556.043649
680.177535	11585.993144
680.516179	11646.187041
680.854771	11587.308885
681.193314	11808.260137
681.531805	11955.366048
681.870247	12371.772917
682.208638	12788.648614
682.546978	13102.513373
682.885268	13158.535716
683.223508	12839.987725
683.561697	12682.040813
683.899836	12586.268972
684.237925	12389.318653
684.575963	12301.345478
684.913951	12229.851834
685.251889	12176.526508
685.589776	12273.283895
685.927614	12200.529962
686.265401	12159.179898
686.603137	12209.475490
686.940824	12366.295704
687.278460	12480.883651
687.616046	12531.917772
687.953582	12712.454094
688.291068	12626.320940
688.628504	12857.142771
688.965889	12871.048794
689.303224	12834.540758
689.640510	12730.324985
689.977745	12415.814958
690.314930	12196.975949
690.652065	12104.112854
690.989150	11812.955972
691.326185	11584.536250
691.663170	11378.458922
692.000105	11140.665175
692.336990	11028.565037
692.673825	10777.528178
693.010610	10658.317492
693.347345	10455.169075
693.684030	10249.280790
694.020665	10193.129898
694.357251	9996.298046
694.693786	9940.830230
695.030272	9774.515003
695.366707	9658.172734
695.703093	9591.884082
696.039429	9587.977187
696.375716	9512.758131
696.711952	9376.924240
697.048139	9418.213811
697.384276	9377.148572
697.720363	9393.076097
698.056400	9328.897168
698.392388	9279.385475
698.728326	9239.109177
699.064214	9179.578191
699.400053	9223.952948
699.735842	9035.348259
700.071581	8999.548505
700.407270	8921.728213
700.742910	8843.464299
701.078501	8744.980318
701.414042	8624.209395
701.749533	8562.853512
702.084974	8419.571316
702.420366	8533.536681
702.755709	8418.308507
703.091002	8285.219525
703.426246	8314.727919
703.761440	8265.019622
704.096584	8219.162766
704.431679	8157.501893
704.766725	8142.176785
705.101721	8087.523115
705.436668	8136.167729
705.771565	8031.727625
706.106413	8109.250488
706.441212	8149.967888
706.775961	8108.418698
707.110661	8135.451886
707.445311	8288.639948
707.779913	8185.505502
708.114465	8315.819329
708.448967	8352.168569
708.783421	8491.364909
709.117825	8676.541613
709.452180	8714.529228
709.786485	8803.077095
710.120742	9082.142769
710.454949	9079.602028
710.789107	9191.336682
711.123216	9395.634483
711.457275	9566.116224
711.791286	9722.593639
712.125247	9716.899656
712.459159	9706.691319
712.793023	9956.087282
713.126837	9534.422489
713.460602	9682.650057
713.794318	9505.385443
714.127985	9537.742089
714.461602	9220.091424
714.795171	9163.572527
715.128691	8920.112523
715.462162	8662.048296
715.795584	8619.032130
716.128957	8466.776681
716.462281	8295.725290
716.795556	8349.998352
717.128782	8135.976166
717.461960	7875.290538
717.795088	7943.847710
718.128167	7850.029317
718.461198	7682.413472
718.794180	7627.469936
719.127113	7619.830067
719.459997	7468.255174
719.792833	7237.143476
720.125619	7302.673435
720.458357	7152.658779
720.791046	7151.017883
721.123686	7146.836246
721.456278	6989.320353
721.788821	7005.225193
722.121315	6899.144193
722.453761	6967.093906
722.786158	6906.932776
723.118506	6921.317708
723.450805	6884.421503
723.783056	6950.926925
724.115259	6864.904676
724.447412	6866.722012
724.779518	6905.052425
725.111574	6908.619042
725.443582	6984.838767
725.775542	6966.625078
726.107453	7159.461816
726.439315	7076.242448
726.771129	7131.180943
727.102895	7299.459699
727.434612	7410.191164
727.766281	7442.633510
728.097901	7527.382868
728.429473	7517.842484
728.760996	7492.535892
729.092471	7464.993548
729.423897	7410.849035
729.755276	7427.555418
730.086606	7349.599015
730.417887	7454.961651
730.749120	7642.270764
731.080305	7839.614293
731.411442	7963.765309
731.742530	7949.849204
732.073570	8061.041934
732.404562	8144.546127
732.735506	7988.053588
733.066401	8136.059345
733.397249	8073.604490
733.728048	7829.216913
734.058798	7495.653845
734.389501	7272.681090
734.720156	7096.792712
735.050762	6862.381578
735.381320	6761.908862
735.711831	6714.648044
736.042293	6609.950841
736.372707	6627.524303
736.703073	6492.461709
737.033391	6531.898656
737.363661	6543.430295
737.693883	6566.911990
738.024056	6654.265104
738.354182	6698.236568
738.684260	6729.249747
739.014290	6843.116809
739.344272	6961.162988
739.674207	6986.167111
740.004093	7050.046092
740.333931	7065.640902
740.663722	7075.266985
740.993464	7153.966958
741.323159	7141.971532
741.652806	6891.322843
741.982405	6904.661736
742.311956	6964.976621
742.641460	6797.312885
742.970915	6601.950530
743.300323	6593.894766
743.629683	6544.499020
743.958996	6411.810809
744.288260	6324.641698
744.617477	6271.152535
744.946647	6276.279388
745.275768	6104.229849
745.604842	6063.260391
745.933869	6043.519233
746.262847	6005.980281
746.591778	5993.387478
746.920662	5950.194872
747.249498	5943.570796
747.578286	5987.559905
747.907027	6068.054529
748.235720	6125.579135
748.564365	6093.436738
748.892963	6120.033866
749.221514	6277.557321
749.550017	6111.965499
749.878473	5985.913968
750.206881	6043.209202
750.535242	5985.671993
750.863555	5917.064409
751.191821	5932.991935
751.520039	5934.204332
751.848210	5843.473645
752.176334	5863.739084
752.504411	5914.521147
752.832440	5840.111196
753.160421	5765.955823
753.488356	5813.703111
753.816243	5850.538823
754.144082	5701.512232
754.471875	5672.598695
754.799620	5713.825251
755.127318	5726.753290
755.454969	5679.573131
755.782572	5648.716228
756.110129	5687.641498
756.437638	5674.784035
756.765100	5614.824551
757.092515	5613.017297
757.419882	5664.260626
757.747203	5644.592564
758.074477	5706.820568
758.401703	5692.034863
758.728882	5645.419314
759.056014	5699.599115
759.383099	5830.222973
759.710138	5841.439540
760.037129	5828.894628
760.364073	5831.788251
760.690970	5914.679943
761.017820	5894.351491
761.344623	5848.734089
761.671379	5952.581859
761.998088	6069.012348
762.324751	6304.961033
762.651366	6898.740901
762.977935	8201.924540
763.304456	9831.139764
763.630931	10734.179296
763.957359	10356.047387
764.283740	9415.005117
764.610074	8583.665915
764.936362	7587.435613
765.262602	6993.822103
765.588796	6457.307223
765.914943	6118.256859
766.241044	5956.589576
766.567097	5757.108598
766.893104	5499.183002
767.219064	5319.092822
767.544978	5255.239047
767.870845	5181.522254
768.196665	5075.037962
768.522438	5001.739585
768.848165	4971.628773
769.173846	4904.760388
769.499479	4863.309500
769.825066	4811.085667
770.150607	4743.897168
770.476101	4723.079724
770.801548	4720.760793
771.126949	4644.997292
771.452303	4593.532152
771.777611	4553.752407
772.102872	4568.495262
772.428087	4530.406824
772.753256	4489.384434
773.078378	4446.877425
773.403453	4376.180283
773.728482	4362.491030
774.053465	4315.454544
774.378401	4301.987102
774.703291	4306.725786
775.028135	4231.935228
775.352932	4187.205070
775.677683	4172.119417
776.002388	4188.851007
776.327046	4203.659396
776.651658	4127.661481
776.976224	4067.719641
777.300743	4071.230805
777.625216	4091.627313
777.949643	4089.794854
778.274024	4044.394222
778.598359	4000.538705
778.922647	4024.932848
779.246889	4014.701826
779.571086	4007.314015
779.895236	3992.556037
780.219339	3980.928616
780.543397	3974.569201
780.867409	4023.362529
781.191374	4036.451885
781.515294	3977.881239
781.839167	3969.651555
782.162995	3992.545955
782.486776	3977.288903
782.810511	3988.160151
783.134201	3984.475068
783.457844	3940.392698
783.781441	3885.328175
784.104993	3888.678021
784.428498	3907.325249
784.751958	3906.233840
785.075372	3885.696179
785.398739	3849.251157
785.722061	3854.803988
786.045337	3900.071029
786.368568	3932.573868
786.691752	3846.541537
787.014891	3894.056932
787.337983	4018.502856
787.661030	4179.048483
787.984031	4338.835416
788.306987	4510.789173
788.629897	4597.265127
788.952760	4553.817942
789.275579	4478.961849
789.598351	4419.476233
789.921078	4285.563023
790.243759	4080.274635
790.566395	4056.177920
790.888984	4054.617682
791.211529	3951.594142
791.534027	3889.923186
791.856480	3879.677041
792.178888	3818.434584
792.501249	3766.583796
792.823566	3778.032256
793.145836	3810.313285
793.468062	3758.671705
793.790241	3710.027091
794.112375	3739.492635
794.434464	3802.973365
794.756507	3830.775328
795.078505	3810.681289
795.400457	3841.956607
795.722364	3980.926096
796.044226	4084.244544
796.366042	4155.763393
796.687812	4137.247235
797.009538	4144.509017
797.331218	4103.461422
797.652852	4072.176021
797.974442	4051.978638
798.295986	4053.390162
798.617484	3975.159016
798.938938	3885.164337
799.260346	3929.007252
799.581709	3922.080707
799.903026	3850.811394
800.224299	3810.966114
800.545526	3809.728511
800.866708	3772.340793
801.187845	3709.394426
801.508936	3743.137389
801.829983	3743.548243
802.150984	3661.997497
802.471940	3650.722957
802.792851	3661.173269
803.113717	3664.016480
803.434538	3669.193745
803.755314	3610.560084
804.076045	3581.676793
804.396731	3601.561625
804.717372	3630.654123
805.037967	3617.133749
805.358518	3602.340483
805.679024	3632.166470
805.999485	3644.963439
806.319901	3649.313954
806.640272	3661.158145
806.960598	3674.524765
807.280879	3652.888133
807.601115	3663.638393
807.921306	3678.025846
808.241453	3718.382803
808.561554	3695.853887
808.881611	3628.403248
809.201623	3666.567303
809.521590	3678.887883
809.841513	3648.890497
810.161390	3679.868388
810.481223	3658.390552
810.801011	3607.873149
811.120755	3594.884616
811.440453	3630.270996
811.760107	3631.843836
812.079716	3590.821446
812.399281	3559.450346
812.718801	3581.371803
813.038276	3556.143349
813.357707	3555.172927
813.677093	3571.657500
813.996434	3518.629603
814.315731	3526.352650
814.634983	3529.861293
814.954191	3546.862585
815.273354	3574.415011
815.592473	3570.021646
815.911547	3574.296544
816.230577	3616.521249
816.549562	3665.874145
816.868502	3705.449723
817.187399	3731.288157
817.506250	3727.691294
817.825058	3700.637942
818.143821	3794.320224
818.462539	3894.659350
818.781213	3938.386319
819.099843	3995.447139
819.418429	4243.353441
819.736970	4483.123321
820.055466	4723.626689
820.373919	5085.468109
820.692327	5494.061190
821.010691	5929.387510
821.329011	7288.369161
821.647286	10016.979380
821.965517	14557.413058
822.283704	18600.496581
822.601847	20787.417175
822.919945	18989.557711
823.237999	16401.668781
823.556010	13904.470209
823.873976	11822.012405
824.191897	9737.548222
824.509775	8384.636120
824.827609	7262.697085
825.145398	6714.159053
825.463144	6597.942812
825.780845	6712.722324
826.098502	6896.923565
826.416116	7767.089733
826.733685	9082.137728
827.051210	10202.700528
827.368692	10262.196226
827.686129	9010.623920
828.003522	7497.685430
828.320872	6477.416386
828.638177	5781.906033
828.955439	5219.267894
829.272656	4723.651895
829.589830	4438.451136
829.906960	4265.247173
830.224046	4079.752876
830.541088	3956.269812
830.858086	3910.158378
831.175041	3833.825226
831.491952	3818.953823
831.808819	3825.318279
832.125642	3899.193868
832.442421	4045.049572
832.759157	4315.807425
833.075849	4861.217421
833.392497	5724.167178
833.709101	6494.853737
834.025662	6838.572209
834.342179	6484.151367
834.658653	5816.710160
834.975083	5177.287685
835.291469	4599.737812
835.607811	4188.457797
835.924110	4047.509656
836.240366	3854.761138
836.556578	3650.317144
836.872746	3540.606513
837.188871	3501.386336
837.504952	3433.872683
837.820990	3353.284798
838.136984	3307.526244
838.452935	3330.660099
838.768842	3327.259841
839.084706	3350.814632
839.400526	3503.879187
839.716303	3838.359744
840.032037	4359.902398
840.347727	4627.496926
840.663373	4356.008106
840.978977	3975.794201
841.294537	3668.019156
841.610054	3438.387036
841.925527	3330.541632
842.240957	3263.884975
842.556344	3209.914382
842.871687	3152.848521
843.186987	3101.998402
843.502244	3069.354410
843.817458	3031.200437
844.132629	2999.441168
844.447756	3009.495749
844.762840	2994.135354
845.077881	2964.200982
845.392879	2944.497632
845.707833	2945.004268
846.022745	2941.493105
846.337613	2940.187446
846.652438	2927.430806
846.967221	2925.653799
847.281960	2912.869433
847.596656	2910.159813
847.911309	2908.970101
848.225919	2900.957187
848.540485	2896.732700
848.855009	2898.487021
849.169490	2886.700803
849.483928	2875.637991
849.798323	2878.193856
850.112675	2875.292672
850.426984	2885.105278
850.741251	2882.763662
851.055474	2873.513145
851.369654	2869.081971
851.683792	2869.770088
851.997887	2879.439021
852.311938	2883.557644
852.625947	2872.600696
852.939914	2871.625233
853.253837	2880.167468
853.567718	2864.938142
853.881555	2863.824047
854.195350	2879.592777
854.509103	2877.268805
854.822812	2867.284799
855.136479	2862.543594
855.450103	2863.806403
855.763685	2860.524612
856.077224	2855.934642
856.390720	2867.995602
856.704173	2878.299721
857.017584	2870.674975
857.330953	2866.148019
857.644278	2876.575646
857.957561	2888.354302
858.270802	2889.395300
858.584000	2888.901267
858.897155	2875.033053
859.210268	2874.181098
859.523339	2873.308978
859.836367	2871.990717
860.149352	2867.128524
860.462295	2859.639890
860.775195	2870.490973
861.088054	2868.396374
861.400869	2852.063035
861.713642	2850.356605
862.026373	2864.267669
862.339062	2870.536344
862.651708	2871.804194
862.964312	2879.118908
863.276873	2867.483925
863.589392	2882.536810
863.901869	2891.288253
864.214303	2914.943868
864.526696	2930.604212
864.839045	2926.742688
865.151353	2923.014755
865.463619	2919.967378
865.775842	2925.111875
866.088023	2942.778599
866.400162	2949.503498
866.712258	2920.529466
867.024313	2910.207704
867.336325	2916.657860
867.648296	2941.147786
867.960224	2931.690581
868.272110	2919.614497
868.583954	2922.412337
868.895755	2937.979420
869.207515	2924.809406
869.519233	2930.445416
869.830909	2939.310285
870.142542	2949.017027
870.454134	2947.865123
870.765684	2952.538273
871.077191	2950.655402
871.388657	2957.382822
871.700081	2972.768423
872.011463	2983.566575
872.322803	2985.048674
872.634101	2984.063128
872.945357	2998.974861
873.256571	3022.121319
873.567744	3016.707120
873.878874	3009.573887
874.189963	3030.986188
874.501010	3035.797970
874.812015	3025.350178
875.122979	3025.889582
875.433900	3023.484951
875.744780	3025.899664
876.055618	3035.286293
876.366415	3030.779501
876.677169	3045.562685
876.987882	3042.573280
877.298554	3032.150695
877.609183	3054.198181
877.919771	3076.933785
878.230317	3106.157354
878.540822	3157.733399
878.851285	3195.862166
879.161707	3233.370871
879.472087	3334.680419
879.782425	3563.095100
880.092722	3997.135926
880.402977	4525.048077
880.713191	5154.234489
881.023363	6304.671167
881.333494	7583.947134
881.643583	8140.785426
881.953631	7850.195675
882.263637	7216.746967
882.573602	6632.378934
882.883526	6055.413835
883.193408	5482.491742
883.503248	5022.211711
883.813048	4717.398343
884.122806	4414.235954
884.432522	4100.106534
884.742197	3869.882079
885.051831	3670.874969
885.361424	3535.446892
885.670975	3465.150522
885.980485	3381.338819
886.289954	3302.159936
886.599382	3256.887854
886.908768	3219.628686
887.218113	3174.026408
887.527417	3118.911473
887.836680	3072.061510
888.145901	3063.859552
888.455082	3053.709189
888.764221	3003.784122
889.073319	2973.794298
889.382376	2974.323619
889.691392	2978.918631
890.000366	2972.735656
890.309300	2961.851804
890.618193	2974.626088
890.927044	2992.801968
891.235855	2994.609222
891.544625	2974.812611
891.853353	2989.915908
892.162041	3005.178001
892.470687	3043.629402
892.779293	3099.167794
893.087858	3142.456182
893.396381	3215.250444
893.704864	3335.121520
894.013306	3574.200762
894.321707	3872.679920
894.630068	4083.412753
894.938387	4079.334460
895.246665	4032.983571
895.554903	3915.963267
895.863100	3713.923903
896.171256	3546.534910
896.479371	3410.055752
896.787446	3290.305663
897.095480	3182.974456
897.403473	3121.414406
897.711425	3079.537541
898.019336	3072.008578
898.327207	3043.253836
898.635038	3007.766634
898.942827	2996.479490
899.250576	2984.453818
899.558284	2950.804116
899.865952	2932.930705
900.173579	2912.773651
900.481165	2903.238309
900.788711	2893.113151
901.096216	2870.289327
901.403681	2855.463294
901.711105	2863.985364
902.018489	2860.416227
902.325832	2860.136443
902.633135	2868.857639
902.940397	2903.263514
903.247619	2985.015906
903.554800	3174.848116
903.861941	3520.038605
904.169041	3944.874284
904.476101	4246.494080
904.783121	4206.651321
905.090100	3960.448929
905.397039	3684.443235
905.703938	3436.486521
906.010796	3253.066659
906.317614	3140.666572
906.624391	3046.555792
906.931129	2975.717498
907.237826	2914.328847
907.544483	2865.969058
907.851099	2836.851354
908.157675	2813.150369
908.464211	2797.527833
908.770707	2783.677263
909.077163	2769.337701
909.383578	2755.628283
909.689954	2746.428177
909.996289	2742.760738
910.302584	2742.601941
910.608839	2744.106726
910.915054	2737.308730
911.221229	2727.775908
911.527363	2732.756568
911.833458	2739.299986
912.139513	2743.353073
912.445527	2747.229721
912.751502	2756.389497
913.057436	2764.117586
913.363331	2777.269956
913.669186	2797.779891
913.975000	2833.819100
914.280775	2894.774211
914.586510	2960.888944
914.892205	3042.031356
915.197859	3169.633042
915.503475	3362.358875
915.809050	3572.766554
916.114585	3717.903894
916.420081	3744.876587
916.725536	3681.302596
917.030952	3564.443609
917.336328	3439.969959
917.641665	3304.786377
917.946961	3203.890203
918.252218	3133.326652
918.557435	3057.056515
918.862612	3000.398987
919.167750	2951.010803
919.472848	2911.755338
919.777906	2884.568395
920.082925	2859.065198
920.387904	2827.106803
920.692843	2809.498053
920.997743	2798.228553
921.302603	2785.976029
921.607423	2774.875408
921.912204	2760.561052
922.216946	2753.072418
922.521647	2742.939699
922.826310	2736.328225
923.130932	2729.164746
923.435516	2719.384907
923.740059	2711.775286
924.044564	2705.574666
924.349028	2700.231043
924.653454	2692.621422
924.957840	2688.608663
925.262186	2680.580626
925.566493	2677.185408
925.870761	2675.731036
926.174989	2670.077382
926.479178	2667.329953
926.783328	2659.440547
927.087438	2658.918787
927.391509	2658.021462
927.695541	2655.579023
927.999533	2651.924187
928.303486	2648.223980
928.607400	2648.264309
928.911275	2649.675832
929.215110	2644.906900
929.518906	2644.241468
929.822663	2645.468989
930.126381	2645.413536
930.430060	2644.450676
930.733699	2647.792961
931.037299	2646.799854
931.340861	2649.844711
931.644383	2649.017961
931.947866	2648.607107
932.251309	2645.123670
932.554714	2646.144504
932.858080	2645.342960
933.161407	2641.620068
933.464694	2642.000675
933.767943	2637.498925
934.071153	2642.766931
934.374323	2639.306178
934.677455	2639.717032
934.980548	2638.199645
935.283602	2636.498256
935.586617	2636.533544
935.889593	2638.645787
936.192530	2634.824593
936.495428	2636.581435
936.798287	2639.621251
937.101108	2644.138124
937.403890	2646.535193
937.706632	2653.905360
938.009336	2657.756802
938.312002	2664.350631
938.614628	2672.580314
938.917216	2681.341840
939.219765	2683.829649
939.522275	2683.408713
939.824747	2677.291273
940.127179	2676.257836
940.429573	2673.938905
940.731929	2669.106959
941.034246	2668.416321
941.336524	2666.457833
941.638763	2662.616474
941.940964	2661.250321
942.243126	2659.059940
942.545250	2657.209836
942.847335	2654.989208
943.149381	2652.506440
943.451389	2647.823208
943.753359	2643.578556
944.055290	2643.472692
944.357182	2644.485964
944.659036	2641.637712
944.960851	2642.598052
945.262628	2638.295427
945.564367	2637.756024
945.866067	2639.714512
946.167729	2640.279121
946.469352	2639.923720
946.770937	2639.260808
947.072484	2639.409522
947.373992	2638.678555
947.675462	2639.399440
947.976893	2634.184366
948.278286	2629.816206
948.579641	2632.306536
948.880958	2627.315794
949.182236	2633.420631
949.483476	2629.753192
949.784678	2631.966258
950.085841	2630.746299
950.386967	2631.510034
950.688054	2631.235291
950.989103	2631.895682
951.290114	2633.584469
951.591087	2634.766619
951.892021	2636.306692
952.192917	2639.916158
952.493776	2642.643422
952.794596	2640.725263
953.095378	2644.150727
953.396122	2640.001858
953.696828	2641.249543
953.997496	2639.301137
954.298126	2637.216620
954.598718	2633.365179
954.899272	2632.777884
955.199788	2626.970475
955.500266	2628.208078
955.800706	2626.531895
956.101108	2622.889661
956.401472	2619.401182
956.701798	2622.551904
957.002087	2617.268774
957.302337	2617.442694
957.602550	2615.955554
957.902724	2614.208794
958.202861	2610.564040
958.502960	2609.331478
958.803022	2611.136211
959.103045	2611.143772
959.403031	2609.989348
959.702979	2608.010695
960.002889	2609.190325
960.302762	2606.100098
960.602596	2606.402567
960.902393	2606.969697
961.202153	2607.441045
961.501875	2606.251333
961.801559	2605.210334
962.101205	2606.533637
962.400814	2605.495160
962.700385	2602.236054
962.999918	2601.265632
963.299414	2602.200766
963.598873	2603.266970
963.898293	2593.333376
964.197677	2601.701691
964.497022	2603.629933
964.796331	2601.187494
965.095601	2602.833430
965.394835	2601.913420
965.694030	2602.339397
965.993189	2603.536671
966.292309	2601.275714
966.591393	2602.135231
966.890439	2601.706732
967.189447	2604.915427
967.488419	2602.362082
967.787353	2600.504417
968.086249	2601.114397
968.385108	2604.108842
968.683930	2600.801845
968.982714	2603.418204
969.281462	2602.435179
969.580172	2602.430138
969.878844	2601.484922
970.177480	2600.607761
970.476078	2603.869388
970.774639	2602.909048
971.073162	2602.349480
971.371649	2603.241764
971.670098	2602.735128
971.968510	2602.336877
972.266885	2605.301075
972.565223	2603.314861
972.863524	2602.830910
973.161788	2603.511466
973.460014	2602.122628
973.758204	2604.512135
974.056356	2601.552977
974.354471	2603.415684
974.652550	2604.774275
974.950591	2604.257556
975.248595	2601.951228
975.546563	2602.450303
975.844493	2605.414501
976.142386	2600.645570
976.440243	2602.674634
976.738062	2601.368975
977.035845	2601.303440
977.333590	2600.199427
977.631299	2602.210848
977.928971	2598.762699
978.226606	2597.865373
978.524204	2600.844695
978.821765	2595.289344
979.119290	2598.825713
979.416777	2600.065837
979.714228	2600.247318
980.011642	2599.402925
980.309020	2598.394694
980.606360	2599.967534
980.903664	2600.940477
981.200931	2599.944849
981.498162	2601.106835
981.795356	2603.672782
982.092513	2602.626743
982.389633	2606.218565
982.686717	2608.252671
982.983764	2613.971860
983.280775	2618.352622
983.577749	2620.318672
983.874686	2620.618621
984.171587	2613.293825
984.468451	2614.770883
984.765279	2611.161417
985.062070	2607.274687
985.358824	2604.648246
985.655543	2603.723194
985.952224	2603.148502
986.248869	2602.271342
986.545478	2603.274531
986.842050	2599.533995
987.138586	2599.347472
987.435086	2597.953593
987.731549	2599.065168
988.027975	2598.135075
988.324366	2596.804210
988.620719	2599.244129
988.917037	2595.564087
989.213318	2597.547781
989.509563	2595.153232
989.805772	2601.169850
990.101944	2595.828747
990.398080	2598.248501
990.694180	2596.499221
990.990244	2595.748089
991.286271	2594.974272
991.582262	2596.501741
991.878217	2596.789087
992.174136	2596.337904
992.470019	2593.877821
992.765865	2595.561566
993.061676	2595.317070
993.357450	2593.870259
993.653188	2590.230546
993.948890	2596.766402
994.244556	2597.242791
994.540186	2599.024839
994.835780	2598.775302
995.131337	2598.006526
995.426859	2599.496187
995.722345	2599.781012
996.017795	2598.359406
996.313208	2600.665734
996.608586	2601.305961
996.903928	2602.102463
997.199234	2601.399222
997.494504	2602.752772
997.789738	2602.225971
998.084936	2601.762185
998.380099	2600.814448
998.675225	2601.484922
998.970316	2600.799325
999.265371	2598.646752
999.560390	2597.764550
999.855373	2597.376381
1000.150320	2597.562904
1000.445232	2594.225660
1000.740108	2597.625918
1001.034948	2595.823706
1001.329752	2596.741196
1001.624521	2593.696339
1001.919254	2596.353027
1002.213951	2596.710949
1002.508613	2595.412852
1002.803239	2594.238263
1003.097829	2594.452512
1003.392384	2593.908067
1003.686903	2594.906216
1003.981386	2593.335897
1004.275834	2592.466297
1004.570246	2595.735486
1004.864623	2593.953438
1005.158964	2595.503593
1005.453270	2594.873448
1005.747540	2595.690115
1006.041775	2591.783221
1006.335974	2593.043510
1006.630138	2593.224991
1006.924266	2596.421083
1007.218359	2593.116606
1007.512416	2588.632500
1007.806438	2590.628797
1008.100425	2591.543766
1008.394376	2591.127871
1008.688292	2593.875300
1008.982172	2594.931422
1009.276017	2592.143664
1009.569827	2591.652151
1009.863602	2593.529981
1010.157341	2593.988726
1010.451045	2593.348499
1010.744714	2595.473346
1011.038347	2595.334714
1011.331945	2593.585434
1011.625508	2595.954776
1011.919036	2593.950917
1012.212528	2594.170207
1012.505986	2592.710793
1012.799408	2591.979826
1013.092795	2595.155753
1013.386147	2594.772625
1013.679464	2591.523602
1013.972745	2594.107193
1014.265992	2591.768098
1014.559204	2594.359251
1014.852380	2593.235073
1015.145521	2595.841350
1015.438628	2594.823037
1015.731699	2595.783377
1016.024736	2594.197934
1016.317737	2595.634663
1016.610703	2594.354210
1016.903635	2591.130392
1017.196531	2594.447471
1017.489393	2595.090218
1017.782219	2593.527460
1018.075011	2592.889754
1018.367768	2593.116606
1018.660490	2593.063674
1018.953177	2593.063674
1019.245829	2593.063674
