Dividing Wavelength (nm)	Counts (n)	Blue Motor Position (mm): 24.800000	Red Motor Position (mm): 0.000000	
326.493990	2197.449044
326.888308	2197.449044
327.282561	2197.449044
327.676750	2158.274237
328.070874	2154.689977
328.464933	2155.436068
328.858929	2157.964206
329.252859	2163.776657
329.646726	2174.872236
330.040528	2184.352126
330.434265	2196.715556
330.827938	2218.256406
331.221547	2232.641339
331.615091	2250.794534
332.008571	2267.140475
332.401986	2286.874072
332.795338	2305.377627
333.188625	2322.620894
333.581847	2340.849706
333.975006	2362.191431
334.368100	2378.587784
334.761129	2400.478994
335.154095	2417.061870
335.546996	2441.703030
335.939833	2475.289717
336.332606	2490.889568
336.725315	2503.041269
337.117960	2515.739936
337.510540	2529.794673
337.903056	2538.329346
338.295508	2551.113713
338.687896	2558.332645
339.080220	2564.404715
339.472480	2572.984758
339.864676	2578.862744
340.256807	2580.836356
340.648875	2585.754001
341.040879	2587.684763
341.432818	2591.064857
341.824694	2595.077615
342.216506	2596.809252
342.608253	2592.811617
342.999937	2595.226329
343.391557	2598.566094
343.783113	2596.121134
344.174605	2594.933942
344.566033	2593.774477
344.957397	2594.727255
345.348697	2593.595516
345.739934	2589.751636
346.131106	2588.756008
346.522215	2587.553693
346.913260	2585.275092
347.304241	2581.363156
347.695159	2580.901891
348.086012	2580.619586
348.476802	2578.003227
348.867528	2571.802608
349.258191	2570.534758
349.648789	2572.430232
350.039324	2564.646690
350.429796	2569.009809
350.820203	2567.908317
351.210548	2566.786660
351.600828	2566.317832
351.991045	2564.392112
352.381198	2561.463201
352.771288	2565.075188
353.161314	2559.219888
353.551276	2563.898079
353.941175	2562.834395
354.331010	2561.087635
354.720782	2558.841801
355.110490	2565.591906
355.500135	2560.180228
355.889717	2562.219374
356.279235	2561.538819
356.668689	2561.790876
357.058080	2561.695094
357.447408	2562.272307
357.836672	2562.864642
358.225873	2560.081925
358.615010	2564.140054
359.004084	2563.585527
359.393095	2563.552760
359.782043	2565.193655
360.170927	2568.427555
360.559748	2565.551577
360.948505	2564.813048
361.337199	2565.566701
361.725830	2567.661300
362.114398	2563.925805
362.502903	2566.378326
362.891344	2566.786660
363.279722	2565.891855
363.668037	2567.373954
364.056289	2569.153482
364.444478	2570.716239
364.832603	2572.248750
365.220665	2570.451579
365.608665	2574.441652
365.996601	2571.132134
366.384474	2574.779409
366.772284	2571.739593
367.160031	2574.106415
367.547715	2573.887125
367.935336	2572.553740
368.322893	2573.645150
368.710388	2568.979562
369.097820	2573.219172
369.485189	2572.261353
369.872495	2576.808474
370.259738	2574.161868
370.646918	2575.313772
371.034035	2577.189081
371.421090	2575.487691
371.808081	2575.843093
372.195010	2577.332754
372.581875	2577.161354
372.968678	2579.467682
373.355418	2576.634554
373.742096	2576.944585
374.128710	2579.528176
374.515262	2579.283680
374.901751	2579.223186
375.288177	2581.181675
375.674540	2580.455748
376.060841	2580.244020
376.447079	2580.140676
376.833254	2580.372569
377.219367	2579.248392
377.605417	2582.003383
377.991404	2579.545820
378.377329	2581.952971
378.763191	2580.788465
379.148991	2580.917014
379.534727	2581.406006
379.920402	2579.124884
380.306013	2582.966243
380.691563	2582.636047
381.077049	2580.617065
381.462474	2584.413054
381.847835	2585.075966
382.233134	2585.259968
382.618371	2584.503795
383.003545	2584.980184
383.388657	2583.183013
383.773706	2585.194433
384.158693	2584.783579
384.543618	2584.259299
384.928480	2586.306007
385.313280	2585.968250
385.698017	2586.114444
386.082692	2586.991604
386.467305	2584.932293
386.851856	2590.147367
387.236344	2588.859352
387.620770	2585.265009
388.005133	2584.264340
388.389435	2584.660071
388.773674	2583.961871
389.157851	2589.791965
389.541965	2588.687953
389.926018	2587.704928
390.310008	2588.733323
390.693936	2591.218612
391.077802	2591.117789
391.461606	2591.193406
391.845348	2589.575196
392.229027	2591.813468
392.612645	2589.686101
392.996200	2590.560741
393.379694	2591.866400
393.763125	2592.085690
394.146494	2593.330855
394.529801	2590.200299
394.913047	2593.590475
395.296230	2593.426637
395.679351	2594.603747
396.062410	2593.255238
396.445408	2594.112234
396.828343	2594.797831
397.211217	2595.153232
397.594028	2593.771956
397.976778	2594.510485
398.359466	2596.317739
398.742092	2591.737851
399.124656	2594.666761
399.507158	2597.031062
399.889598	2596.844540
400.271977	2593.310691
400.654294	2597.257914
401.036549	2597.020980
401.418742	2598.480394
401.800874	2596.524426
402.182944	2595.448140
402.564952	2598.061978
402.946898	2598.374530
403.328783	2599.559201
403.710606	2598.901330
404.092367	2599.533995
404.474067	2600.496856
404.855705	2600.247318
405.237282	2601.883173
405.618797	2600.330497
406.000250	2605.154882
406.381642	2599.637339
406.762972	2598.704725
407.144240	2599.050044
407.525447	2598.124993
407.906593	2593.625763
408.287677	2600.907710
408.668700	2600.726228
409.049661	2602.137751
409.430560	2603.503904
409.811399	2601.868049
410.192176	2603.748400
410.572891	2602.213368
410.953545	2603.740838
411.334138	2602.233533
411.714669	2604.817124
412.095139	2605.860643
412.475547	2607.683020
412.855894	2604.456682
413.236180	2604.098760
413.616405	2606.362238
413.996568	2605.631271
414.376670	2603.118256
414.756711	2604.313009
415.136691	2604.802001
415.516609	2607.360387
415.896466	2607.309975
416.276262	2605.200252
416.655997	2606.183277
417.035670	2606.679831
417.415283	2609.001282
417.794834	2609.391972
418.174324	2606.379882
418.553753	2609.097064
418.933121	2607.466251
419.312428	2609.777620
419.691674	2610.589246
420.070859	2608.552619
420.449983	2610.619492
420.829045	2610.158227
421.208047	2611.985645
421.586988	2611.325254
421.965867	2611.877260
422.344686	2612.951026
422.723444	2611.889863
423.102141	2609.686879
423.480777	2613.371962
423.859352	2611.451283
424.237866	2615.050667
424.616319	2614.216356
424.994712	2613.467744
425.373044	2610.712754
425.751314	2611.050511
426.129524	2612.101592
426.507673	2614.082765
426.885762	2612.875409
427.263789	2615.118722
427.641756	2612.557816
428.019662	2616.908332
428.397508	2614.602004
428.775292	2616.973867
429.153016	2617.480503
429.530679	2620.270782
429.908282	2618.178703
430.285824	2617.422530
430.663305	2619.542335
431.040726	2618.481172
431.418086	2616.779782
431.795385	2620.812706
432.172624	2618.753394
432.549802	2616.671398
432.926920	2618.266923
433.303977	2618.642489
433.680974	2617.011676
434.057910	2619.812037
434.434786	2620.033847
434.811601	2620.268261
435.188355	2623.003087
435.565050	2620.676594
435.941683	2623.318159
436.318257	2623.073663
436.694770	2623.676081
437.071222	2624.091976
437.447614	2626.962913
437.823946	2626.463839
438.200218	2625.332100
438.576429	2625.964765
438.952580	2627.214971
439.328670	2626.708335
439.704700	2628.807976
440.080670	2627.262862
440.456580	2630.857205
440.832429	2629.745630
441.208218	2628.124899
441.583947	2632.767802
441.959616	2631.862915
442.335224	2633.879376
442.710773	2634.007926
443.086261	2632.329222
443.461689	2632.505662
443.837057	2636.203348
444.212365	2637.304840
444.587612	2635.701753
444.962800	2634.708646
445.337927	2636.571352
445.712995	2635.300982
446.088002	2639.643936
446.462949	2642.875315
446.837837	2641.191570
447.212664	2643.777682
447.587431	2648.990235
447.962139	2651.404948
448.336786	2659.070022
448.711374	2661.295692
449.085901	2658.442398
449.460369	2658.225629
449.834776	2662.233346
450.209124	2667.314829
450.583412	2675.957887
450.957640	2681.666994
451.331808	2685.127746
451.705917	2686.231759
452.079965	2690.007583
452.453954	2701.226671
452.827883	2703.585931
453.201752	2717.854917
453.575562	2719.347099
453.949311	2731.445868
454.323001	2750.025040
454.696632	2764.435179
455.070202	2780.647529
455.443713	2801.999337
455.817164	2825.833912
456.190556	2853.081348
456.563888	2880.553116
456.937160	2911.674680
457.310373	2921.278078
457.683526	2944.313630
458.056619	2961.062864
458.429653	2997.480159
458.802628	3014.562109
459.175542	3060.413924
459.548398	3138.670276
459.921194	3205.165615
460.293930	3266.765995
460.666607	3375.423025
461.039224	3519.020292
461.411782	3643.826658
461.784280	3698.258517
462.156719	3769.051441
462.529099	3804.319353
462.901419	3789.994914
463.273680	3844.903162
463.645882	3901.464908
464.018024	3954.076910
464.390106	4059.376532
464.762130	4246.095829
465.134094	4432.893264
465.505999	4837.350078
465.877845	5492.629502
466.249631	6088.156130
466.621358	6153.363455
466.993026	6047.957969
467.364634	6064.014044
467.736184	5981.538246
468.107674	5963.188446
468.479105	6123.829855
468.850477	6187.587848
469.221790	6230.636781
469.593043	6219.596654
469.964238	6251.837354
470.335373	6303.115971
470.706449	6542.386776
471.077467	6553.588220
471.448425	7174.552510
471.819324	8474.792116
472.190164	9272.337942
472.560945	8487.924321
472.931667	7931.612830
473.302330	7894.978765
473.672934	7878.050570
474.043479	8185.460132
474.413965	8287.878734
474.784393	8334.595107
475.154761	8745.454186
475.525070	8925.060415
475.895321	8942.172612
476.265513	9341.164816
476.635645	9742.138193
477.005719	9859.743271
477.375734	10124.456780
477.745691	10544.445389
478.115588	10918.524210
478.485427	11385.065354
478.855207	12045.953062
479.224928	13078.545207
479.594591	14420.339044
479.964194	14675.171892
480.333739	15133.982427
480.703226	15087.941568
481.072653	15199.915678
481.442022	15751.518732
481.811333	16463.576671
482.180584	16711.727469
482.549777	16387.397275
482.918912	16482.785988
483.287988	16767.228052
483.657005	16822.804253
484.025964	16874.836522
484.394864	17087.749655
484.763706	17138.937531
485.132489	17036.720575
485.501213	17322.274214
485.869879	17537.531484
486.238487	17513.601126
486.607036	17936.569058
486.975527	17885.232467
487.343959	18331.266198
487.712333	18552.943377
488.080648	18451.313715
488.448905	19024.727321
488.817104	19017.523512
489.185244	19698.046514
489.553326	19910.314379
489.921350	20769.291706
490.289315	22679.329446
490.657222	24308.617766
491.025070	24928.089874
491.392861	24974.029909
491.760593	24505.661346
492.128267	24056.461771
492.495883	23367.366287
492.863440	22839.529753
493.230939	22239.471129
493.598380	22263.025920
493.965763	22058.506308
494.333088	21822.204743
494.700354	21886.895349
495.067563	21934.461156
495.434713	21825.670536
495.801805	22038.364378
496.168839	22038.255993
496.535815	21982.470585
496.902733	22273.866921
497.269593	22050.637067
497.636395	22342.567766
498.003139	22419.052152
498.369825	22294.931383
498.736453	22535.447353
499.103023	22514.793746
499.469535	22603.306325
499.835989	22873.625597
500.202385	22983.842864
500.568723	22573.951686
500.935003	22885.895766
501.301226	22556.690776
501.667390	23381.874728
502.033497	23695.048849
502.399546	23480.590603
502.765537	23157.815604
503.131470	23556.946439
503.497345	23732.539910
503.863163	23008.312625
504.228923	23680.918495
504.594625	23873.906467
504.960269	23437.246762
505.325856	23970.590757
505.691385	23435.535290
506.056856	24045.598085
506.422270	24044.554566
506.787625	23683.602909
507.152924	24093.080713
507.518164	24138.539317
507.883347	23957.839158
508.248472	23688.074413
508.613540	24475.674043
508.978550	24269.193422
509.343503	24274.985708
509.708398	24573.928652
510.073236	24733.077879
510.438016	24945.048316
510.802738	24653.989737
511.167403	24905.538272
511.532010	24617.050682
511.896561	25409.958647
512.261053	25387.911160
512.625488	25235.242337
512.989866	25134.550330
513.354186	25002.058724
513.718449	25095.204124
514.082655	25471.876619
514.446803	25237.548665
514.810894	25685.513157
515.174927	25180.281157
515.538904	25216.559821
515.902822	25709.564502
516.266684	25469.834952
516.630488	25373.506063
516.994235	25370.955239
517.357925	25655.546018
517.721558	25861.116710
518.085133	25943.000172
518.448651	25869.061569
518.812112	25588.128147
519.175516	25777.252075
519.538863	25955.000639
519.902152	25737.053914
520.265385	26041.834514
520.628560	25826.325187
520.991678	25837.299779
521.354739	25919.316831
521.717743	25976.042415
522.080690	25767.477278
522.443580	26102.426663
522.806413	26100.019512
523.169189	26198.044748
523.531908	26252.496771
523.894569	25841.776323
524.257174	25918.714413
524.619722	26141.916541
524.982213	25819.277654
525.344647	25882.574382
525.707025	26004.908062
526.069345	26007.645408
526.431608	25953.395031
526.793815	26154.161504
527.155964	25583.432312
527.518057	25771.469871
527.880093	25684.925863
528.242072	25927.730517
528.603995	25631.071216
528.965860	25425.883652
529.327669	25479.829039
529.689421	25461.159126
530.051117	25298.962521
530.412755	25479.841642
530.774337	25291.105883
531.135862	25150.934080
531.497331	25360.522572
531.858743	24892.385902
532.220098	25384.760439
532.581396	25064.014505
532.942638	25033.316399
533.303824	25101.876091
533.664953	25126.476922
534.026025	24795.192456
534.387040	25014.444839
534.747999	25100.560350
535.108902	25253.342600
535.469748	24738.968467
535.830537	24937.650422
536.191270	25044.001124
536.551947	24952.015190
536.912567	24601.377734
537.273131	24907.695886
537.633638	24644.860207
537.994089	24841.409754
538.354483	24405.836418
538.714821	24895.612240
539.075103	24931.409474
539.435328	24738.434105
539.795497	24276.745071
540.155609	24682.147101
540.515665	24961.739576
540.875665	24217.919847
541.235609	24482.958510
541.595496	24456.046310
541.955328	24816.647607
542.315102	24743.255968
542.674821	24294.903307
543.034483	24179.092880
543.394090	24346.461708
543.753640	24127.416012
544.113134	24772.499702
544.472571	24360.657597
544.831953	24655.882690
545.191278	24260.318471
545.550548	24204.154976
545.909761	24421.584983
546.268918	24631.160871
546.628019	24595.169553
546.987064	24305.701458
547.346053	24069.616662
547.704986	24194.685168
548.063863	24351.044117
548.422684	24337.740512
548.781449	23908.004832
549.140158	24294.361383
549.498811	23868.673749
549.857408	23598.755249
550.215949	24057.286000
550.574434	23724.075813
550.932864	23948.928918
551.291237	24084.772891
551.649555	23966.946002
552.007817	24018.176728
552.366022	23883.681264
552.724173	23929.558285
553.082267	23872.822619
553.440305	24337.697662
553.798288	23621.319453
554.156215	24136.328772
554.514086	24225.030394
554.871902	23591.226286
555.229661	23874.168607
555.587365	23744.691612
555.945014	23580.095418
556.302606	23850.828065
556.660143	23784.960348
557.017625	24039.644482
557.375050	23580.206323
557.732421	23966.411640
558.089735	23782.263331
558.446994	23840.536549
558.804197	23857.053890
559.161345	23815.240039
559.518437	23557.874012
559.875474	23772.612042
560.232455	23943.731489
560.589381	23769.753708
560.946251	23741.815633
561.303065	24069.014244
561.659825	24147.205061
562.016528	23748.215378
562.373177	23506.086238
562.729770	23844.887065
563.086307	23722.187901
563.442789	23880.487693
563.799216	23719.289237
564.155587	23739.892433
564.511904	23720.206727
564.868164	23648.544205
565.224370	23644.617146
565.580520	23536.275188
565.936615	23668.524818
566.292654	23342.236135
566.648638	23650.472446
567.004567	23475.461229
567.360441	23428.495319
567.716260	23158.412981
568.072023	23488.734587
568.427732	23245.990426
568.783385	23019.587166
569.138982	23255.976952
569.494525	23297.571512
569.850013	23051.641342
570.205445	23143.486124
570.560823	22938.202778
570.916145	22710.705587
571.271412	22885.159757
571.626625	22644.497593
571.981782	22760.154265
572.336884	22556.705899
572.691931	22690.377134
573.046923	22426.765117
573.401860	22309.848157
573.756743	22311.035349
574.111570	22230.381928
574.466342	22162.454901
574.821059	22249.346749
575.175722	21958.106688
575.530330	21931.779263
575.884882	21958.646092
576.239380	21864.058922
576.593823	21761.620156
576.948211	21738.834140
577.302544	21580.191549
577.656823	21446.976538
578.011047	21545.742824
578.365216	21424.208167
578.719330	21305.985547
579.073389	21210.243954
579.427394	21357.238959
579.781344	21125.479472
580.135239	21013.175168
580.489080	20990.961323
580.842866	20742.198025
581.196597	20930.192734
581.550273	20919.805437
581.903895	20824.084007
582.257463	21127.027107
582.610975	20656.163173
582.964434	20963.625666
583.317837	20671.435348
583.671186	20766.012436
584.024481	20727.026672
584.377721	20506.400574
584.730906	20554.672143
585.084037	20588.314283
585.437113	20489.966413
585.790135	20697.636745
586.143103	20169.011271
586.496016	20165.391722
586.848874	20417.409085
587.201679	20357.835250
587.554428	20011.482775
587.907124	20348.622541
588.259765	20132.772936
588.612352	20206.318330
588.964884	19776.426374
589.317362	19946.630851
589.669786	20005.997999
590.022155	20058.451205
590.374470	20230.115097
590.726731	20037.419511
591.078937	19783.874679
591.431090	19881.531911
591.783188	19633.058479
592.135232	19597.442727
592.487222	19712.393638
592.839157	19728.898375
593.191038	19613.985273
593.542866	19502.386730
593.894639	19218.824347
594.246358	19449.275654
594.598022	19345.155662
594.949633	19102.966029
595.301190	19061.129493
595.652692	19228.790708
596.004141	19471.043356
596.355535	18801.053845
596.706876	18807.708168
597.058162	18703.142035
597.409395	18920.055323
597.760573	19006.942130
598.111698	18785.476680
598.462768	18718.711638
598.813785	18679.753602
599.164748	18501.425305
599.515657	18550.760557
599.866511	18323.127255
600.217312	18691.471764
600.568060	18221.237974
600.918753	18529.741466
601.269392	18426.140713
601.619978	18198.081434
601.970510	18410.964320
602.320988	18356.940794
602.671412	18574.738805
603.021783	18467.049677
603.372100	18214.994505
603.722363	18343.339761
604.072572	18286.435217
604.422728	18413.575637
604.772830	18195.911217
605.122878	18127.686762
605.472872	18126.161813
605.822813	18111.991129
606.172701	18078.651458
606.522534	18275.374925
606.872314	18295.524417
607.222041	18133.186660
607.571714	18340.368001
607.921333	18179.761881
608.270899	18248.651769
608.620411	18433.526004
608.969870	18202.033698
609.319276	18203.145273
609.668627	18238.009893
610.017926	18371.562661
610.367171	18480.650710
610.716362	18517.173869
611.065500	18346.243466
611.414585	18474.044278
611.763616	18455.134910
612.112594	18411.912057
612.461518	18376.382004
612.810389	18571.850224
613.159207	18427.295137
613.507971	18333.426332
613.856682	18610.099979
614.205340	18541.948620
614.553945	18681.049178
614.902496	18424.847657
615.250994	18671.438218
615.599439	18608.176779
615.947830	18597.489532
616.296169	18641.176172
616.644454	18606.430019
616.992686	18577.302232
617.340864	18783.026679
617.688990	18543.213950
618.037063	18722.764726
618.385082	18576.011697
618.733048	18857.088791
619.080961	18724.829079
619.428821	18762.839379
619.776628	18646.025762
620.124382	18574.469103
620.472083	18601.678731
620.819731	18624.374006
621.167326	18328.667483
621.514868	18367.234831
621.862357	18126.590311
622.209793	18138.666395
622.557176	17970.972412
622.904506	17798.265002
623.251783	17709.182772
623.599007	17468.961709
623.946179	17423.634174
624.293297	17358.741921
624.640363	17113.116741
624.987376	17137.374774
625.334336	16927.619924
625.681243	16771.691994
626.028097	16775.059485
626.374899	16709.290071
626.721647	16580.176039
627.068343	16411.403249
627.414987	16341.726942
627.761577	16312.732745
628.108115	16360.500198
628.454600	16077.313381
628.801032	16172.757547
629.147412	16113.327384
629.493739	16128.874303
629.840014	15939.755416
630.186236	16033.931732
630.532405	15802.323480
630.878521	16001.885117
631.224585	15894.402676
631.570597	15714.448607
631.916556	15749.855151
632.262462	15724.230966
632.608316	15645.636857
632.954117	15591.706593
633.299866	15578.594552
633.645562	15505.598644
633.991206	15260.578402
634.336797	15130.738444
634.682336	15098.767446
635.027823	14992.968751
635.373257	14878.038005
635.718639	14761.640283
636.063968	14711.513570
636.409245	14476.321058
636.754470	14495.525333
637.099642	14343.630327
637.444762	14115.936531
637.789829	14156.908509
638.134845	13998.523017
638.479808	14018.120502
638.824719	13968.810456
639.169577	13817.437209
639.514383	13873.530127
639.859137	13688.050954
640.203839	13766.584569
640.548489	13610.578502
640.893086	13598.096605
641.237632	13469.126245
641.582125	13620.527219
641.926566	13454.209471
642.270955	13462.986120
642.615292	13427.940018
642.959576	13431.889762
643.303809	13473.421308
643.647990	13408.271957
643.992118	13458.678454
644.336195	13233.207807
644.680219	13427.778702
645.024192	13360.300337
645.368112	13596.937139
645.711981	13662.328467
646.055797	13834.562008
646.399562	13801.481957
646.743274	14072.474223
647.086935	14349.533518
647.430544	14310.215038
647.774101	14347.186861
648.117606	14498.040869
648.461059	14461.507627
648.804460	14449.882726
649.147810	14184.609649
649.491108	14075.957660
649.834354	14101.841465
650.177548	13789.471408
650.520690	13600.657511
650.863781	13533.169064
651.206820	13568.943612
651.549807	13403.122418
651.892742	13211.535887
652.235626	13139.502839
652.578458	13143.452583
652.921238	12831.047238
653.263967	13028.327753
653.606644	12861.006816
653.949269	12824.362668
654.291843	12632.609779
654.634365	12792.222792
654.976836	12644.827015
655.319255	12653.129796
655.661622	12604.049122
656.003938	12525.737318
656.346203	12457.732152
656.688416	12527.204293
657.030577	12487.253149
657.372687	12405.926735
657.714746	12376.993032
658.056753	12559.470198
658.398708	12394.306875
658.740612	12385.134496
659.082465	12485.095535
659.424266	12443.001901
659.766016	12477.319555
660.107715	12379.485883
660.449362	12461.155096
660.790958	12418.784197
661.132503	12363.898635
661.473996	12426.212338
661.815438	12439.704986
662.156829	12456.587810
662.498168	12433.774068
662.839456	12429.718460
663.180693	12448.032972
663.521879	12543.482179
663.863013	12515.448322
664.204097	12489.385557
664.545129	12618.638221
664.886110	12583.766039
665.227040	12682.716328
665.567918	12683.989219
665.908746	12714.984753
666.249522	12695.656970
666.590248	12747.175041
666.930922	12856.931043
667.271545	12834.543279
667.612118	12922.859253
667.952639	12834.253412
668.293109	12835.188546
668.633528	12788.656176
668.973896	12764.446034
669.314213	12860.235519
669.654480	12589.286103
669.994695	12655.867142
670.334859	12679.958817
670.674973	12622.419087
671.015035	12659.373265
671.355047	12602.143566
671.695008	12570.953947
672.034918	12578.669433
672.374777	12618.597892
672.714585	12537.982280
673.054342	12568.617372
673.394049	12517.827747
673.733705	12608.293773
674.073310	12528.376362
674.412864	12548.246069
674.752368	12418.264959
675.091820	12420.788056
675.431223	12414.695822
675.770574	12293.004888
676.109875	12203.748739
676.449125	12167.810353
676.788324	12103.888522
677.127473	11942.934562
677.466571	11934.530959
677.805619	11837.203922
678.144616	11749.470201
678.483562	11729.355998
678.822458	11596.750966
679.161303	11573.380177
679.500098	11562.289638
679.838842	11511.323573
680.177535	11533.134125
680.516179	11598.308683
680.854771	11543.090404
681.193314	11755.005388
681.531805	11911.835684
681.870247	12322.052017
682.208638	12732.273391
682.546978	13052.323645
682.885268	13108.310700
683.223508	12789.082153
683.561697	12633.134059
683.899836	12533.745190
684.237925	12345.011952
684.575963	12254.969383
684.913951	12180.204030
685.251889	12122.147582
685.589776	12222.579969
685.927614	12153.107828
686.265401	12113.197013
686.603137	12162.144096
686.940824	12310.142291
687.278460	12431.762648
687.616046	12486.194507
687.953582	12650.861277
688.291068	12581.870566
688.628504	12804.747539
688.965889	12820.211278
689.303224	12790.413018
689.640510	12672.518073
689.977745	12373.171837
690.314930	12145.883855
690.652065	12057.467057
690.989150	11769.942327
691.326185	11542.165352
691.663170	11340.756133
692.000105	11087.763306
692.336990	10985.112811
692.673825	10732.112423
693.010610	10618.439445
693.347345	10411.903372
693.684030	10209.775788
694.020665	10148.697168
694.357251	9953.024781
694.693786	9905.524509
695.030272	9742.155837
695.366707	9617.687227
695.703093	9548.855313
696.039429	9551.184326
696.375716	9477.195311
696.711952	9343.571967
697.048139	9380.538748
697.384276	9336.297582
697.720363	9354.150828
698.056400	9287.050550
698.392388	9238.857119
698.728326	9206.739928
699.064214	9136.909865
699.400053	9190.457001
699.735842	8995.666816
700.071581	8964.608267
700.407270	8889.482472
700.742910	8800.312022
701.078501	8717.125422
701.414042	8593.460877
701.749533	8522.037809
702.084974	8387.433961
702.420366	8503.027618
702.755709	8386.029999
703.091002	8255.527129
703.426246	8280.339688
703.761440	8232.950322
704.096584	8185.989453
704.431679	8122.385215
704.766725	8104.554654
705.101721	8057.107314
705.436668	8102.092050
705.771565	7997.432655
706.106413	8075.618431
706.441212	8114.876416
706.775961	8075.726815
707.110661	8108.363245
707.445311	8253.639217
707.779913	8152.707755
708.114465	8281.960419
708.448967	8320.779824
708.783421	8454.488868
709.117825	8643.428794
709.452180	8677.378445
709.786485	8768.532588
710.120742	9043.469558
710.454949	9046.708499
710.789107	9139.390112
711.123216	9359.254996
711.457275	9520.098051
711.791286	9686.461169
712.125247	9678.463378
712.459159	9670.682357
712.793023	9916.158823
713.126837	9500.127520
713.460602	9643.288727
713.794318	9468.310277
714.127985	9491.842383
714.461602	9185.695631
714.795171	9128.919636
715.128691	8884.219507
715.462162	8630.112586
715.795584	8579.169206
716.128957	8429.305784
716.462281	8263.230012
716.795556	8306.725088
717.128782	8106.109850
717.461960	7835.435176
717.795088	7909.797237
718.128167	7820.649472
718.461198	7654.908936
718.794180	7599.035308
719.127113	7591.261848
719.459997	7437.468848
719.792833	7210.846297
720.125619	7264.209431
720.458357	7130.313864
720.791046	7116.627132
721.123686	7119.719879
721.456278	6962.138451
721.788821	6977.206460
722.121315	6870.775100
722.453761	6935.380007
722.786158	6886.238839
723.118506	6891.461474
723.450805	6860.536516
723.783056	6925.005312
724.115259	6833.657084
724.447412	6829.036866
724.779518	6877.840277
725.111574	6882.629373
725.443582	6956.883048
725.775542	6938.394617
726.107453	7134.402240
726.439315	7041.448404
726.771129	7102.194308
727.102895	7268.254957
727.434612	7380.080352
727.766281	7408.336019
728.097901	7498.812128
728.429473	7483.779407
728.760996	7465.190152
729.092471	7438.169568
729.423897	7386.114613
729.755276	7397.636170
730.086606	7323.309398
730.417887	7420.404542
730.749120	7609.795651
731.080305	7806.277142
731.411442	7933.866226
731.742530	7924.701408
732.073570	8028.526492
732.404562	8121.558466
732.735506	7960.841440
733.066401	8100.388140
733.397249	8037.487143
733.728048	7802.823952
734.058798	7466.475647
734.389501	7245.211843
734.720156	7070.850934
735.050762	6836.124729
735.381320	6735.102526
735.711831	6689.522934
736.042293	6580.470173
736.372707	6601.645540
736.703073	6465.413398
737.033391	6503.852196
737.363661	6516.878538
737.693883	6542.444750
738.024056	6624.607996
738.354182	6671.034502
738.684260	6706.327620
739.014290	6815.342572
739.344272	6931.435304
739.674207	6954.004550
740.004093	7020.164653
740.333931	7040.147787
740.663722	7047.996863
740.993464	7126.348997
741.323159	7116.448171
741.652806	6869.154369
741.982405	6876.373301
742.311956	6936.678104
742.641460	6774.720954
742.970915	6575.681077
743.300323	6567.300159
743.629683	6518.032962
743.958996	6390.065792
744.288260	6298.808305
744.617477	6246.438278
744.946647	6253.553867
745.275768	6084.874338
745.604842	6039.929931
745.933869	6024.657756
746.262847	5978.004398
746.591778	5966.881092
746.920662	5931.431698
747.249498	5917.704636
747.578286	5967.395289
747.907027	6042.079983
748.235720	6102.601556
748.564365	6078.020890
748.892963	6098.372028
749.221514	6255.461943
749.550017	6090.729639
749.878473	5968.794209
750.206881	6020.425707
750.535242	5962.800278
750.863555	5893.499536
751.191821	5912.925622
751.520039	5915.108442
751.848210	5821.647970
752.176334	5843.703018
752.504411	5891.548609
752.832440	5818.850129
753.160421	5747.175004
753.488356	5796.109484
753.816243	5827.541079
754.144082	5680.634294
754.471875	5650.470550
754.799620	5695.218352
755.127318	5707.014652
755.454969	5658.173433
755.782572	5623.500377
756.110129	5668.457387
756.437638	5654.437938
756.765100	5595.413588
757.092515	5593.553402
757.419882	5640.206761
757.747203	5624.632116
758.074477	5685.640160
758.401703	5678.484242
758.728882	5627.140090
759.056014	5677.196227
759.383099	5807.880579
759.710138	5820.246529
760.037129	5806.315300
760.364073	5809.874355
760.690970	5893.219752
761.017820	5873.292070
761.344623	5830.414536
761.671379	5928.906080
761.998088	6045.364295
762.324751	6282.175018
762.651366	6874.475307
762.977935	8167.115373
763.304456	9795.135843
763.630931	10702.379698
763.957359	10315.377879
764.283740	9378.348366
764.610074	8554.626348
764.936362	7566.514824
765.262602	6965.644574
765.588796	6430.768068
765.914943	6097.666266
766.241044	5930.594866
766.567097	5741.964972
766.893104	5480.026618
767.219064	5302.295698
767.544978	5239.354371
767.870845	5159.235313
768.196665	5055.853851
768.522438	4987.468078
768.848165	4952.666473
769.173846	4891.761772
769.499479	4843.553218
769.825066	4789.570022
770.150607	4731.455601
770.476101	4706.196899
770.801548	4700.074418
771.126949	4635.008245
771.452303	4575.804935
771.777611	4533.696177
772.102872	4549.598496
772.428087	4515.671531
772.753256	4474.765088
773.078378	4435.199592
773.403453	4363.557234
773.728482	4348.907641
774.053465	4302.672699
774.378401	4287.813898
774.703291	4289.479999
775.028135	4220.239751
775.352932	4170.294519
775.677683	4156.612828
776.002388	4176.759799
776.327046	4187.810008
776.651658	4114.161271
776.976224	4053.667425
777.300743	4058.222107
777.625216	4077.819593
777.949643	4077.950663
778.274024	4031.047768
778.598359	3984.545644
778.922647	4002.787059
779.246889	4000.173221
779.571086	4001.378057
779.895236	3982.889625
780.219339	3965.361533
780.543397	3959.314669
780.867409	4011.921630
781.191374	4027.045092
781.515294	3967.766163
781.839167	3961.704176
782.162995	3976.764623
782.486776	3963.506388
782.810511	3976.131958
783.134201	3974.072647
783.457844	3928.488013
783.781441	3868.747820
784.104993	3878.424314
784.428498	3896.161614
784.751958	3896.927870
785.075372	3873.627657
785.398739	3833.860514
785.722061	3844.376361
786.045337	3890.117271
786.368568	3923.532559
786.691752	3836.358406
787.014891	3882.530334
787.337983	4008.274355
787.661030	4164.789579
787.984031	4325.582222
788.306987	4494.954909
788.629897	4579.648814
788.952760	4539.460736
789.275579	4470.701918
789.598351	4402.278337
789.921078	4266.444447
790.243759	4068.488417
790.566395	4046.183832
790.888984	4042.876835
791.211529	3938.676185
791.534027	3875.797873
791.856480	3869.327552
792.178888	3805.317501
792.501249	3754.860593
792.823566	3766.601440
793.145836	3794.738640
793.468062	3745.184098
793.790241	3699.382694
794.112375	3731.482242
794.434464	3792.727220
794.756507	3817.373421
795.078505	3794.673105
795.400457	3832.111234
795.722364	3966.820947
796.044226	4070.129313
796.366042	4141.837206
796.687812	4125.758446
797.009538	4135.049292
797.331218	4091.692848
797.652852	4063.142274
797.974442	4043.552350
798.295986	4045.503276
798.617484	3959.266778
798.938938	3876.841392
799.260346	3915.650715
799.581709	3909.934047
799.903026	3839.521730
800.224299	3803.311122
800.545526	3796.762663
800.866708	3757.726488
801.187845	3696.315152
801.508936	3730.766398
801.829983	3733.259248
802.150984	3653.803102
802.471940	3641.873211
802.792851	3654.047598
803.113717	3655.257475
803.434538	3657.677229
803.755314	3596.525512
804.076045	3576.673448
804.396731	3593.122733
804.717372	3616.569140
805.037967	3605.851647
805.358518	3598.201696
805.679024	3621.068369
805.999485	3633.678816
806.319901	3640.572594
806.640272	3649.003923
806.960598	3667.499917
807.280879	3640.522182
807.601115	3650.871671
807.921306	3670.340607
808.241453	3706.657079
808.561554	3686.527752
808.881611	3619.762711
809.201623	3651.842093
809.521590	3669.019825
809.841513	3639.340032
810.161390	3668.908919
810.481223	3647.390754
810.801011	3595.237497
811.120755	3581.671752
811.440453	3616.390179
811.760107	3623.349492
812.079716	3581.417174
812.399281	3552.049932
812.718801	3572.335535
813.038276	3548.382493
813.357707	3543.568191
813.677093	3557.696024
813.996434	3510.810773
814.315731	3518.377545
814.634983	3524.147146
814.954191	3533.805996
815.273354	3565.159453
815.592473	3560.808937
815.911547	3563.480748
816.230577	3606.005402
816.549562	3655.380983
816.868502	3696.131150
817.187399	3722.188874
817.506250	3721.331878
817.825058	3689.008000
818.143821	3782.196249
818.462539	3885.340778
818.781213	3928.039351
819.099843	3980.326198
819.418429	4221.351325
819.736970	4464.397955
820.055466	4710.701170
820.373919	5073.525616
820.692327	5477.279189
821.010691	5911.020066
821.329011	7266.470388
821.647286	9971.281320
821.965517	14505.297610
822.283704	18557.959325
822.601847	20772.243302
822.919945	18963.613413
823.237999	16386.520114
823.556010	13895.058375
823.873976	11802.724951
824.191897	9710.472185
824.509775	8362.697019
824.827609	7238.401244
825.145398	6698.818821
825.463144	6577.233752
825.780845	6691.088212
826.098502	6871.886674
826.416116	7733.278714
826.733685	9055.964057
827.051210	10172.612402
827.368692	10231.362009
827.686129	8994.434254
828.003522	7476.716751
828.320872	6463.195291
828.638177	5761.252426
828.955439	5207.978230
829.272656	4712.868867
829.589830	4427.990742
829.906960	4254.602776
830.224046	4071.631577
830.541088	3945.527113
830.858086	3895.954927
831.175041	3824.191581
831.491952	3807.001247
831.808819	3816.155982
832.125642	3882.674007
832.442421	4034.024569
832.759157	4303.340652
833.075849	4848.748127
833.392497	5701.960895
833.709101	6476.032589
834.025662	6820.010680
834.342179	6471.314069
834.658653	5809.574406
834.975083	5166.877703
835.291469	4588.080144
835.607811	4177.722659
835.924110	4038.274262
836.240366	3845.964325
836.556578	3639.019918
836.872746	3533.644679
837.188871	3490.537773
837.504952	3426.663833
837.820990	3346.065865
838.136984	3296.425623
838.452935	3322.347237
838.768842	3317.525373
839.084706	3340.989423
839.400526	3498.243177
839.716303	3825.295594
840.032037	4352.882591
840.347727	4618.811018
840.663373	4346.160212
840.978977	3967.796410
841.294537	3663.923218
841.610054	3430.825306
841.925527	3323.317659
842.240957	3255.652771
842.556344	3204.747200
842.871687	3142.922489
843.186987	3092.891557
843.502244	3059.859397
843.817458	3022.272554
844.132629	2991.178717
844.447756	2999.741117
844.762840	2987.934734
845.077881	2956.034313
845.392879	2938.286931
845.707833	2935.320212
846.022745	2934.218720
846.337613	2934.218720
846.652438	2923.712955
846.967221	2919.133067
847.281960	2906.300810
847.596656	2902.356107
847.911309	2903.076992
848.225919	2894.199520
848.540485	2890.670712
848.855009	2889.576782
849.169490	2879.832231
849.483928	2873.555995
849.798323	2871.610109
850.112675	2868.046014
850.426984	2879.018085
850.741251	2878.327447
851.055474	2865.641383
851.369654	2858.387163
851.683792	2865.026362
851.997887	2872.073896
852.311938	2875.280069
852.625947	2863.899665
852.939914	2867.133565
853.253837	2872.913248
853.567718	2857.283150
853.881555	2856.395907
854.195350	2868.915613
854.509103	2868.479553
854.822812	2857.169724
855.136479	2856.794158
855.450103	2858.440095
855.763685	2849.915504
856.077224	2848.312417
856.390720	2864.882690
856.704173	2872.424256
857.017584	2864.786908
857.330953	2858.019159
857.644278	2870.203628
857.957561	2879.118908
858.270802	2881.001779
858.584000	2879.534803
858.897155	2869.374358
859.210268	2868.280427
859.523339	2866.458050
859.836367	2864.494521
860.149352	2861.149715
860.462295	2855.165866
860.775195	2863.632483
861.088054	2861.061495
861.400869	2845.872498
861.713642	2844.846624
862.026373	2858.044364
862.339062	2860.968234
862.651708	2869.510469
862.964312	2870.753113
863.276873	2862.946887
863.589392	2873.387116
863.901869	2885.818602
864.214303	2908.450862
864.526696	2921.472162
864.839045	2918.339085
865.151353	2918.218097
865.463619	2916.473858
865.775842	2914.593508
866.088023	2935.652928
866.400162	2941.422528
866.712258	2912.385482
867.024313	2902.204872
867.336325	2910.671490
867.648296	2930.513472
867.960224	2925.822678
868.272110	2910.663928
868.583954	2916.017634
868.895755	2929.386774
869.207515	2916.567119
869.519233	2922.288829
869.830909	2932.923143
870.142542	2941.384720
870.454134	2940.842796
870.765684	2943.804474
871.077191	2944.364042
871.388657	2949.188426
871.700081	2964.037145
872.011463	2974.883187
872.322803	2979.440390
872.634101	2975.898980
872.945357	2992.098728
873.256571	3019.893129
873.567744	3011.000534
873.878874	3006.196314
874.189963	3027.182638
874.501010	3031.482742
874.812015	3017.191071
875.122979	3015.857686
875.433900	3015.066224
875.744780	3020.397245
876.055618	3027.374202
876.366415	3026.134078
876.677169	3037.585059
876.987882	3033.090870
877.298554	3026.958306
877.609183	3046.528066
877.919771	3070.264338
878.230317	3098.215016
878.540822	3150.416164
878.851285	3186.714992
879.161707	3227.069429
879.472087	3327.464008
879.782425	3552.153276
880.092722	3984.238134
880.402977	4510.461498
880.713191	5136.323269
881.023363	6284.367920
881.333494	7576.415650
881.643583	8141.508832
881.953631	7844.526897
882.263637	7220.437092
882.573602	6630.115456
882.883526	6045.858328
883.193408	5474.398169
883.503248	5009.104711
883.813048	4705.755798
884.122806	4402.754726
884.432522	4089.983897
884.742197	3854.763659
885.051831	3663.225018
885.361424	3525.193185
885.670975	3454.652319
885.980485	3374.808004
886.289954	3294.467135
886.599382	3250.167996
886.908768	3215.391596
887.218113	3169.575069
887.527417	3112.486523
887.836680	3062.402659
888.145901	3053.174827
888.455082	3046.412119
888.764221	2997.089470
889.073319	2969.932774
889.382376	2962.711321
889.691392	2972.395378
890.000366	2968.029738
890.309300	2955.419292
890.618193	2969.282465
890.927044	2984.070690
891.235855	2986.477841
891.544625	2972.919658
891.853353	2981.507263
892.162041	2995.574603
892.470687	3040.294679
892.779293	3088.929211
893.087858	3136.109369
893.396381	3208.492777
893.704864	3324.640962
894.013306	3560.609811
894.321707	3860.689535
894.630068	4072.647369
894.938387	4070.716607
895.246665	4019.866488
895.554903	3901.963982
895.863100	3707.221689
896.171256	3539.079043
896.479371	3399.570152
896.787446	3275.411574
897.095480	3175.692509
897.403473	3111.584156
897.711425	3075.083682
898.019336	3063.277299
898.327207	3037.731252
898.635038	3003.169101
898.942827	2989.174858
899.250576	2975.268835
899.558284	2944.779937
899.865952	2922.283788
900.173579	2904.677558
900.481165	2897.773698
900.788711	2884.765000
901.096216	2861.074098
901.403681	2847.631861
901.711105	2857.101669
902.018489	2853.013293
902.325832	2854.714682
902.633135	2864.431506
902.940397	2898.292937
903.247619	2976.476192
903.554800	3167.871159
903.861941	3507.690299
904.169041	3931.782407
904.476101	4233.649220
904.783121	4197.378118
905.090100	3949.406281
905.397039	3677.720856
905.703938	3425.395983
906.010796	3244.070720
906.317614	3132.671302
906.624391	3036.912065
906.931129	2969.915130
907.237826	2906.182343
907.544483	2861.366485
907.851099	2827.953717
908.157675	2808.877991
908.464211	2787.579116
908.770707	2773.935233
909.077163	2762.088522
909.383578	2746.728126
909.689954	2738.344687
909.996289	2735.745972
910.302584	2734.868811
910.608839	2736.592886
910.915054	2732.333111
911.221229	2722.785166
911.527363	2723.163252
911.833458	2733.253122
912.139513	2736.565160
912.445527	2741.555902
912.751502	2750.723240
913.057436	2757.405290
913.363331	2769.884666
913.669186	2793.653706
913.975000	2826.580003
914.280775	2884.586039
914.586510	2954.436267
914.892205	3033.433668
915.197859	3162.230108
915.503475	3350.504601
915.809050	3562.459915
916.114585	3710.251422
916.420081	3733.972572
916.725536	3674.897810
917.030952	3555.785427
917.336328	3432.377981
917.641665	3299.359575
917.946961	3197.079605
918.252218	3128.449336
918.557435	3052.274981
918.862612	2990.450270
919.167750	2941.057045
919.472848	2906.343659
919.777906	2875.433825
920.082925	2850.921214
920.387904	2819.451811
920.692843	2803.284831
920.997743	2792.279992
921.302603	2777.544699
921.607423	2766.181938
921.912204	2759.106679
922.216946	2747.378435
922.521647	2736.638256
922.826310	2729.459653
923.130932	2722.028992
923.435516	2713.814432
923.740059	2704.715150
924.044564	2700.241126
924.349028	2694.101000
924.653454	2685.626821
924.957840	2681.987107
925.262186	2676.310768
925.566493	2673.412105
925.870761	2664.595127
926.174989	2663.987668
926.479178	2656.307470
926.783328	2651.737664
927.087438	2654.124650
927.391509	2651.893940
927.695541	2648.261788
927.999533	2644.110398
928.303486	2643.056797
928.607400	2642.298103
928.911275	2640.632002
929.215110	2640.624440
929.518906	2640.642084
929.822663	2639.157464
930.126381	2638.376086
930.430060	2639.772485
930.733699	2640.122845
931.037299	2640.906745
931.340861	2640.574029
931.644383	2643.424801
931.947866	2641.236940
932.251309	2641.342805
932.554714	2638.297948
932.858080	2637.680406
933.161407	2635.363996
933.464694	2636.440282
933.767943	2631.888121
934.071153	2633.501290
934.374323	2632.543471
934.677455	2633.183697
934.980548	2632.545991
935.283602	2632.974489
935.586617	2632.692185
935.889593	2631.424334
936.192530	2632.069602
936.495428	2632.714870
936.798287	2633.776033
937.101108	2637.473719
937.403890	2643.175264
937.706632	2645.098464
938.009336	2651.672129
938.312002	2663.322235
938.614628	2669.353976
938.917216	2676.300686
939.219765	2675.602486
939.522275	2674.037208
939.824747	2673.918741
940.127179	2671.622495
940.429573	2665.747030
940.731929	2665.895744
941.034246	2661.315856
941.336524	2657.958448
941.638763	2655.415186
941.940964	2653.323107
942.243126	2650.822694
942.545250	2652.657674
942.847335	2648.685245
943.149381	2646.699031
943.451389	2640.337094
943.753359	2636.195787
944.055290	2638.600417
944.357182	2637.304840
944.659036	2634.640591
944.960851	2637.675365
945.262628	2632.649335
945.564367	2632.911475
945.866067	2634.915333
946.167729	2631.124386
946.469352	2634.549850
946.770937	2635.452216
947.072484	2632.543471
947.373992	2632.866104
947.675462	2629.191103
947.976893	2624.611215
948.278286	2624.369240
948.579641	2626.156329
948.880958	2621.483179
949.182236	2624.757408
949.483476	2625.518623
949.784678	2625.443005
950.085841	2624.666668
950.386967	2622.178858
950.688054	2627.784621
950.989103	2625.889147
951.290114	2628.233284
951.591087	2629.871659
951.892021	2631.686474
952.192917	2635.328708
952.493776	2635.719398
952.794596	2634.428862
953.095378	2639.830458
953.396122	2638.048411
953.696828	2636.278966
953.997496	2633.236629
954.298126	2629.370064
954.598718	2628.944087
954.899272	2625.803448
955.199788	2620.961420
955.500266	2620.943776
955.800706	2617.916563
956.101108	2616.532766
956.401472	2612.101592
956.701798	2613.475306
957.002087	2614.470934
957.302337	2609.112187
957.602550	2610.160747
957.902724	2606.926847
958.202861	2608.207300
958.502960	2607.098247
958.803022	2605.926178
959.103045	2604.345777
959.403031	2601.563060
959.702979	2601.447113
960.002889	2602.319233
960.302762	2602.394850
960.602596	2601.895776
960.902393	2602.089860
961.202153	2599.188676
961.501875	2601.857967
961.801559	2600.756475
962.101205	2598.588779
962.400814	2600.607761
962.700385	2598.868563
962.999918	2593.129209
963.299414	2594.248345
963.598873	2593.724065
963.898293	2592.952769
964.197677	2597.860332
964.497022	2597.976279
964.796331	2598.676999
965.095601	2596.761361
965.394835	2600.310333
965.694030	2596.068202
965.993189	2597.812441
966.292309	2596.000146
966.591393	2598.024170
966.890439	2594.021493
967.189447	2601.235385
967.488419	2596.963007
967.787353	2596.834457
968.086249	2596.947883
968.385108	2598.268666
968.683930	2597.394025
968.982714	2598.351845
969.281462	2595.450661
969.580172	2595.987543
969.878844	2596.710949
970.177480	2595.853953
970.476078	2597.600713
970.774639	2599.145826
971.073162	2596.670620
971.371649	2596.968048
971.670098	2597.051227
971.968510	2595.019642
972.266885	2595.889241
972.565223	2597.441916
972.863524	2595.705239
973.161788	2597.721700
973.460014	2597.232708
973.758204	2593.812286
974.056356	2597.658686
974.354471	2595.659868
974.652550	2595.294385
974.950591	2599.042483
975.248595	2595.629622
975.546563	2596.831937
975.844493	2596.158943
976.142386	2596.118613
976.440243	2594.321442
976.738062	2596.385795
977.035845	2594.918819
977.333590	2595.347317
977.631299	2598.740013
977.928971	2592.310022
978.226606	2592.713314
978.524204	2592.360433
978.821765	2590.623756
979.119290	2593.469487
979.416777	2594.742378
979.714228	2594.069384
980.011642	2592.577203
980.309020	2596.247163
980.606360	2594.588623
980.903664	2595.861515
981.200931	2596.108531
981.498162	2594.099631
981.795356	2597.565425
982.092513	2596.476535
982.389633	2603.166147
982.686717	2604.396188
982.983764	2608.469440
983.280775	2606.382403
983.577749	2613.984463
983.874686	2612.353649
984.171587	2608.343412
984.468451	2605.180087
984.765279	2606.097577
985.062070	2603.768564
985.358824	2601.132041
985.655543	2601.119438
985.952224	2596.317739
986.248869	2594.407142
986.545478	2595.261617
986.842050	2596.458891
987.138586	2592.892275
987.435086	2596.322780
987.731549	2590.948910
988.027975	2591.163159
988.324366	2591.692480
988.620719	2591.173242
988.917037	2590.349013
989.213318	2591.873962
989.509563	2590.709455
989.805772	2591.299270
990.101944	2592.090732
990.398080	2592.748602
990.694180	2589.418920
990.990244	2592.274734
991.286271	2591.430340
991.582262	2587.803230
991.878217	2589.393714
992.174136	2593.071236
992.470019	2590.749785
992.765865	2589.378591
993.061676	2587.256265
993.357450	2588.607294
993.653188	2587.072263
993.948890	2591.881524
994.244556	2588.047726
994.540186	2590.159970
994.835780	2590.565782
995.131337	2590.802717
995.426859	2590.933787
995.722345	2593.169538
996.017795	2595.412852
996.313208	2593.308170
996.608586	2594.626432
996.903928	2592.592326
997.199234	2594.576020
997.494504	2595.143150
997.789738	2595.727924
998.084936	2596.242122
998.380099	2592.471339
998.675225	2595.979982
998.970316	2594.341607
999.265371	2592.972933
999.560390	2591.649631
999.855373	2590.961513
1000.150320	2591.326997
1000.445232	2590.812799
1000.740108	2590.412027
1001.034948	2587.636872
1001.329752	2587.760380
1001.624521	2590.354054
1001.919254	2587.561255
1002.213951	2588.710638
1002.508613	2588.715679
1002.803239	2588.491348
1003.097829	2587.493199
1003.392384	2590.006214
1003.686903	2589.970926
1003.981386	2589.663416
1004.275834	2589.731472
1004.570246	2589.300453
1004.864623	2588.803899
1005.158964	2588.491348
1005.453270	2590.230546
1005.747540	2589.744074
1006.041775	2589.514702
1006.335974	2591.921853
1006.630138	2587.480596
1006.924266	2590.104517
1007.218359	2588.798858
1007.512416	2586.106882
1007.806438	2585.912797
1008.100425	2588.009917
1008.394376	2583.999680
1008.688292	2589.038313
1008.982172	2588.869434
1009.276017	2586.411872
1009.569827	2586.336254
1009.863602	2584.327355
1010.157341	2586.588312
1010.451045	2588.750967
1010.744714	2585.242324
1011.038347	2589.670978
1011.331945	2586.648806
1011.625508	2589.373550
1011.919036	2585.781727
1012.212528	2591.952100
1012.505986	2587.977150
1012.799408	2587.586461
1013.092795	2589.504620
1013.386147	2586.923549
1013.679464	2587.969588
1013.972745	2589.849939
1014.265992	2588.584609
1014.559204	2589.900350
1014.852380	2587.190730
1015.145521	2589.464290
1015.438628	2586.351378
1015.731699	2588.297263
1016.024736	2587.674681
1016.317737	2587.513364
1016.610703	2584.655030
1016.903635	2587.180648
1017.196531	2587.662078
1017.489393	2588.236769
1017.782219	2588.990422
1018.075011	2586.633683
1018.367768	2588.312387
1018.660490	2586.737026
1018.953177	2586.737026
1019.245829	2586.737026
