Dividing Wavelength (nm)	Counts (n)	Blue Motor Position (mm): 35.900000	Red Motor Position (mm): 0.000000	
326.493990	2232.855588
326.888308	2232.855588
327.282561	2232.855588
327.676750	2193.295133
328.070874	2189.355471
328.464933	2190.656089
328.858929	2190.661130
329.252859	2196.186235
329.646726	2206.611341
330.040528	2220.522405
330.434265	2233.866339
330.827938	2250.371077
331.221547	2269.421597
331.615091	2284.681170
332.008571	2303.207410
332.401986	2319.540749
332.795338	2340.343070
333.188625	2358.609691
333.581847	2381.410830
333.975006	2399.465723
334.368100	2415.531880
334.761129	2434.620209
335.154095	2447.563371
335.546996	2478.682414
335.939833	2519.102386
336.332606	2532.799201
336.725315	2547.809236
337.117960	2556.245607
337.510540	2571.691702
337.903056	2579.825604
338.295508	2589.716348
338.687896	2600.275045
339.080220	2604.166816
339.472480	2610.685027
339.864676	2617.709875
340.256807	2623.653396
340.648875	2629.153295
341.040879	2629.813686
341.432818	2632.447689
341.824694	2637.077988
342.216506	2634.557412
342.608253	2638.797022
342.999937	2638.764254
343.391557	2637.052783
343.783113	2637.471198
344.174605	2634.617905
344.566033	2635.936167
344.957397	2634.345683
345.348697	2634.539767
345.739934	2629.410393
346.131106	2628.931484
346.522215	2629.344858
346.913260	2626.655403
347.304241	2624.540639
347.695159	2622.083076
348.086012	2622.057871
348.476802	2621.604167
348.867528	2616.739453
349.258191	2613.503032
349.648789	2612.794750
350.039324	2607.957763
350.429796	2611.438680
350.820203	2611.347939
351.210548	2609.061776
351.600828	2607.867022
351.991045	2607.284769
352.381198	2608.630757
352.771288	2605.422063
353.161314	2604.938112
353.551276	2606.135386
353.941175	2604.287803
354.331010	2602.387288
354.720782	2605.757300
355.110490	2602.276383
355.500135	2603.637494
355.889717	2606.110180
356.279235	2605.558174
356.668689	2603.367793
357.058080	2605.462392
357.447408	2603.387957
357.836672	2604.865015
358.225873	2605.875767
358.615010	2603.508945
359.004084	2607.030191
359.393095	2605.974069
359.782043	2607.935078
360.170927	2607.801487
360.559748	2606.861312
360.948505	2610.261571
361.337199	2608.867692
361.725830	2609.535644
362.114398	2610.067486
362.502903	2609.472630
362.891344	2610.248968
363.279722	2611.947837
363.668037	2611.131170
364.056289	2613.354318
364.444478	2612.456993
364.832603	2614.831377
365.220665	2614.934720
365.608665	2612.298197
365.996601	2613.366921
366.384474	2615.980760
366.772284	2615.925307
367.160031	2614.090327
367.547715	2617.566202
367.935336	2615.842128
368.322893	2613.283742
368.710388	2615.743825
369.097820	2615.229628
369.485189	2614.823815
369.872495	2618.599639
370.259738	2616.729371
370.646918	2616.048815
371.034035	2620.553086
371.421090	2617.813219
371.808081	2620.180041
372.195010	2621.304218
372.581875	2623.159363
372.968678	2620.578292
373.355418	2621.284053
373.742096	2621.982253
374.128710	2621.503344
374.515262	2624.089456
374.901751	2625.747995
375.288177	2623.842439
375.674540	2623.746657
376.060841	2627.078860
376.447079	2626.005094
376.833254	2626.708335
377.219367	2624.795217
377.605417	2627.109107
377.991404	2625.803448
378.377329	2627.104066
378.763191	2626.478962
379.148991	2629.642287
379.534727	2629.690177
379.920402	2629.622122
380.306013	2630.012811
380.691563	2632.883748
381.077049	2630.421145
381.462474	2633.014818
381.847835	2632.893831
382.233134	2631.338635
382.618371	2633.440796
383.003545	2630.789149
383.388657	2634.224695
383.773706	2633.710498
384.158693	2636.412556
384.543618	2638.061013
384.928480	2637.072947
385.313280	2635.089253
385.698017	2637.370375
386.082692	2639.064203
386.467305	2639.202835
386.851856	2641.322640
387.236344	2640.662249
387.620770	2635.653862
388.005133	2637.088071
388.389435	2639.868267
388.773674	2636.430200
389.157851	2640.281642
389.541965	2644.430511
389.926018	2642.983700
390.310008	2643.439925
390.693936	2645.748773
391.077802	2646.537714
391.461606	2645.569812
391.845348	2646.613331
392.229027	2648.765904
392.612645	2646.709113
392.996200	2651.409989
393.379694	2650.563075
393.763125	2651.165493
394.146494	2650.104330
394.529801	2651.112561
394.913047	2650.815133
395.296230	2653.905360
395.679351	2653.391162
396.062410	2653.955772
396.445408	2656.355361
396.828343	2656.564569
397.211217	2658.195382
397.594028	2660.073212
397.976778	2656.940135
398.359466	2660.438695
398.742092	2661.278047
399.124656	2663.400373
399.507158	2667.334994
399.889598	2671.093174
400.271977	2671.098215
400.654294	2679.343022
401.036549	2686.229238
401.418742	2691.237625
401.800874	2702.444110
402.182944	2713.607745
402.564952	2729.673902
402.946898	2749.919176
403.328783	2763.815117
403.710606	2784.612397
404.092367	2824.649241
404.474067	2861.006042
404.855705	2895.023748
405.237282	2926.175559
405.618797	2991.597133
406.000250	3043.967159
406.381642	3123.037657
406.762972	3189.941331
407.144240	3254.538676
407.525447	3319.572081
407.906593	3394.929770
408.287677	3500.980523
408.668700	3563.072415
409.049661	3661.218639
409.430560	3748.629726
409.811399	3787.121457
410.192176	3950.452321
410.572891	4039.683264
410.953545	4203.200651
411.334138	4190.804454
411.714669	4343.314481
412.095139	4347.233978
412.475547	4537.290519
412.855894	4655.387110
413.236180	4833.372608
413.616405	4771.978916
413.996568	4974.156912
414.376670	5074.266665
414.756711	5101.869503
415.136691	5240.924691
415.516609	5445.426658
415.896466	5538.665319
416.276262	5746.728862
416.655997	5814.597916
417.035670	6035.836514
417.415283	6355.528847
417.794834	6466.164530
418.174324	6464.926927
418.553753	6489.656307
418.933121	6814.251162
419.312428	6967.497198
419.691674	6868.335181
420.070859	7327.218813
420.449983	7143.191492
420.829045	7510.615990
421.208047	7395.574338
421.586988	7715.122998
421.965867	7783.065149
422.344686	7950.859955
422.723444	8022.963579
423.102141	7511.084817
423.480777	8239.307217
423.859352	7841.237544
424.237866	8460.397101
424.616319	8375.342753
424.994712	8791.633676
425.373044	8433.530271
425.751314	8890.261330
426.129524	8782.952809
426.507673	8947.475906
426.885762	9111.797357
427.263789	9047.283190
427.641756	8985.340013
428.019662	9107.577911
428.397508	9358.559317
428.775292	9074.278569
429.153016	9456.017424
429.530679	9303.744331
429.908282	9359.433957
430.285824	9083.705527
430.663305	9770.257749
431.040726	9238.607582
431.418086	9228.673988
431.795385	9549.379593
432.172624	9639.293613
432.549802	9565.183610
432.926920	9651.057145
433.303977	9534.472901
433.680974	9743.327905
434.057910	9817.228700
434.434786	9885.072548
434.811601	9742.291948
435.188355	10303.672319
435.565050	10021.765955
435.941683	9971.004057
436.318257	10465.006887
436.694770	10574.525954
437.071222	10652.605865
437.447614	10506.152784
437.823946	10393.006607
438.200218	10547.744824
438.576429	10358.081493
438.952580	10588.172357
439.328670	10651.867336
439.704700	10438.011508
440.080670	10424.234034
440.456580	10990.889973
440.832429	10740.755481
441.208218	10332.018727
441.583947	10668.084728
441.959616	10808.511110
442.335224	10621.176792
442.710773	10765.149625
443.086261	10966.059770
443.461689	10253.492674
443.837057	10892.181661
444.212365	11175.607933
444.587612	10824.478964
444.962800	11062.466796
445.337927	10833.744605
445.712995	10409.937322
446.088002	11496.973929
446.462949	11146.580969
446.837837	11119.552822
447.212664	11121.937288
447.587431	11625.331788
447.962139	12339.960716
448.336786	14595.385550
448.711374	15151.757535
449.085901	13011.321421
449.460369	12613.387859
449.834776	12066.868809
450.209124	12930.173967
450.583412	13345.257534
450.957640	14288.608653
451.331808	13444.890898
451.705917	12427.964139
452.079965	11741.759757
452.453954	12646.225936
452.827883	12273.893874
453.201752	12560.745610
453.575562	12072.542628
453.949311	12491.991834
454.323001	12450.566152
454.696632	12679.109382
455.070202	12968.612765
455.443713	13208.291904
455.817164	13668.511442
456.190556	13673.489581
456.563888	14020.348692
456.937160	14203.594634
457.310373	13533.592521
457.683526	13621.941262
458.056619	13169.757324
458.429653	13308.938541
458.802628	12744.117582
459.175542	13117.286474
459.548398	14066.901227
459.921194	14402.339604
460.293930	14466.072392
460.666607	15349.224572
461.039224	16381.615071
461.411782	17071.832212
461.784280	16963.230635
462.156719	17011.935742
462.529099	16696.750201
462.901419	15636.565300
463.273680	15422.114616
463.645882	15276.586587
464.018024	15018.106464
464.390106	15239.334980
464.762130	15963.814323
465.134094	16719.752986
465.505999	18703.996510
465.877845	21970.104635
466.249631	24812.350023
466.621358	24492.607278
466.993026	23042.960476
467.364634	22487.369869
467.736184	21024.086745
468.107674	20223.359950
468.479105	20346.777479
468.850477	19817.521860
469.221790	19398.065093
469.593043	18724.934943
469.964238	18166.054983
470.335373	17829.905804
470.706449	18264.256660
471.077467	17815.271334
471.448425	19640.393358
471.819324	23683.582745
472.190164	25688.036255
472.560945	22148.725318
472.931667	19778.072311
473.302330	19137.132449
473.672934	18666.699534
474.043479	18996.481736
474.413965	18814.370053
474.784393	18433.452907
475.154761	19123.670047
475.525070	19114.079252
475.895321	18783.752605
476.265513	19364.112921
476.635645	19953.151584
477.005719	19737.639736
477.375734	19921.437685
477.745691	20399.989378
478.115588	20922.709141
478.485427	21440.423038
478.855207	22502.120285
479.224928	24265.866261
479.594591	26483.719375
479.964194	26517.537955
480.333739	26719.083286
480.703226	26282.226976
481.072653	25968.321888
481.442022	26537.253908
481.811333	27451.910780
482.180584	27375.234830
482.549777	26425.559583
482.918912	26073.334164
483.287988	26198.286723
483.657005	25879.133794
484.025964	25613.109585
484.394864	25535.601845
484.763706	25212.920108
485.132489	24654.362782
485.501213	24832.718805
485.869879	24746.797379
486.238487	24557.643204
486.607036	24705.031419
486.975527	24406.816922
487.343959	24734.431428
487.712333	24666.733773
488.080648	24328.489994
488.448905	24810.562934
488.817104	24562.812907
489.185244	25238.317441
489.553326	25208.183943
489.921350	26203.927775
490.289315	28484.830600
490.657222	30259.276424
491.025070	30765.297365
491.392861	30540.847552
491.760593	29685.782160
492.128267	28782.581311
492.495883	27742.563546
492.863440	26868.261111
493.230939	25999.211558
493.598380	25847.145152
493.965763	25459.069568
494.333088	24999.223075
494.700354	24938.628406
495.067563	24791.230109
495.434713	24556.473657
495.801805	24720.845519
496.168839	24513.172666
496.535815	24352.569066
496.902733	24560.604882
497.269593	24239.929524
497.636395	24424.334932
498.003139	24387.779005
498.369825	24131.821980
498.736453	24332.795140
499.103023	24225.191711
499.469535	24230.197577
499.835989	24448.882831
500.202385	24458.080416
500.568723	23967.066990
500.935003	24212.661923
501.301226	23825.675227
501.667390	24673.720813
502.033497	24899.698096
502.399546	24630.850840
502.765537	24194.629716
503.131470	24579.519291
503.497345	24721.778132
503.863163	23942.980357
504.228923	24535.363825
504.594625	24747.442647
504.960269	24274.766418
505.325856	24773.366780
505.691385	24163.969418
506.056856	24778.460866
506.422270	24745.920218
506.787625	24312.882582
507.152924	24724.601178
507.518164	24755.904223
507.883347	24575.216667
508.248472	24241.676284
508.613540	25033.626430
508.978550	24830.311654
509.343503	24818.601054
509.708398	25070.111781
510.073236	25212.819284
510.438016	25425.369454
510.802738	25101.679486
511.167403	25359.786563
511.532010	25070.489867
511.896561	25845.244637
512.261053	25812.789689
512.625488	25639.888194
512.989866	25534.510435
513.354186	25365.533478
513.718449	25490.816234
514.082655	25871.693051
514.446803	25608.282680
514.810894	26079.675935
515.174927	25551.365533
515.538904	25589.479176
515.902822	26081.964619
516.266684	25825.773181
516.630488	25747.179072
516.994235	25706.796909
517.357925	26020.525557
517.721558	26202.705295
518.085133	26286.945496
518.448651	26209.558743
518.812112	25937.321312
519.175516	26150.685628
519.538863	26285.808716
519.902152	26071.753762
520.265385	26351.391607
520.628560	26152.986915
520.991678	26160.924212
521.354739	26231.049182
521.717743	26297.536960
522.080690	26091.126916
522.443580	26423.901043
522.806413	26406.947643
523.169189	26513.184919
523.531908	26551.510291
523.894569	26172.929720
524.257174	26243.004279
524.619722	26422.297956
524.982213	26128.542360
525.344647	26178.638826
525.707025	26315.581771
526.069345	26291.691742
526.431608	26241.469247
526.793815	26428.458246
527.155964	25903.986683
527.518057	26066.382413
527.880093	25990.928942
528.242072	26214.637706
528.603995	25923.657265
528.965860	25726.679219
529.327669	25771.795026
529.689421	25768.573728
530.051117	25594.217861
530.412755	25776.011951
530.774337	25564.565794
531.135862	25450.948269
531.497331	25652.760781
531.858743	25206.976587
532.220098	25679.829256
532.581396	25367.880136
532.942638	25299.045700
533.303824	25400.811473
533.664953	25400.700568
534.026025	25073.224693
534.387040	25319.676623
534.747999	25368.568253
535.108902	25526.789908
535.469748	25018.528174
535.830537	25205.655805
536.191270	25322.613095
536.551947	25178.733523
536.912567	24828.275028
537.273131	25208.378028
537.633638	24900.177005
537.994089	25108.641320
538.354483	24643.380628
538.714821	25147.712783
539.075103	25177.563975
539.435328	24968.033457
539.795497	24544.188365
540.155609	24921.198617
540.515665	25221.689195
540.875665	24451.751247
541.235609	24762.339256
541.595496	24709.329003
541.955328	25073.537245
542.315102	24994.587734
542.674821	24519.234653
543.034483	24413.781276
543.394090	24574.788168
543.753640	24374.424988
544.113134	25004.274312
544.472571	24601.145841
544.831953	24900.865123
545.191278	24534.088413
545.550548	24431.490850
545.909761	24635.839062
546.268918	24861.040007
546.628019	24832.370965
546.987064	24530.592373
547.346053	24289.738645
547.704986	24414.487038
548.063863	24561.799636
548.422684	24573.416975
548.781449	24095.422329
549.140158	24511.766184
549.498811	24081.952366
549.857408	23823.520134
550.215949	24240.163938
550.574434	23945.780718
550.932864	24146.043075
551.291237	24314.092459
551.649555	24180.935421
552.007817	24225.675662
552.366022	24093.703295
552.724173	24129.419870
553.082267	24073.790738
553.440305	24556.327463
553.798288	23801.336537
554.156215	24306.828156
554.514086	24418.600619
554.871902	23792.237254
555.229661	24090.260187
555.587365	23931.947792
555.945014	23809.362054
556.302606	24046.865935
556.660143	24014.226984
557.017625	24254.876545
557.375050	23772.264202
557.732421	24161.355580
558.089735	23980.884793
558.446994	24036.755901
558.804197	24079.177210
559.161345	24006.670295
559.518437	23774.444502
559.875474	23962.492143
560.232455	24156.059848
560.589381	23968.231497
560.946251	23947.764412
561.303065	24268.747280
561.659825	24363.261353
562.016528	23950.945380
562.373177	23693.682696
562.729770	24056.245002
563.086307	23918.238374
563.442789	24082.791718
563.799216	23918.495473
564.155587	23928.850003
564.511904	23912.670419
564.868164	23845.013094
565.224370	23821.544002
565.580520	23730.790630
565.936615	23868.527556
566.292654	23556.583476
566.648638	23839.714841
567.004567	23672.219984
567.360441	23608.530046
567.716260	23345.207896
568.072023	23656.617613
568.427732	23436.021762
568.783385	23216.683678
569.138982	23454.167395
569.494525	23490.370441
569.850013	23232.167582
570.205445	23325.146624
570.560823	23139.803562
570.916145	22891.032702
571.271412	23082.654521
571.626625	22828.693793
571.981782	22951.687865
572.336884	22756.930448
572.691931	22884.668245
573.046923	22621.835086
573.401860	22500.928052
573.756743	22507.796624
574.111570	22420.715733
574.466342	22347.782840
574.821059	22425.356115
575.175722	22142.680975
575.530330	22129.047174
575.884882	22144.442858
576.239380	22050.258981
576.593823	21943.361313
576.948211	21919.766193
577.302544	21782.871140
577.656823	21634.280609
578.011047	21735.864901
578.365216	21606.229109
578.719330	21479.247485
579.073389	21362.753981
579.427394	21518.013958
579.781344	21284.734563
580.135239	21169.750885
580.489080	21136.587655
580.842866	20918.973646
581.196597	21103.860484
581.550273	21081.601269
581.903895	20972.266204
582.257463	21285.662136
582.610975	20812.859878
582.964434	21135.516410
583.317837	20823.474028
583.671186	20915.162534
584.024481	20886.601877
584.377721	20665.655665
584.730906	20724.387628
585.084037	20739.538816
585.437113	20655.969088
585.790135	20851.049139
586.143103	20317.301852
586.496016	20327.119499
586.848874	20569.167981
587.201679	20494.594192
587.554428	20176.996458
587.907124	20513.773262
588.259765	20288.957965
588.612352	20353.099086
588.964884	19927.502193
589.317362	20094.540826
589.669786	20148.602159
590.022155	20181.909063
590.374470	20386.237111
590.726731	20183.053405
591.078937	19951.999680
591.431090	20037.611075
591.783188	19799.804725
592.135232	19768.350445
592.487222	19857.369661
592.839157	19871.137052
593.191038	19758.467263
593.542866	19636.551999
593.894639	19359.331387
594.246358	19566.331246
594.598022	19474.647781
594.949633	19231.961594
595.301190	19197.689309
595.652692	19377.794613
596.004141	19607.726681
596.355535	18932.123845
596.706876	18954.325087
597.058162	18840.021965
597.409395	19075.300176
597.760573	19137.581112
598.111698	18902.814577
598.462768	18847.497996
598.813785	18822.007401
599.164748	18637.498650
599.515657	18682.133026
599.866511	18474.911356
600.217312	18827.590479
600.568060	18338.326334
600.918753	18660.856836
601.269392	18558.322288
601.619978	18335.732660
601.970510	18537.640954
602.320988	18486.977358
602.671412	18692.623667
603.021783	18610.783055
603.372100	18327.172781
603.722363	18477.268096
604.072572	18413.069001
604.422728	18566.194049
604.772830	18328.422987
605.122878	18277.799720
605.472872	18258.686185
605.822813	18252.480525
606.172701	18227.100836
606.522534	18418.180731
606.872314	18439.174617
607.222041	18278.145039
607.571714	18503.028392
607.921333	18318.106266
608.270899	18398.825221
608.620411	18571.598166
608.969870	18327.840734
609.319276	18328.039859
609.668627	18372.822950
610.017926	18500.870778
610.367171	18621.273696
610.716362	18660.783740
611.065500	18484.056009
611.414585	18618.198592
611.763616	18602.281149
612.112594	18545.689156
612.461518	18513.778652
612.810389	18706.048260
613.159207	18558.218944
613.507971	18481.517788
613.856682	18744.441688
614.205340	18677.356533
614.553945	18831.492332
614.902496	18565.568946
615.250994	18795.876580
615.599439	18737.147138
615.947830	18725.371003
616.296169	18784.317215
616.644454	18735.367611
616.992686	18717.968068
617.340864	18930.059493
617.688990	18678.551286
618.037063	18852.357668
618.385082	18703.709165
618.733048	18987.135437
619.080961	18869.699237
619.428821	18897.622188
619.776628	18777.506616
620.124382	18710.658395
620.472083	18751.549715
620.819731	18767.860368
621.167326	18468.451117
621.514868	18498.781220
621.862357	18277.857693
622.209793	18288.537378
622.557176	18117.027242
622.904506	17945.446529
623.251783	17862.048201
623.599007	17613.662989
623.946179	17556.110656
624.293297	17501.076380
624.640363	17243.501144
624.987376	17272.694466
625.334336	17059.010037
625.681243	16912.267090
626.028097	16931.005059
626.374899	16835.477714
626.721647	16714.575721
627.068343	16542.410235
627.414987	16481.666852
627.761577	16457.549972
628.108115	16487.809498
628.454600	16213.719442
628.801032	16312.468085
629.147412	16244.140285
629.493739	16256.231493
629.840014	16067.271403
630.186236	16167.204716
630.532405	15934.741989
630.878521	16135.233718
631.224585	16019.798857
631.570597	15837.810683
631.916556	15875.692433
632.262462	15858.139135
632.608316	15771.574962
632.954117	15719.888012
633.299866	15703.355548
633.645562	15621.804802
633.991206	15378.410333
634.336797	15252.260499
634.682336	15229.227467
635.027823	15106.268683
635.373257	14978.329240
635.718639	14891.765067
636.063968	14841.106512
636.409245	14589.121916
636.754470	14614.078148
637.099642	14467.148678
637.444762	14229.417945
637.789829	14279.912662
638.134845	14112.911838
638.479808	14146.483402
638.824719	14082.112909
639.169577	13944.633082
639.514383	13981.032733
639.859137	13816.194564
640.203839	13892.154670
640.548489	13733.194487
640.893086	13714.121281
641.237632	13585.342486
641.582125	13748.905243
641.926566	13571.907811
642.270955	13586.007918
642.615292	13543.967215
642.959576	13555.229153
643.303809	13583.653699
643.647990	13519.857897
643.992118	13583.399121
644.336195	13353.094007
644.680219	13561.389443
645.024192	13482.412206
645.368112	13729.690885
645.711981	13771.711423
646.055797	13957.606491
646.399562	13925.401080
646.743274	14201.515158
647.086935	14473.671931
647.430544	14433.098204
647.774101	14475.204442
648.117606	14614.108395
648.461059	14583.064970
648.804460	14566.567794
649.147810	14297.879335
649.491108	14203.508935
649.834354	14215.716089
650.177548	13902.277307
650.520690	13714.305283
650.863781	13640.142348
651.206820	13681.683977
651.549807	13513.725333
651.892742	13308.643633
652.235626	13253.332093
652.578458	13254.325201
652.921238	12946.058643
653.263967	13147.036844
653.606644	12968.756438
653.949269	12946.693828
654.291843	12753.620157
654.634365	12908.260071
654.976836	12763.241199
655.319255	12763.127773
655.661622	12718.125392
656.003938	12645.520174
656.346203	12566.595869
656.688416	12642.147642
657.030577	12605.805964
657.372687	12515.050071
657.714746	12488.034528
658.056753	12687.923840
658.398708	12499.223369
658.740612	12493.544509
659.082465	12606.945265
659.424266	12568.153586
659.766016	12595.983276
660.107715	12510.054288
660.449362	12591.758789
660.790958	12541.017055
661.132503	12488.362203
661.473996	12550.295298
661.815438	12558.300651
662.156829	12585.167480
662.498168	12565.680900
662.839456	12563.094788
663.180693	12578.210688
663.521879	12674.111078
663.863013	12646.543528
664.204097	12617.884569
664.545129	12746.718817
664.886110	12718.085063
665.227040	12806.814412
665.567918	12807.310966
665.908746	12836.983197
666.249522	12825.930467
666.590248	12875.719423
666.930922	12995.053617
667.271545	12970.845996
667.612118	13056.139799
667.952639	12949.053088
668.293109	12970.614103
668.633528	12926.103235
668.973896	12901.144483
669.314213	12976.532418
669.654480	12713.583313
669.994695	12800.603710
670.334859	12821.766474
670.674973	12762.386723
671.015035	12792.094243
671.355047	12736.553330
671.695008	12713.109444
672.034918	12713.351420
672.374777	12762.122062
672.714585	12672.082014
673.054342	12709.653733
673.394049	12652.169456
673.733705	12752.243922
674.073310	12657.898727
674.412864	12672.301304
674.752368	12530.395344
675.091820	12559.734859
675.431223	12544.881099
675.770574	12418.917788
676.109875	12337.125067
676.449125	12293.098150
676.788324	12234.068759
677.127473	12075.806775
677.466571	12055.642160
677.805619	11962.196811
678.144616	11879.327804
678.483562	11855.820903
678.822458	11726.931202
679.161303	11698.854496
679.500098	11680.978565
679.838842	11642.156639
680.177535	11672.602688
680.516179	11732.022768
680.854771	11679.798935
681.193314	11896.495453
681.531805	12056.189125
681.870247	12482.625370
682.208638	12896.383113
682.546978	13203.454917
682.885268	13243.131318
683.223508	12933.238989
683.561697	12781.752316
683.899836	12689.186649
684.237925	12477.924494
684.575963	12394.276628
684.913951	12317.325935
685.251889	12267.494129
685.589776	12365.814273
685.927614	12282.922581
686.265401	12254.520720
686.603137	12311.359730
686.940824	12467.998462
687.278460	12589.039086
687.616046	12633.260088
687.953582	12792.696661
688.291068	12733.889080
688.628504	12960.090695
688.965889	12972.103764
689.303224	12942.963374
689.640510	12823.067092
689.977745	12507.329544
690.314930	12287.578086
690.652065	12193.588293
690.989150	11894.592418
691.326185	11677.583348
691.663170	11466.812705
692.000105	11223.264481
692.336990	11112.774991
692.673825	10854.438542
693.010610	10736.145346
693.347345	10532.893585
693.684030	10336.626342
694.020665	10270.584706
694.357251	10071.438965
694.693786	10014.829328
695.030272	9856.925266
695.366707	9735.307429
695.703093	9664.358230
696.039429	9670.911730
696.375716	9581.743801
696.711952	9455.377197
697.048139	9499.767077
697.384276	9454.507598
697.720363	9468.642993
698.056400	9406.677130
698.392388	9352.308286
698.728326	9322.696548
699.064214	9257.466538
699.400053	9298.642683
699.735842	9109.523796
700.071581	9070.341428
700.407270	8991.328903
700.742910	8912.313858
701.078501	8820.022934
701.414042	8698.510962
701.749533	8636.376220
702.084974	8494.208120
702.420366	8616.816543
702.755709	8492.647882
703.091002	8360.158798
703.426246	8388.031337
703.761440	8340.962084
704.096584	8296.972975
704.431679	8222.416831
704.766725	8221.519505
705.101721	8168.894900
705.436668	8209.670273
705.771565	8102.051721
706.106413	8187.494237
706.441212	8221.867345
706.775961	8184.214967
707.110661	8223.112510
707.445311	8363.816155
707.779913	8262.854446
708.114465	8396.697081
708.448967	8428.763860
708.783421	8579.108712
709.117825	8756.433819
709.452180	8787.799878
709.786485	8882.777737
710.120742	9163.597733
710.454949	9165.392384
710.789107	9265.880224
711.123216	9482.624634
711.457275	9653.839862
711.791286	9811.368358
712.125247	9811.711157
712.459159	9793.910843
712.793023	10034.081494
713.126837	9613.225806
713.460602	9763.366491
713.794318	9589.330737
714.127985	9617.036919
714.461602	9292.361405
714.795171	9243.792408
715.128691	8995.084563
715.462162	8748.310000
715.795584	8686.444960
716.128957	8537.720839
716.462281	8372.378555
716.795556	8420.501409
717.128782	8211.162455
717.461960	7952.243752
717.795088	8022.890482
718.128167	7927.894979
718.461198	7759.648990
718.794180	7707.631844
719.127113	7693.360337
719.459997	7530.440327
719.792833	7307.684342
720.125619	7375.636575
720.458357	7230.889925
720.791046	7221.412555
721.123686	7218.085394
721.456278	7051.218160
721.788821	7066.674338
722.121315	6964.669111
722.453761	7035.222579
722.786158	6975.227807
723.118506	6984.899261
723.450805	6955.300126
723.783056	7021.704725
724.115259	6935.778258
724.447412	6925.771568
724.779518	6970.801674
725.111574	6981.458673
725.443582	7064.990593
725.775542	7044.127777
726.107453	7234.968218
726.439315	7138.979608
726.771129	7207.067952
727.102895	7377.343006
727.434612	7484.228070
727.766281	7523.634770
728.097901	7596.910461
728.429473	7590.072136
728.760996	7564.442910
729.092471	7544.651340
729.423897	7489.987588
729.755276	7502.532500
730.086606	7430.328053
730.417887	7529.260697
730.749120	7734.012202
731.080305	7929.414887
731.411442	8046.936786
731.742530	8037.945888
732.073570	8143.149727
732.404562	8230.205413
732.735506	8077.423164
733.066401	8216.392652
733.397249	8144.725088
733.728048	7902.220382
734.058798	7566.419042
734.389501	7339.005031
734.720156	7163.444327
735.050762	6928.932371
735.381320	6838.637744
735.711831	6784.354599
736.042293	6680.471542
736.372707	6692.552667
736.703073	6554.838426
737.033391	6601.259892
737.363661	6611.891685
737.693883	6643.068701
738.024056	6724.808490
738.354182	6761.117401
738.684260	6800.980325
739.014290	6923.745024
739.344272	7030.751076
739.674207	7060.390540
740.004093	7126.653987
740.333931	7139.957592
740.663722	7149.250959
740.993464	7227.046045
741.323159	7207.894701
741.652806	6961.311702
741.982405	6989.307750
742.311956	7039.928496
742.641460	6860.796136
742.970915	6668.100550
743.300323	6663.036711
743.629683	6618.377129
743.958996	6483.032231
744.288260	6388.487911
744.617477	6343.296487
744.946647	6341.544687
745.275768	6173.235683
745.604842	6124.535616
745.933869	6110.052381
746.262847	6069.637451
746.591778	6058.168826
746.920662	6013.605026
747.249498	6005.892061
747.578286	6061.654784
747.907027	6134.701103
748.235720	6194.789136
748.564365	6163.589435
748.892963	6200.856165
749.221514	6347.087435
749.550017	6172.887843
749.878473	6057.112704
750.206881	6110.191013
750.535242	6052.172373
750.863555	5984.595706
751.191821	5998.476523
751.520039	5993.601728
751.848210	5906.185599
752.176334	5930.834321
752.504411	5976.681095
752.832440	5905.873048
753.160421	5837.230176
753.488356	5883.573504
753.816243	5916.797228
754.144082	5762.038846
754.471875	5737.866513
754.799620	5779.080467
755.127318	5791.693434
755.454969	5747.394294
755.782572	5713.958841
756.110129	5758.323516
756.437638	5736.621348
756.765100	5676.911402
757.092515	5681.723183
757.419882	5731.209670
757.747203	5711.778542
758.074477	5771.395228
758.401703	5758.885604
758.728882	5715.501434
759.056014	5772.937821
759.383099	5900.322737
759.710138	5910.473101
760.037129	5894.414505
760.364073	5898.770062
760.690970	5983.287527
761.017820	5959.097550
761.344623	5918.246560
761.671379	6021.267580
761.998088	6147.835829
762.324751	6392.825824
762.651366	7016.469487
762.977935	8351.488013
763.304456	9987.349998
763.630931	10874.872859
763.957359	10452.615730
764.283740	9499.141974
764.610074	8645.772931
764.936362	7648.552041
765.262602	7051.873510
765.588796	6514.995667
765.914943	6190.060534
766.241044	6017.882445
766.567097	5814.071116
766.893104	5560.498557
767.219064	5380.907451
767.544978	5319.964942
767.870845	5236.327158
768.196665	5132.192043
768.522438	5063.402979
768.848165	5029.377711
769.173846	4961.168379
769.499479	4917.479219
769.825066	4868.547259
770.150607	4801.787259
770.476101	4780.485863
770.801548	4771.058905
771.126949	4696.449828
771.452303	4644.699864
771.777611	4604.385756
772.102872	4621.354280
772.428087	4586.366152
772.753256	4540.398391
773.078378	4499.350795
773.403453	4426.359929
773.728482	4415.866767
774.053465	4366.781052
774.378401	4360.502295
774.703291	4353.260678
775.028135	4283.528917
775.352932	4233.535794
775.677683	4219.165985
776.002388	4242.665324
776.327046	4249.186056
776.651658	4172.903316
776.976224	4115.897949
777.300743	4120.150162
777.625216	4140.526506
777.949643	4134.938387
778.274024	4090.183023
778.598359	4047.489491
778.922647	4073.476639
779.246889	4061.735792
779.571086	4056.634144
779.895236	4039.411042
780.219339	4027.471069
780.543397	4024.413609
780.867409	4077.300354
781.191374	4088.242179
781.515294	4024.912683
781.839167	4019.458155
782.162995	4039.746279
782.486776	4024.776572
782.810511	4037.087070
783.134201	4029.812685
783.457844	3981.692351
783.781441	3929.599588
784.104993	3935.585958
784.428498	3955.533804
784.751958	3952.796457
785.075372	3931.938683
785.398739	3894.268661
785.722061	3907.244591
786.045337	3949.431487
786.368568	3980.197649
786.691752	3890.686921
787.014891	3947.916620
787.337983	4078.676589
787.661030	4239.804469
787.984031	4397.332965
788.306987	4567.976023
788.629897	4648.095081
788.952760	4604.347948
789.275579	4536.791445
789.598351	4467.349551
789.921078	4324.200946
790.243759	4123.479844
790.566395	4106.077781
790.888984	4103.353037
791.211529	3995.273219
791.534027	3939.177780
791.856480	3925.458280
792.178888	3859.121736
792.501249	3816.395437
792.823566	3823.654698
793.145836	3850.801312
793.468062	3798.930359
793.790241	3753.645674
794.112375	3786.680356
794.434464	3849.662011
794.756507	3872.657234
795.078505	3854.282229
795.400457	3891.226325
795.722364	4031.831667
796.044226	4133.418479
796.366042	4205.799366
796.687812	4185.972508
797.009538	4189.682797
797.331218	4149.235099
797.652852	4124.830873
797.974442	4102.647276
798.295986	4101.926391
798.617484	4018.825490
798.938938	3934.204682
799.260346	3976.996516
799.581709	3965.089311
799.903026	3896.043147
800.224299	3861.788507
800.545526	3850.965149
800.866708	3814.668842
801.187845	3753.403699
801.508936	3791.872744
801.829983	3786.022485
802.150984	3704.360834
802.471940	3698.336655
802.792851	3705.167418
803.113717	3710.221175
803.434538	3709.623798
803.755314	3649.979387
804.076045	3627.125316
804.396731	3647.080723
804.717372	3673.526616
805.037967	3658.299811
805.358518	3644.151813
805.679024	3674.199610
805.999485	3689.910366
806.319901	3692.347764
806.640272	3707.065413
806.960598	3722.403123
807.280879	3692.284750
807.601115	3707.549364
807.921306	3725.231211
808.241453	3765.061367
808.561554	3739.210330
808.881611	3673.032583
809.201623	3712.918192
809.521590	3724.729616
809.841513	3694.112168
810.161390	3727.361098
810.481223	3698.145091
810.801011	3642.936895
811.120755	3639.755927
811.440453	3675.618695
811.760107	3675.389323
812.079716	3633.391470
812.399281	3601.213785
812.718801	3627.763022
813.038276	3598.630194
813.357707	3598.398301
813.677093	3614.116618
813.996434	3560.105696
814.315731	3572.259918
814.634983	3573.023653
814.954191	3589.951847
815.273354	3619.293883
815.592473	3611.449848
815.911547	3619.687093
816.230577	3663.777025
816.549562	3716.593194
816.868502	3755.415119
817.187399	3781.777833
817.506250	3776.003192
817.825058	3746.078902
818.143821	3844.449458
818.462539	3946.177422
818.781213	3991.794823
819.099843	4056.074576
819.418429	4300.731854
819.736970	4546.689751
820.055466	4802.876148
820.373919	5170.981202
820.692327	5576.347944
821.010691	6038.470517
821.329011	7462.001623
821.647286	10275.058730
821.965517	14898.895779
822.283704	18927.370037
822.601847	21019.285046
822.919945	19146.188882
823.237999	16524.947678
823.556010	14029.858829
823.873976	11910.073801
824.191897	9807.148912
824.509775	8468.180642
824.827609	7337.585946
825.145398	6801.423946
825.463144	6685.386667
825.780845	6803.374873
826.098502	6997.749162
826.416116	7904.549395
826.733685	9251.278522
827.051210	10362.802533
827.368692	10363.099962
827.686129	9068.241788
828.003522	7553.879172
828.320872	6539.210849
828.638177	5839.725548
828.955439	5267.554586
829.272656	4768.225777
829.589830	4494.521370
829.906960	4316.069565
830.224046	4128.231132
830.541088	4005.441227
830.858086	3957.676294
831.175041	3880.123183
831.491952	3862.002756
831.808819	3874.797204
832.125642	3952.332671
832.442421	4104.941001
832.759157	4384.372158
833.075849	4951.635557
833.392497	5826.142158
833.709101	6608.463700
834.025662	6933.887825
834.342179	6539.152876
834.658653	5873.919694
834.975083	5222.153954
835.291469	4642.345645
835.607811	4240.699274
835.924110	4097.409517
836.240366	3899.597161
836.556578	3690.540511
836.872746	3582.750559
837.188871	3543.961401
837.504952	3475.414311
837.820990	3392.704100
838.136984	3350.333202
838.452935	3373.759444
838.768842	3370.588558
839.084706	3392.646127
839.400526	3555.213256
839.716303	3904.207296
840.032037	4443.343576
840.347727	4692.936144
840.663373	4401.396135
840.978977	4011.936753
841.294537	3704.612892
841.610054	3475.222747
841.925527	3372.153837
842.240957	3303.052220
842.556344	3249.303438
842.871687	3185.709282
843.186987	3139.847385
843.502244	3103.997219
843.817458	3065.351734
844.132629	3036.717980
844.447756	3047.725340
844.762840	3027.086856
845.077881	2995.869511
845.392879	2979.841162
845.707833	2979.715133
846.022745	2973.083495
846.337613	2973.264977
846.652438	2961.609829
846.967221	2960.578913
847.281960	2949.231276
847.596656	2944.865637
847.911309	2942.723146
848.225919	2937.576128
848.540485	2931.453647
848.855009	2931.375509
849.169490	2919.985022
849.483928	2909.839700
849.798323	2911.369690
850.112675	2907.195614
850.426984	2920.990732
850.741251	2915.949578
851.055474	2905.577404
851.369654	2902.154461
851.683792	2907.301479
851.997887	2914.144845
852.311938	2916.383117
852.625947	2906.749472
852.939914	2908.503794
853.253837	2911.339443
853.567718	2897.173801
853.881555	2895.142216
854.195350	2913.572674
854.509103	2907.034298
854.822812	2900.422824
855.136479	2898.633215
855.450103	2898.182031
855.763685	2897.594737
856.077224	2891.825136
856.390720	2902.547671
856.704173	2912.337591
857.017584	2902.998854
857.330953	2900.800911
857.644278	2910.159813
857.957561	2923.591967
858.270802	2923.286978
858.584000	2922.540887
858.897155	2911.309196
859.210268	2912.277098
859.523339	2907.931623
859.836367	2905.242167
860.149352	2900.410221
860.462295	2896.352093
860.775195	2906.383989
861.088054	2904.183525
861.400869	2887.618293
861.713642	2886.133674
862.026373	2900.168246
862.339062	2902.454409
862.651708	2908.559247
862.964312	2910.941192
863.276873	2903.064389
863.589392	2914.767428
863.901869	2927.854263
864.214303	2949.576595
864.526696	2964.384984
864.839045	2960.150415
865.151353	2959.931125
865.463619	2958.038172
865.775842	2960.147894
866.088023	2979.024495
866.400162	2984.342912
866.712258	2953.785958
867.024313	2945.480657
867.336325	2955.411730
867.648296	2978.230513
867.960224	2968.511169
868.272110	2954.617749
868.583954	2956.238480
868.895755	2974.555512
869.207515	2959.081690
869.519233	2967.250880
869.830909	2976.322437
870.142542	2984.670587
870.454134	2982.833087
870.765684	2984.116060
871.077191	2984.990701
871.388657	2996.837412
871.700081	3006.874349
872.011463	3019.530166
872.322803	3024.611649
872.634101	3017.934641
872.945357	3036.395346
873.256571	3063.993143
873.567744	3054.117523
873.878874	3049.444373
874.189963	3072.517734
874.501010	3072.784915
874.812015	3061.767474
875.122979	3063.511713
875.433900	3060.345868
875.744780	3066.735531
876.055618	3075.565112
876.366415	3069.858526
876.677169	3082.869744
876.987882	3077.286666
877.298554	3072.245512
877.609183	3092.863831
877.919771	3119.841566
878.230317	3147.958602
878.540822	3196.714121
878.851285	3236.186356
879.161707	3280.951802
879.472087	3387.277298
879.782425	3624.229173
880.092722	4072.017225
880.402977	4607.158391
880.713191	5248.211679
881.023363	6432.986176
881.333494	7725.936273
881.643583	8255.622911
881.953631	7948.374666
882.263637	7294.421066
882.573602	6698.914603
882.883526	6120.011181
883.193408	5545.727976
883.503248	5087.303089
883.813048	4776.405049
884.122806	4464.362667
884.432522	4145.055983
884.742197	3907.022780
885.051831	3716.273080
885.361424	3584.414140
885.670975	3510.513345
885.980485	3419.765014
886.289954	3343.336081
886.599382	3296.355047
886.908768	3261.170314
887.218113	3214.176678
887.527417	3157.405724
887.836680	3109.827314
888.145901	3102.313474
888.455082	3091.618666
888.764221	3037.237219
889.073319	3008.290914
889.382376	3009.352077
889.691392	3014.733508
890.000366	3010.645133
890.309300	2999.254645
890.618193	3010.831655
890.927044	3030.638349
891.235855	3026.829757
891.544625	3014.312572
891.853353	3026.635672
892.162041	3046.636450
892.470687	3087.699169
892.779293	3139.567601
893.087858	3184.214580
893.396381	3259.211826
893.704864	3387.000035
894.013306	3630.124802
894.321707	3936.637038
894.630068	4141.859891
894.938387	4133.625166
895.246665	4089.015996
895.554903	3968.222388
895.863100	3759.551386
896.171256	3589.538473
896.479371	3450.327009
896.787446	3326.576765
897.095480	3221.372925
897.403473	3160.042247
897.711425	3122.163017
898.019336	3112.020216
898.327207	3084.563571
898.635038	3044.257026
898.942827	3029.733462
899.250576	3018.957995
899.558284	2987.947337
899.865952	2968.896817
900.173579	2946.879578
900.481165	2941.223403
900.788711	2926.460384
901.096216	2903.800397
901.403681	2888.286246
901.711105	2898.577762
902.018489	2895.295971
902.325832	2897.171280
902.633135	2907.162847
902.940397	2939.869853
903.247619	3028.954603
903.554800	3228.627145
903.861941	3581.270980
904.169041	4017.093854
904.476101	4313.296930
904.783121	4256.452880
905.090100	4006.882997
905.397039	3722.433370
905.703938	3474.569918
906.010796	3290.940848
906.317614	3177.832479
906.624391	3081.138107
906.931129	3008.147241
907.237826	2947.242541
907.544483	2898.839902
907.851099	2870.168339
908.157675	2845.262519
908.464211	2827.371464
908.770707	2812.590801
909.077163	2802.606796
909.383578	2786.034002
909.689954	2776.128135
909.996289	2774.759462
910.302584	2776.516304
910.608839	2773.930192
910.915054	2768.861312
911.221229	2758.620208
911.527363	2762.784201
911.833458	2771.523041
912.139513	2777.045625
912.445527	2781.749022
912.751502	2790.472738
913.057436	2797.840385
913.363331	2810.609627
913.669186	2833.617453
913.975000	2866.634491
914.280775	2929.918615
914.586510	3000.391426
914.892205	3082.965526
915.197859	3217.082903
915.503475	3413.660177
915.809050	3633.676295
916.114585	3777.301289
916.420081	3795.983805
916.725536	3732.006522
917.030952	3612.717698
917.336328	3479.253150
917.641665	3347.749611
917.946961	3247.113057
918.252218	3174.621264
918.557435	3093.856938
918.862612	3032.783360
919.167750	2983.097747
919.472848	2946.458641
919.777906	2918.071904
920.082925	2891.172307
920.387904	2859.738192
920.692843	2845.164216
920.997743	2832.342042
921.302603	2819.262768
921.607423	2806.314564
921.912204	2796.232257
922.216946	2784.753549
922.521647	2778.925975
922.826310	2766.353338
923.130932	2761.077770
923.435516	2752.810278
923.740059	2742.458268
924.044564	2735.163719
924.349028	2729.628532
924.653454	2723.760629
924.957840	2717.106306
925.262186	2715.321737
925.566493	2711.339226
925.870761	2704.599203
926.174989	2701.776157
926.479178	2693.180990
926.783328	2690.448684
927.087438	2689.412727
927.391509	2688.419620
927.695541	2684.847962
927.999533	2681.036850
928.303486	2679.194308
928.607400	2678.717919
928.911275	2676.134328
929.215110	2675.572239
929.518906	2675.456293
929.822663	2675.660459
930.126381	2675.620130
930.430060	2674.805984
930.733699	2676.482167
931.037299	2679.305214
931.340861	2678.838907
931.644383	2680.643640
931.947866	2674.609379
932.251309	2676.792198
932.554714	2678.516273
932.858080	2672.910510
933.161407	2672.446724
933.464694	2670.808349
933.767943	2668.522186
934.071153	2671.587207
934.374323	2670.016888
934.677455	2668.517144
934.980548	2667.934891
935.283602	2668.373472
935.586617	2668.350786
935.889593	2668.502021
936.192530	2667.143430
936.495428	2669.764830
936.798287	2671.360355
937.101108	2673.681807
937.403890	2676.424194
937.706632	2680.885615
938.009336	2688.417099
938.312002	2698.456557
938.614628	2704.021991
938.917216	2711.344267
939.219765	2711.167827
939.522275	2711.067003
939.824747	2708.808567
940.127179	2708.954760
940.429573	2702.181970
940.731929	2703.522917
941.034246	2698.227185
941.336524	2695.464632
941.638763	2692.613860
941.940964	2690.317614
942.243126	2687.585309
942.545250	2688.656554
942.847335	2684.364012
943.149381	2680.021057
943.451389	2675.930161
943.753359	2673.868329
944.055290	2672.260201
944.357182	2672.035870
944.659036	2671.332629
944.960851	2670.573935
945.262628	2670.412618
945.564367	2669.749707
945.866067	2670.402536
946.167729	2671.824141
946.469352	2672.673576
946.770937	2669.280879
947.072484	2666.651917
947.373992	2669.419511
947.675462	2669.875735
947.976893	2662.654282
948.278286	2660.882317
948.579641	2660.993222
948.880958	2657.635814
949.182236	2663.896927
949.483476	2659.858963
949.784678	2659.952224
950.085841	2660.824344
950.386967	2664.542195
950.688054	2662.281237
950.989103	2660.511792
951.290114	2664.436330
951.591087	2666.535971
951.892021	2670.132834
952.192917	2670.097546
952.493776	2673.349090
952.794596	2672.991168
953.095378	2673.817918
953.396122	2672.272804
953.696828	2671.700633
953.997496	2668.819614
954.298126	2667.556805
954.598718	2666.604027
954.899272	2663.460867
955.199788	2659.995074
955.500266	2657.371153
955.800706	2654.132212
956.101108	2652.070380
956.401472	2651.926707
956.701798	2649.234731
957.002087	2648.163486
957.302337	2645.542086
957.602550	2644.937147
957.902724	2644.100316
958.202861	2641.917496
958.502960	2640.926909
958.803022	2643.339102
959.103045	2641.683082
959.403031	2639.694347
959.702979	2638.388688
960.002889	2636.838534
960.302762	2638.857516
960.602596	2635.326187
960.902393	2638.910448
961.202153	2636.594038
961.501875	2636.735190
961.801559	2635.600930
962.101205	2637.635036
962.400814	2634.262504
962.700385	2635.011115
962.999918	2630.816875
963.299414	2629.241515
963.598873	2629.859056
963.898293	2630.940384
964.197677	2633.153450
964.497022	2632.863584
964.796331	2633.614716
965.095601	2632.750158
965.394835	2632.430045
965.694030	2633.924747
965.993189	2630.355610
966.292309	2632.465333
966.591393	2634.133955
966.890439	2634.275107
967.189447	2631.923409
967.488419	2630.952987
967.787353	2631.210085
968.086249	2631.943573
968.385108	2631.983902
968.683930	2633.173615
968.982714	2632.881228
969.281462	2631.517596
969.580172	2630.562297
969.878844	2633.115642
970.177480	2632.364510
970.476078	2633.042545
970.774639	2632.540950
971.073162	2632.430045
971.371649	2634.075981
971.670098	2636.553708
971.968510	2631.043727
972.266885	2633.339973
972.565223	2634.325518
972.863524	2634.577576
973.161788	2634.045734
973.460014	2630.290075
973.758204	2631.409211
974.056356	2632.379633
974.354471	2632.062040
974.652550	2633.145888
974.950591	2632.830816
975.248595	2633.420631
975.546563	2631.754530
975.844493	2630.905096
976.142386	2632.697226
976.440243	2631.807462
976.738062	2632.384674
977.035845	2632.475415
977.333590	2629.980044
977.631299	2630.322842
977.928971	2626.763788
978.226606	2625.100207
978.524204	2627.651031
978.821765	2624.258334
979.119290	2629.289406
979.416777	2628.578603
979.714228	2631.714201
980.011642	2631.600775
980.309020	2629.024745
980.606360	2629.564149
980.903664	2631.817544
981.200931	2629.811165
981.498162	2631.983902
981.795356	2634.025570
982.092513	2635.429531
982.389633	2637.445993
982.686717	2640.770634
982.983764	2642.192239
983.280775	2646.325985
983.577749	2646.731798
983.874686	2647.702220
984.171587	2646.454535
984.468451	2642.164513
984.765279	2638.171919
985.062070	2636.830972
985.358824	2636.730149
985.655543	2635.273255
985.952224	2635.142185
986.248869	2635.621095
986.545478	2633.103039
986.842050	2630.153964
987.138586	2629.589354
987.435086	2630.746299
987.731549	2629.964920
988.027975	2628.059364
988.324366	2627.792183
988.620719	2629.024745
988.917037	2627.986267
989.213318	2626.194137
989.509563	2627.976185
989.805772	2627.855197
990.101944	2627.164559
990.398080	2627.479632
990.694180	2626.408386
990.990244	2628.734879
991.286271	2623.797069
991.582262	2625.170783
991.878217	2628.598768
992.174136	2625.538787
992.470019	2627.772018
992.765865	2625.311935
993.061676	2625.798407
993.357450	2623.595422
993.653188	2622.410751
993.948890	2630.849643
994.244556	2627.562811
994.540186	2628.863428
994.835780	2627.615743
995.131337	2628.253449
995.426859	2631.147071
995.722345	2630.216978
996.017795	2631.426855
996.313208	2634.209572
996.608586	2630.905096
996.903928	2632.356948
997.199234	2632.858543
997.494504	2631.948614
997.789738	2632.750158
998.084936	2631.515075
998.380099	2628.891155
998.675225	2630.728655
998.970316	2630.569859
999.265371	2629.647328
999.560390	2627.628346
999.855373	2627.986267
1000.150320	2623.741616
1000.445232	2626.380660
1000.740108	2625.513582
1001.034948	2625.574075
1001.329752	2626.287399
1001.624521	2626.289919
1001.919254	2626.788993
1002.213951	2623.194651
1002.508613	2625.132974
1002.803239	2627.285547
1003.097829	2625.853859
1003.392384	2624.154991
1003.686903	2623.718931
1003.981386	2626.173973
1004.275834	2623.592902
1004.570246	2624.351596
1004.864623	2626.363016
1005.158964	2625.211112
1005.453270	2626.136164
1005.747540	2624.530557
1006.041775	2624.465022
1006.335974	2623.802110
1006.630138	2625.339662
1006.924266	2623.711369
1007.218359	2627.013325
1007.512416	2622.370422
1007.806438	2621.024434
1008.100425	2622.322531
1008.394376	2620.669033
1008.688292	2623.610546
1008.982172	2623.660957
1009.276017	2626.423510
1009.569827	2624.986781
1009.863602	2625.327059
1010.157341	2623.701287
1010.451045	2624.477624
1010.744714	2623.343365
1011.038347	2625.339662
1011.331945	2625.279168
1011.625508	2623.234980
1011.919036	2624.182717
1012.212528	2625.581637
1012.505986	2624.061729
1012.799408	2624.102058
1013.092795	2623.958386
1013.386147	2624.754888
1013.679464	2625.478293
1013.972745	2624.520474
1014.265992	2622.403190
1014.559204	2622.456122
1014.852380	2623.832357
1015.145521	2624.107100
1015.438628	2623.600464
1015.731699	2623.938221
1016.024736	2623.129116
1016.317737	2621.790689
1016.610703	2621.319342
1016.903635	2626.037862
1017.196531	2623.297994
1017.489393	2622.675412
1017.782219	2621.662140
1018.075011	2624.361678
1018.367768	2623.045937
1018.660490	2623.214815
1018.953177	2623.214815
1019.245829	2623.214815
