Dividing Wavelength (nm)	Counts (n)	Blue Motor Position (mm): 40.800000	Red Motor Position (mm): 0.000000	
326.493990	2250.663464
326.888308	2250.663464
327.282561	2250.663464
327.676750	2210.346836
328.070874	2206.029088
328.464933	2210.160313
328.858929	2214.226004
329.252859	2218.510985
329.646726	2227.401059
330.040528	2240.840776
330.434265	2251.606160
330.827938	2269.083840
331.221547	2286.687549
331.615091	2303.550209
332.008571	2322.877993
332.401986	2341.714264
332.795338	2358.723117
333.188625	2380.644575
333.581847	2399.523696
333.975006	2416.764442
334.368100	2438.829572
334.761129	2457.093673
335.154095	2472.239819
335.546996	2500.853409
335.939833	2539.350180
336.332606	2554.304763
336.725315	2566.411094
337.117960	2579.049267
337.510540	2591.442943
337.903056	2601.643718
338.295508	2609.754935
338.687896	2619.451594
339.080220	2630.932822
339.472480	2634.398615
339.864676	2638.960859
340.256807	2644.896818
340.648875	2648.511325
341.040879	2651.745226
341.432818	2651.387304
341.824694	2656.763694
342.216506	2659.135557
342.608253	2660.632780
342.999937	2658.129847
343.391557	2658.780156
343.783113	2658.913746
344.174605	2657.598005
344.566033	2659.027172
344.957397	2655.664723
345.348697	2652.365287
345.739934	2651.415030
346.131106	2652.695483
346.522215	2648.975112
346.913260	2646.641057
347.304241	2646.026037
347.695159	2643.092085
348.086012	2641.118473
348.476802	2640.072434
348.867528	2635.994140
349.258191	2634.141516
349.648789	2633.488687
350.039324	2630.496762
350.429796	2632.772843
350.820203	2636.135293
351.210548	2632.021711
351.600828	2628.392080
351.991045	2628.505506
352.381198	2626.788993
352.771288	2626.942749
353.161314	2627.469549
353.551276	2626.216822
353.941175	2624.515433
354.331010	2626.168932
354.720782	2624.893520
355.110490	2622.320011
355.500135	2623.305556
355.889717	2627.363685
356.279235	2623.850001
356.668689	2623.464352
357.058080	2625.609363
357.447408	2629.334776
357.836672	2624.722120
358.225873	2623.139198
358.615010	2627.411576
359.004084	2627.850156
359.393095	2628.497945
359.782043	2628.364354
360.170927	2626.073150
360.559748	2630.350569
360.948505	2632.465333
361.337199	2633.012298
361.725830	2633.516413
362.114398	2631.469705
362.502903	2631.489869
362.891344	2634.456588
363.279722	2635.432052
363.668037	2636.606641
364.056289	2636.437762
364.444478	2636.251239
364.832603	2637.135962
365.220665	2637.720736
365.608665	2639.008750
365.996601	2640.148051
366.384474	2639.999337
366.772284	2638.328195
367.160031	2638.875160
367.547715	2639.117135
367.935336	2641.998155
368.322893	2640.586632
368.710388	2640.407671
369.097820	2637.665283
369.485189	2639.081847
369.872495	2643.775161
370.259738	2646.288177
370.646918	2645.569812
371.034035	2646.046201
371.421090	2645.670635
371.808081	2647.094761
372.195010	2648.849083
372.581875	2647.306490
372.968678	2648.281953
373.355418	2649.423774
373.742096	2652.143477
374.128710	2651.450318
374.515262	2649.295225
374.901751	2650.895791
375.288177	2649.998466
375.674540	2652.813950
376.060841	2653.436533
376.447079	2653.139105
376.833254	2654.906029
377.219367	2655.175731
377.605417	2655.092552
377.991404	2655.843684
378.377329	2655.216060
378.763191	2653.091214
379.148991	2657.328303
379.534727	2654.820329
379.920402	2654.830412
380.306013	2658.611277
380.691563	2659.369971
381.077049	2658.954076
381.462474	2659.140598
381.847835	2661.588078
382.233134	2662.976916
382.618371	2663.057575
383.003545	2663.259221
383.388657	2663.758295
383.773706	2666.109993
384.158693	2666.357010
384.543618	2666.543533
384.928480	2670.006805
385.313280	2673.792712
385.698017	2676.560305
386.082692	2682.304700
386.467305	2691.900537
386.851856	2698.166691
387.236344	2712.690255
387.620770	2724.136195
388.005133	2740.978690
388.389435	2765.859305
388.773674	2786.611214
389.157851	2827.893223
389.541965	2867.851929
389.926018	2896.334448
390.310008	2949.765638
390.693936	3001.417300
391.077802	3054.293963
391.461606	3097.005139
391.845348	3160.299346
392.229027	3225.242011
392.612645	3276.329064
392.996200	3361.171683
393.379694	3442.881225
393.763125	3537.649876
394.146494	3606.542285
394.529801	3693.645861
394.913047	3791.759318
395.296230	3824.340295
395.679351	3942.336063
396.062410	4036.822409
396.445408	4083.417794
396.828343	4181.823638
397.211217	4282.455151
397.594028	4262.416565
397.976778	4397.232142
398.359466	4489.754959
398.742092	4559.403541
399.124656	4541.086508
399.507158	4682.405174
399.889598	4785.337974
400.271977	4931.271816
400.654294	4968.387311
401.036549	5045.519485
401.418742	5013.324156
401.800874	5228.702413
402.182944	5312.113345
402.564952	5447.186021
402.946898	5528.605697
403.328783	5419.477319
403.710606	5451.483605
404.092367	5775.907060
404.474067	5821.905069
404.855705	5752.367393
405.237282	5702.107089
405.618797	5954.815090
406.000250	5953.459019
406.381642	6163.980125
406.762972	6192.641605
407.144240	6261.433190
407.525447	6252.835502
407.906593	6286.785153
408.287677	6446.133505
408.668700	6369.225662
409.049661	6485.850236
409.430560	6521.339959
409.811399	6379.638166
410.192176	6657.251987
410.572891	6660.924468
410.953545	6868.476333
411.334138	6603.054542
411.714669	6769.485716
412.095139	6568.454583
412.475547	6813.338713
412.855894	6884.272789
413.236180	7052.576751
413.616405	6742.636531
413.996568	6966.758669
414.376670	6989.751372
414.756711	6892.510034
415.136691	6988.420507
415.516609	7191.251332
415.896466	7178.648447
416.276262	7380.667647
416.655997	7365.617282
417.035670	7552.923873
417.415283	7889.990543
417.794834	7936.507790
418.174324	7798.440669
418.553753	7718.361940
418.933121	8032.302316
419.312428	8127.128941
419.691674	7914.218328
420.070859	8389.770535
420.449983	8069.473264
420.829045	8432.612781
421.208047	8206.267494
421.586988	8508.625820
421.965867	8525.191051
422.344686	8632.509655
422.723444	8673.630347
423.102141	8040.499232
423.480777	8791.086711
423.859352	8310.962177
424.237866	8935.079709
424.616319	8805.106160
424.994712	9211.027429
425.373044	8778.367880
425.751314	9235.741686
426.129524	9112.329198
426.507673	9227.385973
426.885762	9379.840548
427.263789	9294.559348
427.641756	9216.272750
428.019662	9313.367893
428.397508	9565.539012
428.775292	9248.551258
429.153016	9620.439698
429.530679	9456.866858
429.908282	9504.714970
430.285824	9214.178150
430.663305	9896.931863
431.040726	9344.905352
431.418086	9331.165687
431.795385	9656.781376
432.172624	9746.282021
432.549802	9652.950099
432.926920	9739.806659
433.303977	9614.561712
433.680974	9815.144182
434.057910	9906.668851
434.434786	9968.178490
434.811601	9809.971959
435.188355	10374.399708
435.565050	10112.138720
435.941683	10037.131392
436.318257	10518.801039
436.694770	10663.000724
437.071222	10723.970960
437.447614	10568.678215
437.823946	10470.118617
438.200218	10593.125291
438.576429	10416.551316
438.952580	10656.169961
439.328670	10705.540501
439.704700	10494.308593
440.080670	10486.265432
440.456580	11030.538648
440.832429	10796.545931
441.208218	10394.554241
441.583947	10715.148940
441.959616	10871.480162
442.335224	10684.720536
442.710773	10809.907509
443.086261	11021.146979
443.461689	10301.640734
443.837057	10962.815788
444.212365	11232.391490
444.587612	10871.346572
444.962800	11085.073851
445.337927	10840.792138
445.712995	10464.729623
446.088002	11540.600074
446.462949	11201.622807
446.837837	11177.417707
447.212664	11134.197374
447.587431	11686.919564
447.962139	12417.196234
448.336786	14689.269478
448.711374	15212.926896
449.085901	13047.151422
449.460369	12680.682222
449.834776	12129.031277
450.209124	13021.877597
450.583412	13435.857151
450.957640	14374.910686
451.331808	13471.087254
451.705917	12501.882578
452.079965	11784.291972
452.453954	12699.442876
452.827883	12335.103564
453.201752	12620.079991
453.575562	12156.452634
453.949311	12564.372721
454.323001	12538.683001
454.696632	12776.597736
455.070202	13050.211402
455.443713	13276.211370
455.817164	13747.287032
456.190556	13723.223084
456.563888	14091.088683
456.937160	14250.124484
457.310373	13602.573149
457.683526	13695.005226
458.056619	13230.735121
458.429653	13404.390268
458.802628	12801.833752
459.175542	13195.245398
459.548398	14144.139266
459.921194	14493.907123
460.293930	14566.338421
460.666607	15425.683753
461.039224	16474.614277
461.411782	17185.419490
461.784280	17014.037904
462.156719	17086.323009
462.529099	16774.366326
462.901419	15721.838938
463.273680	15485.595346
463.645882	15370.122676
464.018024	15092.947434
464.390106	15321.702393
464.762130	16045.972528
465.134094	16828.568813
465.505999	18857.565180
465.877845	22130.514150
466.249631	24940.470948
466.621358	24571.808847
466.993026	23133.224856
467.364634	22563.660171
467.736184	21095.131726
468.107674	20300.126641
468.479105	20431.993143
468.850477	19897.119159
469.221790	19496.165946
469.593043	18801.830183
469.964238	18233.619048
470.335373	17881.194503
470.706449	18359.456330
471.077467	17931.364066
471.448425	19787.602612
471.819324	23867.100909
472.190164	25787.536029
472.560945	22182.806039
472.931667	19844.998669
473.302330	19218.559686
473.672934	18810.256472
474.043479	19089.861549
474.413965	18887.202123
474.784393	18503.313217
475.154761	19226.859946
475.525070	19182.046609
475.895321	18878.889261
476.265513	19465.382140
476.635645	20053.941893
477.005719	19836.116156
477.375734	20012.425471
477.745691	20507.953250
478.115588	21037.239115
478.485427	21571.427503
478.855207	22659.908401
479.224928	24439.012251
479.594591	26672.119897
479.964194	26619.694418
480.333739	26841.419487
480.703226	26417.294611
481.072653	26112.387983
481.442022	26727.975882
481.811333	27637.241239
482.180584	27537.391105
482.549777	26591.075787
482.918912	26237.000264
483.287988	26375.100153
483.657005	26018.521698
484.025964	25787.210874
484.394864	25684.915780
484.763706	25339.160682
485.132489	24796.525841
485.501213	24970.783406
485.869879	24869.362952
486.238487	24713.629107
486.607036	24844.016031
486.975527	24583.370733
487.343959	24896.265070
487.712333	24822.054244
488.080648	24470.285049
488.448905	24976.845393
488.817104	24731.734411
489.185244	25415.980305
489.553326	25366.513983
489.921350	26390.074901
490.289315	28725.094513
490.657222	30452.292123
491.025070	30957.589658
491.392861	30712.778624
491.760593	29850.582520
492.128267	28947.043914
492.495883	27891.575012
492.863440	27016.632351
493.230939	26161.609809
493.598380	25997.706774
493.965763	25623.028055
494.333088	25137.804395
494.700354	25088.897641
495.067563	24956.980727
495.434713	24693.673700
495.801805	24873.806729
496.168839	24660.722197
496.535815	24517.029148
496.902733	24737.463683
497.269593	24415.160032
497.636395	24601.881850
498.003139	24534.975656
498.369825	24277.541573
498.736453	24491.362113
499.103023	24354.406566
499.469535	24364.700602
499.835989	24583.758902
500.202385	24611.207984
500.568723	24135.217197
500.935003	24334.607435
501.301226	23990.105063
501.667390	24844.452091
502.033497	25063.520472
502.399546	24787.512258
502.765537	24326.939840
503.131470	24723.406425
503.497345	24867.538055
503.863163	24098.878040
504.228923	24663.860316
504.594625	24888.451281
504.960269	24427.329377
505.325856	24911.615383
505.691385	24314.341996
506.056856	24932.422746
506.422270	24899.902262
506.787625	24443.725730
507.152924	24869.650298
507.518164	24898.140379
507.883347	24723.524892
508.248472	24388.855291
508.613540	25174.690517
508.978550	24972.376411
509.343503	24982.872093
509.708398	25206.091865
510.073236	25367.738983
510.438016	25574.355715
510.802738	25241.246351
511.167403	25490.642314
511.532010	25223.854370
511.896561	25977.035522
512.261053	25954.617511
512.625488	25780.261644
512.989866	25669.293245
513.354186	25506.466496
513.718449	25632.006350
514.082655	25996.166701
514.446803	25739.876960
514.810894	26211.618055
515.174927	25695.214858
515.538904	25725.771812
515.902822	26224.606588
516.266684	25969.287269
516.630488	25876.169596
516.994235	25846.101633
517.357925	26161.801372
517.721558	26332.194893
518.085133	26442.449969
518.448651	26325.147360
518.812112	26089.284374
519.175516	26308.405688
519.538863	26453.767359
519.902152	26257.976506
520.265385	26508.925144
520.628560	26310.951471
520.991678	26294.401363
521.354739	26363.704625
521.717743	26445.474661
522.080690	26218.043005
522.443580	26559.606384
522.806413	26524.283019
523.169189	26649.858162
523.531908	26698.172580
523.894569	26300.039893
524.257174	26402.690388
524.619722	26551.853090
524.982213	26258.891475
525.344647	26294.575283
525.707025	26450.639323
526.069345	26411.522490
526.431608	26384.912759
526.793815	26561.600161
527.155964	26043.558588
527.518057	26211.943209
527.880093	26125.805013
528.242072	26356.657092
528.603995	26075.796767
528.965860	25859.599323
529.327669	25900.530972
529.689421	25900.450313
530.051117	25738.099953
530.412755	25917.708703
530.774337	25701.833893
531.135862	25588.145791
531.497331	25781.983198
531.858743	25358.180956
532.220098	25823.945762
532.581396	25508.006568
532.942638	25433.198366
533.303824	25544.381014
533.664953	25537.908172
534.026025	25198.545257
534.387040	25430.937408
534.747999	25492.928477
535.108902	25649.713403
535.469748	25150.414841
535.830537	25329.597613
536.191270	25458.484794
536.551947	25290.889113
536.912567	24929.788743
537.273131	25332.748334
537.633638	25023.375243
537.994089	25239.653346
538.354483	24745.615228
538.714821	25262.351142
539.075103	25293.278620
539.435328	25064.836213
539.795497	24654.632484
540.155609	25013.469376
540.515665	25325.768857
540.875665	24537.554206
541.235609	24879.815785
541.595496	24812.395393
541.955328	25181.987588
542.315102	25104.041267
542.674821	24621.164263
543.034483	24493.776826
543.394090	24669.014896
543.753640	24475.278312
544.113134	25092.502066
544.472571	24689.184552
544.831953	24992.467929
545.191278	24634.278825
545.550548	24534.393403
545.909761	24740.697583
546.268918	24966.082530
546.628019	24951.846312
546.987064	24625.010664
547.346053	24377.371543
547.704986	24484.851463
548.063863	24639.083045
548.422684	24666.060779
548.781449	24159.681917
549.140158	24577.517953
549.498811	24164.476054
549.857408	23922.046966
550.215949	24320.945908
550.574434	24004.850438
550.932864	24205.768145
551.291237	24389.450147
551.649555	24229.791764
552.007817	24298.177536
552.366022	24150.998529
552.724173	24164.949922
553.082267	24138.080572
553.440305	24614.837615
553.798288	23865.437328
554.156215	24364.405695
554.514086	24490.948739
554.871902	23878.400656
555.229661	24155.984230
555.587365	23993.485157
555.945014	23894.996134
556.302606	24102.600932
556.660143	24095.898718
557.017625	24324.648635
557.375050	23850.354196
557.732421	24233.577670
558.089735	24063.627771
558.446994	24108.826757
558.804197	24138.980418
559.161345	24058.357245
559.518437	23831.167565
559.875474	24007.764225
560.232455	24191.186608
560.589381	24010.872096
560.946251	24000.711651
561.303065	24313.371574
561.659825	24402.791561
562.016528	24011.890409
562.373177	23743.559873
562.729770	24105.096303
563.086307	23963.023985
563.442789	24127.831907
563.799216	23973.817095
564.155587	23959.361586
564.511904	23954.259939
564.868164	23906.537856
565.224370	23868.283060
565.580520	23804.363750
565.936615	23909.461725
566.292654	23612.641107
566.648638	23868.386403
567.004567	23704.657288
567.360441	23645.685871
567.716260	23366.564744
568.072023	23685.700029
568.427732	23475.889727
568.783385	23228.573240
569.138982	23478.334686
569.494525	23523.238764
569.850013	23274.596454
570.205445	23368.243448
570.560823	23193.391027
570.916145	22959.322692
571.271412	23141.734323
571.626625	22890.657136
571.981782	22989.584739
572.336884	22798.003248
572.691931	22952.358338
573.046923	22681.224920
573.401860	22556.176578
573.756743	22592.172937
574.111570	22476.564156
574.466342	22406.053537
574.821059	22480.836534
575.175722	22184.182274
575.530330	22155.230927
575.884882	22172.756499
576.239380	22088.838931
576.593823	21980.504535
576.948211	21951.404474
577.302544	21800.764715
577.656823	21672.613543
578.011047	21783.957508
578.365216	21639.762864
578.719330	21527.551821
579.073389	21412.235427
579.427394	21567.313922
579.781344	21327.876758
580.135239	21221.941951
580.489080	21158.925007
580.842866	20931.841191
581.196597	21158.244452
581.550273	21107.326277
581.903895	20993.073567
582.257463	21300.858694
582.610975	20833.740337
582.964434	21170.144095
583.317837	20851.654078
583.671186	20934.797828
584.024481	20914.108933
584.377721	20679.644867
584.730906	20763.091087
585.084037	20754.574057
585.437113	20673.275369
585.790135	20890.339892
586.143103	20344.143476
586.496016	20361.232987
586.848874	20599.669482
587.201679	20506.075420
587.554428	20206.623320
587.907124	20548.675690
588.259765	20306.080244
588.612352	20373.856037
588.964884	19949.738723
589.317362	20112.502457
589.669786	20175.249699
590.022155	20184.593477
590.374470	20417.376318
590.726731	20183.055925
591.078937	19977.686879
591.431090	20050.632376
591.783188	19817.436160
592.135232	19785.772673
592.487222	19882.351098
592.839157	19889.633045
593.191038	19766.482698
593.542866	19663.353293
593.894639	19370.316061
594.246358	19593.397201
594.598022	19467.995979
594.949633	19234.940916
595.301190	19215.035920
595.652692	19387.045130
596.004141	19606.698286
596.355535	18933.658877
596.706876	18957.962279
597.058162	18859.190952
597.409395	19096.727601
597.760573	19146.007400
598.111698	18915.427544
598.462768	18869.132108
598.813785	18834.685903
599.164748	18630.199059
599.515657	18695.855047
599.866511	18488.474581
600.217312	18833.511314
600.568060	18348.708590
600.918753	18671.050049
601.269392	18559.859840
601.619978	18360.338532
601.970510	18546.689825
602.320988	18504.349174
602.671412	18703.220173
603.021783	18627.998596
603.372100	18327.659252
603.722363	18489.820569
604.072572	18423.597451
604.422728	18576.914063
604.772830	18328.259150
605.122878	18294.954767
605.472872	18270.064070
605.822813	18255.921113
606.172701	18237.329337
606.522534	18417.381708
606.872314	18440.954144
607.222041	18280.884906
607.571714	18497.944388
607.921333	18329.128749
608.270899	18398.888236
608.620411	18563.232372
608.969870	18350.180607
609.319276	18341.940841
609.668627	18370.625007
610.017926	18504.480244
610.367171	18627.867526
610.716362	18673.492488
611.065500	18487.874683
611.414585	18634.239544
611.763616	18626.783678
612.112594	18550.453047
612.461518	18535.034678
612.810389	18718.951093
613.159207	18575.845338
613.507971	18488.247729
613.856682	18743.554445
614.205340	18666.142486
614.553945	18825.783226
614.902496	18561.160457
615.250994	18787.397360
615.599439	18728.801508
615.947830	18716.186020
616.296169	18786.747051
616.644454	18750.123068
616.992686	18720.796156
617.340864	18942.191030
617.688990	18692.008647
618.037063	18874.793323
618.385082	18727.140448
618.733048	18994.795470
619.080961	18883.970744
619.428821	18902.549916
619.776628	18788.629922
620.124382	18717.380774
620.472083	18770.060832
620.819731	18787.281413
621.167326	18472.693248
621.514868	18504.923866
621.862357	18291.539385
622.209793	18289.583417
622.557176	18124.082337
622.904506	17961.308520
623.251783	17882.732055
623.599007	17634.233417
623.946179	17565.018375
624.293297	17500.131163
624.640363	17242.689519
624.987376	17267.852438
625.334336	17079.787153
625.681243	16918.424859
626.028097	16937.682067
626.374899	16841.154053
626.721647	16716.640074
627.068343	16555.660908
627.414987	16482.957387
627.761577	16455.571319
628.108115	16486.869322
628.454600	16219.804115
628.801032	16316.566543
629.147412	16249.042807
629.493739	16258.578150
629.840014	16082.944350
630.186236	16170.360478
630.532405	15937.895230
630.878521	16136.340252
631.224585	16040.422217
631.570597	15865.408479
631.916556	15892.996194
632.262462	15868.526433
632.608316	15777.147958
632.954117	15730.126595
633.299866	15723.447066
633.645562	15632.744106
633.991206	15397.528908
634.336797	15271.679023
634.682336	15236.637963
635.027823	15111.173726
635.373257	14984.993645
635.718639	14896.518875
636.063968	14841.938302
636.409245	14591.927318
636.754470	14631.248318
637.099642	14481.382376
637.444762	14247.349329
637.789829	14282.168579
638.134845	14115.770173
638.479808	14146.546417
638.824719	14074.278956
639.169577	13934.409622
639.514383	13970.854644
639.859137	13814.190706
640.203839	13897.316812
640.548489	13747.443308
640.893086	13728.085277
641.237632	13609.149335
641.582125	13766.556843
641.926566	13584.538422
642.270955	13605.628089
642.615292	13551.632290
642.959576	13567.504363
643.303809	13597.980658
643.647990	13526.406356
643.992118	13592.647118
644.336195	13364.381151
644.680219	13584.500613
645.024192	13491.327487
645.368112	13730.409249
645.711981	13774.118574
646.055797	13959.801914
646.399562	13941.590746
646.743274	14204.746538
647.086935	14478.408095
647.430544	14447.488178
647.774101	14488.876051
648.117606	14618.537049
648.461059	14597.258338
648.804460	14577.302931
649.147810	14308.299400
649.491108	14219.557448
649.834354	14232.540940
650.177548	13912.112598
650.520690	13723.759967
650.863781	13644.155107
651.206820	13693.870966
651.549807	13527.696891
651.892742	13312.868120
652.235626	13255.870314
652.578458	13263.298454
652.921238	12959.551291
653.263967	13158.056806
653.606644	12989.515910
653.949269	12964.720994
654.291843	12760.695416
654.634365	12926.428390
654.976836	12779.725772
655.319255	12775.075307
655.661622	12733.974780
656.003938	12657.986948
656.346203	12578.072056
656.688416	12664.038853
657.030577	12608.200512
657.372687	12521.376719
657.714746	12510.462621
658.056753	12691.593800
658.398708	12499.578770
658.740612	12508.362981
659.082465	12619.477573
659.424266	12589.472626
659.766016	12606.589863
660.107715	12524.645908
660.449362	12604.041560
660.790958	12549.029969
661.132503	12492.995023
661.473996	12565.547309
661.815438	12581.835278
662.156829	12609.637241
662.498168	12584.151688
662.839456	12582.152870
663.180693	12595.819438
663.521879	12689.537009
663.863013	12662.778564
664.204097	12636.292342
664.545129	12776.335596
664.886110	12737.148186
665.227040	12834.901201
665.567918	12827.888956
665.908746	12859.907844
666.249522	12847.786390
666.590248	12904.660687
666.930922	13015.916432
667.271545	12992.848112
667.612118	13076.886667
667.952639	12974.437818
668.293109	13008.934434
668.633528	12944.677367
668.973896	12920.255497
669.314213	12997.614523
669.654480	12726.700395
669.994695	12817.116010
670.334859	12842.536028
670.674973	12780.126543
671.015035	12817.834374
671.355047	12758.673913
671.695008	12729.445303
672.034918	12745.095565
672.374777	12783.244497
672.714585	12693.602699
673.054342	12730.614851
673.394049	12680.047037
673.733705	12787.027883
674.073310	12681.577027
674.412864	12698.515304
674.752368	12554.895351
675.091820	12593.180394
675.431223	12573.403948
675.770574	12438.290942
676.109875	12356.871267
676.449125	12307.412506
676.788324	12254.987027
677.127473	12090.620206
677.466571	12091.129362
677.805619	11976.861528
678.144616	11912.085222
678.483562	11882.823844
678.822458	11750.029769
679.161303	11727.253836
679.500098	11708.533512
679.838842	11668.814260
680.177535	11708.029396
680.516179	11769.377718
680.854771	11707.021165
681.193314	11927.377562
681.531805	12092.939136
681.870247	12521.119621
682.208638	12938.950616
682.546978	13236.406419
682.885268	13264.082354
683.223508	12978.054846
683.561697	12817.622646
683.899836	12727.007905
684.237925	12514.233404
684.575963	12435.591404
684.913951	12347.340965
685.251889	12307.619193
685.589776	12413.027200
685.927614	12324.703664
686.265401	12294.597893
686.603137	12348.203002
686.940824	12504.141014
687.278460	12632.115746
687.616046	12665.760407
687.953582	12830.313751
688.291068	12766.903597
688.628504	13001.097961
688.965889	13006.000483
689.303224	12960.889718
689.640510	12847.052902
689.977745	12523.110876
690.314930	12305.403606
690.652065	12220.578631
690.989150	11922.681727
691.326185	11696.843076
691.663170	11492.479740
692.000105	11255.497618
692.336990	11139.530915
692.673825	10877.416121
693.010610	10771.277147
693.347345	10556.324868
693.684030	10360.085352
694.020665	10305.066198
694.357251	10104.834088
694.693786	10034.192399
695.030272	9885.984997
695.366707	9769.625084
695.703093	9705.927584
696.039429	9694.743785
696.375716	9606.425290
696.711952	9484.051280
697.048139	9530.495431
697.384276	9481.061876
697.720363	9512.632102
698.056400	9440.054610
698.392388	9383.238286
698.728326	9347.017595
699.064214	9292.802506
699.400053	9329.061005
699.735842	9145.018561
700.071581	9108.208055
700.407270	9031.411117
700.742910	8952.696021
701.078501	8855.807564
701.414042	8719.456956
701.749533	8666.781939
702.084974	8527.724231
702.420366	8649.243765
702.755709	8524.881020
703.091002	8395.663644
703.426246	8421.328158
703.761440	8372.174388
704.096584	8328.767533
704.431679	8262.136082
704.766725	8246.541272
705.101721	8205.695323
705.436668	8255.572499
705.771565	8147.845562
706.106413	8230.255825
706.441212	8262.073067
706.775961	8222.928508
707.110661	8271.827700
707.445311	8407.724605
707.779913	8301.615878
708.114465	8420.619876
708.448967	8467.605951
708.783421	8625.835167
709.117825	8794.842370
709.452180	8830.362340
709.786485	8919.636134
710.120742	9208.617758
710.454949	9213.265701
710.789107	9317.433584
711.123216	9544.280466
711.457275	9711.440086
711.791286	9860.771666
712.125247	9861.941214
712.459159	9849.640798
712.793023	10077.473226
713.126837	9658.084514
713.460602	9811.053286
713.794318	9639.802769
714.127985	9664.370833
714.461602	9328.098145
714.795171	9282.601731
715.128691	9029.926498
715.462162	8781.904249
715.795584	8727.757216
716.128957	8563.592041
716.462281	8396.387050
716.795556	8445.676932
717.128782	8241.507680
717.461960	7983.118299
717.795088	8053.825522
718.128167	7955.908671
718.461198	7793.092004
718.794180	7742.897236
719.127113	7732.245277
719.459997	7561.566932
719.792833	7343.874785
720.125619	7413.029334
720.458357	7263.256653
720.791046	7255.377329
721.123686	7242.623210
721.456278	7091.280210
721.788821	7106.885102
722.121315	7010.591502
722.453761	7076.877633
722.786158	7010.767942
723.118506	7021.419900
723.450805	6987.591237
723.783056	7048.485855
724.115259	6968.515511
724.447412	6973.740667
724.779518	7020.502410
725.111574	7018.281782
725.443582	7091.650735
725.775542	7073.313538
726.107453	7266.813187
726.439315	7178.807244
726.771129	7255.284068
727.102895	7427.510048
727.434612	7531.660287
727.766281	7571.445073
728.097901	7651.518760
728.429473	7655.218967
728.760996	7633.821790
729.092471	7608.921010
729.423897	7546.090589
729.755276	7540.941051
730.086606	7462.583876
730.417887	7567.800318
730.749120	7790.168135
731.080305	7975.206208
731.411442	8076.233451
731.742530	8065.833551
732.073570	8174.185591
732.404562	8262.138602
732.735506	8117.954041
733.066401	8251.718537
733.397249	8176.476796
733.728048	7931.595186
734.058798	7602.004547
734.389501	7369.168775
734.720156	7193.713936
735.050762	6970.176571
735.381320	6883.120885
735.711831	6821.906154
736.042293	6714.259876
736.372707	6736.377938
736.703073	6597.925168
737.033391	6642.801520
737.363661	6652.425083
737.693883	6683.271903
738.024056	6768.638802
738.354182	6803.362270
738.684260	6841.811150
739.014290	6963.975952
739.344272	7072.511994
739.674207	7108.851152
740.004093	7179.898653
740.333931	7194.281065
740.663722	7197.792229
740.993464	7272.592870
741.323159	7251.387256
741.652806	7006.727457
741.982405	7035.482199
742.311956	7081.001297
742.641460	6904.439925
742.970915	6709.687549
743.300323	6700.462238
743.629683	6659.701988
743.958996	6516.611357
744.288260	6426.533499
744.617477	6377.430140
744.946647	6371.423605
745.275768	6215.021807
745.604842	6164.973232
745.933869	6146.840202
746.262847	6107.118430
746.591778	6091.904228
746.920662	6053.583897
747.249498	6054.430810
747.578286	6098.999652
747.907027	6175.191651
748.235720	6236.030816
748.564365	6206.431681
748.892963	6247.864925
749.221514	6386.511779
749.550017	6203.991763
749.878473	6089.832313
750.206881	6158.772613
750.535242	6102.389827
750.863555	6028.826790
751.191821	6041.404469
751.520039	6034.984559
751.848210	5946.648421
752.176334	5976.028265
752.504411	6018.013515
752.832440	5943.049037
753.160421	5873.438264
753.488356	5920.570532
753.816243	5948.432989
754.144082	5802.373118
754.471875	5775.718017
754.799620	5819.409698
755.127318	5831.415205
755.454969	5787.443741
755.782572	5756.029791
756.110129	5802.136184
756.437638	5776.816989
756.765100	5719.607454
757.092515	5721.283638
757.419882	5780.862515
757.747203	5753.743627
758.074477	5813.158667
758.401703	5797.548734
758.728882	5753.917547
759.056014	5825.645605
759.383099	5940.488131
759.710138	5953.212003
760.037129	5937.869251
760.364073	5943.361588
760.690970	6023.541140
761.017820	6002.869889
761.344623	5959.848682
761.671379	6064.745011
761.998088	6190.748652
762.324751	6450.080729
762.651366	7085.477842
762.977935	8443.592414
763.304456	10104.640004
763.630931	10962.150355
763.957359	10518.261636
764.283740	9555.938134
764.610074	8695.302267
764.936362	7687.958741
765.262602	7097.929492
765.588796	6561.243212
765.914943	6235.330096
766.241044	6063.308282
766.567097	5849.606209
766.893104	5595.612714
767.219064	5419.585704
767.544978	5358.161765
767.870845	5275.794352
768.196665	5169.541952
768.522438	5102.834884
768.848165	5064.874996
769.173846	4995.370087
769.499479	4951.607830
769.825066	4906.595368
770.150607	4841.138506
770.476101	4818.062624
770.801548	4813.727232
771.126949	4728.720775
771.452303	4675.481149
771.777611	4637.853977
772.102872	4657.196884
772.428087	4619.398313
772.753256	4577.279472
773.078378	4528.473541
773.403453	4459.621462
773.728482	4445.493628
774.053465	4401.401176
774.378401	4386.678486
774.703291	4380.966859
775.028135	4308.016322
775.352932	4262.857666
775.677683	4250.279987
776.002388	4263.739868
776.327046	4273.638173
776.651658	4204.304664
776.976224	4143.936846
777.300743	4150.182836
777.625216	4166.775794
777.949643	4160.378570
778.274024	4118.320223
778.598359	4081.759255
778.922647	4104.767081
779.246889	4093.976491
779.571086	4085.265377
779.895236	4068.342224
780.219339	4059.421902
780.543397	4055.278074
780.867409	4107.290178
781.191374	4121.506232
781.515294	4056.503074
781.839167	4048.354049
782.162995	4073.516968
782.486776	4058.597673
782.810511	4073.585024
783.134201	4062.252510
783.457844	4012.584542
783.781441	3960.849700
784.104993	3966.561328
784.428498	3986.955316
784.751958	3979.554902
785.075372	3956.859627
785.398739	3922.756221
785.722061	3936.563942
786.045337	3980.311075
786.368568	4008.564222
786.691752	3920.432249
787.014891	3977.936691
787.337983	4110.695478
787.661030	4270.696660
787.984031	4432.807565
788.306987	4599.919294
788.629897	4683.428528
788.952760	4639.822547
789.275579	4569.299326
789.598351	4502.700642
789.921078	4351.876881
790.243759	4150.601252
790.566395	4141.829644
790.888984	4133.675578
791.211529	4028.451573
791.534027	3965.507727
791.856480	3950.543061
792.178888	3892.504257
792.501249	3843.814273
792.823566	3855.736602
793.145836	3880.307185
793.468062	3829.157118
793.790241	3786.440901
794.112375	3814.505004
794.434464	3883.243657
794.756507	3904.892893
795.078505	3881.640571
795.400457	3925.203702
795.722364	4064.810896
796.044226	4173.586393
796.366042	4246.259667
796.687812	4216.302610
797.009538	4220.201942
797.331218	4182.171478
797.652852	4159.390503
797.974442	4135.868480
798.295986	4133.814209
798.617484	4045.750293
798.938938	3963.907160
799.260346	4008.425590
799.581709	3998.486955
799.903026	3923.920728
800.224299	3890.896129
800.545526	3881.040673
800.866708	3843.733614
801.187845	3780.915796
801.508936	3818.724450
801.829983	3811.692040
802.150984	3734.569948
802.471940	3728.923856
802.792851	3736.808221
803.113717	3736.727562
803.434538	3736.160432
803.755314	3677.168850
804.076045	3660.149915
804.396731	3677.985517
804.717372	3702.276317
805.037967	3685.522042
805.358518	3675.422090
805.679024	3703.728169
805.999485	3720.958833
806.319901	3724.696848
806.640272	3731.237746
806.960598	3749.751383
807.280879	3722.594687
807.601115	3740.694950
807.921306	3755.657095
808.241453	3793.596819
808.561554	3766.278806
808.881611	3699.818754
809.201623	3740.800814
809.521590	3748.725508
809.841513	3719.184347
810.161390	3752.150972
810.481223	3731.787231
810.801011	3673.556863
811.120755	3672.326822
811.440453	3703.614743
811.760107	3704.912840
812.079716	3660.301149
812.399281	3630.893578
812.718801	3658.284688
813.038276	3628.877117
813.357707	3625.943165
813.677093	3640.771719
813.996434	3586.163420
814.315731	3601.803600
814.634983	3605.614712
814.954191	3619.535859
815.273354	3647.998213
815.592473	3639.274497
815.911547	3650.372597
816.230577	3696.128630
816.549562	3744.443048
816.868502	3785.591466
817.187399	3810.111639
817.506250	3805.531750
817.825058	3784.182464
818.143821	3878.585631
818.462539	3978.324860
818.781213	4020.970501
819.099843	4087.596911
819.418429	4347.634750
819.736970	4588.964867
820.055466	4848.281821
820.373919	5215.456782
820.692327	5628.266788
821.010691	6114.188648
821.329011	7574.542862
821.647286	10443.108114
821.965517	15151.354243
822.283704	19179.768008
822.601847	21207.675486
822.919945	19279.363563
823.237999	16629.992721
823.556010	14110.113998
823.873976	11969.529170
824.191897	9852.882260
824.509775	8514.387858
824.827609	7388.352886
825.145398	6859.845878
825.463144	6744.421099
825.780845	6853.882193
826.098502	7077.507778
826.416116	8009.027309
826.733685	9377.582111
827.051210	10475.684050
827.368692	10438.583679
827.686129	9123.417216
828.003522	7605.198118
828.320872	6580.583599
828.638177	5869.218818
828.955439	5301.403413
829.272656	4800.353050
829.589830	4527.878685
829.906960	4350.364535
830.224046	4155.740708
830.541088	4035.751164
830.858086	3985.843741
831.175041	3909.808018
831.491952	3899.181265
831.808819	3910.919592
832.125642	3987.020851
832.442421	4142.409377
832.759157	4434.171197
833.075849	5010.140668
833.392497	5904.776597
833.709101	6688.066040
834.025662	7001.845100
834.342179	6590.197079
834.658653	5911.030148
834.975083	5254.553450
835.291469	4675.251777
835.607811	4272.390488
835.924110	4127.180051
836.240366	3923.855193
836.556578	3718.440777
836.872746	3613.725929
837.188871	3570.155236
837.504952	3503.375071
837.820990	3418.260230
838.136984	3376.383365
838.452935	3398.473701
838.768842	3394.801220
839.084706	3421.171496
839.400526	3589.924121
839.716303	3949.426446
840.032037	4496.268130
840.347727	4736.592537
840.663373	4429.843366
840.978977	4038.967420
841.294537	3729.798496
841.610054	3500.030266
841.925527	3394.821385
842.240957	3329.982064
842.556344	3272.195318
842.871687	3210.262222
843.186987	3158.698780
843.502244	3122.780559
843.817458	3088.500713
844.132629	3061.344017
844.447756	3068.656210
844.762840	3052.413613
845.077881	3018.965557
845.392879	3000.852691
845.707833	2999.569718
846.022745	2999.080726
846.337613	2999.337824
846.652438	2989.326093
846.967221	2982.608755
847.281960	2966.716518
847.596656	2966.401446
847.911309	2966.288020
848.225919	2959.742082
848.540485	2956.578758
848.855009	2954.703448
849.169490	2944.182560
849.483928	2934.798452
849.798323	2934.110335
850.112675	2932.232505
850.426984	2944.467385
850.741251	2940.255501
851.055474	2928.819644
851.369654	2923.261772
851.683792	2931.630087
851.997887	2938.566715
852.311938	2939.456478
852.625947	2927.899633
852.939914	2931.831733
853.253837	2936.278031
853.567718	2922.649272
853.881555	2921.371339
854.195350	2938.821293
854.509103	2929.623708
854.822812	2921.825043
855.136479	2922.873603
855.450103	2921.199940
855.763685	2915.269022
856.077224	2913.613003
856.390720	2926.442740
856.704173	2931.854418
857.017584	2927.042637
857.330953	2927.156063
857.644278	2934.899275
857.957561	2944.532920
858.270802	2946.526697
858.584000	2943.776747
858.897155	2931.146136
859.210268	2933.061775
859.523339	2929.434665
859.836367	2929.989192
860.149352	2921.114240
860.462295	2917.635844
860.775195	2925.149684
861.088054	2927.425765
861.400869	2908.894483
861.713642	2908.715522
862.026373	2922.636669
862.339062	2924.625404
862.651708	2932.406425
862.964312	2935.322732
863.276873	2924.932914
863.589392	2937.278700
863.901869	2949.080041
864.214303	2973.743886
864.526696	2989.323572
864.839045	2980.509115
865.151353	2983.100268
865.463619	2979.785709
865.775842	2980.060452
866.088023	3004.689009
866.400162	3003.302692
866.712258	2975.896459
867.024313	2966.310705
867.336325	2978.018785
867.648296	2997.888493
867.960224	2992.333141
868.272110	2975.692292
868.583954	2984.322748
868.895755	2998.069974
869.207515	2982.288642
869.519233	2986.997080
869.830909	2998.390088
870.142542	3005.883763
870.454134	3005.457785
870.765684	3011.272756
871.077191	3010.382993
871.388657	3022.610311
871.700081	3034.061292
872.011463	3041.101263
872.322803	3045.144269
872.634101	3044.584701
872.945357	3060.920560
873.256571	3089.521546
873.567744	3075.940678
873.878874	3075.381110
874.189963	3097.847012
874.501010	3097.035386
874.812015	3087.646237
875.122979	3084.286308
875.433900	3083.744384
875.744780	3093.589757
876.055618	3098.971189
876.366415	3094.625714
876.677169	3109.093826
876.987882	3101.582507
877.298554	3098.409100
877.609183	3121.847945
877.919771	3145.264105
878.230317	3173.086233
878.540822	3228.816189
878.851285	3265.873711
879.161707	3311.438180
879.472087	3422.215015
879.782425	3667.633507
880.092722	4124.919093
880.402977	4660.682842
880.713191	5319.276824
881.023363	6531.356732
881.333494	7844.234510
881.643583	8369.121969
881.953631	8041.885550
882.263637	7375.901236
882.573602	6747.024855
882.883526	6162.064486
883.193408	5593.571046
883.503248	5136.635821
883.813048	4823.749045
884.122806	4502.004963
884.432522	4177.619316
884.742197	3938.280455
885.051831	3744.894231
885.361424	3615.646608
885.670975	3539.434445
885.980485	3450.137966
886.289954	3372.632746
886.599382	3320.860096
886.908768	3291.545787
887.218113	3243.390164
887.527417	3186.019313
887.836680	3133.674492
888.145901	3128.955972
888.455082	3116.327882
888.764221	3066.254101
889.073319	3035.102290
889.382376	3033.347969
889.691392	3039.780481
890.000366	3039.931716
890.309300	3024.029396
890.618193	3035.848381
890.927044	3052.146432
891.235855	3054.029303
891.544625	3038.489946
891.853353	3052.610218
892.162041	3071.201993
892.470687	3112.337808
892.779293	3165.824451
893.087858	3212.923951
893.396381	3289.297432
893.704864	3416.473141
894.013306	3670.547294
894.321707	3980.409377
894.630068	4182.809184
894.938387	4167.547090
895.246665	4127.366574
895.554903	3995.870596
895.863100	3789.684883
896.171256	3619.677011
896.479371	3479.916062
896.787446	3350.965867
897.095480	3247.110536
897.403473	3181.961184
897.711425	3148.155207
898.019336	3142.337715
898.327207	3106.232971
898.635038	3069.649318
898.942827	3055.531566
899.250576	3045.839948
899.558284	3012.654032
899.865952	2991.455980
900.173579	2971.850933
900.481165	2961.413224
900.788711	2949.732871
901.096216	2926.793100
901.403681	2912.748445
901.711105	2922.460228
902.018489	2919.208684
902.325832	2918.618869
902.633135	2930.500869
902.940397	2962.610498
903.247619	3056.953172
903.554800	3260.555293
903.861941	3629.187148
904.169041	4076.652566
904.476101	4364.605794
904.783121	4296.608191
905.090100	4039.416083
905.397039	3756.193978
905.703938	3498.936335
906.010796	3316.045794
906.317614	3202.645038
906.624391	3108.292282
906.931129	3033.660520
907.237826	2966.822382
907.544483	2922.354364
907.851099	2892.135167
908.157675	2870.894266
908.464211	2850.081862
908.770707	2834.764316
909.077163	2823.658654
909.383578	2806.788433
909.689954	2795.942390
909.996289	2797.910961
910.302584	2793.378963
910.608839	2796.509520
910.915054	2789.053653
911.221229	2783.601646
911.527363	2786.086934
911.833458	2791.828809
912.139513	2797.401804
912.445527	2801.843061
912.751502	2808.104174
913.057436	2820.238231
913.363331	2835.568380
913.669186	2857.482276
913.975000	2890.741288
914.280775	2956.505661
914.586510	3028.694984
914.892205	3112.917541
915.197859	3247.488622
915.503475	3451.771300
915.809050	3675.485105
916.114585	3823.029595
916.420081	3831.155935
916.725536	3770.296606
917.030952	3642.546205
917.336328	3511.438397
917.641665	3378.031822
917.946961	3276.248405
918.252218	3203.212168
918.557435	3120.355764
918.862612	3058.616753
919.167750	3008.331243
919.472848	2969.378247
919.777906	2943.091150
920.082925	2913.534865
920.387904	2886.741133
920.692843	2866.755478
920.997743	2855.758201
921.302603	2840.780933
921.607423	2830.519664
921.912204	2818.587253
922.216946	2807.642908
922.521647	2798.994809
922.826310	2788.965433
923.130932	2781.595266
923.435516	2773.050511
923.740059	2763.726897
924.044564	2756.656678
924.349028	2749.457911
924.653454	2745.369535
924.957840	2737.961559
925.262186	2732.912844
925.566493	2730.949314
925.870761	2723.937069
926.174989	2720.947665
926.479178	2712.360059
926.783328	2710.918289
927.087438	2710.278063
927.391509	2710.152034
927.695541	2702.431507
927.999533	2701.892103
928.303486	2697.481094
928.607400	2697.891948
928.911275	2694.922708
929.215110	2696.939170
929.518906	2694.678212
929.822663	2696.190558
930.126381	2694.952955
930.430060	2696.974458
930.733699	2698.131403
931.037299	2699.547967
931.340861	2699.686599
931.644383	2700.079809
931.947866	2697.889427
932.251309	2697.070240
932.554714	2695.197451
932.858080	2695.729293
933.161407	2694.433716
933.464694	2690.274764
933.767943	2686.035154
934.071153	2691.754343
934.374323	2689.579085
934.677455	2689.836184
934.980548	2690.425999
935.283602	2685.828467
935.586617	2687.124043
935.889593	2685.505833
936.192530	2687.451718
936.495428	2689.327027
936.798287	2691.093952
937.101108	2691.076308
937.403890	2699.356403
937.706632	2700.982175
938.009336	2707.603731
938.312002	2716.665205
938.614628	2728.201885
938.917216	2732.466702
939.219765	2733.225395
939.522275	2733.311095
939.824747	2730.188100
940.127179	2729.394118
940.429573	2723.695094
940.731929	2722.754919
941.034246	2717.161758
941.336524	2713.663198
941.638763	2712.208825
941.940964	2710.230172
942.243126	2707.956612
942.545250	2708.415357
942.847335	2704.639532
943.149381	2701.902186
943.451389	2696.051927
943.753359	2695.615867
944.055290	2693.964889
944.357182	2691.968592
944.659036	2691.116637
944.960851	2692.749971
945.262628	2687.814681
945.564367	2688.739733
945.866067	2690.413396
946.167729	2693.707790
946.469352	2690.660413
946.770937	2690.312573
947.072484	2687.366019
947.373992	2689.266534
947.675462	2688.127233
947.976893	2681.067097
948.278286	2681.470389
948.579641	2681.994669
948.880958	2677.513083
949.182236	2680.605831
949.483476	2678.954853
949.784678	2678.985100
950.085841	2681.704803
950.386967	2684.006090
950.688054	2682.017354
950.989103	2683.229752
951.290114	2687.658406
951.591087	2686.430885
951.892021	2686.672860
952.192917	2691.388859
952.493776	2693.763243
952.794596	2695.086546
953.095378	2692.616380
953.396122	2690.841894
953.696828	2691.033458
953.997496	2689.947089
954.298126	2684.548014
954.598718	2685.546162
954.899272	2681.674556
955.199788	2679.400996
955.500266	2678.869154
955.800706	2675.453772
956.101108	2673.273473
956.401472	2670.394974
956.701798	2671.831703
957.002087	2665.121927
957.302337	2664.605209
957.602550	2666.263749
957.902724	2662.649241
958.202861	2661.711587
958.502960	2662.334169
958.803022	2662.777791
959.103045	2660.804179
959.403031	2656.219250
959.702979	2659.473314
960.002889	2659.800989
960.302762	2655.266472
960.602596	2658.409631
960.902393	2655.516009
961.202153	2653.978457
961.501875	2653.633138
961.801559	2657.051040
962.101205	2653.691111
962.400814	2654.414517
962.700385	2656.831750
962.999918	2650.850421
963.299414	2648.559216
963.598873	2651.283960
963.898293	2646.063845
964.197677	2652.990391
964.497022	2649.300266
964.796331	2650.915956
965.095601	2653.247489
965.394835	2652.582057
965.694030	2653.542397
965.993189	2653.416368
966.292309	2652.561892
966.591393	2650.673980
966.890439	2652.347643
967.189447	2652.398055
967.488419	2653.512150
967.787353	2650.943682
968.086249	2650.333702
968.385108	2652.088024
968.683930	2651.934269
968.982714	2651.243631
969.281462	2650.621048
969.580172	2649.592653
969.878844	2652.995432
970.177480	2653.282777
970.476078	2651.271357
970.774639	2653.118940
971.073162	2654.432161
971.371649	2653.156749
971.670098	2653.204640
971.968510	2653.219763
972.266885	2652.720689
972.565223	2652.985349
972.863524	2650.633651
973.161788	2654.283447
973.460014	2651.208343
973.758204	2654.532984
974.056356	2654.313693
974.354471	2653.988539
974.652550	2655.642037
974.950591	2653.968374
975.248595	2652.813950
975.546563	2651.473003
975.844493	2651.959475
976.142386	2651.190699
976.440243	2649.219607
976.738062	2651.566265
977.035845	2653.184475
977.333590	2651.039464
977.631299	2651.157931
977.928971	2648.309679
978.226606	2647.830770
978.524204	2649.184319
978.821765	2646.628454
979.119290	2648.791109
979.416777	2647.815646
979.714228	2651.450318
980.011642	2649.678352
980.309020	2648.544093
980.606360	2648.687766
980.903664	2650.500061
981.200931	2650.109371
981.498162	2651.377221
981.795356	2651.888898
982.092513	2655.216060
982.389633	2656.589774
982.686717	2657.247645
982.983764	2664.879952
983.280775	2667.662669
983.577749	2667.453461
983.874686	2669.598472
984.171587	2665.424397
984.468451	2663.544046
984.765279	2660.269817
985.062070	2657.245124
985.358824	2656.378046
985.655543	2654.638848
985.952224	2656.423416
986.248869	2652.375370
986.545478	2651.576347
986.842050	2649.653147
987.138586	2650.003507
987.435086	2651.016779
987.731549	2648.392858
988.027975	2648.962509
988.324366	2648.453352
988.620719	2647.533342
988.917037	2646.056283
989.213318	2647.689617
989.509563	2646.227683
989.805772	2648.150883
990.101944	2646.598207
990.398080	2648.642395
990.694180	2645.980666
990.990244	2646.305821
991.286271	2646.583084
991.582262	2647.732467
991.878217	2647.762714
992.174136	2645.834473
992.470019	2647.377066
992.765865	2645.179123
993.061676	2645.161479
993.357450	2644.518732
993.653188	2640.634522
993.948890	2647.024185
994.244556	2646.363794
994.540186	2646.598207
994.835780	2646.613331
995.131337	2649.164155
995.426859	2650.026192
995.722345	2649.764052
996.017795	2649.045688
996.313208	2649.627941
996.608586	2651.770431
996.903928	2652.493837
997.199234	2653.786893
997.494504	2650.603404
997.789738	2652.632469
998.084936	2650.459731
998.380099	2652.418220
998.675225	2650.041316
998.970316	2649.582571
999.265371	2649.300266
999.560390	2648.992756
999.855373	2646.147024
1000.150320	2647.072076
1000.445232	2647.349339
1000.740108	2644.397744
1001.034948	2647.130049
1001.329752	2645.932775
1001.624521	2644.748104
1001.919254	2644.493526
1002.213951	2647.256078
1002.508613	2645.766417
1002.803239	2645.779020
1003.097829	2645.627785
1003.392384	2645.637868
1003.686903	2643.419760
1003.981386	2643.124852
1004.275834	2644.823721
1004.570246	2645.446304
1004.864623	2645.461427
1005.158964	2643.707106
1005.453270	2645.390851
1005.747540	2646.502426
1006.041775	2646.479740
1006.335974	2645.216931
1006.630138	2644.629637
1006.924266	2644.755666
1007.218359	2644.801036
1007.512416	2642.172074
1007.806438	2641.993113
1008.100425	2642.494708
1008.394376	2641.327681
1008.688292	2642.887918
1008.982172	2644.503608
1009.276017	2642.250212
1009.569827	2643.691982
1009.863602	2643.608803
1010.157341	2644.453197
1010.451045	2645.721047
1010.744714	2641.693165
1011.038347	2644.372538
1011.331945	2642.953453
1011.625508	2643.724750
1011.919036	2644.231386
1012.212528	2645.589977
1012.505986	2643.576036
1012.799408	2641.970428
1013.092795	2642.746766
1013.386147	2643.414719
1013.679464	2644.188536
1013.972745	2641.315078
1014.265992	2641.977990
1014.559204	2644.299441
1014.852380	2643.628968
1015.145521	2644.576705
1015.438628	2645.413536
1015.731699	2645.920172
1016.024736	2643.669297
1016.317737	2642.656025
1016.610703	2641.902373
1016.903635	2645.398413
1017.196531	2643.329019
1017.489393	2646.605769
1017.782219	2642.562764
1018.075011	2642.104019
1018.367768	2643.460089
1018.660490	2642.673669
1018.953177	2642.673669
1019.245829	2642.673669
