Dividing Wavelength (nm)	Counts (n)	Blue Motor Position (mm): 27.800000	Red Motor Position (mm): 0.000000	
326.493990	2205.741742
326.888308	2205.741742
327.282561	2205.741742
327.676750	2166.856802
328.070874	2163.552325
328.464933	2161.808086
328.858929	2167.401246
329.252859	2172.966680
329.646726	2179.769717
330.040528	2192.365040
330.434265	2206.356763
330.827938	2226.589434
331.221547	2240.243399
331.615091	2260.052613
332.008571	2278.346960
332.401986	2297.465536
332.795338	2315.769966
333.188625	2334.195383
333.581847	2351.070646
333.975006	2369.765765
334.368100	2391.659496
334.761129	2408.791857
335.154095	2425.394897
335.546996	2450.399020
335.939833	2487.075935
336.332606	2502.955570
336.725315	2516.186078
337.117960	2526.961544
337.510540	2539.788760
337.903056	2551.088507
338.295508	2559.504713
338.687896	2571.472412
339.080220	2579.545820
339.472480	2584.818867
339.864676	2590.525453
340.256807	2594.881010
340.648875	2596.446288
341.040879	2602.934253
341.432818	2603.057762
341.824694	2606.339553
342.216506	2606.626899
342.608253	2604.839810
342.999937	2608.671087
343.391557	2608.666045
343.783113	2607.667897
344.174605	2606.795777
344.566033	2605.621188
344.957397	2605.270828
345.348697	2602.909048
345.739934	2603.352669
346.131106	2599.110538
346.522215	2598.409818
346.913260	2597.462081
347.304241	2594.782708
347.695159	2593.109045
348.086012	2590.717017
348.476802	2590.434712
348.867528	2584.816347
349.258191	2586.502612
349.648789	2581.264854
350.039324	2577.526838
350.429796	2581.768969
350.820203	2579.253433
351.210548	2578.875347
351.600828	2579.283680
351.991045	2573.093143
352.381198	2576.649677
352.771288	2575.833010
353.161314	2576.301838
353.551276	2575.603638
353.941175	2574.996179
354.331010	2575.001220
354.720782	2572.949470
355.110490	2574.176991
355.500135	2572.014336
355.889717	2573.289748
356.279235	2574.756724
356.668689	2570.963256
357.058080	2573.425859
357.447408	2574.018195
357.836672	2575.338977
358.225873	2573.100705
358.615010	2572.137845
359.004084	2575.132290
359.393095	2573.292269
359.782043	2574.555078
360.170927	2578.620768
360.559748	2576.034657
360.948505	2577.262177
361.337199	2580.181006
361.725830	2578.618248
362.114398	2578.799729
362.502903	2582.285687
362.891344	2580.284349
363.279722	2579.797878
363.668037	2581.118660
364.056289	2581.602611
364.444478	2583.160327
364.832603	2582.099165
365.220665	2581.375759
365.608665	2583.097313
365.996601	2585.590164
366.384474	2585.350709
366.772284	2584.652509
367.160031	2583.641758
367.547715	2586.691656
367.935336	2584.902046
368.322893	2585.282653
368.710388	2583.223342
369.097820	2585.461614
369.485189	2583.500605
369.872495	2587.979671
370.259738	2588.377922
370.646918	2588.793817
371.034035	2585.988415
371.421090	2591.604260
371.808081	2587.387335
372.195010	2590.233066
372.581875	2589.784404
372.968678	2591.223653
373.355418	2592.597367
373.742096	2592.514188
374.128710	2590.621235
374.515262	2591.942017
374.901751	2593.096442
375.288177	2592.304981
375.674540	2593.872779
376.060841	2591.536205
376.447079	2593.862697
376.833254	2594.255907
377.219367	2591.707604
377.605417	2593.144333
377.991404	2594.331524
378.377329	2595.390167
378.763191	2594.573500
379.148991	2592.630135
379.534727	2592.559559
379.920402	2594.011411
380.306013	2593.265320
380.691563	2596.048037
381.077049	2597.767071
381.462474	2596.597523
381.847835	2596.058120
382.233134	2596.942842
382.618371	2598.984509
383.003545	2597.010898
383.388657	2596.968048
383.773706	2598.664396
384.158693	2598.477873
384.543618	2598.656834
384.928480	2600.252360
385.313280	2599.627257
385.698017	2603.710591
386.082692	2599.624736
386.467305	2603.171188
386.851856	2599.695312
387.236344	2601.313522
387.620770	2598.001484
388.005133	2597.154571
388.389435	2597.940991
388.773674	2595.977461
389.157851	2602.581373
389.541965	2602.838472
389.926018	2600.988368
390.310008	2604.607917
390.693936	2604.655807
391.077802	2603.677824
391.461606	2603.937443
391.845348	2604.118925
392.229027	2605.376692
392.612645	2602.909048
392.996200	2602.460385
393.379694	2607.148658
393.763125	2606.947012
394.146494	2606.173195
394.529801	2604.237392
394.913047	2604.965838
395.296230	2608.003134
395.679351	2607.017588
396.062410	2607.332660
396.445408	2607.304934
396.828343	2605.384254
397.211217	2607.262084
397.594028	2609.349122
397.976778	2611.410954
398.359466	2610.269132
398.742092	2611.186622
399.124656	2607.362907
399.507158	2608.824842
399.889598	2615.209463
400.271977	2608.718977
400.654294	2612.880450
401.036549	2609.699482
401.418742	2608.842486
401.800874	2612.711571
402.182944	2610.672425
402.564952	2610.972373
402.946898	2612.469596
403.328783	2611.973042
403.710606	2613.843310
404.092367	2615.292642
404.474067	2613.382045
404.855705	2614.667539
405.237282	2614.947323
405.618797	2614.135697
406.000250	2618.120729
406.381642	2617.621655
406.762972	2613.704679
407.144240	2612.792230
407.525447	2614.685183
407.906593	2611.390789
408.287677	2616.026130
408.668700	2617.795575
409.049661	2617.893877
409.430560	2618.123250
409.811399	2616.542848
410.192176	2619.446553
410.572891	2619.660802
410.953545	2619.502006
411.334138	2620.376646
411.714669	2622.453601
412.095139	2620.379166
412.475547	2622.393107
412.855894	2621.972171
413.236180	2619.300359
413.616405	2622.173817
413.996568	2621.427726
414.376670	2625.493417
414.756711	2620.540483
415.136691	2623.736575
415.516609	2625.306894
415.896466	2623.645834
416.276262	2624.883437
416.655997	2624.104579
417.035670	2624.192799
417.415283	2628.220681
417.794834	2625.967285
418.174324	2624.643982
418.553753	2628.876031
418.933121	2628.341669
419.312428	2630.201855
419.691674	2630.254787
420.070859	2629.788480
420.449983	2628.553397
420.829045	2630.695888
421.208047	2631.600775
421.586988	2631.668830
421.965867	2634.438944
422.344686	2631.184880
422.723444	2635.744603
423.102141	2633.322329
423.480777	2635.298461
423.859352	2634.844757
424.237866	2637.667803
424.616319	2637.856847
424.994712	2640.200983
425.373044	2639.006230
425.751314	2638.252577
426.129524	2634.025570
426.507673	2634.827113
426.885762	2637.128400
427.263789	2641.504122
427.641756	2637.085550
428.019662	2641.108391
428.397508	2644.180974
428.775292	2645.421098
429.153016	2646.628454
429.530679	2644.884215
429.908282	2644.826242
430.285824	2647.016623
430.663305	2649.310348
431.040726	2648.841521
431.418086	2649.587612
431.795385	2652.236738
432.172624	2653.968374
432.549802	2655.452994
432.926920	2660.179076
433.303977	2661.222595
433.680974	2668.007988
434.057910	2668.980931
434.434786	2674.014523
434.811601	2674.473268
435.188355	2685.699917
435.565050	2687.093796
435.941683	2694.128727
436.318257	2705.095757
436.694770	2719.284084
437.071222	2727.770867
437.447614	2743.138824
437.823946	2750.672829
438.200218	2771.439862
438.576429	2783.301697
438.952580	2808.477219
439.328670	2829.566886
439.704700	2846.880729
440.080670	2876.434494
440.456580	2921.499888
440.832429	2946.637602
441.208218	2965.073102
441.583947	3016.026564
441.959616	3059.640107
442.335224	3093.796445
442.710773	3155.462359
443.086261	3213.748180
443.461689	3217.685321
443.837057	3321.074345
444.212365	3407.275555
444.587612	3440.716049
444.962800	3534.174001
445.337927	3581.591094
445.712995	3607.174949
446.088002	3813.060714
446.462949	3853.057228
446.837837	3932.377263
447.212664	4022.676932
447.587431	4192.664639
447.962139	4418.057148
448.336786	4949.644301
448.711374	5227.749635
449.085901	4895.981218
449.460369	4896.538266
449.834776	4898.690838
450.209124	5223.426846
450.583412	5452.610303
450.957640	5854.012178
451.331808	5760.944916
451.705917	5588.595427
452.079965	5503.291543
452.453954	5927.849958
452.827883	5928.598569
453.201752	6158.399567
453.575562	6116.358865
453.949311	6396.190794
454.323001	6508.129615
454.696632	6734.895839
455.070202	6989.043089
455.443713	7230.985707
455.817164	7592.018022
456.190556	7741.231134
456.563888	8068.487718
456.937160	8302.009088
457.310373	8129.720094
457.683526	8307.229203
458.056619	8234.288748
458.429653	8438.243750
458.802628	8314.639699
459.175542	8634.188359
459.548398	9298.136047
459.921194	9651.581425
460.293930	9814.458586
460.666607	10502.722279
461.039224	11261.133628
461.411782	11875.884696
461.784280	12008.804799
462.156719	12239.966909
462.529099	12205.808050
462.901419	11669.577995
463.273680	11693.720081
463.645882	11734.601318
464.018024	11681.739779
464.390106	11978.273051
464.762130	12684.495855
465.134094	13336.765710
465.505999	14850.687224
465.877845	17399.151811
466.249631	19837.184881
466.621358	19930.872204
466.993026	19071.284897
467.364634	18859.193473
467.736184	17873.050519
468.107674	17331.968353
468.479105	17580.393894
468.850477	17268.268333
469.221790	17035.140174
469.593043	16581.779126
469.964238	16249.768734
470.335373	16065.766618
470.706449	16503.815161
471.077467	16192.924683
471.448425	17885.350934
471.819324	21557.723127
472.190164	23648.392970
472.560945	20625.926332
472.931667	18472.849524
473.302330	17940.186085
473.672934	17494.079258
474.043479	17940.516281
474.413965	17833.210280
474.784393	17546.882824
475.154761	18231.325323
475.525070	18318.401173
475.895321	18008.788628
476.265513	18623.527092
476.635645	19216.308811
477.005719	19073.210618
477.375734	19305.577563
477.745691	19811.021292
478.115588	20327.958852
478.485427	20868.425997
478.855207	21915.763517
479.224928	23630.595177
479.594591	25824.349055
479.964194	25983.296635
480.333739	26231.805355
480.703226	25840.921848
481.072653	25528.387953
481.442022	26067.456178
481.811333	26984.489954
482.180584	26966.515720
482.549777	26041.030450
482.918912	25697.828696
483.287988	25810.213659
483.657005	25556.331069
484.025964	25265.753920
484.394864	25231.015329
484.763706	24955.922084
485.132489	24369.414081
485.501213	24542.194588
485.869879	24479.190247
486.238487	24274.320276
486.607036	24443.219094
486.975527	24111.939669
487.343959	24464.230623
487.712333	24440.511995
488.080648	24106.633855
488.448905	24578.175824
488.817104	24327.093595
489.185244	24965.008764
489.553326	24975.179292
489.921350	25923.687512
490.289315	28163.593153
490.657222	29992.223820
491.025070	30478.869086
491.392861	30285.540836
491.760593	29457.254053
492.128267	28569.990812
492.495883	27555.647643
492.863440	26667.585379
493.230939	25788.781194
493.598380	25644.367259
493.965763	25232.250412
494.333088	24802.106398
494.700354	24714.108017
495.067563	24610.834939
495.434713	24356.697771
495.801805	24502.336705
496.168839	24331.630633
496.535815	24153.609847
496.902733	24367.669842
497.269593	24029.141238
497.636395	24225.595003
498.003139	24212.026738
498.369825	23952.082160
498.736453	24139.597960
499.103023	24025.125959
499.469535	24051.501276
499.835989	24251.849332
500.202385	24278.620380
500.568723	23772.410396
500.935003	24053.769795
501.301226	23632.833449
501.667390	24459.302896
502.033497	24710.291863
502.399546	24431.972280
502.765537	24030.257853
503.131470	24405.750718
503.497345	24548.380084
503.863163	23754.685699
504.228923	24387.731114
504.594625	24560.320057
504.960269	24078.705863
505.325856	24574.828498
505.691385	23988.554908
506.056856	24600.324133
506.422270	24565.618310
506.787625	24159.472709
507.152924	24563.102774
507.518164	24578.874024
507.883347	24387.433686
508.248472	24078.274844
508.613540	24870.882860
508.978550	24637.119515
509.343503	24625.295489
509.708398	24908.729323
510.073236	25059.341356
510.438016	25252.127682
510.802738	24937.471461
511.167403	25198.031060
511.532010	24884.826692
511.896561	25674.987228
512.261053	25644.896581
512.625488	25485.293650
512.989866	25373.342226
513.354186	25237.427677
513.718449	25321.683002
514.082655	25707.671549
514.446803	25437.309427
514.810894	25897.675158
515.174927	25381.748350
515.538904	25416.275213
515.902822	25906.474492
516.266684	25657.416286
516.630488	25572.845889
516.994235	25549.165069
517.357925	25843.777662
517.721558	26032.021908
518.085133	26122.261082
518.448651	26038.230089
518.812112	25764.533244
519.175516	25946.624762
519.538863	26125.051361
519.902152	25882.544135
520.265385	26204.999020
520.628560	25979.601470
520.991678	25993.905744
521.354739	26072.083958
521.717743	26124.085980
522.080690	25917.131491
522.443580	26244.917397
522.806413	26254.611535
523.169189	26346.453797
523.531908	26384.136422
523.894569	26002.768092
524.257174	26068.983648
524.619722	26270.902024
524.982213	25960.291330
525.344647	26029.468563
525.707025	26139.857230
526.069345	26133.752392
526.431608	26088.439981
526.793815	26285.680167
527.155964	25724.234260
527.518057	25905.322588
527.880093	25818.604660
528.242072	26059.029890
528.603995	25762.541988
528.965860	25568.830610
529.327669	25617.182837
529.689421	25602.986948
530.051117	25430.687871
530.412755	25606.377124
530.774337	25416.968371
531.135862	25291.647807
531.497331	25479.813916
531.858743	25033.066862
532.220098	25520.327148
532.581396	25196.569125
532.942638	25148.794110
533.303824	25229.384516
533.664953	25251.452167
534.026025	24902.362345
534.387040	25149.439378
534.747999	25211.584202
535.108902	25385.778752
535.469748	24858.123700
535.830537	25064.846296
536.191270	25164.963611
536.551947	25057.972682
536.912567	24712.462080
537.273131	25028.890266
537.633638	24757.270376
537.994089	24956.932836
538.354483	24516.893037
538.714821	25001.163920
539.075103	25046.620004
539.435328	24840.139383
539.795497	24387.652976
540.155609	24797.282014
540.515665	25081.920684
540.875665	24329.946888
541.235609	24607.180103
541.595496	24578.715227
541.955328	24927.179946
542.315102	24848.626166
542.674821	24406.743826
543.034483	24280.309167
543.394090	24450.657317
543.753640	24233.108843
544.113134	24869.783889
544.472571	24476.957016
544.831953	24770.362252
545.191278	24383.418407
545.550548	24292.123111
545.909761	24510.639486
546.268918	24739.878395
546.628019	24709.505443
546.987064	24404.019082
547.346053	24169.678525
547.704986	24286.789570
548.063863	24451.529436
548.422684	24450.823675
548.781449	23987.760927
549.140158	24397.420212
549.498811	23969.630417
549.857408	23718.127251
550.215949	24143.497292
550.574434	23817.337159
550.932864	24044.357961
551.291237	24185.036400
551.649555	24047.702766
552.007817	24114.583754
552.366022	23992.872657
552.724173	24016.079608
553.082267	23953.879332
553.440305	24433.116622
553.798288	23707.258524
554.156215	24229.489295
554.514086	24309.850328
554.871902	23682.317415
555.229661	23973.262568
555.587365	23839.152752
555.945014	23675.650489
556.302606	23950.108548
556.660143	23884.147571
557.017625	24146.806810
557.375050	23668.590353
557.732421	24059.373037
558.089735	23862.664694
558.446994	23929.248254
558.804197	23957.219096
559.161345	23907.515840
559.518437	23662.440145
559.875474	23854.908879
560.232455	24039.730182
560.589381	23863.456155
560.946251	23830.353418
561.303065	24171.425285
561.659825	24249.371605
562.016528	23853.938457
562.373177	23602.999900
562.729770	23942.009935
563.086307	23808.008504
563.442789	23975.213495
563.799216	23805.752587
564.155587	23821.851512
564.511904	23803.050529
564.868164	23738.828750
565.224370	23718.321336
565.580520	23635.444767
565.936615	23762.565022
566.292654	23435.976391
566.648638	23740.492330
567.004567	23562.690834
567.360441	23523.425287
567.716260	23240.666968
568.072023	23564.495567
568.427732	23320.533968
568.783385	23113.695426
569.138982	23347.332742
569.494525	23392.874526
569.850013	23129.209577
570.205445	23229.878898
570.560823	23030.009751
570.916145	22787.749542
571.271412	22968.187561
571.626625	22727.815263
571.981782	22838.685360
572.336884	22634.344709
572.691931	22778.143623
573.046923	22517.926823
573.401860	22398.010376
573.756743	22388.119632
574.111570	22314.939722
574.466342	22244.025811
574.821059	22325.614366
575.175722	22050.072458
575.530330	22022.230165
575.884882	22040.857229
576.239380	21949.501439
576.593823	21841.459430
576.948211	21824.884116
577.302544	21662.962254
577.656823	21537.828213
578.011047	21621.443311
578.365216	21497.287254
578.719330	21395.203888
579.073389	21283.459152
579.427394	21425.778486
579.781344	21208.426618
580.135239	21095.129206
580.489080	21067.720452
580.842866	20827.007877
581.196597	21010.057214
581.550273	20990.734471
581.903895	20884.955940
582.257463	21206.281607
582.610975	20735.082436
582.964434	21038.696009
583.317837	20751.829149
583.671186	20832.212868
584.024481	20805.764454
584.377721	20574.743497
584.730906	20625.447422
585.084037	20662.227681
585.437113	20563.902496
585.790135	20756.759398
586.143103	20233.046528
586.496016	20249.992366
586.848874	20484.688325
587.201679	20422.727503
587.554428	20092.902451
587.907124	20425.790004
588.259765	20202.797084
588.612352	20275.188053
588.964884	19848.300625
589.317362	20024.524240
589.669786	20073.456200
590.022155	20119.882706
590.374470	20298.271497
590.726731	20104.514748
591.078937	19853.165338
591.431090	19953.529670
591.783188	19707.271825
592.135232	19675.794861
592.487222	19778.883936
592.839157	19800.845723
593.191038	19681.866931
593.542866	19569.305527
593.894639	19287.915881
594.246358	19503.248767
594.598022	19422.587785
594.949633	19170.104116
595.301190	19128.126428
595.652692	19295.487694
596.004141	19537.672287
596.355535	18869.878198
596.706876	18878.546462
597.058162	18771.091748
597.409395	18990.213061
597.760573	19084.593543
598.111698	18849.103603
598.462768	18786.570610
598.813785	18750.672554
599.164748	18570.322754
599.515657	18611.824053
599.866511	18404.458711
600.217312	18758.899717
600.568060	18287.899672
600.918753	18599.546323
601.269392	18502.136107
601.619978	18274.941386
601.970510	18474.543352
602.320988	18432.520293
602.671412	18645.544332
603.021783	18547.468683
603.372100	18283.783570
603.722363	18423.826824
604.072572	18360.416670
604.422728	18499.943206
604.772830	18252.916585
605.122878	18208.166262
605.472872	18196.130507
605.822813	18185.372685
606.172701	18150.835740
606.522534	18358.012040
606.872314	18369.843628
607.222041	18195.011371
607.571714	18421.512934
607.921333	18244.099607
608.270899	18322.199683
608.620411	18508.112395
608.969870	18268.448380
609.319276	18276.680584
609.668627	18313.067633
610.017926	18446.239794
610.367171	18558.728101
610.716362	18606.908928
611.065500	18409.983815
611.414585	18552.845074
611.763616	18537.043577
612.112594	18479.438312
612.461518	18445.476059
612.810389	18640.803126
613.159207	18493.147730
613.507971	18401.040808
613.856682	18685.472791
614.205340	18608.602756
614.553945	18760.815355
614.902496	18499.592845
615.250994	18736.242251
615.599439	18671.982663
615.947830	18668.184153
616.296169	18715.291216
616.644454	18673.719340
616.992686	18643.585843
617.340864	18864.776551
617.688990	18620.081463
618.037063	18793.497156
618.385082	18653.869797
618.733048	18919.566331
619.080961	18784.634807
619.428821	18825.090067
619.776628	18719.142657
620.124382	18637.894381
620.472083	18675.793775
620.819731	18697.233803
621.167326	18396.947391
621.514868	18435.030788
621.862357	18196.627061
622.209793	18211.135502
622.557176	18049.022076
622.904506	17871.538173
623.251783	17782.864277
623.599007	17539.308490
623.946179	17491.936768
624.293297	17438.281247
624.640363	17186.662135
624.987376	17198.571861
625.334336	16994.037126
625.681243	16839.392170
626.028097	16845.121441
626.374899	16784.612472
626.721647	16643.132489
627.068343	16473.031355
627.414987	16405.595840
627.761577	16375.127106
628.108115	16424.873213
628.454600	16151.297355
628.801032	16240.334214
629.147412	16174.131261
629.493739	16197.318048
629.840014	15999.195661
630.186236	16118.451717
630.532405	15862.419075
630.878521	16059.417285
631.224585	15960.749301
631.570597	15784.949143
631.916556	15814.724718
632.262462	15792.087417
632.608316	15715.988679
632.954117	15648.278421
633.299866	15647.595345
633.645562	15561.830195
633.991206	15326.917467
634.336797	15191.993504
634.682336	15159.462939
635.027823	15047.635023
635.373257	14934.042703
635.718639	14827.253421
636.063968	14780.458910
636.409245	14527.362740
636.754470	14560.213419
637.099642	14404.315737
637.444762	14172.926775
637.789829	14226.206730
638.134845	14049.650399
638.479808	14086.556686
638.824719	14032.974262
639.169577	13881.051529
639.514383	13929.081122
639.859137	13750.866252
640.203839	13836.749869
640.548489	13672.816587
640.893086	13663.969362
641.237632	13533.532027
641.582125	13683.816385
641.926566	13516.661806
642.270955	13523.351417
642.615292	13489.021159
642.959576	13495.299916
643.303809	13532.985062
643.647990	13463.888487
643.992118	13526.207230
644.336195	13291.027321
644.680219	13493.593486
645.024192	13421.162187
645.368112	13660.574145
645.711981	13723.104617
646.055797	13894.453437
646.399562	13869.797153
646.743274	14137.530313
647.086935	14405.429832
647.430544	14365.781157
647.774101	14410.733125
648.117606	14562.691146
648.461059	14523.148336
648.804460	14522.684549
649.147810	14245.010234
649.491108	14144.978618
649.834354	14155.255010
650.177548	13858.807438
650.520690	13666.741997
650.863781	13584.971961
651.206820	13636.278304
651.549807	13462.421511
651.892742	13264.715019
652.235626	13201.453579
652.578458	13214.822719
652.921238	12895.553843
653.263967	13084.040065
653.606644	12910.165627
653.949269	12892.065365
654.291843	12698.054038
654.634365	12864.076878
654.976836	12706.092158
655.319255	12714.629352
655.661622	12666.597238
656.003938	12589.991864
656.346203	12516.890093
656.688416	12590.374992
657.030577	12547.041234
657.372687	12465.059469
657.714746	12438.210284
658.056753	12630.946198
658.398708	12451.274434
658.740612	12445.225049
659.082465	12556.321998
659.424266	12514.485462
659.766016	12538.791385
660.107715	12446.873507
660.449362	12521.386802
660.790958	12487.109476
661.132503	12429.857092
661.473996	12484.972027
661.815438	12511.831295
662.156829	12521.780012
662.498168	12498.835200
662.839456	12502.656395
663.180693	12521.386802
663.521879	12608.739916
663.863013	12583.884507
664.204097	12557.720918
664.545129	12686.582893
664.886110	12647.002273
665.227040	12744.649423
665.567918	12748.664702
665.908746	12782.992439
666.249522	12770.162703
666.590248	12813.020072
666.930922	12924.767330
667.271545	12912.792069
667.612118	12990.992968
667.952639	12895.619378
668.293109	12911.458683
668.633528	12857.692257
668.973896	12835.924555
669.314213	12918.793562
669.654480	12656.681289
669.994695	12729.704923
670.334859	12744.767890
670.674973	12696.806353
671.015035	12733.735325
671.355047	12674.781552
671.695008	12652.224909
672.034918	12652.406390
672.374777	12693.058255
672.714585	12607.761932
673.054342	12636.473823
673.394049	12593.674427
673.733705	12680.120133
674.073310	12593.114859
674.412864	12626.172226
674.752368	12475.086324
675.091820	12492.695075
675.431223	12485.062768
675.770574	12354.751461
676.109875	12276.492589
676.449125	12229.085578
676.788324	12180.556911
677.127473	12011.133812
677.466571	11995.367604
677.805619	11897.843962
678.144616	11822.355204
678.483562	11793.449228
678.822458	11665.290494
679.161303	11636.306380
679.500098	11621.966818
679.838842	11588.919534
680.177535	11608.335538
680.516179	11673.973881
680.854771	11612.260076
681.193314	11828.908704
681.531805	11980.549132
681.870247	12394.228737
682.208638	12806.002786
682.546978	13128.646715
682.885268	13179.196885
683.223508	12866.272301
683.561697	12707.632231
683.899836	12605.805964
684.237925	12409.090059
684.575963	12324.348263
684.913951	12253.910740
685.251889	12196.098788
685.589776	12294.297944
685.927614	12218.118548
686.265401	12188.073271
686.603137	12231.548182
686.940824	12382.422355
687.278460	12506.217970
687.616046	12553.796380
687.953582	12721.313922
688.291068	12646.853559
688.628504	12873.692879
688.965889	12889.683419
689.303224	12856.883152
689.640510	12742.532139
689.977745	12441.734050
690.314930	12215.562683
690.652065	12127.632357
690.989150	11840.180724
691.326185	11609.505085
691.663170	11399.843497
692.000105	11161.835500
692.336990	11053.922041
692.673825	10801.582044
693.010610	10680.102839
693.347345	10473.733124
693.684030	10273.019583
694.020665	10215.845337
694.357251	10019.905769
694.693786	9964.115320
695.030272	9790.664339
695.366707	9678.657463
695.703093	9611.950394
696.039429	9605.585938
696.375716	9534.863590
696.711952	9402.064475
697.048139	9437.216440
697.384276	9398.361747
697.720363	9416.124253
698.056400	9346.939457
698.392388	9293.067167
698.728326	9259.505685
699.064214	9199.100059
699.400053	9242.494311
699.735842	9063.170387
700.071581	9014.024178
700.407270	8940.138507
700.742910	8855.842852
701.078501	8772.492415
701.414042	8643.222107
701.749533	8573.518072
702.084974	8439.756096
702.420366	8556.158859
702.755709	8430.263604
703.091002	8303.022360
703.426246	8334.113676
703.761440	8280.720295
704.096584	8238.845951
704.431679	8178.808329
704.766725	8155.682036
705.101721	8106.805529
705.436668	8155.780338
705.771565	8045.071559
706.106413	8129.183211
706.441212	8172.423708
706.775961	8128.522820
707.110661	8161.323087
707.445311	8309.253226
707.779913	8202.100981
708.114465	8338.406219
708.448967	8376.512301
708.783421	8514.571861
709.117825	8694.931742
709.452180	8732.790808
709.786485	8819.985125
710.120742	9101.495759
710.454949	9099.451571
710.789107	9205.169608
711.123216	9419.151466
711.457275	9580.614582
711.791286	9743.801773
712.125247	9732.136543
712.459159	9722.059277
712.793023	9980.602413
713.126837	9545.452534
713.460602	9698.373415
713.794318	9522.797589
714.127985	9559.303104
714.461602	9238.617664
714.795171	9183.361577
715.128691	8934.288247
715.462162	8689.051236
715.795584	8632.965879
716.128957	8486.449784
716.462281	8307.493863
716.795556	8364.630301
717.128782	8159.535998
717.461960	7889.657827
717.795088	7960.191131
718.128167	7868.444652
718.461198	7705.481792
718.794180	7647.506002
719.127113	7642.656412
719.459997	7489.954821
719.792833	7253.988492
720.125619	7315.109961
720.458357	7178.124167
720.791046	7161.909296
721.123686	7167.515059
721.456278	7009.994125
721.788821	7021.906371
722.121315	6916.397542
722.453761	6981.980433
722.786158	6925.900117
723.118506	6940.995852
723.450805	6906.479072
723.783056	6975.542879
724.115259	6882.964610
724.447412	6880.040740
724.779518	6924.518841
725.111574	6923.180414
725.443582	7005.847776
725.775542	6984.621998
726.107453	7180.697676
726.439315	7083.753767
726.771129	7147.456308
727.102895	7316.085425
727.434612	7429.201355
727.766281	7453.991229
728.097901	7540.323509
728.429473	7538.359980
728.760996	7513.393666
729.092471	7485.211095
729.423897	7433.632529
729.755276	7442.598222
730.086606	7368.662139
730.417887	7472.051163
730.749120	7660.799525
731.080305	7856.252621
731.411442	7977.603276
731.742530	7973.973646
732.073570	8078.018020
732.404562	8169.015888
732.735506	8015.157352
733.066401	8153.710945
733.397249	8090.497396
733.728048	7850.614090
734.058798	7513.970878
734.389501	7291.129192
734.720156	7114.371215
735.050762	6881.207768
735.381320	6782.769156
735.711831	6732.428194
736.042293	6625.172605
736.372707	6647.031048
736.703073	6507.133987
737.033391	6542.270830
737.363661	6556.653242
737.693883	6586.922850
738.024056	6668.574419
738.354182	6711.918260
738.684260	6747.463435
739.014290	6865.388627
739.344272	6970.721016
739.674207	6998.341498
740.004093	7067.095274
740.333931	7084.615805
740.663722	7092.628719
740.993464	7167.608320
741.323159	7161.183370
741.652806	6906.257261
741.982405	6919.404590
742.311956	6979.979095
742.641460	6816.255021
742.970915	6620.930474
743.300323	6612.859587
743.629683	6560.310599
743.958996	6429.704385
744.288260	6341.317835
744.617477	6283.470594
744.946647	6293.162212
745.275768	6123.421521
745.604842	6081.010294
745.933869	6063.550258
746.262847	6024.982910
746.591778	6008.289129
746.920662	5967.939734
747.249498	5957.711233
747.578286	6007.729561
747.907027	6085.985913
748.235720	6142.139326
748.564365	6109.901147
748.892963	6142.630838
749.221514	6298.157996
749.550017	6126.393282
749.878473	6006.023131
750.206881	6056.994237
750.535242	6005.760991
750.863555	5933.977480
751.191821	5949.116065
751.520039	5950.502383
751.848210	5860.643815
752.176334	5877.403131
752.504411	5929.942037
752.832440	5855.171643
753.160421	5784.524913
753.488356	5830.265822
753.816243	5865.642119
754.144082	5716.234922
754.471875	5685.299882
754.799620	5728.923507
755.127318	5742.829529
755.454969	5692.690213
755.782572	5659.645450
756.110129	5703.337130
756.437638	5689.012692
756.765100	5628.939782
757.092515	5628.067662
757.419882	5677.009704
757.747203	5662.271891
758.074477	5723.910079
758.401703	5713.500096
758.728882	5659.700902
759.056014	5714.969593
759.383099	5847.564542
759.710138	5856.366396
760.037129	5842.170507
760.364073	5845.469942
760.690970	5928.449855
761.017820	5910.833543
761.344623	5865.813519
761.671379	5960.965298
761.998088	6082.991467
762.324751	6324.351831
762.651366	6924.972545
762.977935	8232.080723
763.304456	9856.166572
763.630931	10771.375450
763.957359	10377.174863
764.283740	9435.900699
764.610074	8607.921427
764.936362	7609.556196
765.262602	7013.122161
765.588796	6472.879347
765.914943	6140.488348
766.241044	5971.017358
766.567097	5773.966216
766.893104	5513.998953
767.219064	5333.311397
767.544978	5271.244711
767.870845	5194.077248
768.196665	5090.509263
768.522438	5015.920351
768.848165	4979.747551
769.173846	4915.717336
769.499479	4872.769225
769.825066	4819.920289
770.150607	4756.540382
770.476101	4732.708327
770.801548	4728.090631
771.126949	4659.662008
771.452303	4603.748050
771.777611	4559.045619
772.102872	4575.452054
772.428087	4546.636818
772.753256	4501.042102
773.078378	4458.124239
773.403453	4386.985997
773.728482	4372.270869
774.053465	4329.721010
774.378401	4317.309689
774.703291	4313.339780
775.028135	4243.981065
775.352932	4195.011297
775.677683	4181.959749
776.002388	4199.533212
776.327046	4214.545768
776.651658	4137.816886
776.976224	4075.840940
777.300743	4082.712033
777.625216	4102.085187
777.949643	4099.219291
778.274024	4052.853279
778.598359	4007.094725
778.922647	4031.496430
779.246889	4024.501829
779.571086	4017.819780
779.895236	4006.658665
780.219339	3988.636540
780.543397	3980.739573
780.867409	4037.576062
781.191374	4047.572670
781.515294	3988.260974
781.839167	3979.133965
782.162995	4000.190865
782.486776	3986.635202
782.810511	3998.156759
783.134201	3991.399093
783.457844	3948.786219
783.781441	3893.104154
784.104993	3897.565576
784.428498	3914.907145
784.751958	3914.839089
785.075372	3894.924011
785.398739	3857.238865
785.722061	3868.606667
786.045337	3912.923451
786.368568	3943.699695
786.691752	3853.924307
787.014891	3908.310795
787.337983	4033.974157
787.661030	4192.836039
787.984031	4348.665666
788.306987	4523.376935
788.629897	4604.111013
788.952760	4560.752049
789.275579	4492.232686
789.598351	4429.114919
789.921078	4291.365391
790.243759	4087.891818
790.566395	4066.547573
790.888984	4064.369795
791.211529	3959.299546
791.534027	3897.419382
791.856480	3891.496026
792.178888	3827.511181
792.501249	3779.305147
792.823566	3786.818987
793.145836	3817.748987
793.468062	3765.923405
793.790241	3720.863051
794.112375	3748.486053
794.434464	3810.005774
794.756507	3835.027542
795.078505	3816.637412
795.400457	3849.266281
795.722364	3987.948423
796.044226	4094.712500
796.366042	4165.182789
796.687812	4146.175119
797.009538	4153.590656
797.331218	4110.506435
797.652852	4083.644646
797.974442	4063.096903
798.295986	4060.581367
798.617484	3987.020851
798.938938	3896.053229
799.260346	3938.434210
799.581709	3934.802058
799.903026	3857.982436
800.224299	3823.420285
800.545526	3817.436435
800.866708	3778.498563
801.187845	3717.223338
801.508936	3753.222218
801.829983	3750.459665
802.150984	3673.186338
802.471940	3659.580264
802.792851	3673.617357
803.113717	3670.393539
803.434538	3676.853778
803.755314	3617.703399
804.076045	3590.907146
804.396731	3610.741566
804.717372	3636.254845
805.037967	3622.038792
805.358518	3609.841720
805.679024	3638.311636
805.999485	3649.321516
806.319901	3656.837877
806.640272	3669.392870
806.960598	3683.445087
807.280879	3657.226045
807.601115	3671.157274
807.921306	3684.412988
808.241453	3727.378742
808.561554	3705.721945
808.881611	3638.387253
809.201623	3674.796987
809.521590	3685.464069
809.841513	3656.207732
810.161390	3688.894574
810.481223	3665.869104
810.801011	3611.006226
811.120755	3602.582458
811.440453	3638.525885
811.760107	3642.445382
812.079716	3600.142540
812.399281	3566.427303
812.718801	3588.368925
813.038276	3561.373546
813.357707	3561.739030
813.677093	3578.228644
813.996434	3527.522198
814.315731	3532.976727
814.634983	3538.335473
814.954191	3552.087741
815.273354	3584.094027
815.592473	3578.863829
815.911547	3580.923141
816.230577	3625.262609
816.549562	3676.077440
816.868502	3716.207545
817.187399	3741.400712
817.506250	3739.709405
817.825058	3710.679920
818.143821	3803.679126
818.462539	3905.407090
818.781213	3949.176909
819.099843	4008.665045
819.418429	4251.048763
819.736970	4493.235876
820.055466	4736.554728
820.373919	5099.132157
820.692327	5512.221947
821.010691	5948.400222
821.329011	7315.286402
821.647286	10042.575838
821.965517	14572.619699
822.283704	18615.090721
822.601847	20785.471289
822.919945	18993.333535
823.237999	16423.572595
823.556010	13946.175675
823.873976	11848.380160
824.191897	9758.882385
824.509775	8409.030264
824.827609	7283.980836
825.145398	6733.423822
825.463144	6612.405883
825.780845	6727.137503
826.098502	6917.347799
826.416116	7788.764174
826.733685	9103.973486
827.051210	10222.045956
827.368692	10274.768864
827.686129	9026.632104
828.003522	7505.171544
828.320872	6493.956411
828.638177	5791.968177
828.955439	5233.998145
829.272656	4733.151949
829.589830	4454.187098
829.906960	4276.950211
830.224046	4097.875824
830.541088	3965.152325
830.858086	3918.130963
831.175041	3843.080785
831.491952	3822.457424
831.808819	3836.229857
832.125642	3906.929519
832.442421	4053.634657
832.759157	4328.059949
833.075849	4872.534812
833.392497	5734.493982
833.709101	6511.106417
834.025662	6853.206678
834.342179	6495.405743
834.658653	5832.327654
834.975083	5185.471998
835.291469	4609.053865
835.607811	4202.968758
835.924110	4059.210174
836.240366	3866.600288
836.556578	3657.906601
836.872746	3546.844941
837.188871	3509.631143
837.504952	3444.905248
837.820990	3360.236549
838.136984	3316.660815
838.452935	3337.914320
838.768842	3331.060871
839.084706	3355.686908
839.400526	3512.192049
839.716303	3851.905325
840.032037	4374.120972
840.347727	4638.453874
840.663373	4362.357440
840.978977	3980.185046
841.294537	3675.651463
841.610054	3445.318623
841.925527	3341.155782
842.240957	3273.364865
842.556344	3218.935527
842.871687	3156.732730
843.186987	3107.047118
843.502244	3073.891449
843.817458	3037.020449
844.132629	3005.969462
844.447756	3012.858199
844.762840	2999.970489
845.077881	2967.409677
845.392879	2951.678756
845.707833	2950.090793
846.022745	2944.762293
846.337613	2947.376131
846.652438	2935.446241
846.967221	2932.464398
847.281960	2917.414033
847.596656	2913.681059
847.911309	2915.717685
848.225919	2906.454565
848.540485	2900.173287
848.855009	2903.833165
849.169490	2893.740775
849.483928	2885.521173
849.798323	2881.934393
850.112675	2879.431460
850.426984	2890.940414
850.741251	2888.011503
851.055474	2877.150338
851.369654	2872.696478
851.683792	2877.190667
851.997887	2887.351112
852.311938	2889.533932
852.625947	2875.910214
852.939914	2878.723178
853.253837	2885.004455
853.567718	2871.542054
853.881555	2865.964017
854.195350	2883.779455
854.509103	2879.186964
854.822812	2873.346787
855.136479	2868.507279
855.450103	2869.976776
855.763685	2861.553008
856.077224	2860.416227
856.390720	2871.897455
856.704173	2882.556975
857.017584	2874.332333
857.330953	2871.632795
857.644278	2880.951368
857.957561	2887.943448
858.270802	2894.474263
858.584000	2892.515774
858.897155	2880.260729
859.210268	2878.498846
859.523339	2875.852240
859.836367	2876.787374
860.149352	2870.586755
860.462295	2866.992413
860.775195	2873.069523
861.088054	2874.657487
861.400869	2858.054447
861.713642	2856.264837
862.026373	2870.475850
862.339062	2872.293186
862.651708	2881.016903
862.964312	2879.859958
863.276873	2872.802342
863.589392	2884.001266
863.901869	2895.686660
864.214303	2916.925041
864.526696	2934.080088
864.839045	2930.699994
865.151353	2929.842998
865.463619	2926.112544
865.775842	2927.277051
866.088023	2947.320678
866.400162	2953.659929
866.712258	2923.385280
867.024313	2910.921027
867.336325	2924.910229
867.648296	2943.507046
867.960224	2938.435645
868.272110	2924.731268
868.583954	2930.566404
868.895755	2942.549226
869.207515	2929.285951
869.519233	2935.463885
869.830909	2944.459824
870.142542	2955.336113
870.454134	2954.131277
870.765684	2956.598922
871.077191	2954.970629
871.388657	2961.703090
871.700081	2977.504587
872.011463	2988.640496
872.322803	2990.999756
872.634101	2989.152173
872.945357	3005.581293
873.256571	3028.364788
873.567744	3024.162987
873.878874	3016.160155
874.189963	3036.050027
874.501010	3039.883825
874.812015	3033.766385
875.122979	3031.989378
875.433900	3025.635003
875.744780	3034.663710
876.055618	3039.813249
876.366415	3037.428783
876.677169	3048.027809
876.987882	3046.623847
877.298554	3036.715460
877.609183	3059.209088
877.919771	3085.183633
878.230317	3109.378651
878.540822	3163.233298
878.851285	3199.882486
879.161707	3240.526789
879.472087	3344.490505
879.782425	3570.782860
880.092722	4001.183972
880.402977	4532.874468
880.713191	5159.023585
881.023363	6310.418082
881.333494	7583.803461
881.643583	8141.002196
881.953631	7846.150149
882.263637	7219.917853
882.573602	6637.934286
882.883526	6060.475154
883.193408	5487.868132
883.503248	5028.046846
883.813048	4725.446545
884.122806	4422.521090
884.432522	4108.429479
884.742197	3871.364178
885.051831	3678.403933
885.361424	3543.311092
885.670975	3466.436016
885.980485	3385.041546
886.289954	3308.516831
886.599382	3262.859101
886.908768	3228.105386
887.218113	3180.985721
887.527417	3126.417751
887.836680	3075.252560
888.145901	3069.001529
888.455082	3058.710014
888.764221	3006.902076
889.073319	2980.395689
889.382376	2977.237406
889.691392	2981.356029
890.000366	2981.101450
890.309300	2967.954121
890.618193	2980.214207
890.927044	2999.526868
891.235855	2998.821106
891.544625	2982.104640
891.853353	2992.360868
892.162041	3012.664115
892.470687	3051.417985
892.779293	3104.581993
893.087858	3148.687048
893.396381	3221.398131
893.704864	3340.792818
894.013306	3577.873243
894.321707	3882.008575
894.630068	4086.203032
894.938387	4082.976693
895.246665	4039.809293
895.554903	3918.567022
895.863100	3718.639902
896.171256	3552.992628
896.479371	3416.568923
896.787446	3292.458235
897.095480	3190.306814
897.403473	3123.279633
897.711425	3088.629262
898.019336	3078.415884
898.327207	3050.951678
898.635038	3011.749145
898.942827	2998.458143
899.250576	2988.186792
899.558284	2958.769139
899.865952	2935.153854
900.173579	2915.548806
900.481165	2909.817014
900.788711	2894.370919
901.096216	2870.858978
901.403681	2858.419930
901.711105	2867.614995
902.018489	2865.515354
902.325832	2862.858666
902.633135	2875.562374
902.940397	2906.883063
903.247619	2992.257524
903.554800	3179.226358
903.861941	3523.585057
904.169041	3950.313689
904.476101	4249.077672
904.783121	4210.439748
905.090100	3963.191316
905.397039	3687.682176
905.703938	3438.787808
906.010796	3256.698811
906.317614	3144.230668
906.624391	3048.726009
906.931129	2980.173878
907.237826	2919.012079
907.544483	2872.026005
907.851099	2840.730522
908.157675	2819.177068
908.464211	2799.793832
908.770707	2783.457973
909.077163	2772.869029
909.383578	2755.547624
909.689954	2746.239134
909.996289	2746.861716
910.302584	2746.798702
910.608839	2747.496902
910.915054	2741.172774
911.221229	2730.997205
911.527363	2734.147926
911.833458	2742.541447
912.139513	2747.839700
912.445527	2750.133425
912.751502	2757.682553
913.057436	2767.149840
913.363331	2781.333126
913.669186	2801.573359
913.975000	2838.018381
914.280775	2895.485014
914.586510	2967.162660
914.892205	3046.122253
915.197859	3171.634381
915.503475	3366.926160
915.809050	3580.303079
916.114585	3723.865058
916.420081	3743.883480
916.725536	3684.987680
917.030952	3568.574834
917.336328	3442.268725
917.641665	3309.000782
917.946961	3211.404043
918.252218	3138.924854
918.557435	3063.526836
918.862612	3004.694050
919.167750	2952.785289
919.472848	2916.471338
919.777906	2889.581823
920.082925	2859.387832
920.387904	2833.952690
920.692843	2814.577015
920.997743	2801.681744
921.302603	2789.494754
921.607423	2781.355812
921.912204	2768.425252
922.216946	2756.815475
922.521647	2747.045718
922.826310	2738.367372
923.130932	2730.646845
923.435516	2722.833057
923.740059	2716.947509
924.044564	2707.747404
924.349028	2703.966538
924.653454	2697.980168
924.957840	2688.646472
925.262186	2682.639937
925.566493	2682.970132
925.870761	2677.538289
926.174989	2675.305058
926.479178	2670.372289
926.783328	2664.219561
927.087438	2662.858449
927.391509	2664.746361
927.695541	2658.023983
927.999533	2654.238076
928.303486	2654.495175
928.607400	2651.576347
928.911275	2652.052736
929.215110	2652.065339
929.518906	2650.676501
929.822663	2650.603404
930.126381	2649.706079
930.430060	2649.897643
930.733699	2651.115081
931.037299	2652.536687
931.340861	2653.005514
931.644383	2652.211532
931.947866	2652.430822
932.251309	2650.731954
932.554714	2651.604073
932.858080	2648.430667
933.161407	2646.399082
933.464694	2645.390851
933.767943	2641.650315
934.071153	2644.271715
934.374323	2642.814822
934.677455	2642.129225
934.980548	2645.025367
935.283602	2642.799698
935.586617	2640.876498
935.889593	2643.061838
936.192530	2643.210552
936.495428	2641.390696
936.798287	2642.981180
937.101108	2647.198105
937.403890	2652.582057
937.706632	2655.037099
938.009336	2659.957265
938.312002	2671.491425
938.614628	2679.711027
938.917216	2685.684794
939.219765	2686.645134
939.522275	2684.739578
939.824747	2682.702951
940.127179	2679.380831
940.429573	2678.223886
940.731929	2674.493432
941.034246	2671.483863
941.336524	2668.872546
941.638763	2666.344407
941.940964	2664.118738
942.243126	2661.368788
942.545250	2661.681340
942.847335	2657.718993
943.149381	2656.884682
943.451389	2652.115750
943.753359	2647.462765
944.055290	2644.896818
944.357182	2646.804895
944.659036	2644.720378
944.960851	2644.811118
945.262628	2642.590490
945.564367	2644.410347
945.866067	2644.070069
946.167729	2642.671149
946.469352	2645.726088
946.770937	2644.327168
947.072484	2642.983700
947.373992	2642.282980
947.675462	2641.350366
947.976893	2634.396095
948.278286	2632.825775
948.579641	2634.819552
948.880958	2631.207565
949.182236	2634.350724
949.483476	2633.763430
949.784678	2632.518265
950.085841	2633.899541
950.386967	2636.460447
950.688054	2636.583955
950.989103	2636.611682
951.290114	2636.624285
951.591087	2636.301651
951.892021	2639.452372
952.192917	2645.045532
952.493776	2646.968732
952.794596	2647.205667
953.095378	2645.552168
953.396122	2644.997641
953.696828	2643.974287
953.997496	2642.955974
954.298126	2639.530510
954.598718	2638.935654
954.899272	2637.869450
955.199788	2632.815693
955.500266	2632.361989
955.800706	2631.444499
956.101108	2629.216309
956.401472	2623.224898
956.701798	2624.643982
957.002087	2618.909670
957.302337	2620.837911
957.602550	2618.672736
957.902724	2614.138218
958.202861	2612.320882
958.502960	2613.946654
958.803022	2613.876078
959.103045	2614.982611
959.403031	2610.208638
959.702979	2612.187291
960.002889	2609.402054
960.302762	2608.968515
960.602596	2612.956067
960.902393	2607.221755
961.202153	2610.765686
961.501875	2609.276025
961.801559	2609.039091
962.101205	2611.327775
962.400814	2610.296859
962.700385	2608.328288
962.999918	2606.521034
963.299414	2603.342587
963.598873	2605.684203
963.898293	2602.467947
964.197677	2607.680500
964.497022	2605.870726
964.796331	2609.631426
965.095601	2607.025150
965.394835	2608.635798
965.694030	2606.584049
965.993189	2605.568256
966.292309	2604.975921
966.591393	2606.715119
966.890439	2607.652773
967.189447	2607.151179
967.488419	2603.340066
967.787353	2608.240068
968.086249	2604.870057
968.385108	2610.921962
968.683930	2605.452310
968.982714	2605.341404
969.281462	2605.535489
969.580172	2604.716301
969.878844	2606.455499
970.177480	2607.272166
970.476078	2606.190839
970.774639	2607.735953
971.073162	2604.658328
971.371649	2608.449276
971.670098	2607.672938
971.968510	2607.030191
972.266885	2609.127311
972.565223	2609.265943
972.863524	2608.469440
973.161788	2607.955243
973.460014	2604.207145
973.758204	2603.642536
974.056356	2606.763010
974.354471	2606.768051
974.652550	2604.277721
974.950591	2604.340735
975.248595	2605.732094
975.546563	2605.139758
975.844493	2604.030704
976.142386	2602.480550
976.440243	2602.667072
976.738062	2604.791919
977.035845	2605.361569
977.333590	2606.962135
977.631299	2605.094388
977.928971	2600.338059
978.226606	2600.224633
978.524204	2601.192535
978.821765	2599.045003
979.119290	2604.986003
979.416777	2604.897783
979.714228	2604.192021
980.011642	2602.790581
980.309020	2603.753441
980.606360	2604.383585
980.903664	2604.260077
981.200931	2602.334356
981.498162	2607.125973
981.795356	2605.326281
982.092513	2608.005654
982.389633	2610.937085
982.686717	2612.290635
982.983764	2616.542848
983.280775	2620.280864
983.577749	2622.012500
983.874686	2620.860597
984.171587	2619.025617
984.468451	2615.953033
984.765279	2611.814246
985.062070	2613.571088
985.358824	2610.039760
985.655543	2610.407764
985.952224	2607.047835
986.248869	2605.913575
986.545478	2606.324429
986.842050	2602.354521
987.138586	2603.574480
987.435086	2601.227823
987.731549	2602.346959
988.027975	2604.088678
988.324366	2600.794284
988.620719	2601.048862
988.917037	2599.355034
989.213318	2601.983996
989.509563	2600.774119
989.805772	2602.805704
990.101944	2601.752103
990.398080	2601.051382
990.694180	2601.084150
990.990244	2601.477360
991.286271	2598.288830
991.582262	2597.837647
991.878217	2599.758327
992.174136	2603.272011
992.470019	2601.613471
992.765865	2597.356217
993.061676	2596.708428
993.357450	2598.810590
993.653188	2595.937132
993.948890	2601.321084
994.244556	2598.913933
994.540186	2601.220261
994.835780	2601.361413
995.131337	2599.281937
995.426859	2601.139603
995.722345	2603.453492
996.017795	2604.983482
996.313208	2605.200252
996.608586	2604.068513
996.903928	2605.117073
997.199234	2605.865684
997.494504	2603.400560
997.789738	2605.303596
998.084936	2605.853082
998.380099	2606.392485
998.675225	2601.520210
998.970316	2601.295878
999.265371	2601.626074
999.560390	2601.305961
999.855373	2600.464088
1000.150320	2602.205807
1000.445232	2600.131372
1000.740108	2601.832761
1001.034948	2600.075919
1001.329752	2597.696495
1001.624521	2600.741352
1001.919254	2601.568101
1002.213951	2599.677668
1002.508613	2597.353696
1002.803239	2597.966196
1003.097829	2598.074581
1003.392384	2597.396546
1003.686903	2597.570466
1003.981386	2598.606423
1004.275834	2599.032400
1004.570246	2598.097266
1004.864623	2600.506938
1005.158964	2598.298913
1005.453270	2598.966865
1005.747540	2597.583069
1006.041775	2600.053234
1006.335974	2599.269335
1006.630138	2597.605754
1006.924266	2600.358224
1007.218359	2596.509303
1007.512416	2596.640373
1007.806438	2593.058633
1008.100425	2596.756319
1008.394376	2593.850094
1008.688292	2595.785897
1008.982172	2598.462750
1009.276017	2599.428131
1009.569827	2597.409149
1009.863602	2599.397884
1010.157341	2596.519385
1010.451045	2596.801690
1010.744714	2597.028542
1011.038347	2597.961155
1011.331945	2597.434355
1011.625508	2597.497369
1011.919036	2595.430496
1012.212528	2596.632811
1012.505986	2598.533326
1012.799408	2594.349168
1013.092795	2596.005187
1013.386147	2598.419900
1013.679464	2595.163315
1013.972745	2598.374530
1014.265992	2598.326639
1014.559204	2597.036103
1014.852380	2595.929570
1015.145521	2596.970568
1015.438628	2597.406628
1015.731699	2599.816300
1016.024736	2596.511823
1016.317737	2595.274220
1016.610703	2596.330342
1016.903635	2595.959817
1017.196531	2597.636001
1017.489393	2595.982502
1017.782219	2594.855804
1018.075011	2596.547112
1018.367768	2596.945363
1018.660490	2593.376226
1018.953177	2593.376226
1019.245829	2593.376226
