Dividing Wavelength (nm)	Counts (n)	Blue Motor Position (mm): 5.900000	Red Motor Position (mm): 0.000000	
326.493990	2159.635349
326.888308	2159.635349
327.282561	2159.635349
327.676750	2116.921652
328.070874	2115.903339
328.464933	2113.990221
328.858929	2118.358381
329.252859	2124.198558
329.646726	2132.889507
330.040528	2143.813688
330.434265	2157.679381
330.827938	2177.712927
331.221547	2192.924608
331.615091	2207.546475
332.008571	2227.637994
332.401986	2248.089955
332.795338	2267.145516
333.188625	2284.986160
333.581847	2302.748665
333.975006	2320.291881
334.368100	2338.273677
334.761129	2357.049454
335.154095	2373.324819
335.546996	2391.288971
335.939833	2407.718091
336.332606	2425.273910
336.725315	2436.361927
337.117960	2449.589915
337.510540	2460.844291
337.903056	2471.473564
338.295508	2479.375573
338.687896	2489.682212
339.080220	2495.509786
339.472480	2505.939933
339.864676	2507.132166
340.256807	2513.141221
340.648875	2516.430574
341.040879	2521.726306
341.432818	2520.690349
341.824694	2524.594723
342.216506	2527.304343
342.608253	2529.376257
342.999937	2530.076978
343.391557	2526.482635
343.783113	2528.199148
344.174605	2527.626977
344.566033	2526.928777
344.957397	2521.872500
345.348697	2523.773015
345.739934	2519.130112
346.131106	2518.883095
346.522215	2518.419309
346.913260	2515.654236
347.304241	2514.857734
347.695159	2513.221880
348.086012	2512.720285
348.476802	2506.686024
348.867528	2506.857423
349.258191	2500.003974
349.648789	2501.521362
350.039324	2497.808552
350.429796	2497.319560
350.820203	2500.208141
351.210548	2499.429283
351.600828	2494.662872
351.991045	2497.054899
352.381198	2494.456184
352.771288	2494.257059
353.161314	2496.311329
353.551276	2493.082470
353.941175	2495.197234
354.331010	2489.856132
354.720782	2492.517861
355.110490	2491.640700
355.500135	2492.953921
355.889717	2494.728407
356.279235	2490.975268
356.668689	2491.393683
357.058080	2493.158087
357.447408	2492.722028
357.836672	2493.281596
358.225873	2493.508448
358.615010	2492.210350
359.004084	2491.189517
359.393095	2494.778818
359.782043	2495.817296
360.170927	2495.663541
360.559748	2493.780670
360.948505	2494.768736
361.337199	2498.700836
361.725830	2497.385095
362.114398	2499.784684
362.502903	2499.663696
362.891344	2500.344252
363.279722	2500.135044
363.668037	2500.379540
364.056289	2501.614623
364.444478	2500.465240
364.832603	2501.617143
365.220665	2501.932216
365.608665	2501.649911
365.996601	2504.669562
366.384474	2501.191166
366.772284	2505.440859
367.160031	2503.137051
367.547715	2505.256857
367.935336	2503.673934
368.322893	2503.353821
368.710388	2502.305261
369.097820	2503.840292
369.485189	2502.403563
369.872495	2506.116373
370.259738	2504.011692
370.646918	2508.437825
371.034035	2508.619306
371.421090	2509.511590
371.808081	2505.390447
372.195010	2504.082268
372.581875	2506.875067
372.968678	2508.435304
373.355418	2509.085613
373.742096	2510.272805
374.128710	2507.666528
374.515262	2508.369769
374.901751	2508.241220
375.288177	2511.447393
375.674540	2510.015706
376.060841	2506.832217
376.447079	2510.537465
376.833254	2509.118380
377.219367	2506.832217
377.605417	2509.572084
377.991404	2510.295490
378.377329	2514.058711
378.763191	2510.454286
379.148991	2510.156858
379.534727	2514.454442
379.920402	2510.504698
380.306013	2512.327075
380.691563	2511.442352
381.077049	2513.181550
381.462474	2509.108298
381.847835	2512.669873
382.233134	2513.201715
382.618371	2513.995697
383.003545	2513.116015
383.388657	2514.194822
383.773706	2514.567868
384.158693	2514.278001
384.543618	2514.141890
384.928480	2515.860924
385.313280	2516.619617
385.698017	2514.789678
386.082692	2516.249093
386.467305	2514.383866
386.851856	2517.146418
387.236344	2516.599453
387.620770	2513.410923
388.005133	2512.095182
388.389435	2514.603156
388.773674	2514.827487
389.157851	2515.744977
389.541965	2515.258506
389.926018	2518.457118
390.310008	2516.007117
390.693936	2517.602642
391.077802	2520.413086
391.461606	2519.929135
391.845348	2518.091634
392.229027	2521.431399
392.612645	2517.721109
392.996200	2521.814526
393.379694	2518.905781
393.763125	2516.894360
394.146494	2517.564834
394.529801	2522.316121
394.913047	2518.633558
395.296230	2520.917201
395.679351	2517.680780
396.062410	2519.659433
396.445408	2520.647499
396.828343	2521.227232
397.211217	2519.946779
397.594028	2520.309742
397.976778	2523.611698
398.359466	2521.267561
398.742092	2522.628673
399.124656	2521.625483
399.507158	2522.553055
399.889598	2521.756553
400.271977	2521.050792
400.654294	2523.949455
401.036549	2520.027437
401.418742	2526.391894
401.800874	2520.304701
402.182944	2523.258817
402.564952	2523.475587
402.946898	2522.076666
403.328783	2523.964578
403.710606	2526.338962
404.092367	2524.204033
404.474067	2525.171935
404.855705	2524.042716
405.237282	2525.514733
405.618797	2524.080525
406.000250	2524.776204
406.381642	2522.265710
406.762972	2521.963240
407.144240	2520.592047
407.525447	2523.233611
407.906593	2521.146573
408.287677	2527.715197
408.668700	2523.929290
409.049661	2523.435257
409.430560	2527.195958
409.811399	2528.489014
410.192176	2528.809127
410.572891	2526.384332
410.953545	2527.168232
411.334138	2528.463808
411.714669	2528.673016
412.095139	2526.041534
412.475547	2527.911802
412.855894	2530.404653
413.236180	2526.961544
413.616405	2528.466329
413.996568	2529.865249
414.376670	2528.262162
414.756711	2529.265352
415.136691	2528.390712
415.516609	2528.163860
415.896466	2530.150074
416.276262	2529.096473
416.655997	2529.676206
417.035670	2528.461288
417.415283	2529.449354
417.794834	2528.748633
418.174324	2529.502286
418.553753	2528.496576
418.933121	2528.168901
419.312428	2528.673016
419.691674	2527.258972
420.070859	2532.151412
420.449983	2530.666792
420.829045	2530.293747
421.208047	2531.039838
421.586988	2530.223171
421.965867	2531.722914
422.344686	2527.286699
422.723444	2530.371885
423.102141	2530.213089
423.480777	2532.587472
423.859352	2532.330373
424.237866	2531.690147
424.616319	2534.742565
424.994712	2530.926412
425.373044	2533.507483
425.751314	2530.850795
426.129524	2530.447502
426.507673	2529.028417
426.885762	2527.498427
427.263789	2531.400280
427.641756	2531.725435
428.019662	2533.298275
428.397508	2532.952956
428.775292	2532.063192
429.153016	2530.694519
429.530679	2535.970086
429.908282	2534.843388
430.285824	2535.339942
430.663305	2532.693336
431.040726	2535.027391
431.418086	2536.161650
431.795385	2532.728624
432.172624	2534.296423
432.549802	2534.117462
432.926920	2533.948584
433.303977	2534.180477
433.680974	2535.254242
434.057910	2536.915303
434.434786	2534.631660
434.811601	2533.641073
435.188355	2534.001516
435.565050	2536.375899
435.941683	2535.276928
436.318257	2534.815662
436.694770	2533.583100
437.071222	2534.379602
437.447614	2535.450847
437.823946	2533.610826
438.200218	2532.572349
438.576429	2536.680889
438.952580	2537.973945
439.328670	2537.013605
439.704700	2539.637526
440.080670	2536.844727
440.456580	2536.668286
440.832429	2537.568132
441.208218	2537.242978
441.583947	2535.594520
441.959616	2536.428831
442.335224	2538.510828
442.710773	2534.639222
443.086261	2537.323636
443.461689	2536.416228
443.837057	2539.773637
444.212365	2534.906403
444.587612	2535.097967
444.962800	2531.521268
445.337927	2536.678368
445.712995	2530.946577
446.088002	2538.354552
446.462949	2539.473688
446.837837	2538.851106
447.212664	2538.243647
447.587431	2541.533000
447.962139	2535.743234
448.336786	2541.966539
448.711374	2537.159799
449.085901	2542.659697
449.460369	2539.430838
449.834776	2537.288348
450.209124	2535.392874
450.583412	2540.597866
450.957640	2538.415046
451.331808	2539.090561
451.705917	2539.806404
452.079965	2537.371527
452.453954	2538.541075
452.827883	2537.371527
453.201752	2538.815818
453.575562	2541.061652
453.949311	2538.591486
454.323001	2539.740869
454.696632	2540.436549
455.070202	2541.033925
455.443713	2539.496373
455.817164	2539.735828
456.190556	2540.597866
456.563888	2542.836138
456.937160	2539.725746
457.310373	2539.995448
457.683526	2541.452341
458.056619	2538.929244
458.429653	2541.137269
458.802628	2538.959491
459.175542	2540.728936
459.548398	2539.997968
459.921194	2541.941333
460.293930	2541.311189
460.666607	2539.294727
461.039224	2539.945036
461.411782	2538.606610
461.784280	2542.228679
462.156719	2541.296065
462.529099	2540.577701
462.901419	2541.422094
463.273680	2538.944367
463.645882	2535.581918
464.018024	2539.980324
464.390106	2536.776671
464.762130	2542.190870
465.134094	2543.564585
465.505999	2541.182639
465.877845	2541.112063
466.249631	2543.463762
466.621358	2539.544264
466.993026	2542.170706
467.364634	2547.027857
467.736184	2542.576518
468.107674	2544.177085
468.479105	2541.585932
468.850477	2541.732125
469.221790	2542.188350
469.593043	2542.740356
469.964238	2542.752959
470.335373	2541.815304
470.706449	2541.895963
471.077467	2542.919317
471.448425	2540.522248
471.819324	2545.490305
472.190164	2542.616848
472.560945	2543.574667
472.931667	2546.700182
473.302330	2542.374872
473.672934	2542.909235
474.043479	2542.480737
474.413965	2544.371169
474.784393	2544.219935
475.154761	2542.516025
475.525070	2542.425284
475.895321	2543.315048
476.265513	2541.709440
476.635645	2540.849923
477.005719	2544.282949
477.375734	2540.648277
477.745691	2542.964687
478.115588	2543.476364
478.485427	2543.725902
478.855207	2545.709596
479.224928	2543.993083
479.594591	2542.321940
479.964194	2546.392672
480.333739	2541.724563
480.703226	2545.699513
481.072653	2542.899152
481.442022	2543.846889
481.811333	2542.178267
482.180584	2540.560057
482.549777	2542.102650
482.918912	2541.381765
483.287988	2546.579195
483.657005	2545.707075
484.025964	2546.637168
484.394864	2544.300593
484.763706	2544.897970
485.132489	2544.759338
485.501213	2546.344781
485.869879	2545.820501
486.238487	2545.908721
486.607036	2545.250851
486.975527	2546.581715
487.343959	2545.054246
487.712333	2545.684390
488.080648	2541.414532
488.448905	2546.740512
488.817104	2544.003165
489.185244	2547.990718
489.553326	2546.090203
489.921350	2545.971736
490.289315	2544.517363
490.657222	2546.241437
491.025070	2544.799667
491.392861	2543.957795
491.760593	2546.775800
492.128267	2545.265974
492.495883	2545.787733
492.863440	2544.580377
493.230939	2547.746222
493.598380	2547.816798
493.965763	2546.468289
494.333088	2546.004503
494.700354	2543.912424
495.067563	2547.370656
495.434713	2543.990562
495.801805	2545.702034
496.168839	2545.066848
496.535815	2545.543237
496.902733	2548.134391
497.269593	2545.502908
497.636395	2546.770758
498.003139	2545.306303
498.369825	2544.668597
498.736453	2544.587939
499.103023	2545.099616
499.469535	2544.653474
499.835989	2544.169523
500.202385	2543.904862
500.568723	2543.136087
500.935003	2543.415871
501.301226	2541.346477
501.667390	2547.589946
502.033497	2550.009700
502.399546	2546.990049
502.765537	2547.393341
503.131470	2546.347302
503.497345	2547.902498
503.863163	2548.716644
504.228923	2547.259750
504.594625	2546.503577
504.960269	2544.575336
505.325856	2546.107847
505.691385	2545.346633
506.056856	2548.641027
506.422270	2546.899308
506.787625	2546.937117
507.152924	2545.702034
507.518164	2547.400903
507.883347	2547.809236
508.248472	2548.000800
508.613540	2545.591128
508.978550	2547.620193
509.343503	2546.566592
509.708398	2548.245296
510.073236	2548.545245
510.438016	2545.618855
510.802738	2546.236396
511.167403	2547.327806
511.532010	2548.762014
511.896561	2551.612787
512.261053	2547.632796
512.625488	2547.776469
512.989866	2547.685728
513.354186	2548.925852
513.718449	2549.455173
514.082655	2547.126160
514.446803	2549.382076
514.810894	2546.233876
515.174927	2549.301418
515.538904	2548.174720
515.902822	2548.867878
516.266684	2546.962322
516.630488	2547.799154
516.994235	2547.559699
517.357925	2546.919473
517.721558	2546.722868
518.085133	2549.389638
518.448651	2548.706562
518.812112	2545.260933
519.175516	2547.549617
519.538863	2542.140459
519.902152	2547.191695
520.265385	2544.277908
520.628560	2546.264122
520.991678	2546.175902
521.354739	2545.795295
521.717743	2547.738660
522.080690	2547.683207
522.443580	2547.065666
522.806413	2547.995759
523.169189	2546.808567
523.531908	2548.487271
523.894569	2545.805378
524.257174	2548.086500
524.619722	2549.203115
524.982213	2548.885522
525.344647	2548.457024
525.707025	2547.957950
526.069345	2549.014072
526.431608	2550.690256
526.793815	2549.770245
527.155964	2550.602035
527.518057	2548.633465
527.880093	2548.968702
528.242072	2545.878474
528.603995	2550.067673
528.965860	2548.315872
529.327669	2547.743701
529.689421	2548.542724
530.051117	2548.872920
530.412755	2547.874771
530.774337	2550.264278
531.135862	2548.295708
531.497331	2549.472817
531.858743	2549.031716
532.220098	2550.448280
532.581396	2549.613969
532.942638	2546.927034
533.303824	2549.999617
533.664953	2552.250493
534.026025	2550.433157
534.387040	2551.146480
534.747999	2549.908877
535.108902	2548.116747
535.469748	2548.091541
535.830537	2547.436191
536.191270	2549.624052
536.551947	2548.547765
536.912567	2545.175233
537.273131	2546.695141
537.633638	2544.620706
537.994089	2552.550441
538.354483	2549.256047
538.714821	2552.202602
539.075103	2549.671942
539.435328	2548.958619
539.795497	2550.055070
540.155609	2550.612118
540.515665	2548.056253
540.875665	2548.951057
541.235609	2551.474155
541.595496	2546.700182
541.955328	2550.574309
542.315102	2548.467107
542.674821	2549.253527
543.034483	2550.181099
543.394090	2548.625903
543.753640	2550.513815
544.113134	2548.953578
544.472571	2547.287477
544.831953	2549.203115
545.191278	2549.669422
545.550548	2550.279402
545.909761	2550.773435
546.268918	2550.803682
546.628019	2549.235883
546.987064	2550.939793
547.346053	2551.665719
547.704986	2550.032385
548.063863	2548.552806
548.422684	2548.978784
548.781449	2551.559855
549.140158	2551.459032
549.498811	2552.568085
549.857408	2552.230328
550.215949	2549.651778
550.574434	2550.357539
550.932864	2548.368804
551.291237	2551.244783
551.649555	2548.666232
552.007817	2551.330482
552.366022	2551.108671
552.724173	2552.951213
553.082267	2548.701520
553.440305	2551.496840
553.798288	2552.631100
554.156215	2550.914587
554.514086	2548.741850
554.871902	2548.036088
555.229661	2547.698331
555.587365	2547.053063
555.945014	2553.553631
556.302606	2551.549772
556.660143	2552.023641
557.017625	2550.055070
557.375050	2552.890719
557.732421	2550.284443
558.089735	2552.600853
558.446994	2551.673281
558.804197	2554.725699
559.161345	2553.455328
559.518437	2554.425751
559.875474	2552.550441
560.232455	2554.519012
560.589381	2553.535987
560.946251	2553.422561
561.303065	2553.571275
561.659825	2552.096737
562.016528	2552.134546
562.373177	2552.333672
562.729770	2554.642520
563.086307	2551.096068
563.442789	2553.798127
563.799216	2552.132026
564.155587	2552.996583
564.511904	2554.508930
564.868164	2551.096068
565.224370	2552.875596
565.580520	2552.507592
565.936615	2552.316028
566.292654	2553.553631
566.648638	2553.440205
567.004567	2555.398693
567.360441	2553.954403
567.716260	2554.098076
568.072023	2555.507078
568.427732	2554.990360
568.783385	2553.697304
569.138982	2553.586398
569.494525	2552.000956
569.850013	2554.037582
570.205445	2554.919784
570.560823	2553.057077
570.916145	2551.529608
571.271412	2553.387273
571.626625	2552.699155
571.981782	2554.327448
572.336884	2548.283105
572.691931	2549.808054
573.046923	2552.941131
573.401860	2548.046170
573.756743	2552.835267
574.111570	2551.733774
574.466342	2553.233518
574.821059	2552.147149
575.175722	2552.918446
575.530330	2553.372149
575.884882	2553.014227
576.239380	2551.053219
576.593823	2553.210832
576.948211	2553.772921
577.302544	2554.740823
577.656823	2552.585729
578.011047	2556.986657
578.365216	2552.404248
578.719330	2554.395504
579.073389	2552.926007
579.427394	2553.848538
579.781344	2554.100596
580.135239	2555.771739
580.489080	2554.299722
580.842866	2554.458518
581.196597	2553.631769
581.550273	2553.669577
581.903895	2552.726882
582.257463	2554.398024
582.610975	2553.689742
582.964434	2552.472303
583.317837	2554.839125
583.671186	2552.825184
584.024481	2552.830225
584.377721	2551.020451
584.730906	2554.203940
585.084037	2552.989022
585.437113	2554.755946
585.790135	2554.501368
586.143103	2553.946841
586.496016	2555.441543
586.848874	2553.387273
587.201679	2553.331820
587.554428	2555.575134
587.907124	2555.433981
588.259765	2552.696635
588.612352	2553.641851
588.964884	2551.572457
589.317362	2553.137736
589.669786	2553.246121
590.022155	2550.309648
590.374470	2547.894936
590.726731	2550.145811
591.078937	2550.982642
591.431090	2552.192519
591.783188	2551.736295
592.135232	2554.269475
592.487222	2553.195709
592.839157	2553.341902
593.191038	2553.097407
593.542866	2553.127653
593.894639	2554.771070
594.246358	2553.485575
594.598022	2552.699155
594.949633	2554.720658
595.301190	2551.587581
595.652692	2554.720658
596.004141	2551.085986
596.355535	2551.895091
596.706876	2552.784855
597.058162	2552.212684
597.409395	2552.016079
597.760573	2551.199412
598.111698	2553.848538
598.462768	2552.336192
598.813785	2550.861655
599.164748	2550.342416
599.515657	2553.115051
599.866511	2552.956254
600.217312	2551.766542
600.568060	2553.755277
600.918753	2551.436346
601.269392	2552.046326
601.619978	2550.423074
601.970510	2551.247303
602.320988	2551.438867
602.671412	2550.944834
603.021783	2551.259906
603.372100	2553.636810
603.722363	2553.016748
604.072572	2552.447098
604.422728	2552.794937
604.772830	2550.362581
605.122878	2553.132695
605.472872	2552.076573
605.822813	2552.283260
606.172701	2551.350647
606.522534	2552.905843
606.872314	2552.661347
607.222041	2551.970709
607.571714	2548.260419
607.921333	2547.645399
608.270899	2549.009031
608.620411	2546.606921
608.969870	2555.796944
609.319276	2554.992880
609.668627	2560.172666
610.017926	2564.034190
610.367171	2567.250446
610.716362	2566.736248
611.065500	2565.317163
611.414585	2560.371792
611.763616	2562.763819
612.112594	2556.696790
612.461518	2554.955072
612.810389	2557.599157
613.159207	2555.933056
613.507971	2555.859959
613.856682	2556.079249
614.205340	2554.622356
614.553945	2557.468087
614.902496	2554.569423
615.250994	2550.241593
615.599439	2555.128992
615.947830	2557.137891
616.296169	2552.164793
616.644454	2552.668908
616.992686	2553.162942
617.340864	2550.728064
617.688990	2550.854093
618.037063	2552.258054
618.385082	2553.772921
618.733048	2551.315359
619.080961	2550.337375
619.428821	2553.535987
619.776628	2555.159238
620.124382	2551.758980
620.472083	2552.817622
620.819731	2553.225956
621.167326	2550.680173
621.514868	2553.835936
621.862357	2555.033210
622.209793	2552.709238
622.557176	2552.263096
622.904506	2550.869217
623.251783	2552.003476
623.599007	2551.804351
623.946179	2553.150339
624.293297	2550.939793
624.640363	2552.283260
624.987376	2550.667570
625.334336	2551.711089
625.681243	2550.680173
626.028097	2546.916952
626.374899	2553.205791
626.721647	2549.845862
627.068343	2551.312838
627.414987	2554.950031
627.761577	2553.757798
628.108115	2552.343754
628.454600	2553.548590
628.801032	2550.430636
629.147412	2555.562531
629.493739	2556.321224
629.840014	2552.565565
630.186236	2552.926007
630.532405	2555.592778
630.878521	2553.041954
631.224585	2552.305945
631.570597	2549.979453
631.916556	2553.319217
632.262462	2551.101110
632.608316	2553.084804
632.954117	2551.504402
633.299866	2552.336192
633.645562	2551.206974
633.991206	2550.952396
634.336797	2552.852911
634.682336	2550.314690
635.027823	2554.861810
635.373257	2548.656150
635.718639	2552.076573
636.063968	2552.865513
636.409245	2552.462221
636.754470	2551.169165
637.099642	2549.165307
637.444762	2551.219577
637.789829	2551.070863
638.134845	2550.901984
638.479808	2551.607746
638.824719	2551.811912
639.169577	2552.167314
639.514383	2551.585060
639.859137	2551.484237
640.203839	2550.062632
640.548489	2549.508105
640.893086	2553.268806
641.237632	2551.269988
641.582125	2552.187478
641.926566	2551.385935
642.270955	2550.334854
642.615292	2552.288301
642.959576	2550.907025
643.303809	2548.401572
643.647990	2554.534135
643.992118	2552.084135
644.336195	2551.882488
644.680219	2552.114382
645.024192	2552.147149
645.368112	2551.244783
645.711981	2550.876778
646.055797	2552.164793
646.399562	2551.932900
646.743274	2555.063457
647.086935	2549.833259
647.430544	2553.974567
647.774101	2549.929041
648.117606	2552.195040
648.461059	2552.376522
648.804460	2556.079249
649.147810	2553.785524
649.491108	2552.177396
649.834354	2550.070194
650.177548	2554.836605
650.520690	2553.193188
650.863781	2551.169165
651.206820	2550.140770
651.549807	2550.317210
651.892742	2552.298384
652.235626	2553.087324
652.578458	2551.517005
652.921238	2554.193858
653.263967	2553.599001
653.606644	2550.901984
653.949269	2552.232849
654.291843	2550.907025
654.634365	2550.992725
654.976836	2549.961809
655.319255	2552.449618
655.661622	2550.796120
656.003938	2551.958106
656.346203	2551.282591
656.688416	2551.612787
657.030577	2551.320400
657.372687	2550.712941
657.714746	2553.926676
658.056753	2551.239741
658.398708	2552.719320
658.740612	2555.212171
659.082465	2552.767211
659.424266	2549.598846
659.766016	2548.709082
660.107715	2550.133208
660.449362	2547.975594
660.790958	2551.527087
661.132503	2553.803168
661.473996	2552.865513
661.815438	2553.132695
662.156829	2551.534649
662.498168	2553.437684
662.839456	2550.758311
663.180693	2551.554813
663.521879	2552.245452
663.863013	2549.858465
664.204097	2551.060780
664.545129	2551.199412
664.886110	2553.737633
665.227040	2552.759649
665.567918	2553.460370
665.908746	2552.250493
666.249522	2554.574465
666.590248	2555.214691
666.930922	2552.699155
667.271545	2553.152859
667.612118	2555.791903
667.952639	2554.629917
668.293109	2551.101110
668.633528	2552.558003
668.973896	2550.415513
669.314213	2552.036244
669.654480	2554.599670
669.994695	2552.953734
670.334859	2554.750905
670.674973	2553.964485
671.015035	2551.627910
671.355047	2554.859290
671.695008	2553.803168
672.034918	2553.009186
672.374777	2554.657644
672.714585	2554.297201
673.054342	2554.607232
673.394049	2554.382901
673.733705	2553.551110
674.073310	2555.910370
674.412864	2555.350802
674.752368	2555.244938
675.091820	2551.350647
675.431223	2555.471790
675.770574	2550.788558
676.109875	2554.118240
676.449125	2552.507592
676.788324	2549.041798
677.127473	2553.818292
677.466571	2547.453835
677.805619	2554.743343
678.144616	2552.200081
678.483562	2556.238045
678.822458	2553.478014
679.161303	2555.134033
679.500098	2555.391132
679.838842	2556.772408
680.177535	2553.157900
680.516179	2556.233004
680.854771	2552.414330
681.193314	2553.944320
681.531805	2557.006821
681.870247	2554.645041
682.208638	2551.005328
682.546978	2556.845504
682.885268	2553.833415
683.223508	2557.458005
683.561697	2558.289795
683.899836	2554.443395
684.237925	2556.477500
684.575963	2553.760318
684.913951	2556.870710
685.251889	2555.315514
685.589776	2558.022614
685.927614	2556.018755
686.265401	2555.628066
686.603137	2556.419527
686.940824	2558.400700
687.278460	2558.937583
687.616046	2560.891030
687.953582	2559.056050
688.291068	2559.310629
688.628504	2562.045455
688.965889	2559.981102
689.303224	2560.112172
689.640510	2560.200392
689.977745	2563.613253
690.314930	2559.504713
690.652065	2560.623849
690.989150	2558.851884
691.326185	2558.062943
691.663170	2559.819785
692.000105	2556.351471
692.336990	2557.213509
692.673825	2560.197872
693.010610	2561.397666
693.347345	2560.301215
693.684030	2554.080432
694.020665	2556.500185
694.357251	2553.457849
694.693786	2560.197872
695.030272	2558.632593
695.366707	2561.269117
695.703093	2558.037737
696.039429	2558.899775
696.375716	2560.328942
696.711952	2556.207798
697.048139	2558.410783
697.384276	2559.129147
697.720363	2560.359189
698.056400	2558.597305
698.392388	2559.023283
698.728326	2558.430947
699.064214	2560.772563
699.400053	2557.145453
699.735842	2559.633263
700.071581	2559.575289
700.407270	2560.790207
700.742910	2561.322049
701.078501	2559.658468
701.414042	2558.020093
701.749533	2560.228119
702.084974	2558.952707
702.420366	2558.743499
702.755709	2559.587892
703.091002	2558.786349
703.426246	2558.299877
703.761440	2560.475135
704.096584	2561.672409
704.431679	2559.676112
704.766725	2560.759960
705.101721	2560.349106
705.436668	2558.728375
705.771565	2560.039075
706.106413	2561.458160
706.441212	2562.693243
706.775961	2559.184600
707.110661	2562.985630
707.445311	2560.888510
707.779913	2563.225085
708.114465	2561.869014
708.448967	2561.080074
708.783421	2561.594271
709.117825	2563.799776
709.452180	2568.256156
709.786485	2566.625343
710.120742	2566.138872
710.454949	2564.571073
710.789107	2567.721794
711.123216	2563.472101
711.457275	2574.751683
711.791286	2574.350911
712.125247	2573.012485
712.459159	2575.492732
712.793023	2575.162537
713.126837	2573.705643
713.460602	2577.592373
713.794318	2575.628844
714.127985	2575.139852
714.461602	2573.856878
714.795171	2572.969635
715.128691	2571.968966
715.462162	2568.339335
715.795584	2569.435786
716.128957	2570.275138
716.462281	2567.071485
716.795556	2570.829665
717.128782	2570.620457
717.461960	2568.079716
717.795088	2568.210786
718.128167	2569.458471
718.461198	2565.967472
718.794180	2569.029973
719.127113	2567.686506
719.459997	2568.949315
719.792833	2564.777760
720.125619	2568.195662
720.458357	2565.138202
720.791046	2566.358162
721.123686	2568.309088
721.456278	2566.620302
721.788821	2569.289593
722.121315	2567.033676
722.453761	2567.656259
722.786158	2570.754048
723.118506	2566.910168
723.450805	2569.198852
723.783056	2570.189439
724.115259	2569.907134
724.447412	2568.793039
724.779518	2568.321691
725.111574	2567.769685
725.443582	2572.130283
725.775542	2571.633729
726.107453	2573.299831
726.439315	2572.407546
726.771129	2574.786971
727.102895	2570.935529
727.434612	2573.665314
727.766281	2572.440314
728.097901	2576.460634
728.429473	2578.850141
728.760996	2578.766962
729.092471	2575.497774
729.423897	2578.303176
729.755276	2576.848803
730.086606	2576.500963
730.417887	2579.228227
730.749120	2581.040522
731.080305	2580.390213
731.411442	2584.082859
731.742530	2584.929772
732.073570	2585.096131
732.404562	2586.016141
732.735506	2583.530852
733.066401	2586.585792
733.397249	2586.852973
733.728048	2584.428178
734.058798	2581.663105
734.389501	2582.215111
734.720156	2582.031109
735.050762	2578.860223
735.381320	2574.129100
735.711831	2579.762590
736.042293	2577.178998
736.372707	2576.901735
736.703073	2580.291911
737.033391	2577.670511
737.363661	2579.775193
737.693883	2580.317117
738.024056	2579.475244
738.354182	2581.905080
738.684260	2581.963053
739.014290	2579.969277
739.344272	2586.205184
739.674207	2579.671849
740.004093	2586.154773
740.333931	2587.641913
740.663722	2585.895153
740.993464	2590.875813
741.323159	2589.839856
741.652806	2586.409351
741.982405	2585.514546
742.311956	2586.908425
742.641460	2585.315421
742.970915	2583.051943
743.300323	2584.138311
743.629683	2579.608835
743.958996	2578.933320
744.288260	2575.432239
744.617477	2578.177147
744.946647	2584.246696
745.275768	2582.547827
745.604842	2580.518763
745.933869	2581.809298
746.262847	2579.271077
746.591778	2581.317786
746.920662	2580.629668
747.249498	2581.811819
747.578286	2581.227045
747.907027	2585.917839
748.235720	2582.661253
748.564365	2583.475400
748.892963	2584.105544
749.221514	2585.872468
749.550017	2586.270719
749.878473	2583.359453
750.206881	2587.258786
750.535242	2585.701069
750.863555	2584.050091
751.191821	2585.270050
751.520039	2585.748960
751.848210	2583.732498
752.176334	2585.819536
752.504411	2584.944896
752.832440	2584.576892
753.160421	2585.181830
753.488356	2587.659557
753.816243	2588.231728
754.144082	2585.325503
754.471875	2586.006059
754.799620	2585.622931
755.127318	2587.704928
755.454969	2589.214753
755.782572	2586.822726
756.110129	2585.650658
756.437638	2591.198447
756.765100	2587.430185
757.092515	2587.402458
757.419882	2589.696183
757.747203	2587.820874
758.074477	2590.744743
758.401703	2590.979157
758.728882	2587.097469
759.056014	2589.086204
759.383099	2592.378077
759.710138	2590.364136
760.037129	2588.922366
760.364073	2590.001173
760.690970	2591.392532
761.017820	2594.691967
761.344623	2596.675661
761.671379	2598.719849
761.998088	2597.809921
762.324751	2603.680344
762.651366	2613.190481
762.977935	2633.060189
763.304456	2651.341933
763.630931	2670.074861
763.957359	2666.404901
764.283740	2654.835453
764.610074	2643.258443
764.936362	2630.587503
765.262602	2620.411934
765.588796	2610.170830
765.914943	2605.638832
766.241044	2602.919130
766.567097	2603.818976
766.893104	2595.201123
767.219064	2589.567634
767.544978	2594.825557
767.870845	2590.785073
768.196665	2588.997984
768.522438	2589.358426
768.848165	2587.757860
769.173846	2585.232242
769.499479	2585.348188
769.825066	2585.766604
770.150607	2586.497571
770.476101	2584.561768
770.801548	2583.747622
771.126949	2583.210739
771.452303	2581.721078
771.777611	2579.913824
772.102872	2581.887436
772.428087	2580.997672
772.753256	2581.496747
773.078378	2578.504822
773.403453	2580.339802
773.728482	2579.906263
774.053465	2580.962384
774.378401	2578.265367
774.703291	2581.791654
775.028135	2575.515418
775.352932	2578.671180
775.677683	2573.234296
776.002388	2579.752507
776.327046	2573.836713
776.651658	2573.556929
776.976224	2571.568194
777.300743	2575.570870
777.625216	2576.987435
777.949643	2578.235120
778.274024	2575.903587
778.598359	2574.736559
778.922647	2575.507856
779.246889	2571.777402
779.571086	2573.955181
779.895236	2572.435273
780.219339	2574.915520
780.543397	2576.586663
780.867409	2578.613207
781.191374	2578.058680
781.515294	2576.692527
781.839167	2574.038360
782.162995	2577.277301
782.486776	2577.332754
782.810511	2573.839234
783.134201	2579.308886
783.457844	2573.332598
783.781441	2574.048442
784.104993	2574.439131
784.428498	2574.799574
784.751958	2572.271435
785.075372	2575.533062
785.398739	2575.147413
785.722061	2575.744790
786.045337	2576.034657
786.368568	2576.929461
786.691752	2572.374779
787.014891	2574.030798
787.337983	2576.379976
787.661030	2581.549679
787.984031	2582.993969
788.306987	2590.732141
788.629897	2592.297419
788.952760	2592.032758
789.275579	2590.548138
789.598351	2588.340113
789.921078	2585.897674
790.243759	2580.233938
790.566395	2581.728640
790.888984	2583.059504
791.211529	2578.469534
791.534027	2575.369224
791.856480	2579.278639
792.178888	2577.420974
792.501249	2570.680951
792.823566	2573.347722
793.145836	2572.079871
793.468062	2573.935016
793.790241	2572.276476
794.112375	2573.985427
794.434464	2573.856878
794.756507	2573.529203
795.078505	2574.572722
795.400457	2575.313772
795.722364	2579.966757
796.044226	2582.885585
796.366042	2582.242837
796.687812	2584.912128
797.009538	2584.750812
797.331218	2585.930442
797.652852	2582.197467
797.974442	2583.031778
798.295986	2584.841552
798.617484	2582.751994
798.938938	2580.576736
799.260346	2579.321489
799.581709	2582.739391
799.903026	2581.617734
800.224299	2579.661767
800.545526	2581.229566
800.866708	2580.669997
801.187845	2576.997517
801.508936	2581.022878
801.829983	2575.522979
802.150984	2578.184709
802.471940	2577.032805
802.792851	2575.243195
803.113717	2575.898545
803.434538	2577.700758
803.755314	2577.320151
804.076045	2574.154306
804.396731	2575.654049
804.717372	2574.852506
805.037967	2573.201528
805.358518	2574.749162
805.679024	2576.690007
805.999485	2575.802763
806.319901	2574.270253
806.640272	2574.993658
806.960598	2574.645819
807.280879	2577.030284
807.601115	2577.267219
807.921306	2577.002558
808.241453	2575.553226
808.561554	2576.054821
808.881611	2572.510890
809.201623	2575.230592
809.521590	2576.596745
809.841513	2578.043556
810.161390	2576.768144
810.481223	2579.838207
810.801011	2581.227045
811.120755	2577.345357
811.440453	2578.343505
811.760107	2580.564133
812.079716	2580.985070
812.399281	2576.102712
812.718801	2579.399627
813.038276	2574.330747
813.357707	2574.330747
813.677093	2576.778227
813.996434	2577.695717
814.315731	2576.178329
814.634983	2578.076324
814.954191	2575.331416
815.273354	2577.168916
815.592473	2578.139338
815.911547	2577.335274
816.230577	2578.091447
816.549562	2583.664443
816.868502	2581.718558
817.187399	2586.283322
817.506250	2588.662747
817.825058	2583.689649
818.143821	2586.789958
818.462539	2593.847574
818.781213	2594.034096
819.099843	2593.260279
819.418429	2604.267639
819.736970	2613.223248
820.055466	2616.988990
820.373919	2632.624129
820.692327	2648.869247
821.010691	2663.113027
821.329011	2700.931764
821.647286	2771.810387
821.965517	2849.819722
822.283704	2910.245513
822.601847	2980.746049
822.919945	2979.571460
823.237999	2939.799277
823.556010	2885.803478
823.873976	2853.698890
824.191897	2796.570014
824.509775	2746.917169
824.827609	2709.438711
825.145398	2690.325176
825.463144	2686.569516
825.780845	2689.944569
826.098502	2693.687626
826.416116	2723.281719
826.733685	2749.825915
827.051210	2771.888525
827.368692	2782.812705
827.686129	2771.359203
828.003522	2722.502861
828.320872	2688.986750
828.638177	2666.420024
828.955439	2651.861172
829.272656	2630.136320
829.589830	2621.707510
829.906960	2616.295832
830.224046	2605.507762
830.541088	2601.500045
830.858086	2602.067175
831.175041	2600.499376
831.491952	2592.733479
831.808819	2596.433686
832.125642	2602.709922
832.442421	2606.221086
832.759157	2612.532610
833.075849	2634.259983
833.392497	2663.218892
833.709101	2683.237314
834.025662	2689.911801
834.342179	2686.965247
834.658653	2676.966118
834.975083	2655.309321
835.291469	2631.421814
835.607811	2612.252826
835.924110	2608.686210
836.240366	2602.576332
836.556578	2590.046544
836.872746	2585.955647
837.188871	2583.462797
837.504952	2584.581933
837.820990	2578.885429
838.136984	2575.245716
838.452935	2577.582291
838.768842	2577.448700
839.084706	2578.265367
839.400526	2585.847262
839.716303	2596.045517
840.032037	2609.833072
840.347727	2619.754063
840.663373	2617.041922
840.978977	2600.834613
841.294537	2592.672985
841.610054	2584.745770
841.925527	2580.808629
842.240957	2576.538772
842.556344	2574.890315
842.871687	2570.597772
843.186987	2568.609037
843.502244	2567.928481
843.817458	2567.036197
844.132629	2566.232133
844.447756	2562.025290
844.762840	2564.185424
845.077881	2562.731052
845.392879	2564.417318
845.707833	2562.836916
846.022745	2560.543191
846.337613	2559.905485
846.652438	2559.242573
846.967221	2558.506565
847.281960	2559.575289
847.596656	2560.759960
847.911309	2561.380022
848.225919	2562.131154
848.540485	2560.278530
848.855009	2560.565876
849.169490	2560.122254
849.483928	2558.274672
849.798323	2558.499003
850.112675	2557.079918
850.426984	2559.066133
850.741251	2559.476987
851.055474	2560.409600
851.369654	2559.570248
851.683792	2557.284085
851.997887	2560.283571
852.311938	2559.839950
852.625947	2558.509085
852.939914	2559.580330
853.253837	2559.277861
853.567718	2561.672409
853.881555	2556.893395
854.195350	2558.715773
854.509103	2561.344734
854.822812	2558.501523
855.136479	2556.565720
855.450103	2561.498489
855.763685	2558.075546
856.077224	2552.676470
856.390720	2553.674619
856.704173	2557.901626
857.017584	2559.260217
857.330953	2557.130330
857.644278	2561.959755
857.957561	2558.040258
858.270802	2558.052861
858.584000	2559.494631
858.897155	2560.633932
859.210268	2561.160732
859.523339	2560.185269
859.836367	2558.892213
860.149352	2559.653427
860.462295	2555.852397
860.775195	2561.324570
861.088054	2558.191492
861.400869	2561.995043
861.713642	2556.520350
862.026373	2559.008159
862.339062	2555.262582
862.651708	2559.008159
862.964312	2557.253838
863.276873	2561.591751
863.589392	2559.673592
863.901869	2559.968499
864.214303	2561.947152
864.526696	2565.155847
864.839045	2562.060578
865.151353	2559.640824
865.463619	2560.770043
865.775842	2562.002605
866.088023	2561.458160
866.400162	2563.285578
866.712258	2561.468242
867.024313	2560.709549
867.336325	2561.982440
867.648296	2565.788511
867.960224	2562.206772
868.272110	2563.388922
868.583954	2560.467573
868.895755	2562.584858
869.207515	2561.332131
869.519233	2561.846329
869.830909	2562.897410
870.142542	2565.112997
870.454134	2565.115517
870.765684	2563.086453
871.077191	2566.464026
871.388657	2565.753223
871.700081	2563.351113
872.011463	2563.736762
872.322803	2561.364899
872.634101	2567.250446
872.945357	2566.005281
873.256571	2566.320353
873.567744	2569.219017
873.878874	2566.700960
874.189963	2569.342525
874.501010	2570.872515
874.812015	2566.249777
875.122979	2570.040725
875.433900	2571.555591
875.744780	2569.798749
876.055618	2570.005437
876.366415	2571.701785
876.677169	2571.613565
876.987882	2572.289079
877.298554	2574.600448
877.609183	2571.787484
877.919771	2576.427867
878.230317	2577.514235
878.540822	2581.521952
878.851285	2587.135277
879.161707	2588.009918
879.472087	2594.034096
879.782425	2606.362238
880.092722	2631.966258
880.402977	2650.943682
880.713191	2668.444048
881.023363	2690.536904
881.333494	2723.523695
881.643583	2728.809344
881.953631	2722.316338
882.263637	2718.812736
882.573602	2717.610421
882.883526	2710.038608
883.193408	2689.722758
883.503248	2673.394461
883.813048	2662.520692
884.122806	2649.489309
884.432522	2635.739562
884.742197	2624.898561
885.051831	2616.096706
885.361424	2604.945674
885.670975	2600.892586
885.980485	2593.850094
886.289954	2589.580237
886.599382	2586.711820
886.908768	2582.489854
887.218113	2576.926941
887.527417	2574.860068
887.836680	2569.599624
888.145901	2571.535427
888.455082	2577.141190
888.764221	2570.328070
889.073319	2566.741289
889.382376	2571.293451
889.691392	2569.276990
890.000366	2564.946639
890.309300	2564.893707
890.618193	2571.311095
890.927044	2570.988462
891.235855	2569.705488
891.544625	2568.825807
891.853353	2570.927968
892.162041	2570.179356
892.470687	2575.459965
892.779293	2574.744121
893.087858	2578.857703
893.396381	2586.212746
893.704864	2587.808271
894.013306	2598.941660
894.321707	2612.572940
894.630068	2619.912860
894.938387	2620.767335
895.246665	2621.457973
895.554903	2621.886471
895.863100	2612.456993
896.171256	2602.888883
896.479371	2593.479569
896.787446	2590.255752
897.095480	2583.331727
897.403473	2576.798391
897.711425	2575.810325
898.019336	2574.403843
898.327207	2573.720767
898.635038	2569.017370
898.942827	2570.519634
899.250576	2571.779923
899.558284	2565.307081
899.865952	2564.346741
900.173579	2566.940415
900.481165	2560.918757
900.788711	2562.337842
901.096216	2560.754919
901.403681	2561.886658
901.711105	2561.937070
902.018489	2561.034703
902.325832	2560.712069
902.633135	2559.421534
902.940397	2560.696946
903.247619	2565.962431
903.554800	2577.552044
903.861941	2595.238932
904.169041	2609.835593
904.476101	2621.306739
904.783121	2624.656585
905.090100	2618.287087
905.397039	2608.976076
905.703938	2597.023501
906.010796	2586.963878
906.317614	2578.030953
906.624391	2575.467527
906.931129	2569.360169
907.237826	2567.890672
907.544483	2562.486556
907.851099	2559.368602
908.157675	2558.884651
908.464211	2556.573282
908.770707	2555.000442
909.077163	2553.964485
909.383578	2555.502037
909.689954	2555.557490
909.996289	2553.543549
910.302584	2553.301573
910.608839	2553.031872
910.915054	2551.902653
911.221229	2552.615976
911.527363	2552.152190
911.833458	2553.866182
912.139513	2554.680329
912.445527	2553.220915
912.751502	2555.181924
913.057436	2555.635627
913.363331	2555.290308
913.669186	2557.911708
913.975000	2554.834084
914.280775	2560.497820
914.586510	2564.560990
914.892205	2570.229768
915.197859	2579.513053
915.503475	2584.138311
915.809050	2593.744230
916.114585	2599.690271
916.420081	2600.506938
916.725536	2597.391505
917.030952	2597.890579
917.336328	2592.206678
917.641665	2584.279464
917.946961	2576.301838
918.252218	2573.546847
918.557435	2567.981413
918.862612	2570.476784
919.167750	2567.837740
919.472848	2565.730538
919.777906	2565.904458
920.082925	2559.426575
920.387904	2558.816596
920.692843	2557.573951
920.997743	2558.698128
921.302603	2555.592778
921.607423	2554.534135
921.912204	2550.677653
922.216946	2553.054557
922.521647	2552.172355
922.826310	2550.302087
923.130932	2552.361398
923.435516	2549.732436
923.740059	2551.600184
924.044564	2551.320400
924.349028	2549.654298
924.653454	2550.463404
924.957840	2549.646737
925.262186	2550.798640
925.566493	2549.924000
925.870761	2549.082127
926.174989	2543.249513
926.479178	2546.034750
926.783328	2547.665563
927.087438	2545.674307
927.391509	2546.375028
927.695541	2544.847558
927.999533	2545.815460
928.303486	2546.090203
928.607400	2547.118598
928.911275	2546.032229
929.215110	2544.640871
929.518906	2545.351674
929.822663	2544.827394
930.126381	2545.555840
930.430060	2547.378218
930.733699	2544.519883
931.037299	2546.576674
931.340861	2544.610624
931.644383	2545.248330
931.947866	2546.609442
932.251309	2544.351005
932.554714	2546.266643
932.858080	2541.162475
933.161407	2542.357228
933.464694	2543.640202
933.767943	2538.488143
934.071153	2545.996941
934.374323	2545.147507
934.677455	2543.045346
934.980548	2545.326468
935.283602	2545.371838
935.586617	2543.806560
935.889593	2544.943340
936.192530	2546.223793
936.495428	2546.533824
936.798287	2545.538196
937.101108	2547.481561
937.403890	2542.878988
937.706632	2547.332847
938.009336	2544.809750
938.312002	2548.436860
938.614628	2548.033568
938.917216	2547.494164
939.219765	2546.977446
939.522275	2546.294369
939.824747	2549.379556
940.127179	2550.077755
940.429573	2548.008362
940.731929	2546.458207
941.034246	2547.133722
941.336524	2546.503577
941.638763	2548.328475
941.940964	2545.381921
942.243126	2546.115408
942.545250	2545.893598
942.847335	2544.658515
943.149381	2548.625903
943.451389	2546.236396
943.753359	2548.119267
944.055290	2545.807898
944.357182	2543.796478
944.659036	2544.124153
944.960851	2546.576674
945.262628	2543.136087
945.564367	2547.176571
945.866067	2545.175233
946.167729	2544.809750
946.469352	2546.503577
946.770937	2546.775800
947.072484	2543.322609
947.373992	2544.872764
947.675462	2544.134235
947.976893	2540.658359
948.278286	2540.620551
948.579641	2541.495191
948.880958	2541.175078
949.182236	2541.835469
949.483476	2543.632640
949.784678	2546.543907
950.085841	2544.219935
950.386967	2544.560212
950.688054	2542.929399
950.989103	2547.158927
951.290114	2544.217414
951.591087	2545.528114
951.892021	2545.238248
952.192917	2545.684390
952.493776	2544.915614
952.794596	2544.587939
953.095378	2545.392003
953.396122	2546.309493
953.696828	2546.785882
953.997496	2545.003834
954.298126	2542.631971
954.598718	2545.472661
954.899272	2545.139945
955.199788	2544.343443
955.500266	2542.105171
955.800706	2544.098947
956.101108	2540.408822
956.401472	2544.461910
956.701798	2542.712630
957.002087	2545.399565
957.302337	2542.647095
957.602550	2543.831766
957.902724	2543.811601
958.202861	2539.745911
958.502960	2541.774975
958.803022	2541.038967
959.103045	2541.666590
959.403031	2543.962836
959.702979	2541.134748
960.002889	2540.275232
960.302762	2543.196580
960.602596	2542.949564
960.902393	2543.370500
961.202153	2543.632640
961.501875	2542.591642
961.801559	2540.683565
962.101205	2542.637012
962.400814	2540.910417
962.700385	2543.436035
962.999918	2538.505787
963.299414	2539.607279
963.598873	2541.255736
963.898293	2535.927237
964.197677	2538.805735
964.497022	2541.356559
964.796331	2543.950233
965.095601	2542.062321
965.394835	2544.966025
965.694030	2542.369831
965.993189	2541.341436
966.292309	2540.444110
966.591393	2544.507280
966.890439	2539.647608
967.189447	2539.748431
967.488419	2542.062321
967.787353	2543.990562
968.086249	2539.143493
968.385108	2542.284132
968.683930	2539.947557
968.982714	2539.992927
969.281462	2539.834131
969.580172	2542.750438
969.878844	2543.078113
970.177480	2540.396219
970.476078	2540.844882
970.774639	2541.205325
971.073162	2541.533000
971.371649	2542.342105
971.670098	2544.527445
971.968510	2540.171888
972.266885	2539.186343
972.565223	2543.105840
972.863524	2543.050387
973.161788	2541.921168
973.460014	2540.297917
973.758204	2540.338246
974.056356	2540.731456
974.354471	2543.456200
974.652550	2543.428473
974.950591	2539.294727
975.248595	2539.415715
975.546563	2544.091385
975.844493	2542.016950
976.142386	2542.667259
976.440243	2540.928061
976.738062	2540.229861
977.035845	2542.057280
977.333590	2540.371014
977.631299	2541.273380
977.928971	2538.190715
978.226606	2536.759027
978.524204	2540.560057
978.821765	2534.495549
979.119290	2537.923533
979.416777	2539.597197
979.714228	2539.574511
980.011642	2542.516025
980.309020	2539.173740
980.606360	2537.973945
980.903664	2541.107022
981.200931	2539.239275
981.498162	2539.808925
981.795356	2541.112063
982.092513	2541.278421
982.389633	2542.420243
982.686717	2544.043494
982.983764	2541.590973
983.280775	2542.987372
983.577749	2543.872095
983.874686	2542.952084
984.171587	2544.598021
984.468451	2540.877650
984.765279	2541.953936
985.062070	2541.162475
985.358824	2543.035263
985.655543	2540.353370
985.952224	2540.131559
986.248869	2542.447969
986.545478	2541.860675
986.842050	2540.529810
987.138586	2539.640046
987.435086	2540.829759
987.731549	2542.415202
988.027975	2542.379913
988.324366	2539.713143
988.620719	2541.701878
988.917037	2539.637526
989.213318	2543.773793
989.509563	2541.961498
989.805772	2542.372352
990.101944	2542.047197
990.398080	2542.964687
990.694180	2540.648277
990.990244	2537.605941
991.286271	2541.739687
991.582262	2538.808256
991.878217	2540.781868
992.174136	2538.994779
992.470019	2540.421425
992.765865	2537.966383
993.061676	2535.085364
993.357450	2537.873122
993.653188	2535.095446
993.948890	2540.532331
994.244556	2537.510159
994.540186	2540.159285
994.835780	2539.403112
995.131337	2539.226672
995.426859	2541.714481
995.722345	2541.661549
996.017795	2536.201979
996.313208	2540.411343
996.608586	2539.307330
996.903928	2542.894111
997.199234	2538.911600
997.494504	2541.643905
997.789738	2542.137938
998.084936	2538.956970
998.380099	2541.084337
998.675225	2540.486960
998.970316	2539.007382
999.265371	2539.705581
999.560390	2539.700540
999.855373	2540.083668
1000.150320	2537.805066
1000.445232	2540.769265
1000.740108	2539.047711
1001.034948	2540.769265
1001.329752	2538.946888
1001.624521	2542.609286
1001.919254	2538.813297
1002.213951	2541.170037
1002.508613	2540.126518
1002.803239	2540.960829
1003.097829	2538.467978
1003.392384	2539.690458
1003.686903	2541.590973
1003.981386	2539.307330
1004.275834	2540.847403
1004.570246	2539.698020
1004.864623	2541.588452
1005.158964	2540.628113
1005.453270	2537.157278
1005.747540	2539.231713
1006.041775	2538.210879
1006.335974	2539.887063
1006.630138	2538.377237
1006.924266	2540.948226
1007.218359	2541.434697
1007.512416	2538.891435
1007.806438	2536.494366
1008.100425	2537.426980
1008.394376	2533.573018
1008.688292	2540.439069
1008.982172	2538.112577
1009.276017	2540.670962
1009.569827	2539.466127
1009.863602	2538.778009
1010.157341	2540.086188
1010.451045	2538.641898
1010.744714	2540.683565
1011.038347	2538.662063
1011.331945	2539.014943
1011.625508	2538.939326
1011.919036	2539.652649
1012.212528	2541.525438
1012.505986	2540.466796
1012.799408	2540.350849
1013.092795	2538.541075
1013.386147	2537.903369
1013.679464	2538.296579
1013.972745	2538.921682
1014.265992	2539.115766
1014.559204	2542.798329
1014.852380	2539.461085
1015.145521	2537.608461
1015.438628	2539.945036
1015.731699	2538.825900
1016.024736	2538.659542
1016.317737	2539.929913
1016.610703	2536.007895
1016.903635	2540.950746
1017.196531	2540.040818
1017.489393	2538.309182
1017.782219	2539.975283
1018.075011	2539.430838
1018.367768	2540.401261
1018.660490	2540.953267
1018.953177	2540.953267
1019.245829	2540.953267
