Dividing Wavelength (nm)	Counts (n)	Blue Motor Position (mm): 23.500000	Red Motor Position (mm): 0.000000	
326.493990	2193.388394
326.888308	2193.388394
327.282561	2193.388394
327.676750	2155.279792
328.070874	2151.443474
328.464933	2149.706796
328.858929	2154.808444
329.252859	2160.706594
329.646726	2167.499549
330.040528	2181.183761
330.434265	2194.628518
330.827938	2212.506970
331.221547	2228.255535
331.615091	2246.078534
332.008571	2263.982192
332.401986	2280.701179
332.795338	2301.632050
333.188625	2320.465801
333.581847	2338.787874
333.975006	2357.878724
334.368100	2375.580736
334.761129	2393.353323
335.154095	2414.642116
335.546996	2435.973759
335.939833	2471.718060
336.332606	2484.918321
336.725315	2497.952225
337.117960	2509.178874
337.510540	2522.595905
337.903056	2533.293234
338.295508	2542.216076
338.687896	2551.272509
339.080220	2559.489590
339.472480	2563.678788
339.864676	2572.669686
340.256807	2574.981055
340.648875	2579.876016
341.040879	2583.422467
341.432818	2586.817685
341.824694	2589.083683
342.216506	2590.258272
342.608253	2589.759198
342.999937	2589.575196
343.391557	2591.485793
343.783113	2593.053592
344.174605	2588.390525
344.566033	2588.435895
344.957397	2588.337592
345.348697	2585.146542
345.739934	2586.167376
346.131106	2585.043198
346.522215	2579.994483
346.913260	2578.598083
347.304241	2578.169585
347.695159	2575.825449
348.086012	2572.866291
348.476802	2571.490056
348.867528	2567.121897
349.258191	2564.727348
349.648789	2565.296999
350.039324	2560.316339
350.429796	2565.612071
350.820203	2563.376319
351.210548	2559.164435
351.600828	2559.381205
351.991045	2558.287274
352.381198	2557.868859
352.771288	2557.972202
353.161314	2558.854404
353.551276	2556.240566
353.941175	2555.065977
354.331010	2553.374670
354.720782	2556.169990
355.110490	2557.170659
355.500135	2557.032027
355.889717	2558.776266
356.279235	2557.997408
356.668689	2555.738971
357.058080	2553.994732
357.447408	2556.104455
357.836672	2559.013201
358.225873	2559.542522
358.615010	2555.542366
359.004084	2557.808365
359.393095	2555.930535
359.782043	2561.332131
360.170927	2560.044117
360.559748	2558.322562
360.948505	2561.778273
361.337199	2559.436657
361.725830	2560.505382
362.114398	2563.416648
362.502903	2560.974209
362.891344	2564.066957
363.279722	2562.967986
363.668037	2564.034190
364.056289	2565.707853
364.444478	2562.418500
364.832603	2563.446895
365.220665	2566.257339
365.608665	2566.605178
365.996601	2566.806824
366.384474	2567.583162
366.772284	2566.534602
367.160031	2564.548387
367.547715	2567.706670
367.935336	2566.811866
368.322893	2566.998388
368.710388	2566.106104
369.097820	2568.062072
369.485189	2560.888510
369.872495	2571.222875
370.259738	2568.195662
370.646918	2569.899572
371.034035	2569.511403
371.421090	2572.105077
371.808081	2571.447207
372.195010	2572.359655
372.581875	2568.823286
372.968678	2572.979717
373.355418	2571.525344
373.742096	2573.246898
374.128710	2571.701785
374.515262	2574.131621
374.901751	2572.828483
375.288177	2576.261508
375.674540	2575.465006
376.060841	2574.928123
376.447079	2573.856878
376.833254	2571.492577
377.219367	2578.003227
377.605417	2576.463155
377.991404	2574.184553
378.377329	2576.538772
378.763191	2574.519790
379.148991	2579.525656
379.534727	2576.374934
379.920402	2576.132959
380.306013	2576.785788
380.691563	2578.409040
381.077049	2577.657908
381.462474	2576.080027
381.847835	2576.984914
382.233134	2578.673701
382.618371	2576.203535
383.003545	2579.765110
383.388657	2576.705130
383.773706	2578.966087
384.158693	2576.763103
384.543618	2583.240986
384.928480	2576.861406
385.313280	2580.995152
385.698017	2582.925914
386.082692	2580.208732
386.467305	2579.704617
386.851856	2582.167220
387.236344	2582.666294
387.620770	2578.572878
388.005133	2578.502301
388.389435	2580.193608
388.773674	2577.776375
389.157851	2582.792323
389.541965	2582.933476
389.926018	2583.092272
390.310008	2582.610842
390.693936	2582.207549
391.077802	2585.796851
391.461606	2584.244176
391.845348	2582.288208
392.229027	2584.544124
392.612645	2585.217118
392.996200	2582.242837
393.379694	2584.929772
393.763125	2586.966399
394.146494	2587.500761
394.529801	2587.034454
394.913047	2586.747108
395.296230	2585.020513
395.679351	2588.362798
396.062410	2586.890781
396.445408	2588.940010
396.828343	2590.349013
397.211217	2589.252562
397.594028	2588.335072
397.976778	2590.802717
398.359466	2589.265165
398.742092	2587.830957
399.124656	2586.979002
399.507158	2588.917325
399.889598	2590.553180
400.271977	2589.398755
400.654294	2588.982860
401.036549	2590.815320
401.418742	2591.001842
401.800874	2589.537387
402.182944	2589.323138
402.564952	2593.098962
402.946898	2591.231215
403.328783	2593.827409
403.710606	2590.064188
404.092367	2595.596854
404.474067	2592.884713
404.855705	2592.662902
405.237282	2594.500403
405.618797	2588.947572
406.000250	2592.846905
406.381642	2593.824888
406.762972	2592.506627
407.144240	2590.311204
407.525447	2590.969075
407.906593	2590.099476
408.287677	2596.405959
408.668700	2595.886720
409.049661	2597.026021
409.430560	2596.693305
409.811399	2598.800507
410.192176	2595.448140
410.572891	2596.758840
410.953545	2596.441247
411.334138	2595.347317
411.714669	2595.314549
412.095139	2598.528285
412.475547	2597.464602
412.855894	2597.676330
413.236180	2596.907554
413.616405	2599.226485
413.996568	2598.392174
414.376670	2599.599530
414.756711	2599.632298
415.136691	2599.854108
415.516609	2598.790425
415.896466	2601.419387
416.276262	2602.099942
416.655997	2600.670775
417.035670	2598.656834
417.415283	2600.983327
417.794834	2601.275714
418.174324	2600.428800
418.553753	2600.534664
418.933121	2603.453492
419.312428	2602.616661
419.691674	2601.825200
420.070859	2602.286465
420.449983	2604.365941
420.829045	2602.389809
421.208047	2602.276383
421.586988	2604.771754
421.965867	2604.907865
422.344686	2605.868205
422.723444	2606.941971
423.102141	2603.743359
423.480777	2605.243102
423.859352	2603.486260
424.237866	2604.237392
424.616319	2605.472474
424.994712	2606.755448
425.373044	2607.783843
425.751314	2601.651280
426.129524	2601.835282
426.507673	2602.901486
426.885762	2603.579521
427.263789	2605.212855
427.641756	2607.703185
428.019662	2608.983638
428.397508	2606.989862
428.775292	2605.066662
429.153016	2608.696292
429.530679	2610.501025
429.908282	2607.811570
430.285824	2608.567743
430.663305	2606.339553
431.040726	2609.707044
431.418086	2609.185284
431.795385	2610.042280
432.172624	2609.606221
432.549802	2608.832403
432.926920	2609.621344
433.303977	2611.758793
433.680974	2610.206118
434.057910	2610.158227
434.434786	2611.327775
434.811601	2610.891715
435.188355	2609.878443
435.565050	2612.996397
435.941683	2611.305089
436.318257	2613.581170
436.694770	2611.778958
437.071222	2612.986314
437.447614	2610.788371
437.823946	2614.178547
438.200218	2614.531428
438.576429	2614.299535
438.952580	2612.832559
439.328670	2615.532097
439.704700	2615.973198
440.080670	2616.552931
440.456580	2615.481685
440.832429	2619.670884
441.208218	2617.188116
441.583947	2618.279526
441.959616	2617.389762
442.335224	2618.186264
442.710773	2620.631224
443.086261	2616.878085
443.461689	2617.727519
443.837057	2621.183230
444.212365	2620.573251
444.587612	2616.084103
444.962800	2618.670215
445.337927	2619.728857
445.712995	2615.784155
446.088002	2623.073663
446.462949	2624.034003
446.837837	2625.627007
447.212664	2623.497120
447.587431	2623.192130
447.962139	2629.183542
448.336786	2629.778398
448.711374	2630.337966
449.085901	2628.702111
449.460369	2628.281175
449.834776	2627.903088
450.209124	2629.654889
450.583412	2632.545991
450.957640	2633.183697
451.331808	2632.331742
451.705917	2631.048768
452.079965	2629.846453
452.453954	2634.391053
452.827883	2636.588997
453.201752	2637.216620
453.575562	2636.198307
453.949311	2638.940695
454.323001	2639.449851
454.696632	2640.541261
455.070202	2644.697692
455.443713	2641.821714
455.817164	2647.785399
456.190556	2646.618372
456.563888	2653.048364
456.937160	2650.444608
457.310373	2655.984836
457.683526	2658.608757
458.056619	2657.010711
458.429653	2661.759478
458.802628	2663.544046
459.175542	2668.985972
459.548398	2676.494770
459.921194	2684.585822
460.293930	2691.991277
460.666607	2705.226827
461.039224	2727.032338
461.411782	2736.121538
461.784280	2746.085379
462.156719	2753.858838
462.529099	2764.709922
462.901419	2763.487442
463.273680	2770.829882
463.645882	2780.995369
464.018024	2792.516926
464.390106	2815.514670
464.762130	2844.839062
465.134094	2888.830691
465.505999	2970.872949
465.877845	3109.413939
466.249631	3217.211452
466.621358	3234.129565
466.993026	3219.840414
467.364634	3236.791294
467.736184	3243.674990
468.107674	3258.269130
468.479105	3317.323727
468.850477	3349.491329
469.221790	3386.904253
469.593043	3406.655493
469.964238	3437.209927
470.335373	3476.745176
470.706449	3561.555028
471.077467	3596.777570
471.448425	3793.107827
471.819324	4194.045916
472.190164	4455.928817
472.560945	4269.030558
472.931667	4142.500118
473.302330	4181.821118
473.672934	4220.418712
474.043479	4357.013817
474.413965	4433.291515
474.784393	4490.934589
475.154761	4673.618443
475.525070	4777.567035
475.895321	4829.962267
476.265513	5021.710116
476.635645	5208.832705
477.005719	5300.251510
477.375734	5449.991423
477.745691	5669.274054
478.115588	5867.396441
478.485427	6115.708556
478.855207	6441.525891
479.224928	6947.456091
479.594591	7622.138916
479.964194	7794.690050
480.333739	8044.045684
480.703226	8060.610916
481.072653	8194.919857
481.442022	8556.773880
481.811333	8986.870003
482.180584	9190.973719
482.549777	9099.970810
482.918912	9242.731246
483.287988	9474.707502
483.657005	9599.798693
484.025964	9708.848933
484.394864	9890.723682
484.763706	10005.157874
485.132489	10073.636908
485.501213	10284.155492
485.869879	10507.012301
486.238487	10562.412061
486.607036	10906.296891
486.975527	10979.499486
487.343959	11301.835904
487.712333	11545.454705
488.080648	11566.864486
488.448905	12017.649504
488.817104	12113.093669
489.185244	12618.544960
489.553326	12893.791960
489.921350	13505.167975
490.289315	14781.381441
490.657222	15916.513176
491.025070	16441.579596
491.392861	16607.559587
491.760593	16440.767971
492.128267	16316.664845
492.495883	15973.818493
492.863440	15787.557940
493.230939	15516.908473
493.598380	15675.215827
493.965763	15654.801674
494.333088	15619.122908
494.700354	15790.534742
495.067563	15956.396265
495.434713	16013.378947
495.801805	16253.894918
496.168839	16405.089204
496.535815	16497.211250
496.902733	16832.266499
497.269593	16763.374090
497.636395	17122.581508
498.003139	17299.435267
498.369825	17360.559257
498.736453	17649.336714
499.103023	17753.154237
499.469535	17961.923541
499.835989	18278.770142
500.202385	18517.700670
500.568723	18325.478953
500.935003	18665.177105
501.301226	18549.880876
501.667390	19282.262227
502.033497	19691.213230
502.399546	19608.515622
502.765537	19508.194139
503.131470	19936.823286
503.497345	20203.646518
503.863163	19708.640499
504.228923	20393.312370
504.594625	20684.421361
504.960269	20394.209695
505.325856	20975.031277
505.691385	20621.112030
506.056856	21228.288764
506.422270	21364.788087
506.787625	21119.127618
507.152924	21634.242801
507.518164	21726.299311
507.883347	21675.837361
508.248472	21507.150271
508.613540	22316.787305
508.978550	22223.157955
509.343503	22320.411895
509.708398	22685.366228
510.073236	22896.814905
510.438016	23194.089227
510.802738	23000.251820
511.167403	23319.535820
511.532010	23106.272327
511.896561	23925.064096
512.261053	23984.693384
512.625488	23908.745881
512.989866	23884.777715
513.354186	23815.746675
513.718449	23972.806344
514.082655	24388.245312
514.446803	24219.704415
514.810894	24694.228227
515.174927	24267.519759
515.538904	24352.664848
515.902822	24861.196283
516.266684	24694.021539
516.630488	24642.095134
516.994235	24680.523850
517.357925	24987.837629
517.721558	25233.374589
518.085133	25338.142369
518.448651	25309.203625
518.812112	25070.696555
519.175516	25270.422029
519.538863	25481.414482
519.902152	25284.403669
520.265385	25633.584231
520.628560	25422.753095
520.991678	25463.883869
521.354739	25570.993265
521.717743	25639.991538
522.080690	25459.377078
522.443580	25813.510574
522.806413	25843.452507
523.169189	25937.407012
523.531908	26015.161769
523.894569	25628.142306
524.257174	25717.768980
524.619722	25941.931447
524.982213	25622.599557
525.344647	25720.070267
525.707025	25838.784399
526.069345	25857.771905
526.431608	25807.277187
526.793815	26015.338209
527.155964	25464.025022
527.518057	25654.603322
527.880093	25584.503558
528.242072	25809.994369
528.603995	25532.287286
528.965860	25334.837893
529.327669	25388.919391
529.689421	25396.909620
530.051117	25220.242383
530.412755	25405.109057
530.774337	25219.587033
531.135862	25089.265645
531.497331	25305.931917
531.858743	24835.912376
532.220098	25331.939229
532.581396	25002.608210
532.942638	24969.281142
533.303824	25054.718618
533.664953	25082.311373
534.026025	24740.311934
534.387040	24989.171015
534.747999	25051.441868
535.108902	25210.157555
535.469748	24711.905032
535.830537	24900.207252
536.191270	25006.482337
536.551947	24904.719085
536.912567	24585.593882
537.273131	24880.380394
537.633638	24602.315389
537.994089	24813.506968
538.354483	24377.132088
538.714821	24856.260993
539.075103	24908.298304
539.435328	24701.595873
539.795497	24248.386060
540.155609	24666.368290
540.515665	24949.116527
540.875665	24205.841242
541.235609	24463.905469
541.595496	24439.415544
541.955328	24807.003879
542.315102	24721.251332
542.674821	24286.129179
543.034483	24158.691330
543.394090	24319.572193
543.753640	24106.364153
544.113134	24743.412244
544.472571	24344.175545
544.831953	24636.285204
545.191278	24245.270627
545.550548	24181.492469
545.909761	24395.542382
546.268918	24608.750422
546.628019	24572.965791
546.987064	24286.870228
547.346053	24045.628332
547.704986	24174.124823
548.063863	24337.359905
548.422684	24322.533871
548.781449	23884.565987
549.140158	24285.078098
549.498811	23848.559545
549.857408	23593.971194
550.215949	24031.220714
550.574434	23712.065264
550.932864	23928.426546
551.291237	24064.477206
551.649555	23954.562408
552.007817	23990.031966
552.366022	23873.989646
552.724173	23920.406070
553.082267	23849.860163
553.440305	24327.005375
553.798288	23602.468059
554.156215	24137.273988
554.514086	24204.447363
554.871902	23564.924065
555.229661	23856.055741
555.587365	23722.631522
555.945014	23558.393251
556.302606	23845.308001
556.660143	23769.831846
557.017625	24023.366596
557.375050	23569.249375
557.732421	23961.362924
558.089735	23762.305403
558.446994	23832.049767
558.804197	23840.256765
559.161345	23815.650893
559.518437	23543.910016
559.875474	23753.743003
560.232455	23930.364869
560.589381	23757.831379
560.946251	23722.916347
561.303065	24070.932403
561.659825	24137.425222
562.016528	23750.052879
562.373177	23493.679959
562.729770	23837.421116
563.086307	23718.868301
563.442789	23889.823910
563.799216	23710.348751
564.155587	23728.806936
564.511904	23705.698287
564.868164	23627.068889
565.224370	23623.961018
565.580520	23513.799204
565.936615	23652.771212
566.292654	23333.333458
566.648638	23646.900789
567.004567	23462.437408
567.360441	23413.323966
567.716260	23154.526251
568.072023	23468.272543
568.427732	23223.718608
568.783385	23014.818234
569.138982	23240.304005
569.494525	23283.199183
569.850013	23040.946535
570.205445	23135.054795
570.560823	22924.092588
570.916145	22689.699099
571.271412	22875.516030
571.626625	22627.087968
571.981782	22748.506679
572.336884	22542.096635
572.691931	22677.277696
573.046923	22415.954363
573.401860	22303.166107
573.756743	22297.953554
574.111570	22218.668807
574.466342	22148.475781
574.821059	22236.675809
575.175722	21940.520623
575.530330	21929.992173
575.884882	21954.892953
576.239380	21860.104137
576.593823	21749.874267
576.948211	21720.348229
577.302544	21566.681257
577.656823	21448.874533
578.011047	21530.919312
578.365216	21412.931106
578.719330	21296.510699
579.073389	21205.981658
579.427394	21339.335301
579.781344	21121.857403
580.135239	21015.932679
580.489080	20978.358438
580.842866	20736.733414
581.196597	20919.099675
581.550273	20905.092829
581.903895	20803.727828
582.257463	21116.438163
582.610975	20640.830503
582.964434	20947.388110
583.317837	20663.210706
583.671186	20750.909139
584.024481	20728.594471
584.377721	20501.966879
584.730906	20539.127745
585.084037	20585.327399
585.437113	20475.909155
585.790135	20679.027326
586.143103	20137.362907
586.496016	20158.258490
586.848874	20399.437372
587.201679	20342.563074
587.554428	19999.172277
587.907124	20338.603248
588.259765	20122.259610
588.612352	20198.834737
588.964884	19763.921792
589.317362	19936.480488
589.669786	19989.165587
590.022155	20043.725995
590.374470	20217.542459
590.726731	20023.148005
591.078937	19770.051835
591.431090	19884.528877
591.783188	19622.335945
592.135232	19579.042516
592.487222	19697.998623
592.839157	19723.053158
593.191038	19604.195353
593.542866	19481.944851
593.894639	19223.353824
594.246358	19436.519014
594.598022	19342.793882
594.949633	19099.137272
595.301190	19046.379077
595.652692	19213.866372
596.004141	19450.692218
596.355535	18791.367268
596.706876	18800.973187
597.058162	18693.205921
597.409395	18907.580988
597.760573	19005.961626
598.111698	18782.943500
598.462768	18711.291060
598.813785	18670.084668
599.164748	18494.743255
599.515657	18525.327936
599.866511	18321.181370
600.217312	18687.141412
600.568060	18217.812510
600.918753	18512.793107
601.269392	18422.790867
601.619978	18197.068162
601.970510	18412.721162
602.320988	18360.769551
602.671412	18563.809584
603.021783	18468.680490
603.372100	18200.959933
603.722363	18340.776335
604.072572	18280.998332
604.422728	18404.962826
604.772830	18178.872117
605.122878	18122.151575
605.472872	18117.412890
605.822813	18110.188917
606.172701	18073.209533
606.522534	18262.900590
606.872314	18286.460423
607.222041	18127.848078
607.571714	18333.960695
607.921333	18166.279315
608.270899	18246.819309
608.620411	18433.369728
608.969870	18185.087860
609.319276	18190.585238
609.668627	18221.628663
610.017926	18357.618830
610.367171	18472.579822
610.716362	18508.518208
611.065500	18338.099482
611.414585	18470.165110
611.763616	18458.900652
612.112594	18400.738339
612.461518	18370.632568
612.810389	18568.686900
613.159207	18404.045336
613.507971	18316.828333
613.856682	18612.290360
614.205340	18539.876706
614.553945	18677.275874
614.902496	18415.473632
615.250994	18653.988264
615.599439	18595.334439
615.947830	18584.561493
616.296169	18631.764338
616.644454	18594.588348
616.992686	18563.504594
617.340864	18774.716337
617.688990	18534.142393
618.037063	18718.673830
618.385082	18557.407318
618.733048	18838.015585
619.080961	18702.801757
619.428821	18750.740609
619.776628	18640.243558
620.124382	18559.007885
620.472083	18591.034335
620.819731	18625.178070
621.167326	18324.584148
621.514868	18354.999950
621.862357	18112.863249
622.209793	18123.381616
622.557176	17968.361094
622.904506	17780.905788
623.251783	17690.086881
623.599007	17468.341647
623.946179	17411.976506
624.293297	17357.963063
624.640363	17108.103314
624.987376	17129.014020
625.334336	16909.539826
625.681243	16772.339782
626.028097	16766.292918
626.374899	16700.221036
626.721647	16568.152887
627.068343	16407.791263
627.414987	16327.473079
627.761577	16304.976930
628.108115	16355.285125
628.454600	16075.022177
628.801032	16167.686146
629.147412	16102.783811
629.493739	16118.567664
629.840014	15930.101607
630.186236	16026.869075
630.532405	15797.607481
630.878521	15989.594784
631.224585	15879.359873
631.570597	15704.603233
631.916556	15745.839872
632.262462	15718.904987
632.608316	15636.461957
632.954117	15575.307719
633.299866	15584.170068
633.645562	15500.796945
633.991206	15244.716412
634.336797	15122.770900
634.682336	15096.506489
635.027823	14981.628675
635.373257	14861.782804
635.718639	14758.232463
636.063968	14711.251430
636.409245	14465.217916
636.754470	14496.402494
637.099642	14341.760058
637.444762	14106.912865
637.789829	14153.946831
638.134845	13987.397190
638.479808	14022.239125
638.824719	13965.342142
639.169577	13822.289319
639.514383	13864.221637
639.859137	13685.527857
640.203839	13765.551133
640.548489	13609.103964
640.893086	13597.458899
641.237632	13461.819093
641.582125	13616.486734
641.926566	13454.111169
642.270955	13457.168628
642.615292	13418.835695
642.959576	13435.600052
643.303809	13469.592552
643.647990	13402.295669
643.992118	13460.402529
644.336195	13223.866549
644.680219	13428.287858
645.024192	13348.556969
645.368112	13593.536881
645.711981	13644.649140
646.055797	13821.596161
646.399562	13783.502682
646.743274	14063.508531
647.086935	14341.006406
647.430544	14301.763544
647.774101	14328.648017
648.117606	14480.795082
648.461059	14456.249703
648.804460	14450.263333
649.147810	14183.742571
649.491108	14075.327516
649.834354	14101.939767
650.177548	13799.893993
650.520690	13598.411677
650.863781	13523.099359
651.206820	13565.124938
651.549807	13388.931570
651.892742	13206.441801
652.235626	13141.426040
652.578458	13140.954692
652.921238	12832.108401
653.263967	13020.851722
653.606644	12855.842154
653.949269	12824.917195
654.291843	12633.126497
654.634365	12788.605764
654.976836	12642.427426
655.319255	12652.807162
655.661622	12604.782610
656.003938	12523.798994
656.346203	12455.282151
656.688416	12521.255732
657.030577	12481.062612
657.372687	12403.527145
657.714746	12378.407076
658.056753	12559.689489
658.398708	12390.026935
658.740612	12389.384188
659.082465	12490.381185
659.424266	12451.455916
659.766016	12476.583547
660.107715	12382.558466
660.449362	12456.981020
660.790958	12424.024477
661.132503	12366.308307
661.473996	12419.147161
661.815438	12441.552569
662.156829	12456.643263
662.498168	12433.209459
662.839456	12430.416660
663.180693	12452.822068
663.521879	12539.885316
663.863013	12515.760874
664.204097	12494.787153
664.545129	12619.124693
664.886110	12583.987850
665.227040	12665.891477
665.567918	12673.329699
665.908746	12712.862428
666.249522	12694.822659
666.590248	12740.787899
666.930922	12855.312833
667.271545	12836.463958
667.612118	12922.723142
667.952639	12832.100840
668.293109	12836.032940
668.633528	12796.653966
668.973896	12765.532403
669.314213	12854.856608
669.654480	12588.550094
669.994695	12655.547029
670.334859	12677.534022
670.674973	12627.697175
671.015035	12659.602637
671.355047	12600.346394
671.695008	12569.761714
672.034918	12578.054412
672.374777	12622.051082
672.714585	12540.754915
673.054342	12565.043194
673.394049	12517.419414
673.733705	12615.109413
674.073310	12525.026515
674.412864	12544.092159
674.752368	12416.533322
675.091820	12424.599168
675.431223	12418.264959
675.770574	12286.579938
676.109875	12210.420706
676.449125	12174.729337
676.788324	12106.724172
677.127473	11948.250459
677.466571	11935.277050
677.805619	11834.844662
678.144616	11751.612692
678.483562	11720.206303
678.822458	11590.749473
679.161303	11572.888664
679.500098	11561.858620
679.838842	11515.404387
680.177535	11544.146526
680.516179	11600.335227
680.854771	11547.652648
681.193314	11760.596028
681.531805	11916.224009
681.870247	12323.307264
682.208638	12731.323133
682.546978	13056.626270
682.885268	13109.248355
683.223508	12795.025674
683.561697	12629.471661
683.899836	12532.507587
684.237925	12339.653206
684.575963	12251.017118
684.913951	12179.707476
685.251889	12126.540947
685.589776	12225.647511
685.927614	12147.698670
686.265401	12115.236160
686.603137	12156.308961
686.940824	12311.546252
687.278460	12427.417173
687.616046	12484.384733
687.953582	12652.799600
688.291068	12573.963516
688.628504	12803.751911
688.965889	12808.886326
689.303224	12787.731124
689.640510	12677.929752
689.977745	12371.447763
690.314930	12142.980150
690.652065	12062.238509
690.989150	11774.242431
691.326185	11546.830940
691.663170	11346.220743
692.000105	11098.725295
692.336990	10996.435243
692.673825	10744.375030
693.010610	10623.019333
693.347345	10409.707949
693.684030	10212.054389
694.020665	10153.834104
694.357251	9958.910328
694.693786	9912.695551
695.030272	9739.920085
695.366707	9619.255026
695.703093	9554.317403
696.039429	9552.840345
696.375716	9475.814035
696.711952	9344.416360
697.048139	9379.011278
697.384276	9342.465433
697.720363	9353.329120
698.056400	9295.973392
698.392388	9252.180888
698.728326	9204.710863
699.064214	9146.208273
699.400053	9194.880613
699.735842	9005.242488
700.071581	8960.935787
700.407270	8888.191937
700.742910	8809.650760
701.078501	8714.738436
701.414042	8594.567410
701.749533	8526.201803
702.084974	8396.641628
702.420366	8506.402671
702.755709	8382.307107
703.091002	8255.496882
703.426246	8285.340513
703.761440	8232.688182
704.096584	8191.202006
704.431679	8122.060060
704.766725	8111.937423
705.101721	8060.946152
705.436668	8103.231351
705.771565	8000.046493
706.106413	8078.373421
706.441212	8133.274107
706.775961	8075.966270
707.110661	8106.598842
707.445311	8255.045699
707.779913	8152.997622
708.114465	8283.956716
708.448967	8325.634456
708.783421	8451.789331
709.117825	8642.967528
709.452180	8676.022374
709.786485	8766.269110
710.120742	9046.567347
710.454949	9046.403509
710.789107	9148.345722
711.123216	9357.876241
711.457275	9523.868834
711.791286	9688.666674
712.125247	9676.550260
712.459159	9670.831071
712.793023	9924.302807
713.126837	9497.904371
713.460602	9642.749324
713.794318	9467.092839
714.127985	9500.911419
714.461602	9189.645375
714.795171	9131.044482
715.128691	8886.543479
715.462162	8638.294379
715.795584	8577.510666
716.128957	8440.325747
716.462281	8263.318232
716.795556	8309.608628
717.128782	8112.539841
717.461960	7848.733740
717.795088	7915.934841
718.128167	7826.782036
718.461198	7659.148547
718.794180	7598.130421
719.127113	7590.732527
719.459997	7443.482944
719.792833	7213.636576
720.125619	7270.641943
720.458357	7134.364431
720.791046	7119.513192
721.123686	7121.993440
721.456278	6966.282280
721.788821	6979.497665
722.121315	6877.268106
722.453761	6940.128774
722.786158	6890.264200
723.118506	6901.934472
723.450805	6863.964501
723.783056	6935.690038
724.115259	6838.093299
724.447412	6833.692372
724.779518	6880.852366
725.111574	6886.987450
725.443582	6956.620908
725.775542	6939.654905
726.107453	7131.911910
726.439315	7049.809158
726.771129	7101.160872
727.102895	7272.766790
727.434612	7386.291054
727.766281	7414.786176
728.097901	7495.484967
728.429473	7490.312743
728.760996	7462.203269
729.092471	7439.137469
729.423897	7385.938173
729.755276	7396.829586
730.086606	7332.474216
730.417887	7423.053668
730.749120	7610.577029
731.080305	7803.711195
731.411442	7927.743744
731.742530	7928.313395
732.073570	8032.458592
732.404562	8115.889688
732.735506	7962.628529
733.066401	8103.148172
733.397249	8036.012605
733.728048	7801.379661
734.058798	7474.138201
734.389501	7246.527584
734.720156	7074.417550
735.050762	6836.384348
735.381320	6740.662919
735.711831	6693.515528
736.042293	6587.250525
736.372707	6607.553772
736.703073	6469.017823
737.033391	6503.048132
737.363661	6513.243866
737.693883	6540.067846
738.024056	6626.432893
738.354182	6671.538617
738.684260	6703.791920
739.014290	6819.004970
739.344272	6922.719149
739.674207	6958.173584
740.004093	7021.596340
740.333931	7040.205760
740.663722	7046.020731
740.993464	7122.956300
741.323159	7123.846064
741.652806	6866.651436
741.982405	6870.434822
742.311956	6938.117353
742.641460	6776.939062
742.970915	6584.243477
743.300323	6570.327372
743.629683	6520.558580
743.958996	6387.852726
744.288260	6296.199508
744.617477	6247.824595
744.946647	6257.377582
745.275768	6083.581283
745.604842	6041.694335
745.933869	6026.540627
746.262847	5982.851467
746.591778	5969.235310
746.920662	5928.114618
747.249498	5914.929481
747.578286	5967.034847
747.907027	6048.547784
748.235720	6105.772442
748.564365	6075.666671
748.892963	6099.443273
749.221514	6255.401450
749.550017	6093.144351
749.878473	5964.118539
750.206881	6022.696747
750.535242	5962.845648
750.863555	5894.411984
751.191821	5911.279685
751.520039	5914.206075
751.848210	5822.172250
752.176334	5839.833932
752.504411	5892.395523
752.832440	5814.595396
753.160421	5744.644345
753.488356	5794.032529
753.816243	5828.892108
754.144082	5682.638152
754.471875	5646.634232
754.799620	5692.912024
755.127318	5708.148912
755.454969	5663.454042
755.782572	5625.121108
756.110129	5666.206512
756.437638	5655.904914
756.765100	5597.984577
757.092515	5589.349080
757.419882	5639.493437
757.747203	5624.586745
758.074477	5687.351631
758.401703	5675.746895
758.728882	5621.277228
759.056014	5678.799314
759.383099	5810.451567
759.710138	5816.606816
760.037129	5799.025792
760.364073	5805.334796
760.690970	5892.256891
761.017820	5874.940528
761.344623	5826.106870
761.671379	5925.215955
761.998088	6037.830291
762.324751	6276.546569
762.651366	6864.118256
762.977935	8154.169690
763.304456	9773.053068
763.630931	10694.699500
763.957359	10319.519187
764.283740	9381.925065
764.610074	8559.760764
764.936362	7567.830565
765.262602	6972.069524
765.588796	6430.599190
765.914943	6094.041677
766.241044	5936.112409
766.567097	5736.001287
766.893104	5481.962421
767.219064	5296.503412
767.544978	5234.461932
767.870845	5162.260006
768.196665	5052.904776
768.522438	4982.189990
768.848165	4953.765444
769.173846	4888.265732
769.499479	4844.460626
769.825066	4788.952481
770.150607	4731.362339
770.476101	4704.064491
770.801548	4704.067012
771.126949	4628.079179
771.452303	4572.729831
771.777611	4535.395045
772.102872	4547.997930
772.428087	4515.212786
772.753256	4478.182990
773.078378	4430.178603
773.403453	4361.298797
773.728482	4345.935881
774.053465	4297.752533
774.378401	4288.108805
774.703291	4289.719454
775.028135	4220.174216
775.352932	4166.639683
775.677683	4157.487468
776.002388	4174.526568
776.327046	4189.481151
776.651658	4111.741517
776.976224	4050.735994
777.300743	4057.657498
777.625216	4077.118873
777.949643	4071.550918
778.274024	4029.520298
778.598359	3983.683607
778.922647	4006.663707
779.246889	4001.438551
779.571086	3996.936800
779.895236	3978.952484
780.219339	3964.476811
780.543397	3954.767548
780.867409	4009.615302
781.191374	4021.898073
781.515294	3962.782983
781.839167	3954.797795
782.162995	3975.726145
782.486776	3964.441522
782.810511	3969.704487
783.134201	3966.158035
783.457844	3923.156993
783.781441	3871.956514
784.104993	3871.182697
784.428498	3892.710944
784.751958	3890.092065
785.075372	3870.063561
785.398739	3828.869772
785.722061	3845.394674
786.045337	3881.474212
786.368568	3922.115995
786.691752	3828.121161
787.014891	3876.647308
787.337983	4000.332017
787.661030	4160.630627
787.984031	4322.207170
788.306987	4491.826873
788.629897	4576.460285
788.952760	4531.442781
789.275579	4458.492243
789.598351	4401.254983
789.921078	4264.790948
790.243759	4062.681008
790.566395	4043.713667
790.888984	4042.440775
791.211529	3934.812141
791.534027	3876.861557
791.856480	3865.705483
792.178888	3804.342038
792.501249	3750.678955
792.823566	3762.361829
793.145836	3792.150008
793.468062	3743.994385
793.790241	3697.255328
794.112375	3724.588464
794.434464	3789.800830
794.756507	3809.569715
795.078505	3795.295688
795.400457	3824.514215
795.722364	3960.259885
796.044226	4066.146801
796.366042	4136.657420
796.687812	4124.112509
797.009538	4129.173827
797.331218	4088.295111
797.652852	4057.370152
797.974442	4038.468346
798.295986	4040.696536
798.617484	3959.135708
798.938938	3868.684805
799.260346	3911.078388
799.581709	3911.388419
799.903026	3836.812110
800.224299	3796.732416
800.545526	3790.383083
800.866708	3753.108792
801.187845	3696.093342
801.508936	3729.342272
801.829983	3726.589802
802.150984	3645.076865
802.471940	3635.216368
802.792851	3649.326557
803.113717	3647.889828
803.434538	3651.620282
803.755314	3595.270265
804.076045	3568.816810
804.396731	3586.118050
804.717372	3612.286679
805.037967	3603.925926
805.358518	3592.890840
805.679024	3617.600056
805.999485	3631.947179
806.319901	3632.821820
806.640272	3646.909324
806.960598	3661.654699
807.280879	3636.332983
807.601115	3648.028460
807.921306	3665.412879
808.241453	3704.685988
808.561554	3681.526928
808.881611	3615.286166
809.201623	3649.896208
809.521590	3663.620749
809.841513	3633.393991
810.161390	3666.537057
810.481223	3642.107625
810.801011	3588.852876
811.120755	3579.388109
811.440453	3614.474540
811.760107	3620.397896
812.079716	3577.880804
812.399281	3544.785629
812.718801	3566.087025
813.038276	3539.053837
813.357707	3536.853374
813.677093	3556.312228
813.996434	3506.374558
814.315731	3513.091895
814.634983	3516.769417
814.954191	3527.242414
815.273354	3559.099986
815.592473	3551.513049
815.911547	3560.393042
816.230577	3600.071964
816.549562	3648.751866
816.868502	3691.490768
817.187399	3716.061352
817.506250	3710.710167
817.825058	3680.427956
818.143821	3775.191566
818.462539	3877.295096
818.781213	3920.780089
819.099843	3977.782936
819.418429	4216.048032
819.736970	4457.476451
820.055466	4698.491496
820.373919	5061.063883
820.692327	5464.620852
821.010691	5890.086674
821.329011	7228.775161
821.647286	9913.550026
821.965517	14408.058793
822.283704	18427.259849
822.601847	20639.406377
822.919945	18869.850472
823.237999	16321.171637
823.556010	13855.989433
823.873976	11787.102415
824.191897	9707.329025
824.509775	8355.105041
824.827609	7227.993782
825.145398	6680.509351
825.463144	6562.377472
825.780845	6677.129257
826.098502	6857.640373
826.416116	7710.054118
826.733685	9016.380917
827.051210	10136.323656
827.368692	10212.296365
827.686129	8980.152665
828.003522	7465.956408
828.320872	6451.330935
828.638177	5757.259832
828.955439	5203.907498
829.272656	4705.130695
829.589830	4419.272067
829.906960	4246.791508
830.224046	4063.916091
830.541088	3938.577883
830.858086	3895.851583
831.175041	3820.756035
831.491952	3794.968013
831.808819	3810.890497
832.125642	3877.368193
832.442421	4026.543497
832.759157	4288.935554
833.075849	4830.650385
833.392497	5684.800807
833.709101	6456.775381
834.025662	6803.942003
834.342179	6460.384847
834.658653	5801.558972
834.975083	5159.043749
835.291469	4584.311882
835.607811	4173.205786
835.924110	4034.548849
836.240366	3839.645238
836.556578	3632.479021
836.872746	3525.533463
837.188871	3487.692042
837.504952	3422.575457
837.820990	3338.660410
838.136984	3288.213584
838.452935	3320.227431
838.768842	3312.171668
839.084706	3335.333249
839.400526	3488.044922
839.716303	3816.776044
840.032037	4332.533973
840.347727	4604.237042
840.663373	4338.535467
840.978977	3960.680822
841.294537	3654.360149
841.610054	3428.803803
841.925527	3320.103923
842.240957	3250.195722
842.556344	3197.114893
842.871687	3139.877632
843.186987	3089.261927
843.502244	3052.955537
843.817458	3016.873478
844.132629	2985.265443
844.447756	2997.308760
844.762840	2983.145638
845.077881	2948.495267
845.392879	2933.404573
845.707833	2929.381733
846.022745	2927.362750
846.337613	2931.125972
846.652438	2917.855134
846.967221	2913.681059
847.281960	2902.953483
847.596656	2896.737741
847.911309	2897.768657
848.225919	2890.000239
848.540485	2885.813560
848.855009	2887.590567
849.169490	2875.917775
849.483928	2868.746734
849.798323	2866.082484
850.112675	2861.283306
850.426984	2873.364431
850.741251	2870.614482
851.055474	2858.825743
851.369654	2857.812471
851.683792	2858.775332
851.997887	2869.117259
852.311938	2868.303113
852.625947	2857.235259
852.939914	2861.706763
853.253837	2866.042155
853.567718	2853.865248
853.881555	2849.068590
854.195350	2865.883359
854.509103	2861.933615
854.822812	2856.456401
855.136479	2854.223170
855.450103	2851.367356
855.763685	2847.188240
856.077224	2846.076665
856.390720	2857.162162
856.704173	2865.681712
857.017584	2859.216433
857.330953	2855.430526
857.644278	2865.875797
857.957561	2874.644884
858.270802	2875.993393
858.584000	2876.283259
858.897155	2863.261959
859.210268	2860.229705
859.523339	2859.803727
859.836367	2860.950590
860.149352	2855.957327
860.462295	2850.291070
860.775195	2862.483100
861.088054	2861.608460
861.400869	2840.455779
861.713642	2840.133145
862.026373	2853.151925
862.339062	2854.991946
862.651708	2860.917822
862.964312	2864.721373
863.276873	2858.866072
863.589392	2870.082640
863.901869	2879.388610
864.214303	2900.632032
864.526696	2915.972263
864.839045	2914.409506
865.151353	2912.642581
865.463619	2911.672159
865.775842	2910.439597
866.088023	2928.930549
866.400162	2934.178390
866.712258	2909.040677
867.024313	2896.785632
867.336325	2904.475912
867.648296	2926.722524
867.960224	2919.185999
868.272110	2906.028587
868.583954	2912.619896
868.895755	2924.673295
869.207515	2910.633681
869.519233	2915.188364
869.830909	2927.125816
870.142542	2935.668051
870.454134	2939.017898
870.765684	2938.264246
871.077191	2939.597631
871.388657	2946.574588
871.700081	2959.827781
872.011463	2968.853967
872.322803	2973.106180
872.634101	2970.971252
872.945357	2988.335506
873.256571	3014.128570
873.567744	3004.963752
873.878874	2994.175683
874.189963	3021.622245
874.501010	3021.539066
874.812015	3013.170751
875.122979	3010.768641
875.433900	3008.744618
875.744780	3012.994310
876.055618	3023.852956
876.366415	3018.524456
876.677169	3029.851929
876.987882	3026.129037
877.298554	3021.803727
877.609183	3041.491953
877.919771	3062.180848
878.230317	3089.198912
878.540822	3143.020791
878.851285	3180.567305
879.161707	3223.505333
879.472087	3317.353974
879.782425	3538.882438
880.092722	3966.936894
880.402977	4490.276718
880.713191	5106.288074
881.023363	6239.373101
881.333494	7508.733119
881.643583	8082.502126
881.953631	7790.639483
882.263637	7176.112747
882.573602	6597.247133
882.883526	6023.470564
883.193408	5446.951607
883.503248	4989.063603
883.813048	4688.714178
884.122806	4392.445566
884.432522	4074.573090
884.742197	3844.396526
885.051831	3652.079027
885.361424	3517.686907
885.670975	3446.853654
885.980485	3358.467104
886.289954	3289.615025
886.599382	3241.638363
886.908768	3204.205276
887.218113	3158.643327
887.527417	3102.941098
887.836680	3054.077193
888.145901	3049.716595
888.455082	3039.490615
888.764221	2988.922801
889.073319	2961.456074
889.382376	2956.868624
889.691392	2962.391208
890.000366	2962.393728
890.309300	2947.839917
890.618193	2962.746609
890.927044	2976.899649
891.235855	2980.763693
891.544625	2962.408852
891.853353	2974.721870
892.162041	2992.035713
892.470687	3030.174562
892.779293	3084.359405
893.087858	3128.570324
893.396381	3198.939790
893.704864	3315.836586
894.013306	3550.537586
894.321707	3848.200077
894.630068	4056.598856
894.938387	4053.564081
895.246665	4006.701515
895.554903	3888.304976
895.863100	3694.470090
896.171256	3530.493958
896.479371	3394.309708
896.787446	3270.085595
897.095480	3169.756551
897.403473	3104.400512
897.711425	3065.306364
898.019336	3057.595919
898.327207	3029.824202
898.635038	2994.400014
898.942827	2979.735298
899.250576	2971.324133
899.558284	2938.007147
899.865952	2919.427974
900.173579	2897.113307
900.481165	2891.507544
900.788711	2878.123280
901.096216	2853.519929
901.403681	2843.508197
901.711105	2849.628158
902.018489	2850.558251
902.325832	2847.929289
902.633135	2857.121833
902.940397	2888.213150
903.247619	2967.417238
903.554800	3157.375477
903.861941	3490.315962
904.169041	3916.187598
904.476101	4216.544585
904.783121	4178.158719
905.090100	3940.773305
905.397039	3668.051923
905.703938	3419.444901
906.010796	3236.130903
906.317614	3125.527987
906.624391	3031.996940
906.931129	2961.249387
907.237826	2898.718914
907.544483	2854.591174
907.851099	2821.657316
908.157675	2800.948256
908.464211	2780.334978
908.770707	2768.447937
909.077163	2754.249527
909.383578	2741.679410
909.689954	2730.533419
909.996289	2730.235991
910.302584	2731.203892
910.608839	2734.435272
910.915054	2725.666185
911.221229	2719.009341
911.527363	2719.256358
911.833458	2729.401680
912.139513	2730.767833
912.445527	2734.568863
912.751502	2743.642940
913.057436	2754.168869
913.363331	2765.748399
913.669186	2786.212963
913.975000	2818.415854
914.280775	2875.290152
914.586510	2948.422171
914.892205	3023.701721
915.197859	3150.716113
915.503475	3341.085205
915.809050	3550.719068
916.114585	3697.081408
916.420081	3717.009089
916.725536	3661.684946
917.030952	3544.455434
917.336328	3415.442225
917.641665	3288.901701
917.946961	3189.906043
918.252218	3119.022378
918.557435	3043.788198
918.862612	2983.488437
919.167750	2935.925150
919.472848	2897.579613
919.777906	2870.125490
920.082925	2844.733198
920.387904	2814.181285
920.692843	2799.541774
920.997743	2788.738581
921.302603	2773.592435
921.607423	2762.466608
921.912204	2754.549476
922.216946	2739.299986
922.521647	2730.722462
922.826310	2725.283057
923.130932	2717.670915
923.435516	2711.046839
923.740059	2702.668441
924.044564	2693.937163
924.349028	2688.109589
924.653454	2681.934175
924.957840	2677.104750
925.262186	2671.093174
925.566493	2668.270128
925.870761	2662.921464
926.174989	2659.748057
926.479178	2654.185144
926.783328	2649.043167
927.087438	2651.236069
927.391509	2647.283804
927.695541	2647.087199
927.999533	2640.090078
928.303486	2639.948926
928.607400	2637.914820
928.911275	2639.147382
929.215110	2636.417597
929.518906	2636.193266
929.822663	2634.292751
930.126381	2633.851650
930.430060	2635.016157
930.733699	2632.344345
931.037299	2637.259470
931.340861	2640.813483
931.644383	2638.953298
931.947866	2638.108904
932.251309	2637.937505
932.554714	2636.702422
932.858080	2633.158491
933.161407	2634.633029
933.464694	2631.356279
933.767943	2627.204889
934.071153	2630.277472
934.374323	2628.442492
934.677455	2627.217492
934.980548	2627.736730
935.283602	2626.357975
935.586617	2627.983747
935.889593	2626.423510
936.192530	2626.151287
936.495428	2626.894858
936.798287	2630.393418
937.101108	2632.180507
937.403890	2636.152937
937.706632	2642.638381
938.009336	2648.314720
938.312002	2657.797131
938.614628	2665.154695
938.917216	2671.486384
939.219765	2671.178874
939.522275	2671.504028
939.824747	2668.118893
940.127179	2665.547905
940.429573	2660.650424
940.731929	2662.571103
941.034246	2657.701349
941.336524	2655.546256
941.638763	2653.275216
941.940964	2649.234731
942.243126	2647.840852
942.545250	2647.646767
942.847335	2643.787764
943.149381	2642.028402
943.451389	2635.583286
943.753359	2636.518420
944.055290	2631.933491
944.357182	2633.665127
944.659036	2630.804272
944.960851	2631.399129
945.262628	2628.379477
945.564367	2631.792339
945.866067	2629.680095
946.167729	2627.633387
946.469352	2630.055661
946.770937	2627.943418
947.072484	2627.666154
947.373992	2629.412914
947.675462	2625.989971
947.976893	2623.776904
948.278286	2621.621811
948.579641	2618.599639
948.880958	2618.645009
949.182236	2621.790689
949.483476	2619.093672
949.784678	2619.302880
950.085841	2621.742798
950.386967	2620.795062
950.688054	2621.926801
950.989103	2621.946965
951.290114	2622.814044
951.591087	2627.943418
951.892021	2627.784621
952.192917	2630.549694
952.493776	2632.258645
952.794596	2634.451547
953.095378	2632.785446
953.396122	2632.538429
953.696828	2630.945425
953.997496	2627.698922
954.298126	2625.526184
954.598718	2625.768160
954.899272	2622.340175
955.199788	2617.805657
955.500266	2617.059567
955.800706	2615.958074
956.101108	2611.060593
956.401472	2608.981118
956.701798	2610.770727
957.002087	2606.112701
957.302337	2604.620519
957.602550	2607.993051
957.902724	2603.491301
958.202861	2601.918461
958.502960	2602.515838
958.803022	2599.604571
959.103045	2600.514500
959.403031	2598.198089
959.702979	2597.744386
960.002889	2595.440578
960.302762	2598.051896
960.602596	2599.082812
960.902393	2598.271186
961.202153	2598.447627
961.501875	2595.957297
961.801559	2594.578541
962.101205	2594.250866
962.400814	2596.300095
962.700385	2594.339086
962.999918	2592.965372
963.299414	2590.028900
963.598873	2591.004363
963.898293	2590.018817
964.197677	2594.545773
964.497022	2592.947728
964.796331	2594.858325
965.095601	2593.590475
965.394835	2594.036617
965.694030	2594.921339
965.993189	2593.298088
966.292309	2591.274065
966.591393	2592.521750
966.890439	2593.114086
967.189447	2594.099631
967.488419	2593.051071
967.787353	2590.490165
968.086249	2591.798345
968.385108	2593.182141
968.683930	2593.444281
968.982714	2594.449992
969.281462	2590.500247
969.580172	2591.299270
969.878844	2594.273551
970.177480	2593.288006
970.476078	2593.766915
970.774639	2592.675505
971.073162	2592.793972
971.371649	2591.712645
971.670098	2595.904364
971.968510	2594.167687
972.266885	2594.568459
972.565223	2593.401432
972.863524	2593.764395
973.161788	2594.712132
973.460014	2592.249528
973.758204	2591.866400
974.056356	2591.455546
974.354471	2592.330186
974.652550	2593.177100
974.950591	2594.515527
975.248595	2596.899992
975.546563	2592.352872
975.844493	2593.623242
976.142386	2592.304981
976.440243	2592.962851
976.738062	2592.216760
977.035845	2592.889754
977.333590	2590.628797
977.631299	2591.788262
977.928971	2588.902202
978.226606	2585.191912
978.524204	2589.088724
978.821765	2586.326172
979.119290	2592.405804
979.416777	2589.988570
979.714228	2590.792634
980.011642	2586.961357
980.309020	2592.360433
980.606360	2588.955134
980.903664	2592.625094
981.200931	2590.774990
981.498162	2586.399269
981.795356	2592.647779
982.092513	2593.736668
982.389633	2596.204313
982.686717	2596.690784
982.983764	2604.169336
983.280775	2607.501539
983.577749	2607.950202
983.874686	2606.347115
984.171587	2605.535489
984.468451	2601.497525
984.765279	2602.906527
985.062070	2597.008377
985.358824	2597.580548
985.655543	2594.833119
985.952224	2594.240784
986.248869	2593.673654
986.545478	2589.852459
986.842050	2593.131730
987.138586	2590.782552
987.435086	2590.999322
987.731549	2587.475555
988.027975	2589.882706
988.324366	2587.868765
988.620719	2588.710638
988.917037	2585.002869
989.213318	2588.289702
989.509563	2583.719896
989.805772	2586.726944
990.101944	2587.959506
990.398080	2588.461101
990.694180	2586.419433
990.990244	2586.369022
991.286271	2588.065370
991.582262	2588.599732
991.878217	2587.861203
992.174136	2587.263827
992.470019	2585.890112
992.765865	2585.028075
993.061676	2581.383321
993.357450	2583.228383
993.653188	2583.896336
993.948890	2585.267530
994.244556	2586.953796
994.540186	2588.851790
994.835780	2590.583427
995.131337	2589.000504
995.426859	2590.623756
995.722345	2590.006214
996.017795	2589.711307
996.313208	2592.337748
996.608586	2590.061667
996.903928	2591.311873
997.199234	2591.773139
997.494504	2590.812799
997.789738	2589.930597
998.084936	2590.893457
998.380099	2590.205340
998.675225	2588.304825
998.970316	2589.416399
999.265371	2587.548652
999.560390	2586.164855
999.855373	2587.810792
1000.150320	2588.297263
1000.445232	2588.115782
1000.740108	2587.271388
1001.034948	2588.829105
1001.329752	2585.953127
1001.624521	2584.725606
1001.919254	2586.255596
1002.213951	2588.040164
1002.508613	2584.871799
1002.803239	2583.863568
1003.097829	2583.354412
1003.392384	2583.810636
1003.686903	2585.239803
1003.981386	2584.387848
1004.275834	2585.708631
1004.570246	2585.096131
1004.864623	2583.482961
1005.158964	2585.166707
1005.453270	2586.232911
1005.747540	2585.239803
1006.041775	2586.835329
1006.335974	2584.465986
1006.630138	2583.598908
1006.924266	2584.181161
1007.218359	2585.179310
1007.512416	2583.099834
1007.806438	2579.855851
1008.100425	2580.238979
1008.394376	2582.026068
1008.688292	2584.639906
1008.982172	2582.875502
1009.276017	2583.291398
1009.569827	2583.740060
1009.863602	2585.867427
1010.157341	2583.636717
1010.451045	2584.529001
1010.744714	2586.064032
1011.038347	2586.719382
1011.331945	2582.656212
1011.625508	2585.383476
1011.919036	2582.479772
1012.212528	2584.269381
1012.505986	2584.372725
1012.799408	2584.486151
1013.092795	2582.716706
1013.386147	2585.685946
1013.679464	2584.108064
1013.972745	2582.099165
1014.265992	2583.223342
1014.559204	2584.579412
1014.852380	2582.628486
1015.145521	2586.071594
1015.438628	2584.201326
1015.731699	2584.836511
1016.024736	2583.407344
1016.317737	2582.504977
1016.610703	2583.624114
1016.903635	2584.072776
1017.196531	2582.830132
1017.489393	2582.701583
1017.782219	2584.889443
1018.075011	2584.211408
1018.367768	2582.194947
1018.660490	2581.065728
1018.953177	2581.065728
1019.245829	2581.065728
