Dividing Wavelength (nm)	Counts (n)	Blue Motor Position (mm): 46.900000	Red Motor Position (mm): 0.000000	
326.493990	2272.753800
326.888308	2272.753800
327.282561	2272.753800
327.676750	2234.562018
328.070874	2232.568242
328.464933	2232.200238
328.858929	2235.774416
329.252859	2239.530076
329.646726	2249.229256
330.040528	2262.729466
330.434265	2274.485436
330.827938	2293.586368
331.221547	2309.871816
331.615091	2327.752788
332.008571	2345.175016
332.401986	2364.265866
332.795338	2385.068187
333.188625	2403.100394
333.581847	2422.715524
333.975006	2445.027671
334.368100	2462.528037
334.761129	2480.335913
335.154095	2495.938284
335.546996	2526.782583
335.939833	2564.056875
336.332606	2577.214287
336.725315	2591.442943
337.117960	2604.113883
337.510540	2616.860441
337.903056	2625.372429
338.295508	2635.298461
338.687896	2644.528814
339.080220	2649.549803
339.472480	2658.679333
339.864676	2662.402225
340.256807	2667.690395
340.648875	2670.382371
341.040879	2670.596620
341.432818	2678.685152
341.824694	2680.489885
342.216506	2679.169102
342.608253	2679.665656
342.999937	2680.938547
343.391557	2680.769669
343.783113	2680.557940
344.174605	2680.058866
344.566033	2678.407888
344.957397	2680.464679
345.348697	2674.344718
345.739934	2676.928310
346.131106	2672.701302
346.522215	2670.735252
346.913260	2670.536127
347.304241	2668.547391
347.695159	2665.994047
348.086012	2667.123265
348.476802	2663.596978
348.867528	2658.828047
349.258191	2655.823519
349.648789	2657.769404
350.039324	2655.483241
350.429796	2658.901143
350.820203	2654.976605
351.210548	2654.190185
351.600828	2650.492499
351.991045	2650.686583
352.381198	2653.996101
352.771288	2650.550472
353.161314	2651.805719
353.551276	2650.626089
353.941175	2648.861686
354.331010	2651.649444
354.720782	2652.090545
355.110490	2651.243631
355.500135	2649.943013
355.889717	2650.815133
356.279235	2652.279588
356.668689	2648.370173
357.058080	2649.025523
357.447408	2651.553662
357.836672	2652.012407
358.225873	2652.216573
358.615010	2652.763539
359.004084	2654.900988
359.393095	2654.132212
359.782043	2655.369815
360.170927	2653.416368
360.559748	2656.284785
360.948505	2656.660351
361.337199	2660.128664
361.725830	2659.682522
362.114398	2659.140598
362.502903	2657.328303
362.891344	2658.674292
363.279722	2658.011380
363.668037	2660.209323
364.056289	2662.084632
364.444478	2662.772750
364.832603	2660.078253
365.220665	2662.097235
365.608665	2664.038079
365.996601	2664.587565
366.384474	2663.032369
366.772284	2664.486742
367.160031	2668.842299
367.547715	2665.686537
367.935336	2666.125117
368.322893	2665.222750
368.710388	2665.058913
369.097820	2664.340548
369.485189	2665.888183
369.872495	2670.175684
370.259738	2668.867505
370.646918	2672.623164
371.034035	2673.764986
371.421090	2673.424708
371.808081	2675.552075
372.195010	2679.789164
372.581875	2685.072294
372.968678	2685.868796
373.355418	2693.342307
373.742096	2703.220447
374.128710	2713.123794
374.515262	2722.759960
374.901751	2736.527351
375.288177	2751.189547
375.674540	2770.502207
376.060841	2788.602470
376.447079	2807.171560
376.833254	2833.521672
377.219367	2853.008252
377.605417	2886.478993
377.991404	2909.874988
378.377329	2946.685493
378.763191	2967.439923
379.148991	3008.182529
379.534727	3048.204249
379.920402	3086.758994
380.306013	3114.112295
380.691563	3177.071265
381.077049	3204.709391
381.462474	3242.639032
381.847835	3304.675472
382.233134	3350.118953
382.618371	3378.538458
383.003545	3444.093623
383.388657	3470.597489
383.773706	3537.246584
384.158693	3565.020821
384.543618	3601.213785
384.928480	3664.520595
385.313280	3721.389852
385.698017	3744.720312
386.082692	3838.364785
386.467305	3840.976103
386.851856	3880.904562
387.236344	3959.402889
387.620770	3984.648988
388.005133	4038.659910
388.389435	4086.651695
388.773674	4093.527828
389.157851	4169.009025
389.541965	4240.822782
389.926018	4202.641083
390.310008	4309.014470
390.693936	4360.030947
391.077802	4392.241400
391.461606	4391.969177
391.845348	4457.892346
392.229027	4516.982231
392.612645	4521.365514
392.996200	4621.452583
393.379694	4678.871325
393.763125	4783.755051
394.146494	4812.154392
394.529801	4868.534656
394.913047	4950.942398
395.296230	4901.980191
395.679351	5010.836347
396.062410	5059.720416
396.445408	5032.006673
396.828343	5099.021251
397.211217	5149.084950
397.594028	5033.939955
397.976778	5152.984283
398.359466	5197.180078
398.742092	5217.954673
399.124656	5139.794103
399.507158	5260.033184
399.889598	5320.708512
400.271977	5442.583448
400.654294	5442.840546
401.036549	5484.155323
401.418742	5400.457045
401.800874	5610.872286
402.182944	5671.461914
402.564952	5775.075270
402.946898	5831.828580
403.328783	5670.665412
403.710606	5689.176529
404.092367	6013.118555
404.474067	6038.601587
404.855705	5932.828097
405.237282	5866.209249
405.618797	6126.211800
406.000250	6100.569971
406.381642	6304.338451
406.762972	6331.238047
407.144240	6381.246294
407.525447	6366.742894
407.906593	6384.661675
408.287677	6549.225102
408.668700	6468.523790
409.049661	6572.863072
409.430560	6604.503874
409.811399	6466.824921
410.192176	6728.538944
410.572891	6748.151553
410.953545	6940.327899
411.334138	6673.754204
411.714669	6842.363157
412.095139	6635.834645
412.475547	6876.653085
412.855894	6953.820547
413.236180	7141.013713
413.616405	6796.700385
413.996568	7016.555187
414.376670	7070.291366
414.756711	6957.067051
415.136691	7061.222330
415.516609	7265.104236
415.896466	7244.818633
416.276262	7453.761857
416.655997	7437.221831
417.035670	7609.939323
417.415283	7956.846325
417.794834	8019.727158
418.174324	7880.341775
418.553753	7803.756565
418.933121	8103.871577
419.312428	8205.438224
419.691674	7979.115622
420.070859	8458.368036
420.449983	8142.781723
420.829045	8504.545006
421.208047	8267.741845
421.586988	8580.931089
421.965867	8607.316488
422.344686	8700.570273
422.723444	8775.832179
423.102141	8105.623378
423.480777	8872.302220
423.859352	8394.753716
424.237866	9012.864712
424.616319	8878.490236
424.994712	9314.839910
425.373044	8842.783743
425.751314	9333.406480
426.129524	9217.996824
426.507673	9299.240060
426.885762	9449.516856
427.263789	9372.435093
427.641756	9313.816556
428.019662	9397.010718
428.397508	9664.948045
428.775292	9320.564140
429.153016	9712.523934
429.530679	9548.560405
429.908282	9559.628259
430.285824	9294.140933
430.663305	9972.597061
431.040726	9424.991642
431.418086	9400.484073
431.795385	9733.560669
432.172624	9833.463736
432.549802	9740.265404
432.926920	9810.531527
433.303977	9687.166930
433.680974	9890.645544
434.057910	9993.485082
434.434786	10065.518129
434.811601	9880.434687
435.188355	10443.518968
435.565050	10194.208705
435.941683	10115.163412
436.318257	10583.148848
436.694770	10763.629717
437.071222	10815.873715
437.447614	10629.976126
437.823946	10567.727958
438.200218	10650.095371
438.576429	10499.037196
438.952580	10748.193704
439.328670	10771.214133
439.704700	10572.433875
440.080670	10558.227903
440.456580	11073.935421
440.832429	10873.030317
441.208218	10470.272372
441.583947	10763.637279
441.959616	10945.688467
442.335224	10761.149469
442.710773	10862.892557
443.086261	11096.771848
443.461689	10352.180822
443.837057	11049.074971
444.212365	11280.894951
444.587612	10920.379355
444.962800	11132.574123
445.337927	10867.079235
445.712995	10549.960411
446.088002	11583.928791
446.462949	11287.637495
446.837837	11248.961762
447.212664	11169.334217
447.587431	11772.147832
447.962139	12519.440916
448.336786	14814.080886
448.711374	15300.632890
449.085901	13115.123819
449.460369	12762.767330
449.834776	12209.367105
450.209124	13145.852173
450.583412	13569.513262
450.957640	14494.360827
451.331808	13523.676571
451.705917	12604.986777
452.079965	11845.564676
452.453954	12766.167588
452.827883	12425.133531
453.201752	12714.115154
453.575562	12265.744849
453.949311	12671.545131
454.323001	12656.588027
454.696632	12902.188002
455.070202	13171.516687
455.443713	13359.032487
455.817164	13868.420918
456.190556	13822.059947
456.563888	14185.285164
456.937160	14325.945959
457.310373	13696.890617
457.683526	13807.869099
458.056619	13322.176611
458.429653	13538.681566
458.802628	12888.092935
459.175542	13311.806957
459.548398	14260.743675
459.921194	14619.434374
460.293930	14700.627198
460.666607	15535.313725
461.039224	16597.605828
461.411782	17321.041652
461.784280	17094.837517
462.156719	17210.776494
462.529099	16874.065226
462.901419	15834.438151
463.273680	15593.624752
463.645882	15494.918960
464.018024	15216.198605
464.390106	15441.298727
464.762130	16163.096176
465.134094	16955.724357
465.505999	19027.757054
465.877845	22308.396305
466.249631	25093.885862
466.621358	24699.392889
466.993026	23276.370940
467.364634	22686.250950
467.736184	21203.715659
468.107674	20423.118192
468.479105	20555.292205
468.850477	20005.723257
469.221790	19612.878740
469.593043	18920.390560
469.964238	18346.979474
470.335373	17984.165112
470.706449	18501.778186
471.077467	18082.976768
471.448425	19970.883842
471.819324	24107.122847
472.190164	25927.357472
472.560945	22230.618862
472.931667	19952.425657
473.302330	19355.248052
473.672934	18994.311519
474.043479	19205.135094
474.413965	19016.411938
474.784393	18604.695862
475.154761	19383.914574
475.525070	19292.228588
475.895321	19021.548873
476.265513	19630.958838
476.635645	20211.525842
477.005719	19961.963521
477.375734	20144.455810
477.745691	20631.390943
478.115588	21193.199813
478.485427	21743.436714
478.855207	22846.141227
479.224928	24647.126206
479.594591	26885.643009
479.964194	26772.186801
480.333739	26993.662333
480.703226	26585.046567
481.072653	26303.213300
481.442022	26926.700687
481.811333	27860.206432
482.180584	27729.678357
482.549777	26773.129497
482.918912	26459.186600
483.287988	26596.658865
483.657005	26207.703599
484.025964	26017.591605
484.394864	25874.178340
484.763706	25521.247159
485.132489	24997.788867
485.501213	25174.549365
485.869879	25086.825726
486.238487	24937.458858
486.607036	25065.869650
486.975527	24823.760675
487.343959	25107.970846
487.712333	25012.453584
488.080648	24676.306925
488.448905	25191.462436
488.817104	24967.839372
489.185244	25656.166080
489.553326	25601.041063
489.921350	26661.261252
490.289315	29010.146557
490.657222	30718.243235
491.025070	31233.504611
491.392861	30975.117750
491.760593	30109.788569
492.128267	29179.443627
492.495883	28127.382545
492.863440	27258.695956
493.230939	26393.170169
493.598380	26231.374337
493.965763	25848.324782
494.333088	25347.402969
494.700354	25328.886811
495.067563	25162.826162
495.434713	24927.825213
495.801805	25098.921975
496.168839	24874.041143
496.535815	24751.828450
496.902733	24959.483660
497.269593	24665.110522
497.636395	24829.900800
498.003139	24751.054633
498.369825	24482.056143
498.736453	24715.832091
499.103023	24572.789351
499.469535	24577.530556
499.835989	24801.118332
500.202385	24820.340252
500.568723	24348.694939
500.935003	24535.898187
501.301226	24242.805502
501.667390	25088.229688
502.033497	25280.506857
502.399546	25014.775035
502.765537	24554.295878
503.131470	24931.855616
503.497345	25068.743107
503.863163	24323.544622
504.228923	24855.557753
504.594625	25124.536078
504.960269	24677.642830
505.325856	25144.317565
505.691385	24538.017992
506.056856	25149.154553
506.422270	25149.394007
506.787625	24658.438555
507.152924	25085.512506
507.518164	25141.348326
507.883347	24947.515960
508.248472	24625.527382
508.613540	25400.682924
508.978550	25195.671800
509.343503	25210.376845
509.708398	25409.857824
510.073236	25582.257723
510.438016	25789.214733
510.802738	25453.184020
511.167403	25710.630706
511.532010	25454.255266
511.896561	26190.293974
512.261053	26164.309347
512.625488	26009.336716
512.989866	25893.622070
513.354186	25715.432405
513.718449	25854.626225
514.082655	26209.858692
514.446803	25938.032115
514.810894	26429.390860
515.174927	25921.741626
515.538904	25965.400539
515.902822	26461.119882
516.266684	26203.080861
516.630488	26116.632634
516.994235	26046.981532
517.357925	26399.262404
517.721558	26546.030557
518.085133	26670.567222
518.448651	26562.462198
518.812112	26336.573135
519.175516	26560.332310
519.538863	26709.394188
519.902152	26499.835944
520.265385	26742.111277
520.628560	26556.107823
520.991678	26539.043518
521.354739	26584.088748
521.717743	26686.908122
522.080690	26466.708001
522.443580	26789.036858
522.806413	26759.082321
523.169189	26873.337553
523.531908	26917.336743
523.894569	26554.812247
524.257174	26652.638358
524.619722	26779.317513
524.982213	26488.458059
525.344647	26505.560174
525.707025	26690.013472
526.069345	26618.285415
526.431608	26619.109644
526.793815	26778.248788
527.155964	26280.487778
527.518057	26445.809898
527.880093	26362.290582
528.242072	26594.430675
528.603995	26307.004247
528.965860	26100.339625
529.327669	26131.640149
529.689421	26123.412986
530.051117	25989.431720
530.412755	26142.350080
530.774337	25909.468937
531.135862	25813.918907
531.497331	25995.912123
531.858743	25598.336484
532.220098	26041.161520
532.581396	25746.984987
532.942638	25640.611600
533.303824	25757.677274
533.664953	25739.324954
534.026025	25423.857108
534.387040	25662.570866
534.747999	25705.367742
535.108902	25872.224893
535.469748	25360.593148
535.830537	25516.836149
536.191270	25664.756206
536.551947	25485.117209
536.912567	25103.300217
537.273131	25566.289869
537.633638	25213.096548
537.994089	25446.396107
538.354483	24923.749441
538.714821	25450.358454
539.075103	25481.807692
539.435328	25257.982982
539.795497	24867.636357
540.155609	25188.031931
540.515665	25510.784244
540.875665	24721.420210
541.235609	25080.491517
541.595496	24995.817776
541.955328	25359.045513
542.315102	25281.386538
542.674821	24790.927640
543.034483	24678.295660
543.394090	24847.512071
543.753640	24666.630430
544.113134	25282.490551
544.472571	24865.140986
544.831953	25183.315932
545.191278	24826.248484
545.550548	24715.874941
545.909761	24918.393215
546.268918	25154.379708
546.628019	25141.701207
546.987064	24807.656709
547.346053	24548.876638
547.704986	24635.670183
548.063863	24805.665453
548.422684	24827.428114
548.781449	24326.891949
549.140158	24750.051444
549.498811	24319.496576
549.857408	24093.050466
550.215949	24463.978566
550.574434	24180.708569
550.932864	24369.424164
551.291237	24559.480705
551.649555	24388.323449
552.007817	24456.706701
552.366022	24297.867505
552.724173	24321.336597
553.082267	24299.468072
553.440305	24791.726662
553.798288	24005.324307
554.156215	24494.394367
554.514086	24642.011955
554.871902	24048.605133
555.229661	24300.020078
555.587365	24151.684126
555.945014	24065.001486
556.302606	24268.308700
556.660143	24255.751186
557.017625	24483.755012
557.375050	23998.332226
557.732421	24385.817996
558.089735	24220.815989
558.446994	24271.295583
558.804197	24305.462004
559.161345	24192.096536
559.518437	23991.259487
559.875474	24158.651001
560.232455	24334.110881
560.589381	24149.486183
560.946251	24160.460775
561.303065	24457.241064
561.659825	24551.092225
562.016528	24153.055320
562.373177	23876.822774
562.729770	24250.014353
563.086307	24099.425005
563.442789	24265.241158
563.799216	24127.524396
564.155587	24099.500622
564.511904	24085.652572
564.868164	24050.246028
565.224370	24010.181458
565.580520	23954.670793
565.936615	24072.595984
566.292654	23775.987095
566.648638	23984.796728
567.004567	23833.214273
567.360441	23774.434419
567.716260	23503.278316
568.072023	23800.971053
568.427732	23604.209777
568.783385	23356.598383
569.138982	23613.112455
569.494525	23641.960458
569.850013	23400.920207
570.205445	23510.162011
570.560823	23328.383045
570.916145	23096.920986
571.271412	23285.147589
571.626625	23038.345299
571.981782	23139.732985
572.336884	22939.732768
572.691931	23083.168719
573.046923	22834.788548
573.401860	22704.452036
573.756743	22743.142892
574.111570	22636.320842
574.466342	22550.225496
574.821059	22621.182257
575.175722	22336.374708
575.530330	22276.321963
575.884882	22280.589300
576.239380	22217.887428
576.593823	22104.907609
576.948211	22076.382240
577.302544	21934.249428
577.656823	21800.626083
578.011047	21912.569946
578.365216	21785.883229
578.719330	21648.053042
579.073389	21532.348479
579.427394	21689.549300
579.781344	21441.990837
580.135239	21339.789005
580.489080	21273.273500
580.842866	21054.086652
581.196597	21277.747524
581.550273	21230.678271
581.903895	21114.734253
582.257463	21417.994945
582.610975	20963.562652
582.964434	21297.193775
583.317837	20953.129984
583.671186	21033.178466
584.024481	21024.716889
584.377721	20784.289139
584.730906	20884.739170
585.084037	20861.975840
585.437113	20793.431271
585.790135	21002.036738
586.143103	20448.936462
586.496016	20477.028291
586.848874	20711.608303
587.201679	20610.437387
587.554428	20325.776032
587.907124	20668.471150
588.259765	20408.196377
588.612352	20485.159673
588.964884	20057.551359
589.317362	20224.002698
589.669786	20295.002308
590.022155	20275.291397
590.374470	20534.313443
590.726731	20275.677045
591.078937	20089.693756
591.431090	20153.567696
591.783188	19928.006308
592.135232	19888.831502
592.487222	19984.578137
592.839157	19990.123406
593.191038	19866.302585
593.542866	19763.475650
593.894639	19462.606985
594.246358	19685.373053
594.598022	19567.664631
594.949633	19321.026179
595.301190	19316.831939
595.652692	19484.331838
596.004141	19691.578713
596.355535	19032.818373
596.706876	19053.265293
597.058162	18946.823850
597.409395	19187.549028
597.760573	19226.176870
598.111698	18996.214555
598.462768	18954.050344
598.813785	18932.751469
599.164748	18720.710456
599.515657	18786.653789
599.866511	18580.047140
600.217312	18930.031767
600.568060	18437.253937
600.918753	18750.430578
601.269392	18648.818561
601.619978	18451.928736
601.970510	18626.355179
602.320988	18587.261031
602.671412	18776.584085
603.021783	18726.764882
603.372100	18423.519313
603.722363	18583.132326
604.072572	18521.668058
604.422728	18680.497172
604.772830	18420.945804
605.122878	18374.887302
605.472872	18356.030866
605.822813	18342.911263
606.172701	18334.558071
606.522534	18502.022682
606.872314	18546.773004
607.222041	18383.918529
607.571714	18585.186597
607.921333	18421.512934
608.270899	18495.658225
608.620411	18639.361356
608.969870	18456.957287
609.319276	18430.055169
609.668627	18460.314695
610.017926	18593.418801
610.367171	18707.278302
610.716362	18760.749820
611.065500	18584.934539
611.414585	18729.411488
611.763616	18714.706442
612.112594	18645.937542
612.461518	18620.250342
612.810389	18815.342996
613.159207	18672.244803
613.507971	18584.412779
613.856682	18826.244491
614.205340	18747.804137
614.553945	18903.926151
614.902496	18645.985433
615.250994	18853.557463
615.599439	18801.066448
615.947830	18793.232495
616.296169	18874.712665
616.644454	18838.423919
616.992686	18801.424370
617.340864	19024.175315
617.688990	18774.786913
618.037063	18948.038768
618.385082	18819.370878
618.733048	19077.132636
619.080961	18975.656729
619.428821	19005.495319
619.776628	18874.795844
620.124382	18805.580802
620.472083	18860.226909
620.819731	18861.222537
621.167326	18546.934321
621.514868	18593.078523
621.862357	18387.701915
622.209793	18380.092293
622.557176	18212.168938
622.904506	18044.230460
623.251783	17991.323550
623.599007	17714.549080
623.946179	17670.733892
624.293297	17600.727388
624.640363	17322.624575
624.987376	17350.741610
625.334336	17147.719221
625.681243	17003.577509
626.028097	17022.123914
626.374899	16927.687979
626.721647	16804.865307
627.068343	16646.031152
627.414987	16576.448106
627.761577	16534.750202
628.108115	16560.712144
628.454600	16291.212059
628.801032	16399.170890
629.147412	16334.611353
629.493739	16336.206878
629.840014	16151.574618
630.186236	16249.771254
630.532405	16011.503638
630.878521	16211.009822
631.224585	16121.466327
631.570597	15946.613906
631.916556	15968.195086
632.262462	15947.130624
632.608316	15858.184506
632.954117	15802.888089
633.299866	15785.932168
633.645562	15702.579210
633.991206	15481.968235
634.336797	15348.599469
634.682336	15316.257947
635.027823	15176.849878
635.373257	15043.614703
635.718639	14974.079547
636.063968	14901.764195
636.409245	14653.084076
636.754470	14697.095870
637.099642	14537.888669
637.444762	14331.849150
637.789829	14361.549108
638.134845	14197.177246
638.479808	14218.307242
638.824719	14127.695022
639.169577	14002.147606
639.514383	14033.213717
639.859137	13873.520045
640.203839	13960.888283
640.548489	13817.089369
640.893086	13804.708295
641.237632	13680.910160
641.582125	13841.556609
641.926566	13648.694666
642.270955	13677.933358
642.615292	13618.054533
642.959576	13639.769303
643.303809	13668.115711
643.647990	13591.207868
643.992118	13652.621725
644.336195	13431.027725
644.680219	13654.398732
645.024192	13557.409452
645.368112	13796.526502
645.711981	13845.760932
646.055797	14030.862018
646.399562	14008.393596
646.743274	14268.726342
647.086935	14544.195153
647.430544	14509.398588
647.774101	14551.993818
648.117606	14686.706052
648.461059	14670.942363
648.804460	14643.021933
649.147810	14371.928844
649.491108	14282.773517
649.834354	14303.298575
650.177548	13980.135408
650.520690	13784.226087
650.863781	13712.228328
651.206820	13759.710956
651.549807	13589.123351
651.892742	13370.246533
652.235626	13304.467037
652.578458	13310.309735
652.921238	13017.126309
653.263967	13215.934293
653.606644	13048.046226
653.949269	13029.595603
654.291843	12822.656238
654.634365	12992.744769
654.976836	12829.136641
655.319255	12823.576248
655.661622	12798.766210
656.003938	12722.990106
656.346203	12637.739153
656.688416	12718.652193
657.030577	12672.341633
657.372687	12570.343967
657.714746	12568.418247
658.056753	12756.314653
658.398708	12564.259295
658.740612	12567.384810
659.082465	12692.692771
659.424266	12647.256852
659.766016	12680.702387
660.107715	12596.157196
660.449362	12661.419973
660.790958	12613.496244
661.132503	12560.743090
661.473996	12641.063794
661.815438	12643.412972
662.156829	12680.049557
662.498168	12636.274698
662.839456	12649.870690
663.180693	12663.847289
663.521879	12763.596600
663.863013	12729.583935
664.204097	12702.785161
664.545129	12836.194257
664.886110	12806.088486
665.227040	12907.922314
665.567918	12897.003175
665.908746	12913.822985
666.249522	12911.443560
666.590248	12977.102068
666.930922	13082.091659
667.271545	13050.702914
667.612118	13142.164569
667.952639	13037.056511
668.293109	13069.415677
668.633528	13001.816325
668.973896	12986.854180
669.314213	13047.915156
669.654480	12792.968883
669.994695	12881.604970
670.334859	12902.671952
670.674973	12844.602901
671.015035	12870.784134
671.355047	12827.435252
671.695008	12799.192187
672.034918	12814.335813
672.374777	12850.773273
672.714585	12769.184719
673.054342	12800.228144
673.394049	12759.740117
673.733705	12850.306967
674.073310	12745.282088
674.412864	12764.745983
674.752368	12609.178496
675.091820	12652.534940
675.431223	12629.993420
675.770574	12492.372441
676.109875	12410.602405
676.449125	12368.801157
676.788324	12330.712719
677.127473	12151.698826
677.466571	12150.723362
677.805619	12029.758355
678.144616	11972.279119
678.483562	11948.066457
678.822458	11809.258286
679.161303	11794.258333
679.500098	11773.667740
679.838842	11721.345604
680.177535	11767.109199
680.516179	11835.749549
680.854771	11778.671085
681.193314	11995.768375
681.531805	12166.963439
681.870247	12608.283691
682.208638	13018.038758
682.546978	13306.992655
682.885268	13340.917100
683.223508	13031.516283
683.561697	12884.259138
683.899836	12798.113380
684.237925	12585.790063
684.575963	12498.482319
684.913951	12415.134402
685.251889	12376.015048
685.589776	12478.352992
685.927614	12398.785940
686.265401	12370.547917
686.603137	12427.273501
686.940824	12577.184813
687.278460	12711.592057
687.616046	12739.260430
687.953582	12884.609498
688.291068	12830.686796
688.628504	13065.352508
688.965889	13075.956575
689.303224	13015.245959
689.640510	12898.386972
689.977745	12585.827871
690.314930	12370.868030
690.652065	12276.689194
690.989150	11976.589306
691.326185	11755.640574
691.663170	11549.280941
692.000105	11311.499796
692.336990	11184.886176
692.673825	10924.273646
693.010610	10815.740124
693.347345	10611.875863
693.684030	10417.133569
694.020665	10354.325833
694.357251	10160.301904
694.693786	10082.055635
695.030272	9936.956103
695.366707	9821.438063
695.703093	9761.975133
696.039429	9743.330425
696.375716	9654.711982
696.711952	9528.771356
697.048139	9587.636909
697.384276	9535.254280
697.720363	9559.245131
698.056400	9485.911466
698.392388	9430.768805
698.728326	9399.896778
699.064214	9342.150361
699.400053	9377.448520
699.735842	9197.363382
700.071581	9162.881889
700.407270	9075.773271
700.742910	9003.745265
701.078501	8908.313702
701.414042	8771.317826
701.749533	8720.568530
702.084974	8573.437414
702.420366	8707.522024
702.755709	8570.478257
703.091002	8439.872043
703.426246	8470.232392
703.761440	8416.755832
704.096584	8384.290801
704.431679	8311.438566
704.766725	8295.906771
705.101721	8253.790452
705.436668	8310.321951
705.771565	8195.315588
706.106413	8285.663147
706.441212	8314.493506
706.775961	8274.832228
707.110661	8327.507244
707.445311	8452.240514
707.779913	8347.800409
708.114465	8477.398392
708.448967	8515.466665
708.783421	8683.402623
709.117825	8853.521401
709.452180	8882.918890
709.786485	8967.582548
710.120742	9261.940562
710.454949	9267.949618
710.789107	9374.078509
711.123216	9595.692673
711.457275	9770.857646
711.791286	9912.322505
712.125247	9925.747098
712.459159	9907.097349
712.793023	10128.275454
713.126837	9706.837513
713.460602	9867.693170
713.794318	9689.871509
714.127985	9710.419252
714.461602	9371.986430
714.795171	9328.410696
715.128691	9076.746214
715.462162	8840.285852
715.795584	8782.864589
716.128957	8608.110470
716.462281	8434.165457
716.795556	8479.661870
717.128782	8274.877598
717.461960	8029.222171
717.795088	8094.457222
718.128167	8000.464909
718.461198	7841.597987
718.794180	7792.355996
719.127113	7776.287318
719.459997	7601.208045
719.792833	7383.054633
720.125619	7459.758309
720.458357	7312.453273
720.791046	7304.725184
721.123686	7290.713297
721.456278	7128.728421
721.788821	7145.104610
722.121315	7048.450567
722.453761	7120.080322
722.786158	7053.269910
723.118506	7063.475726
723.450805	7026.098091
723.783056	7088.573110
724.115259	7013.270875
724.447412	7011.481265
724.779518	7058.343831
725.111574	7068.489153
725.443582	7138.336861
725.775542	7115.394569
726.107453	7306.204763
726.439315	7214.967440
726.771129	7299.805018
727.102895	7472.804815
727.434612	7584.022752
727.766281	7619.550283
728.097901	7693.042745
728.429473	7702.409208
728.760996	7700.105401
729.092471	7667.456368
729.423897	7600.401460
729.755276	7592.207065
730.086606	7509.438880
730.417887	7619.232691
730.749120	7843.032195
731.080305	8032.176287
731.411442	8127.191955
731.742530	8110.830890
732.073570	8215.903660
732.404562	8310.097619
732.735506	8166.916247
733.066401	8299.947256
733.397249	8206.494346
733.728048	7965.880073
734.058798	7634.948488
734.389501	7399.299751
734.720156	7237.350163
735.050762	7020.905702
735.381320	6934.172650
735.711831	6868.496498
736.042293	6758.642194
736.372707	6774.113495
736.703073	6640.036447
737.033391	6683.574372
737.363661	6689.154929
737.693883	6732.019861
738.024056	6816.983468
738.354182	6850.252562
738.684260	6883.703139
739.014290	7010.019331
739.344272	7118.701566
739.674207	7147.970506
740.004093	7226.980510
740.333931	7234.209524
740.663722	7241.423416
740.993464	7314.910836
741.323159	7287.648276
741.652806	7044.825977
741.982405	7094.040242
742.311956	7123.851105
742.641460	6939.475944
742.970915	6751.574496
743.300323	6734.454738
743.629683	6699.348143
743.958996	6561.384365
744.288260	6470.971270
744.617477	6423.982675
744.946647	6407.470376
745.275768	6254.357931
745.604842	6203.903542
745.933869	6190.647828
746.262847	6149.804400
746.591778	6137.234283
746.920662	6090.762406
747.249498	6093.514876
747.578286	6138.426516
747.907027	6215.530964
748.235720	6273.068173
748.564365	6251.093784
748.892963	6295.995341
749.221514	6422.523261
749.550017	6237.207925
749.878473	6127.709023
750.206881	6197.856678
750.535242	6151.480584
750.863555	6073.584674
751.191821	6084.034986
751.520039	6076.170786
751.848210	5983.912630
752.176334	6020.576942
752.504411	6059.043466
752.832440	5979.647814
753.160421	5916.900572
753.488356	5965.691379
753.816243	5988.472353
754.144082	5840.867369
754.471875	5817.516744
754.799620	5861.316809
755.127318	5873.922215
755.454969	5836.166493
755.782572	5793.185615
756.110129	5839.559189
756.437638	5812.490714
756.765100	5762.863075
757.092515	5771.548983
757.419882	5822.031098
757.747203	5796.497653
758.074477	5855.998392
758.401703	5835.097768
758.728882	5798.506553
759.056014	5871.179827
759.383099	5981.379450
759.710138	5998.784034
760.037129	5983.350541
760.364073	5984.822558
760.690970	6062.874743
761.017820	6040.716351
761.344623	6006.295353
761.671379	6114.138237
761.998088	6242.080201
762.324751	6510.972826
762.651366	7153.258676
762.977935	8536.851240
763.304456	10205.631959
763.630931	11050.725949
763.957359	10572.580068
764.283740	9611.015260
764.610074	8721.415444
764.936362	7722.155408
765.262602	7134.568598
765.588796	6607.717610
765.914943	6281.648217
766.241044	6103.957626
766.567097	5889.879987
766.893104	5635.533611
767.219064	5465.356860
767.544978	5399.489144
767.870845	5313.988654
768.196665	5211.693560
768.522438	5138.591788
768.848165	5101.461170
769.173846	5031.081621
769.499479	4983.833406
769.825066	4941.719607
770.150607	4880.792222
770.476101	4860.002503
770.801548	4845.844423
771.126949	4763.371146
771.452303	4704.896282
771.777611	4675.937373
772.102872	4692.699210
772.428087	4656.221421
772.753256	4612.663331
773.078378	4564.646341
773.403453	4494.332327
773.728482	4480.988393
774.053465	4434.587092
774.378401	4426.105351
774.703291	4418.039504
775.028135	4340.085622
775.352932	4295.489054
775.677683	4282.548413
776.002388	4297.969302
776.327046	4306.161177
776.651658	4237.891351
776.976224	4172.817617
777.300743	4180.913710
777.625216	4200.334755
777.949643	4188.430070
778.274024	4153.681397
778.598359	4110.647587
778.922647	4140.526506
779.246889	4127.671563
779.571086	4117.773258
779.895236	4100.900516
780.219339	4091.685287
780.543397	4089.215121
780.867409	4144.493894
781.191374	4151.120491
781.515294	4085.038525
781.839167	4082.517948
782.162995	4109.200776
782.486776	4094.863734
782.810511	4105.813120
783.134201	4089.391562
783.457844	4039.411042
783.781441	3994.627952
784.104993	3996.611646
784.428498	4017.053525
784.751958	4004.667410
785.075372	3988.994462
785.398739	3955.213690
785.722061	3967.756081
786.045337	4010.593286
786.368568	4036.882903
786.691752	3950.270839
787.014891	4008.818800
787.337983	4145.686127
787.661030	4315.066375
787.984031	4471.092607
788.306987	4631.968430
788.629897	4720.589394
788.952760	4674.798073
789.275579	4602.873410
789.598351	4534.553173
789.921078	4379.184811
790.243759	4186.680790
790.566395	4177.826003
790.888984	4164.217408
791.211529	4059.331161
791.534027	3999.379239
791.856480	3980.961384
792.178888	3926.045574
792.501249	3881.648132
792.823566	3890.460069
793.145836	3909.911361
793.468062	3857.841283
793.790241	3818.726971
794.112375	3850.549254
794.434464	3919.124070
794.756507	3938.519909
795.078505	3908.487235
795.400457	3958.644196
795.722364	4106.818831
796.044226	4208.841702
796.366042	4283.259215
796.687812	4247.169595
797.009538	4249.238988
797.331218	4221.542889
797.652852	4194.108930
797.974442	4167.957944
798.295986	4163.796472
798.617484	4078.555602
798.938938	3998.950741
799.260346	4045.205848
799.581709	4030.417623
799.903026	3953.890387
800.224299	3922.000048
800.545526	3914.725663
800.866708	3877.249726
801.187845	3820.072959
801.508936	3854.982949
801.829983	3836.963345
802.150984	3766.931635
802.471940	3758.807816
802.792851	3765.131943
803.113717	3768.557408
803.434538	3766.971965
803.755314	3709.502811
804.076045	3686.300900
804.396731	3710.397616
804.717372	3734.736306
805.037967	3715.166547
805.358518	3702.621636
805.679024	3735.006008
805.999485	3749.965632
806.319901	3755.309255
806.640272	3764.446347
806.960598	3778.942184
807.280879	3750.452103
807.601115	3772.045886
807.921306	3785.921662
808.241453	3826.578568
808.561554	3795.136891
808.881611	3731.222622
809.201623	3773.225516
809.521590	3781.253553
809.841513	3751.571240
810.161390	3783.418729
810.481223	3757.769338
810.801011	3705.711863
811.120755	3705.414435
811.440453	3737.246801
811.760107	3734.025504
812.079716	3684.690252
812.399281	3663.035975
812.718801	3690.525387
813.038276	3661.132940
813.357707	3655.791837
813.677093	3669.037469
813.996434	3614.784571
814.315731	3632.799134
814.634983	3635.667551
814.954191	3649.626506
815.273354	3675.394364
815.592473	3669.075278
815.911547	3683.407278
816.230577	3732.024166
816.549562	3779.186680
816.868502	3820.294769
817.187399	3838.752954
817.506250	3840.681196
817.825058	3821.366015
818.143821	3914.342536
818.462539	4016.740973
818.781213	4056.432498
819.099843	4126.234835
819.418429	4396.743150
819.736970	4636.586127
820.055466	4897.112957
820.373919	5263.856900
820.692327	5682.638152
821.010691	6191.091450
821.329011	7696.702622
821.647286	10626.346495
821.965517	15411.732359
822.283704	19434.956256
822.601847	21389.716592
822.919945	19428.959804
823.237999	16739.597488
823.556010	14208.182084
823.873976	12016.684123
824.191897	9903.011494
824.509775	8578.155934
824.827609	7448.292205
825.145398	6930.943791
825.463144	6805.187168
825.780845	6914.479383
826.098502	7151.796741
826.416116	8121.813044
826.733685	9498.020318
827.051210	10584.754455
827.368692	10515.983034
827.686129	9164.769801
828.003522	7653.535222
828.320872	6631.592514
828.638177	5903.271812
828.955439	5335.141336
829.272656	4830.037885
829.589830	4563.597781
829.906960	4381.597003
830.224046	4194.043395
830.541088	4070.164601
830.858086	4020.294987
831.175041	3940.629632
831.491952	3934.439095
831.808819	3945.436372
832.125642	4027.967623
832.442421	4183.663659
832.759157	4481.550481
833.075849	5075.705915
833.392497	5976.174459
833.709101	6767.219717
834.025662	7071.828918
834.342179	6632.439428
834.658653	5953.950532
834.975083	5288.251043
835.291469	4702.937793
835.607811	4308.575890
835.924110	4158.888909
836.240366	3953.068679
836.556578	3755.641971
836.872746	3643.448572
837.188871	3600.268569
837.504952	3531.706356
837.820990	3445.313582
838.136984	3407.441913
838.452935	3429.060902
838.768842	3424.937238
839.084706	3451.814150
839.400526	3627.815954
839.716303	3995.484948
840.032037	4552.862643
840.347727	4778.124082
840.663373	4457.226914
840.978977	4064.140422
841.294537	3755.031992
841.610054	3528.792569
841.925527	3427.780449
842.240957	3355.301259
842.556344	3298.636169
842.871687	3238.021336
843.186987	3187.302287
843.502244	3148.886174
843.817458	3113.318313
844.132629	3089.713110
844.447756	3097.660489
844.762840	3076.391861
845.077881	3045.247613
845.392879	3027.769932
845.707833	3026.088707
846.022745	3026.048378
846.337613	3023.036289
846.652438	3011.151768
846.967221	3007.139010
847.281960	2996.388749
847.596656	2989.805003
847.911309	2993.268275
848.225919	2983.793427
848.540485	2980.592294
848.855009	2978.883343
849.169490	2966.101497
849.483928	2959.845425
849.798323	2963.548153
850.112675	2955.464663
850.426984	2970.784729
850.741251	2963.553194
851.055474	2952.490382
851.369654	2948.699434
851.683792	2957.579427
851.997887	2966.620736
852.311938	2966.386322
852.625947	2951.577933
852.939914	2956.745116
853.253837	2960.936835
853.567718	2947.497119
853.881555	2947.492078
854.195350	2963.830457
854.509103	2957.450877
854.822812	2947.333281
855.136479	2943.718774
855.450103	2947.126594
855.763685	2938.254163
856.077224	2936.857764
856.390720	2949.833694
856.704173	2961.012452
857.017584	2951.822429
857.330953	2952.896195
857.644278	2958.723768
857.957561	2970.888073
858.270802	2972.712970
858.584000	2971.629122
858.897155	2955.633541
859.210268	2955.308387
859.523339	2951.436781
859.836367	2954.821915
860.149352	2946.609876
860.462295	2944.232972
860.775195	2953.186061
861.088054	2950.531893
861.400869	2936.323401
861.713642	2934.190993
862.026373	2948.860751
862.339062	2951.988787
862.651708	2956.384673
862.964312	2958.224694
863.276873	2951.666153
863.589392	2965.047896
863.901869	2979.016933
864.214303	2998.223729
864.526696	3013.183353
864.839045	3003.343021
865.151353	3006.080368
865.463619	3007.940553
865.775842	3011.247550
866.088023	3030.850077
866.400162	3032.806045
866.712258	3002.677589
867.024313	2993.490086
867.336325	3004.542816
867.648296	3025.687936
867.960224	3017.584281
868.272110	3001.871004
868.583954	3010.083044
868.895755	3021.322296
869.207515	3008.744618
869.519233	3015.706451
869.830909	3026.232380
870.142542	3032.445602
870.454134	3033.395860
870.765684	3036.612116
871.077191	3037.277548
871.388657	3046.689383
871.700081	3060.744119
872.011463	3069.666962
872.322803	3067.285017
872.634101	3070.249215
872.945357	3091.207812
873.256571	3117.930969
873.567744	3107.215996
873.878874	3102.164760
874.189963	3125.976650
874.501010	3122.528501
874.812015	3115.773355
875.122979	3116.557254
875.433900	3112.874691
875.744780	3119.982718
876.055618	3126.173255
876.366415	3123.123357
876.677169	3133.157774
876.987882	3127.025210
877.298554	3125.838018
877.609183	3153.448418
877.919771	3176.050431
878.230317	3202.967672
878.540822	3256.736619
878.851285	3293.980664
879.161707	3344.803056
879.472087	3458.899491
879.782425	3714.942216
880.092722	4180.344059
880.402977	4728.163727
880.713191	5398.745574
881.023363	6644.361757
881.333494	7970.727142
881.643583	8487.526070
881.953631	8143.179974
882.263637	7445.668284
882.573602	6813.588250
882.883526	6217.686057
883.193408	5645.941073
883.503248	5195.057753
883.813048	4872.839802
884.122806	4540.035428
884.432522	4210.437227
884.742197	3968.416472
885.051831	3779.463944
885.361424	3652.568019
885.670975	3576.665886
885.980485	3479.472440
886.289954	3400.437230
886.599382	3356.193543
886.908768	3320.618121
887.218113	3276.465175
887.527417	3215.452090
887.836680	3166.169770
888.145901	3158.159376
888.455082	3146.950371
888.764221	3092.286619
889.073319	3062.982392
889.382376	3060.713872
889.691392	3065.253432
890.000366	3066.559090
890.309300	3053.005948
890.618193	3066.082701
890.927044	3082.496698
891.235855	3078.403281
891.544625	3068.968762
891.853353	3082.622727
892.162041	3102.517641
892.470687	3143.837458
892.779293	3193.175231
893.087858	3244.670617
893.396381	3320.388748
893.704864	3455.360601
894.013306	3713.313923
894.321707	4027.723127
894.630068	4221.968867
894.938387	4207.891445
895.246665	4166.732944
895.554903	4035.967934
895.863100	3824.985563
896.171256	3656.497599
896.479371	3506.553519
896.787446	3380.806977
897.095480	3277.975000
897.403473	3212.503015
897.711425	3180.123684
898.019336	3167.679595
898.327207	3134.445789
898.635038	3097.511775
898.942827	3082.476534
899.250576	3075.040832
899.558284	3040.032539
899.865952	3020.389683
900.173579	2999.103411
900.481165	2987.201247
900.788711	2975.130204
901.096216	2952.114816
901.403681	2941.503187
901.711105	2949.977367
902.018489	2946.509053
902.325832	2946.662808
902.633135	2955.774693
902.940397	2996.643328
903.247619	3089.660178
903.554800	3294.144501
903.861941	3675.079292
904.169041	4131.775063
904.476101	4420.734001
904.783121	4344.133668
905.090100	4074.578131
905.397039	3787.083648
905.703938	3529.087476
906.010796	3345.324816
906.317614	3231.757702
906.624391	3131.413535
906.931129	3061.475087
907.237826	2994.894047
907.544483	2946.383024
907.851099	2916.267171
908.157675	2894.857390
908.464211	2875.834596
908.770707	2857.366329
909.077163	2844.982735
909.383578	2829.604695
909.689954	2821.624548
909.996289	2818.872078
910.302584	2821.415341
910.608839	2820.240752
910.915054	2814.246820
911.221229	2805.490336
911.527363	2809.316571
911.833458	2816.764876
912.139513	2825.796103
912.445527	2825.004642
912.751502	2833.642659
913.057436	2846.293435
913.363331	2859.390352
913.669186	2880.774927
913.975000	2919.059970
914.280775	2984.962974
914.586510	3057.961402
914.892205	3143.174547
915.197859	3280.654374
915.503475	3494.230418
915.809050	3722.592167
916.114585	3869.546842
916.420081	3872.316957
916.725536	3810.872853
917.030952	3681.602545
917.336328	3548.047256
917.641665	3411.744538
917.946961	3307.722849
918.252218	3233.461612
918.557435	3150.320382
918.862612	3090.055908
919.167750	3036.014739
919.472848	2998.478308
919.777906	2966.421610
920.082925	2941.246088
920.387904	2910.336253
920.692843	2892.767832
920.997743	2882.690566
921.302603	2867.494007
921.607423	2856.569827
921.912204	2843.036849
922.216946	2830.171825
922.521647	2822.867193
922.826310	2813.644402
923.130932	2804.101498
923.435516	2799.246867
923.740059	2788.680608
924.044564	2781.055863
924.349028	2773.174019
924.653454	2768.896600
924.957840	2760.871083
925.262186	2757.818664
925.566493	2752.459918
925.870761	2748.921028
926.174989	2745.979514
926.479178	2739.993144
926.783328	2734.145406
927.087438	2733.371589
927.391509	2730.790518
927.695541	2728.688357
927.999533	2724.317676
928.303486	2722.870865
928.607400	2723.987481
928.911275	2719.362222
929.215110	2720.289794
929.518906	2715.414999
929.822663	2715.727550
930.126381	2715.621686
930.430060	2716.743343
930.733699	2718.691749
931.037299	2721.557645
931.340861	2720.859445
931.644383	2721.396328
931.947866	2721.421533
932.251309	2718.636296
932.554714	2719.543704
932.858080	2717.759135
933.161407	2714.953733
933.464694	2711.087168
933.767943	2709.968032
934.071153	2711.145141
934.374323	2710.888042
934.677455	2714.893239
934.980548	2709.645398
935.283602	2710.751931
935.586617	2707.790253
935.889593	2710.583053
936.192530	2709.224462
936.495428	2713.809391
936.798287	2714.994062
937.101108	2717.698641
937.403890	2719.924311
937.706632	2725.446895
938.009336	2731.627349
938.312002	2742.254102
938.614628	2750.851790
938.917216	2755.373705
939.219765	2757.932090
939.522275	2756.606267
939.824747	2754.725916
940.127179	2750.496388
940.429573	2747.955647
940.731929	2744.073958
941.034246	2742.874164
941.336524	2739.282342
941.638763	2737.041549
941.940964	2736.257649
942.243126	2730.606516
942.545250	2731.065261
942.847335	2728.595095
943.149381	2721.340875
943.451389	2720.841801
943.753359	2718.008672
944.055290	2717.010524
944.357182	2714.613455
944.659036	2711.742518
944.960851	2714.416850
945.262628	2711.286294
945.564367	2713.181767
945.866067	2713.375852
946.167729	2711.220759
946.469352	2713.101109
946.770937	2714.631099
947.072484	2710.759493
947.373992	2709.000130
947.675462	2709.726057
947.976893	2705.065510
948.278286	2705.531817
948.579641	2703.805221
948.880958	2699.926053
949.182236	2703.376723
949.483476	2701.040148
949.784678	2701.826568
950.085841	2702.068544
950.386967	2701.035107
950.688054	2703.258256
950.989103	2703.517876
951.290114	2703.596013
951.591087	2713.428784
951.892021	2710.416695
952.192917	2712.193701
952.493776	2716.277036
952.794596	2715.321737
953.095378	2716.087993
953.396122	2714.338712
953.696828	2714.084134
953.997496	2713.262426
954.298126	2709.796633
954.598718	2705.856971
954.899272	2705.012578
955.199788	2702.847402
955.500266	2699.807586
955.800706	2695.905733
956.101108	2696.218285
956.401472	2692.686957
956.701798	2693.102852
957.002087	2689.934487
957.302337	2691.789631
957.602550	2686.771162
957.902724	2686.940041
958.202861	2681.669515
958.502960	2683.675894
958.803022	2682.229083
959.103045	2683.144052
959.403031	2678.027281
959.702979	2680.918383
960.002889	2678.493588
960.302762	2679.264884
960.602596	2679.995852
960.902393	2676.756910
961.202153	2677.961746
961.501875	2676.703978
961.801559	2676.683814
962.101205	2678.213804
962.400814	2676.260357
962.700385	2676.061231
962.999918	2672.484532
963.299414	2672.401353
963.598873	2674.243895
963.898293	2670.253822
964.197677	2674.397650
964.497022	2674.589214
964.796331	2673.961591
965.095601	2674.407733
965.394835	2675.680624
965.694030	2675.201714
965.993189	2675.705830
966.292309	2671.791374
966.591393	2675.720953
966.890439	2672.388751
967.189447	2675.446210
967.488419	2675.892352
967.787353	2674.954698
968.086249	2674.982424
968.385108	2674.253977
968.683930	2672.668535
968.982714	2674.347239
969.281462	2673.361693
969.580172	2675.413443
969.878844	2675.766324
970.177480	2672.741631
970.476078	2673.654080
970.774639	2674.967301
971.073162	2674.279183
971.371649	2671.914882
971.670098	2674.493432
971.968510	2673.391940
972.266885	2674.589214
972.565223	2677.137518
972.863524	2676.255316
973.161788	2675.799091
973.460014	2674.876560
973.758204	2676.338495
974.056356	2676.973680
974.354471	2675.294976
974.652550	2675.335305
974.950591	2676.025943
975.248595	2673.003771
975.546563	2675.007630
975.844493	2677.346725
976.142386	2673.875891
976.440243	2674.158196
976.738062	2674.271622
977.035845	2673.132321
977.333590	2671.128462
977.631299	2671.993020
977.928971	2670.591579
978.226606	2670.899090
978.524204	2669.129645
978.821765	2667.004798
979.119290	2673.533092
979.416777	2672.068637
979.714228	2675.068124
980.011642	2673.865809
980.309020	2676.063752
980.606360	2672.169460
980.903664	2672.708864
981.200931	2672.623164
981.498162	2674.054852
981.795356	2674.632064
982.092513	2673.187773
982.389633	2679.988290
982.686717	2682.710513
982.983764	2684.013651
983.280775	2690.746112
983.577749	2689.367357
983.874686	2689.001873
984.171587	2686.451049
984.468451	2683.617921
984.765279	2683.075997
985.062070	2680.472241
985.358824	2678.014678
985.655543	2677.928979
985.952224	2676.958557
986.248869	2675.317661
986.545478	2675.179029
986.842050	2671.516631
987.138586	2670.354645
987.435086	2672.514779
987.731549	2668.693585
988.027975	2671.196518
988.324366	2670.498318
988.620719	2668.181908
988.917037	2668.998575
989.213318	2670.130314
989.509563	2671.078051
989.805772	2670.173163
990.101944	2669.066630
990.398080	2668.965807
990.694180	2670.359686
990.990244	2669.953873
991.286271	2671.083092
991.582262	2668.837258
991.878217	2668.512103
992.174136	2669.603513
992.470019	2669.099398
992.765865	2665.222750
993.061676	2666.379695
993.357450	2668.597803
993.653188	2665.431958
993.948890	2668.880107
994.244556	2669.638801
994.540186	2671.110818
994.835780	2668.938081
995.131337	2669.308606
995.426859	2669.905982
995.722345	2669.134686
996.017795	2673.286076
996.313208	2675.859585
996.608586	2673.273473
996.903928	2675.511745
997.199234	2675.531910
997.494504	2673.989317
997.789738	2673.011333
998.084936	2671.967814
998.380099	2672.260201
998.675225	2672.353462
998.970316	2672.174502
999.265371	2669.984120
999.560390	2671.067968
999.855373	2671.612413
1000.150320	2668.194511
1000.445232	2670.198369
1000.740108	2666.646876
1001.034948	2667.725683
1001.329752	2666.399860
1001.624521	2667.150992
1001.919254	2667.576969
1002.213951	2666.891372
1002.508613	2666.805673
1002.803239	2666.014212
1003.097829	2666.230981
1003.392384	2667.579490
1003.686903	2669.517813
1003.981386	2667.501352
1004.275834	2665.958759
1004.570246	2667.420693
1004.864623	2667.042607
1005.158964	2663.768377
1005.453270	2668.484377
1005.747540	2668.255004
1006.041775	2666.911537
1006.335974	2668.139058
1006.630138	2665.807524
1006.924266	2667.120745
1007.218359	2667.173677
1007.512416	2664.456495
1007.806438	2663.314674
1008.100425	2666.024294
1008.394376	2660.284940
1008.688292	2666.258707
1008.982172	2666.914057
1009.276017	2666.099911
1009.569827	2666.412463
1009.863602	2668.315498
1010.157341	2664.995898
1010.451045	2667.178718
1010.744714	2663.838954
1011.038347	2664.148985
1011.331945	2665.963800
1011.625508	2666.667041
1011.919036	2668.973369
1012.212528	2664.711073
1012.505986	2666.682164
1012.799408	2666.339366
1013.092795	2667.140909
1013.386147	2667.977741
1013.679464	2665.310971
1013.972745	2666.311640
1014.265992	2664.577483
1014.559204	2665.384067
1014.852380	2666.788029
1015.145521	2665.268121
1015.438628	2668.149140
1015.731699	2665.552946
1016.024736	2664.418686
1016.317737	2665.943635
1016.610703	2667.486228
1016.903635	2666.422545
1017.196531	2664.809376
1017.489393	2666.210817
1017.782219	2666.533450
1018.075011	2663.231495
1018.367768	2665.394150
1018.660490	2666.193172
1018.953177	2666.193172
1019.245829	2666.193172
