Dividing Wavelength (nm)	Counts (n)	Blue Motor Position (mm): 32.500000	Red Motor Position (mm): 0.000000	
326.493990	2219.070553
326.888308	2219.070553
327.282561	2219.070553
327.676750	2180.205777
328.070874	2176.172854
328.464933	2177.665036
328.858929	2182.484379
329.252859	2183.255675
329.646726	2194.056347
330.040528	2206.671835
330.434265	2222.284288
330.827938	2237.528738
331.221547	2254.746798
331.615091	2274.046856
332.008571	2290.309618
332.401986	2309.334933
332.795338	2329.779332
333.188625	2346.125274
333.581847	2367.169570
333.975006	2385.743702
334.368100	2404.027967
334.761129	2418.801068
335.154095	2439.253029
335.546996	2467.168419
335.939833	2503.933554
336.332606	2518.028620
336.725315	2534.760209
337.117960	2547.239586
337.510540	2556.298539
337.903056	2566.799263
338.295508	2577.050449
338.687896	2585.123857
339.080220	2587.105030
339.472480	2599.191197
339.864676	2605.714450
340.256807	2610.743001
340.648875	2612.966150
341.040879	2616.537807
341.432818	2619.174331
341.824694	2621.828498
342.216506	2620.157356
342.608253	2623.756739
342.999937	2624.354116
343.391557	2623.325721
343.783113	2623.686163
344.174605	2621.803292
344.566033	2623.197171
344.957397	2621.205916
345.348697	2618.778600
345.739934	2618.120729
346.131106	2616.512601
346.522215	2612.958588
346.913260	2611.859616
347.304241	2612.275512
347.695159	2608.368617
348.086012	2608.232506
348.476802	2604.328133
348.867528	2602.167998
349.258191	2598.591299
349.648789	2599.188676
350.039324	2594.790269
350.429796	2599.723038
350.820203	2597.247832
351.210548	2596.375712
351.600828	2594.520568
351.991045	2594.593664
352.381198	2591.611822
352.771288	2592.322625
353.161314	2591.881524
353.551276	2590.981678
353.941175	2590.815320
354.331010	2589.721389
354.720782	2590.926225
355.110490	2589.149218
355.500135	2590.134764
355.889717	2590.807758
356.279235	2592.073087
356.668689	2591.014445
357.058080	2588.236769
357.447408	2589.887747
357.836672	2590.207861
358.225873	2591.195927
358.615010	2591.422779
359.004084	2591.876482
359.393095	2594.954107
359.782043	2592.879672
360.170927	2594.016452
360.559748	2592.501586
360.948505	2593.134250
361.337199	2598.119952
361.725830	2594.525609
362.114398	2593.497213
362.502903	2593.739189
362.891344	2598.228336
363.279722	2598.745055
363.668037	2597.315887
364.056289	2597.434355
364.444478	2599.866711
364.832603	2599.909561
365.220665	2601.379057
365.608665	2600.665734
365.996601	2600.169181
366.384474	2602.384768
366.772284	2600.065837
367.160031	2601.913420
367.547715	2601.663883
367.935336	2601.111876
368.322893	2601.043821
368.710388	2598.712287
369.097820	2601.162288
369.485189	2598.651793
369.872495	2603.423245
370.259738	2604.504573
370.646918	2607.012547
371.034035	2605.485077
371.421090	2604.081116
371.808081	2607.451127
372.195010	2606.914244
372.581875	2605.069182
372.968678	2607.216714
373.355418	2606.969697
373.742096	2606.904162
374.128710	2607.136055
374.515262	2609.742332
374.901751	2608.073710
375.288177	2611.358022
375.674540	2609.860799
376.060841	2609.487753
376.447079	2609.142434
376.833254	2613.104781
377.219367	2608.532455
377.605417	2612.653598
377.991404	2609.086982
378.377329	2611.814246
378.763191	2612.784668
379.148991	2611.925151
379.534727	2613.712240
379.920402	2611.534462
380.306013	2610.561519
380.691563	2613.795419
381.077049	2611.932713
381.462474	2612.661160
381.847835	2615.678290
382.233134	2616.106788
382.618371	2614.176027
383.003545	2614.372632
383.388657	2614.992693
383.773706	2616.109309
384.158693	2617.031840
384.543618	2614.299535
384.928480	2619.300359
385.313280	2615.958074
385.698017	2617.727519
386.082692	2618.498816
386.467305	2619.751543
386.851856	2617.185595
387.236344	2616.167282
387.620770	2616.868003
388.005133	2618.045112
388.389435	2616.615945
388.773674	2615.050667
389.157851	2621.069804
389.541965	2619.358333
389.926018	2622.879579
390.310008	2625.233798
390.693936	2624.873355
391.077802	2623.943262
391.461606	2625.659775
391.845348	2623.880248
392.229027	2626.040382
392.612645	2622.793879
392.996200	2623.923097
393.379694	2628.114817
393.763125	2628.901237
394.146494	2628.240846
394.529801	2630.837040
394.913047	2630.123717
395.296230	2628.445012
395.679351	2629.922071
396.062410	2630.973151
396.445408	2630.370733
396.828343	2632.092287
397.211217	2632.598923
397.594028	2634.995992
397.976778	2632.455250
398.359466	2633.529016
398.742092	2631.855353
399.124656	2633.962555
399.507158	2633.508852
399.889598	2636.621764
400.271977	2635.484984
400.654294	2637.319964
401.036549	2635.331229
401.418742	2637.715694
401.800874	2641.037815
402.182944	2639.374234
402.564952	2641.657877
402.946898	2641.917496
403.328783	2641.204173
403.710606	2643.200470
404.092367	2643.709626
404.474067	2644.279277
404.855705	2642.598052
405.237282	2643.437404
405.618797	2644.652322
406.000250	2645.922693
406.381642	2648.869247
406.762972	2645.826911
407.144240	2645.572333
407.525447	2646.590646
407.906593	2647.855975
408.287677	2650.172386
408.668700	2654.843015
409.049661	2650.971408
409.430560	2654.626245
409.811399	2655.939466
410.192176	2653.766728
410.572891	2655.498365
410.953545	2658.956596
411.334138	2662.094714
411.714669	2666.689726
412.095139	2667.728204
412.475547	2671.546878
412.855894	2677.003927
413.236180	2686.549352
413.616405	2688.351564
413.996568	2700.435210
414.376670	2712.738146
414.756711	2721.938252
415.136691	2740.613206
415.516609	2758.531987
415.896466	2775.992024
416.276262	2807.411015
416.655997	2833.685509
417.035670	2873.855943
417.415283	2923.037440
417.794834	2959.059005
418.174324	2994.205930
418.553753	3037.580018
418.933121	3111.077520
419.312428	3169.764112
419.691674	3208.936398
420.070859	3329.813185
420.449983	3358.426775
420.829045	3479.086792
421.208047	3524.739481
421.586988	3659.703773
421.965867	3742.408943
422.344686	3847.796784
422.723444	3948.030046
423.102141	3896.890061
423.480777	4155.045029
423.859352	4133.569713
424.237866	4395.707193
424.616319	4460.148262
424.994712	4682.369886
425.373044	4663.470600
425.751314	4920.254374
426.129524	4980.594465
426.507673	5146.783663
426.885762	5316.927647
427.263789	5391.294748
427.641756	5471.839784
428.019662	5639.213653
428.397508	5856.469740
428.775292	5829.784392
429.153016	6147.389687
429.530679	6172.550086
429.908282	6310.196271
430.285824	6269.539366
430.663305	6755.942656
431.040726	6568.898204
431.418086	6661.083264
431.795385	6966.093237
432.172624	7127.606765
432.549802	7186.230343
432.926920	7355.076229
433.303977	7373.126080
433.680974	7620.205633
434.057910	7788.572610
434.434786	7924.310718
434.811601	7933.024353
435.188355	8443.776417
435.565050	8334.582504
435.941683	8375.042804
436.318257	8856.878810
436.694770	9039.315647
437.071222	9196.680305
437.447614	9165.077312
437.823946	9157.145056
438.200218	9379.233089
438.576429	9276.925392
438.952580	9552.618534
439.328670	9685.266415
439.704700	9560.268485
440.080670	9601.195093
440.456580	10185.729484
440.832429	10009.266414
441.208218	9704.279127
441.583947	10061.714579
441.959616	10238.802752
442.335224	10100.342420
442.710773	10288.102716
443.086261	10513.457416
443.461689	9879.169357
443.837057	10512.965904
444.212365	10828.166568
444.587612	10514.319453
444.962800	10778.833837
445.337927	10592.417009
445.712995	10178.182877
446.088002	11270.943714
446.462949	10948.158633
446.837837	10932.336972
447.212664	10964.655809
447.587431	11453.622526
447.962139	12158.239723
448.336786	14383.773035
448.711374	14977.043746
449.085901	12875.119526
449.460369	12490.484529
449.834776	11960.049280
450.209124	12809.871872
450.583412	13213.126371
450.957640	14177.206715
451.331808	13378.735836
451.705917	12338.110613
452.079965	11688.295799
452.453954	12564.491188
452.827883	12195.907224
453.201752	12496.276814
453.575562	12007.841939
453.949311	12428.448089
454.323001	12381.101572
454.696632	12606.073145
455.070202	12894.296075
455.443713	13148.450888
455.817164	13600.496194
456.190556	13616.015386
456.563888	13969.828769
456.937160	14150.566737
457.310373	13489.817661
457.683526	13552.504409
458.056619	13121.780663
458.429653	13245.596443
458.802628	12713.832850
459.175542	13071.669073
459.548398	14010.551210
459.921194	14336.701261
460.293930	14403.012598
460.666607	15285.073369
461.039224	16320.995196
461.411782	17015.149478
461.784280	16925.941220
462.156719	16959.648895
462.529099	16659.284346
462.901419	15584.729636
463.273680	15375.357914
463.645882	15227.909205
464.018024	14962.205109
464.390106	15187.799264
464.762130	15919.104329
465.134094	16657.035991
465.505999	18618.990054
465.877845	21884.357128
466.249631	24722.793925
466.621358	24431.521097
466.993026	22993.937775
467.364634	22428.998349
467.736184	20987.568627
468.107674	20188.137408
468.479105	20311.217180
468.850477	19774.966960
469.221790	19355.535398
469.593043	18688.401701
469.964238	18128.878994
470.335373	17793.332233
470.706449	18210.638948
471.077467	17760.622706
471.448425	19575.720395
471.819324	23568.261309
472.190164	25656.521481
472.560945	22146.804639
472.931667	19743.147197
473.302330	19096.273897
473.672934	18605.275595
474.043479	18949.384756
474.413965	18769.972611
474.784393	18404.678001
475.154761	19079.086083
475.525070	19086.882227
475.895321	18730.036591
476.265513	19316.557197
476.635645	19896.035311
477.005719	19688.037303
477.375734	19874.552433
477.745691	20355.566731
478.115588	20863.803258
478.485427	21385.189636
478.855207	22444.449485
479.224928	24194.639798
479.594591	26413.869147
479.964194	26486.751629
480.333739	26675.759610
480.703226	26243.319351
481.072653	25915.631748
481.442022	26473.879042
481.811333	27381.901756
482.180584	27320.732395
482.549777	26364.193617
482.918912	26002.775654
483.287988	26126.195703
483.657005	25810.700131
484.025964	25532.700661
484.394864	25469.373686
484.763706	25157.674102
485.132489	24587.607823
485.501213	24754.152422
485.869879	24678.162069
486.238487	24481.942718
486.607036	24627.503514
486.975527	24324.010929
487.343959	24647.557224
487.712333	24601.917138
488.080648	24269.483289
488.448905	24739.638940
488.817104	24475.041378
489.185244	25148.842001
489.553326	25130.890452
489.921350	26109.181809
490.289315	28381.560043
490.657222	30179.648879
491.025070	30675.464004
491.392861	30474.117798
491.760593	29611.087383
492.128267	28717.767196
492.495883	27673.585438
492.863440	26807.858005
493.230939	25929.283193
493.598380	25774.187053
493.965763	25371.282914
494.333088	24931.835451
494.700354	24853.851322
495.067563	24735.762293
495.434713	24495.906714
495.801805	24628.589883
496.168839	24444.562562
496.535815	24272.863382
496.902733	24496.569625
497.269593	24173.542569
497.636395	24355.631567
498.003139	24335.550130
498.369825	24080.324073
498.736453	24263.756538
499.103023	24156.891638
499.469535	24176.234545
499.835989	24368.826787
500.202385	24401.085130
500.568723	23910.480038
500.935003	24161.055631
501.301226	23764.634416
501.667390	24607.326296
502.033497	24838.785834
502.399546	24556.191352
502.765537	24143.504854
503.131470	24528.744790
503.497345	24656.414532
503.863163	23883.724114
504.228923	24481.569672
504.594625	24682.888151
504.960269	24205.420306
505.325856	24701.248033
505.691385	24111.765749
506.056856	24703.483785
506.422270	24674.696276
506.787625	24261.288893
507.152924	24670.065976
507.518164	24685.141547
507.883347	24502.278732
508.248472	24181.986502
508.613540	24970.296935
508.978550	24759.732980
509.343503	24736.689865
509.708398	25003.434959
510.073236	25161.318857
510.438016	25371.285435
510.802738	25053.889348
511.167403	25302.140969
511.532010	24988.727393
511.896561	25781.625276
512.261053	25745.964153
512.625488	25574.532155
512.989866	25477.926003
513.354186	25323.379350
513.718449	25422.251500
514.082655	25804.464223
514.446803	25553.291253
514.810894	26005.318916
515.174927	25490.574258
515.538904	25514.313052
515.902822	26006.831262
516.266684	25764.434941
516.630488	25674.664594
516.994235	25652.775904
517.357925	25942.317096
517.721558	26129.301054
518.085133	26212.228034
518.448651	26143.423846
518.812112	25876.562806
519.175516	26060.509468
519.538863	26226.950724
519.902152	26009.747570
520.265385	26292.647041
520.628560	26081.899084
520.991678	26098.239984
521.354739	26171.941653
521.717743	26237.690903
522.080690	26022.514292
522.443580	26356.694901
522.806413	26346.166451
523.169189	26441.761851
523.531908	26486.358419
523.894569	26098.643277
524.257174	26174.522724
524.619722	26363.119851
524.982213	26055.395218
525.344647	26098.285355
525.707025	26247.100216
526.069345	26233.766364
526.431608	26182.880957
526.793815	26369.096139
527.155964	25836.538565
527.518057	26013.099937
527.880093	25927.160867
528.242072	26161.604767
528.603995	25859.322059
528.965860	25657.380998
529.327669	25708.473092
529.689421	25700.765168
530.051117	25531.001792
530.412755	25709.400665
530.774337	25509.816343
531.135862	25376.008996
531.497331	25585.882313
531.858743	25142.812781
532.220098	25612.078669
532.581396	25296.154599
532.942638	25224.910492
533.303824	25328.944784
533.664953	25342.291239
534.026025	25005.736246
534.387040	25247.751960
534.747999	25292.920698
535.108902	25463.891431
535.469748	24958.888803
535.830537	25144.224304
536.191270	25253.597178
536.551947	25135.059486
536.912567	24781.331803
537.273131	25135.099816
537.633638	24845.480486
537.994089	25052.112341
538.354483	24589.422638
538.714821	25088.028042
539.075103	25120.782939
539.435328	24910.539097
539.795497	24475.923580
540.155609	24865.277097
540.515665	25166.506204
540.875665	24398.587239
541.235609	24696.317785
541.595496	24669.708054
541.955328	25011.387380
542.315102	24932.316882
542.674821	24487.361958
543.034483	24359.203224
543.394090	24528.727146
543.753640	24319.032790
544.113134	24956.547187
544.472571	24548.334714
544.831953	24837.341543
545.191278	24460.379182
545.550548	24388.346135
545.909761	24590.042700
546.268918	24823.743031
546.628019	24776.386431
546.987064	24476.394928
547.346053	24247.702983
547.704986	24350.474466
548.063863	24514.138047
548.422684	24519.917729
548.781449	24038.953844
549.140158	24471.247910
549.498811	24030.850189
549.857408	23785.466984
550.215949	24193.744993
550.574434	23880.810327
550.932864	24111.284319
551.291237	24256.862760
551.649555	24128.963646
552.007817	24176.242107
552.366022	24046.815523
552.724173	24090.940743
553.082267	24027.679303
553.440305	24508.560010
553.798288	23763.096864
554.156215	24282.504589
554.514086	24375.962540
554.871902	23754.421038
555.229661	24034.137021
555.587365	23878.947621
555.945014	23756.442541
556.302606	24003.648123
556.660143	23954.108704
557.017625	24209.717889
557.375050	23727.103026
557.732421	24123.627584
558.089735	23936.741929
558.446994	24000.807433
558.804197	24020.278889
559.161345	23972.161076
559.518437	23726.803077
559.875474	23921.547891
560.232455	24103.321817
560.589381	23924.920423
560.946251	23904.521394
561.303065	24228.405447
561.659825	24314.778056
562.016528	23921.878087
562.373177	23651.349607
562.729770	24006.796323
563.086307	23878.050295
563.442789	24049.855339
563.799216	23874.415623
564.155587	23880.011304
564.511904	23861.790054
564.868164	23806.380211
565.224370	23779.422641
565.580520	23686.637684
565.936615	23825.957532
566.292654	23499.499971
566.648638	23796.534838
567.004567	23633.443428
567.360441	23572.931938
567.716260	23305.163490
568.072023	23616.641263
568.427732	23389.577611
568.783385	23169.826153
569.138982	23412.577876
569.494525	23446.729172
569.850013	23190.825080
570.205445	23291.113794
570.560823	23097.591460
570.916145	22855.190098
571.271412	23026.153269
571.626625	22782.849540
571.981782	22904.810175
572.336884	22710.655176
572.691931	22835.882478
573.046923	22581.457964
573.401860	22448.870577
573.756743	22469.095686
574.111570	22367.430737
574.466342	22310.150626
574.821059	22388.285990
575.175722	22094.517791
575.530330	22087.039239
575.884882	22097.282864
576.239380	22019.737315
576.593823	21912.859812
576.948211	21874.910006
577.302544	21735.217112
577.656823	21593.391811
578.011047	21691.074249
578.365216	21566.870300
578.719330	21444.161054
579.073389	21342.251608
579.427394	21488.440029
579.781344	21251.261302
580.135239	21150.677680
580.489080	21102.305288
580.842866	20884.182123
581.196597	21063.087632
581.550273	21045.201618
581.903895	20921.559758
582.257463	21244.730487
582.610975	20781.254364
582.964434	21097.233887
583.317837	20789.657968
583.671186	20868.211748
584.024481	20846.214673
584.377721	20618.336875
584.730906	20686.286587
585.084037	20699.872497
585.437113	20618.173037
585.790135	20810.019188
586.143103	20274.676376
586.496016	20292.738830
586.848874	20534.852847
587.201679	20462.436672
587.554428	20144.738115
587.907124	20472.569391
588.259765	20248.805174
588.612352	20325.904581
588.964884	19888.662623
589.317362	20061.773326
589.669786	20114.735688
590.022155	20150.434619
590.374470	20351.392655
590.726731	20139.374327
591.078937	19909.268339
591.431090	19995.628346
591.783188	19754.542725
592.135232	19725.926615
592.487222	19809.753442
592.839157	19837.885601
593.191038	19720.094000
593.542866	19613.408061
593.894639	19327.108332
594.246358	19552.299194
594.598022	19450.404872
594.949633	19193.681592
595.301190	19169.998251
595.652692	19332.633436
596.004141	19573.456917
596.355535	18890.582217
596.706876	18910.693900
597.058162	18803.019895
597.409395	19032.246202
597.760573	19106.381410
598.111698	18885.377226
598.462768	18819.310384
598.813785	18772.861192
599.164748	18601.857692
599.515657	18643.235483
599.866511	18440.273588
600.217312	18796.650397
600.568060	18323.936360
600.918753	18622.279407
601.269392	18527.180560
601.619978	18310.068146
601.970510	18514.242438
602.320988	18449.027552
602.671412	18661.376075
603.021783	18579.822809
603.372100	18296.585580
603.722363	18451.475032
604.072572	18391.676865
604.422728	18527.944295
604.772830	18284.756512
605.122878	18235.176764
605.472872	18223.665290
605.822813	18213.542653
606.172701	18186.136420
606.522534	18385.871976
606.872314	18397.383451
607.222041	18230.760714
607.571714	18455.586093
607.921333	18278.041696
608.270899	18351.188838
608.620411	18538.752528
608.969870	18309.027148
609.319276	18301.636816
609.668627	18327.034149
610.017926	18468.463720
610.367171	18586.865301
610.716362	18632.018916
611.065500	18437.009441
611.414585	18586.383871
611.763616	18565.223627
612.112594	18500.651488
612.461518	18468.592270
612.810389	18659.137803
613.159207	18521.733593
613.507971	18432.774872
613.856682	18709.652685
614.205340	18635.051170
614.553945	18790.346435
614.902496	18527.026805
615.250994	18755.310415
615.599439	18703.792344
615.947830	18687.713583
616.296169	18747.257172
616.644454	18704.593887
616.992686	18677.704373
617.340864	18899.542868
617.688990	18654.986413
618.037063	18816.368871
618.385082	18670.992076
618.733048	18953.137895
619.080961	18820.641249
619.428821	18852.488738
619.776628	18744.524867
620.124382	18669.676335
620.472083	18712.891626
620.819731	18734.303927
621.167326	18416.544877
621.514868	18462.124469
621.862357	18236.689111
622.209793	18243.383763
622.557176	18082.659175
622.904506	17903.816681
623.251783	17819.402560
623.599007	17570.462821
623.946179	17520.421807
624.293297	17459.900235
624.640363	17202.325000
624.987376	17229.547231
625.334336	17014.471443
625.681243	16873.051954
626.028097	16876.432048
626.374899	16808.252963
626.721647	16667.377918
627.068343	16503.300963
627.414987	16429.564006
627.761577	16411.433496
628.108115	16450.250381
628.454600	16174.600089
628.801032	16265.424037
629.147412	16206.170315
629.493739	16221.079527
629.840014	16026.904363
630.186236	16132.314890
630.532405	15895.287398
630.878521	16090.022130
631.224585	15993.136194
631.570597	15797.080680
631.916556	15836.711711
632.262462	15818.926520
632.608316	15731.273458
632.954117	15684.398289
633.299866	15670.870352
633.645562	15584.260809
633.991206	15340.100084
634.336797	15212.805908
634.682336	15195.560121
635.027823	15064.497683
635.373257	14940.724753
635.718639	14850.924159
636.063968	14804.651407
636.409245	14550.879723
636.754470	14583.586729
637.099642	14420.442388
637.444762	14186.429506
637.789829	14237.597217
638.134845	14078.054780
638.479808	14114.492240
638.824719	14049.395821
639.169577	13912.863730
639.514383	13943.733236
639.859137	13767.247481
640.203839	13852.979864
640.548489	13691.310060
640.893086	13681.391590
641.237632	13559.541860
641.582125	13704.076782
641.926566	13534.333570
642.270955	13545.834963
642.615292	13508.021268
642.959576	13518.464018
643.303809	13545.628276
643.647990	13479.526146
643.992118	13539.639385
644.336195	13313.102534
644.680219	13525.871994
645.024192	13442.060290
645.368112	13679.473431
645.711981	13736.733377
646.055797	13919.150049
646.399562	13887.108475
646.743274	14158.788859
647.086935	14439.245892
647.430544	14397.737031
647.774101	14436.775726
648.117606	14574.255553
648.461059	14546.642633
648.804460	14546.514084
649.147810	14259.768212
649.491108	14163.487214
649.834354	14188.806410
650.177548	13873.295714
650.520690	13680.330427
650.863781	13601.905197
651.206820	13649.002176
651.549807	13481.822391
651.892742	13272.896811
652.235626	13217.318090
652.578458	13215.785579
652.921238	12910.737798
653.263967	13112.197430
653.606644	12929.289245
653.949269	12907.113209
654.291843	12718.906771
654.634365	12866.415974
654.976836	12727.633008
655.319255	12724.550343
655.661622	12683.258252
656.003938	12602.057866
656.346203	12534.065304
656.688416	12606.060542
657.030577	12562.220148
657.372687	12484.157881
657.714746	12458.579066
658.056753	12646.397335
658.398708	12466.274387
658.740612	12460.877832
659.082465	12570.033936
659.424266	12538.809029
659.766016	12560.186042
660.107715	12466.657515
660.449362	12544.162735
660.790958	12505.880213
661.132503	12447.160853
661.473996	12509.219977
661.815438	12526.254036
662.156829	12541.246427
662.498168	12527.317719
662.839456	12516.819516
663.180693	12542.806664
663.521879	12640.325265
663.863013	12613.259310
664.204097	12576.239597
664.545129	12707.052498
664.886110	12682.207171
665.227040	12766.477619
665.567918	12778.689815
665.908746	12802.436170
666.249522	12784.542594
666.590248	12840.201974
666.930922	12954.255559
667.271545	12931.983741
667.612118	13020.672761
667.952639	12913.575968
668.293109	12926.418308
668.633528	12896.020150
668.973896	12856.860467
669.314213	12931.353597
669.654480	12679.910926
669.994695	12746.900298
670.334859	12776.212088
670.674973	12714.679764
671.015035	12752.173345
671.355047	12689.211854
671.695008	12668.364163
672.034918	12675.444463
672.374777	12720.232595
672.714585	12628.705405
673.054342	12667.116477
673.394049	12614.572531
673.733705	12712.738919
674.073310	12626.255405
674.412864	12638.147487
674.752368	12499.719922
675.091820	12525.117256
675.431223	12510.266016
675.770574	12371.087320
676.109875	12303.692135
676.449125	12255.642377
676.788324	12204.240252
677.127473	12034.978470
677.466571	12027.257943
677.805619	11919.788105
678.144616	11839.729540
678.483562	11817.482928
678.822458	11684.220027
679.161303	11661.668425
679.500098	11651.601241
679.838842	11607.465939
680.177535	11633.400155
680.516179	11700.230731
680.854771	11642.335600
681.193314	11852.052641
681.531805	12008.030982
681.870247	12430.575456
682.208638	12849.175228
682.546978	13153.234943
682.885268	13202.003065
683.223508	12898.409657
683.561697	12736.316396
683.899836	12639.175882
684.237925	12442.031478
684.575963	12352.253570
684.913951	12275.375973
685.251889	12223.941081
685.589776	12321.613437
685.927614	12246.674164
686.265401	12211.897764
686.603137	12269.051846
686.940824	12415.572982
687.278460	12540.200388
687.616046	12585.842995
687.953582	12754.298192
688.291068	12686.038448
688.628504	12919.905137
688.965889	12931.257815
689.303224	12892.060323
689.640510	12779.549331
689.977745	12467.766569
690.314930	12241.932959
690.652065	12154.814259
690.989150	11860.206707
691.326185	11638.721092
691.663170	11425.152610
692.000105	11189.796260
692.336990	11079.216030
692.673825	10823.397637
693.010610	10707.415810
693.347345	10498.366722
693.684030	10296.097986
694.020665	10239.740406
694.357251	10040.743379
694.693786	9982.475202
695.030272	9821.871602
695.366707	9696.215802
695.703093	9637.740938
696.039429	9627.671233
696.375716	9556.243124
696.711952	9419.395962
697.048139	9462.306263
697.384276	9417.503008
697.720363	9440.326832
698.056400	9368.954176
698.392388	9322.898195
698.728326	9281.699365
699.064214	9222.977484
699.400053	9267.342159
699.735842	9083.148479
700.071581	9036.850522
700.407270	8965.346796
700.742910	8887.985249
701.078501	8791.142163
701.414042	8668.780757
701.749533	8601.239378
702.084974	8464.130075
702.420366	8581.951923
702.755709	8466.370868
703.091002	8329.463212
703.426246	8357.920525
703.761440	8307.740880
704.096584	8263.275383
704.431679	8195.504631
704.766725	8181.225563
705.101721	8132.500290
705.436668	8184.524998
705.771565	8071.378820
706.106413	8151.442426
706.441212	8194.370371
706.775961	8156.145822
707.110661	8189.979526
707.445311	8333.170981
707.779913	8228.554435
708.114465	8359.664765
708.448967	8391.119044
708.783421	8541.600007
709.117825	8727.180003
709.452180	8762.969675
709.786485	8851.756997
710.120742	9131.800655
710.454949	9131.321746
710.789107	9234.967869
711.123216	9450.464593
711.457275	9621.916756
711.791286	9776.748234
712.125247	9771.795301
712.459159	9759.933466
712.793023	10002.481021
713.126837	9585.073483
713.460602	9732.867511
713.794318	9554.685407
714.127985	9584.045087
714.461602	9260.213967
714.795171	9212.585146
715.128691	8961.334038
715.462162	8713.624341
715.795584	8658.953027
716.128957	8509.744956
716.462281	8338.814552
716.795556	8390.682984
717.128782	8181.465017
717.461960	7924.373733
717.795088	7987.925039
718.128167	7901.703664
718.461198	7734.377686
718.794180	7668.472161
719.127113	7662.959659
719.459997	7510.505084
719.792833	7282.435723
720.125619	7347.143973
720.458357	7204.824639
720.791046	7191.669748
721.123686	7186.442071
721.456278	7024.273193
721.788821	7044.352109
722.121315	6939.906963
722.453761	7011.032603
722.786158	6946.662109
723.118506	6962.093081
723.450805	6928.448420
723.783056	6993.754048
724.115259	6907.525111
724.447412	6901.153093
724.779518	6952.126720
725.111574	6953.666792
725.443582	7037.332302
725.775542	7013.727099
726.107453	7204.544855
726.439315	7116.990095
726.771129	7175.759866
727.102895	7352.507761
727.434612	7460.537168
727.766281	7487.787125
728.097901	7569.998262
728.429473	7562.885193
728.760996	7541.261164
729.092471	7515.321907
729.423897	7461.258053
729.755276	7472.565361
730.086606	7396.060810
730.417887	7498.131572
730.749120	7698.376285
731.080305	7891.162611
731.411442	8006.720981
731.742530	8000.873242
732.073570	8105.688913
732.404562	8197.011936
732.735506	8050.236221
733.066401	8189.009104
733.397249	8121.308928
733.728048	7874.914972
734.058798	7539.625310
734.389501	7315.777914
734.720156	7134.258567
735.050762	6907.414206
735.381320	6813.996584
735.711831	6760.547750
736.042293	6649.501213
736.372707	6670.600963
736.703073	6528.931937
737.033391	6572.580767
737.363661	6582.816830
737.693883	6612.136181
738.024056	6696.746907
738.354182	6737.033288
738.684260	6778.519464
739.014290	6892.434417
739.344272	6996.647670
739.674207	7030.864502
740.004093	7099.582990
740.333931	7117.625280
740.663722	7121.406145
740.993464	7202.039401
741.323159	7188.516506
741.652806	6936.960408
741.982405	6955.002698
742.311956	7002.873495
742.641460	6844.762746
742.970915	6650.330483
743.300323	6640.356560
743.629683	6592.205979
743.958996	6452.843281
744.288260	6365.603593
744.617477	6314.279606
744.946647	6317.881510
745.275768	6148.344986
745.604842	6106.090034
745.933869	6090.671665
746.262847	6051.461571
746.591778	6033.096647
746.920662	5993.165668
747.249498	5988.636191
747.578286	6039.065373
747.907027	6107.950220
748.235720	6169.681670
748.564365	6140.621938
748.892963	6173.074366
749.221514	6325.574311
749.550017	6154.661552
749.878473	6031.100350
750.206881	6085.806952
750.535242	6028.894846
750.863555	5960.362880
751.191821	5978.117823
751.520039	5978.788297
751.848210	5886.063834
752.176334	5908.630559
752.504411	5958.104443
752.832440	5881.887238
753.160421	5813.151105
753.488356	5858.196335
753.816243	5887.732456
754.144082	5741.823819
754.471875	5713.555549
754.799620	5762.356439
755.127318	5770.873468
755.454969	5724.227672
755.782572	5688.369944
756.110129	5735.096399
756.437638	5713.815168
756.765100	5657.273587
757.092515	5656.955994
757.419882	5708.058171
757.747203	5691.472775
758.074477	5748.891517
758.401703	5737.075052
758.728882	5691.112332
759.056014	5748.122741
759.383099	5877.778697
759.710138	5883.923864
760.037129	5871.010948
760.364073	5881.887238
760.690970	5960.677952
761.017820	5940.977123
761.344623	5894.308641
761.671379	5997.223797
761.998088	6117.684688
762.324751	6367.524273
762.651366	6972.848383
762.977935	8299.591855
763.304456	9939.809397
763.630931	10832.660757
763.957359	10421.292521
764.283740	9471.397984
764.610074	8633.192731
764.936362	7636.092830
765.262602	7037.470934
765.588796	6500.532597
765.914943	6162.954250
766.241044	6003.421895
766.567097	5800.966636
766.893104	5539.630700
767.219064	5360.243761
767.544978	5294.955778
767.870845	5216.618768
768.196665	5113.131441
768.522438	5045.428745
768.848165	5008.540101
769.173846	4941.061737
769.499479	4893.995004
769.825066	4846.827448
770.150607	4781.121048
770.476101	4760.868213
770.801548	4754.597017
771.126949	4679.556922
771.452303	4627.595229
771.777611	4587.664249
772.102872	4605.641004
772.428087	4566.793872
772.753256	4524.087737
773.078378	4479.854133
773.403453	4409.953494
773.728482	4394.898088
774.053465	4349.986448
774.378401	4341.166949
774.703291	4335.846012
775.028135	4263.843211
775.352932	4216.693299
775.677683	4202.905743
776.002388	4220.242272
776.327046	4230.909353
776.651658	4157.618538
776.976224	4100.593006
777.300743	4105.858491
777.625216	4122.373311
777.949643	4115.630768
778.274024	4072.082760
778.598359	4032.338303
778.922647	4055.215059
779.246889	4047.807084
779.571086	4040.590672
779.895236	4023.014689
780.219339	4010.121938
780.543397	4006.396525
780.867409	4058.234710
781.191374	4069.468922
781.515294	4008.115559
781.839167	4000.095083
782.162995	4016.685520
782.486776	4007.971886
782.810511	4017.013195
783.134201	4013.842310
783.457844	3968.628201
783.781441	3914.327412
784.104993	3918.405706
784.428498	3939.898665
784.751958	3932.798200
785.075372	3910.695261
785.398739	3874.595558
785.722061	3887.516035
786.045337	3928.619083
786.368568	3963.781131
786.691752	3874.227554
787.014891	3927.777211
787.337983	4056.392169
787.661030	4217.262950
787.984031	4377.070047
788.306987	4546.205800
788.629897	4628.953820
788.952760	4586.512345
789.275579	4520.732849
789.598351	4449.592086
789.921078	4309.979851
790.243759	4108.217751
790.566395	4091.367694
790.888984	4088.252261
791.211529	3976.242864
791.534027	3917.571395
791.856480	3909.127462
792.178888	3846.065148
792.501249	3794.814257
792.823566	3807.046617
793.145836	3838.034590
793.468062	3784.245478
793.790241	3736.311667
794.112375	3767.420627
794.434464	3834.528467
794.756507	3858.907487
795.078505	3837.870752
795.400457	3872.463150
795.722364	4014.724512
796.044226	4115.166981
796.366042	4193.594732
796.687812	4174.224099
797.009538	4174.327442
797.331218	4134.333448
797.652852	4107.209520
797.974442	4084.284873
798.295986	4084.541972
798.617484	4000.687419
798.938938	3916.127104
799.260346	3957.714103
799.581709	3953.610603
799.903026	3877.370713
800.224299	3844.646063
800.545526	3838.977286
800.866708	3799.873055
801.187845	3739.515320
801.508936	3776.608130
801.829983	3769.190072
802.150984	3690.537990
802.471940	3681.322761
802.792851	3691.142928
803.113717	3692.703166
803.434538	3693.965975
803.755314	3637.588231
804.076045	3607.694188
804.396731	3633.368785
804.717372	3655.262516
805.037967	3643.133500
805.358518	3630.961634
805.679024	3658.902229
805.999485	3676.085002
806.319901	3678.517359
806.640272	3689.411292
806.960598	3704.764126
807.280879	3678.529962
807.601115	3693.207281
807.921306	3708.202193
808.241453	3750.540324
808.561554	3723.597877
808.881611	3659.164369
809.201623	3697.693908
809.521590	3709.238150
809.841513	3679.603727
810.161390	3706.929302
810.481223	3687.518339
810.801011	3630.238228
811.120755	3627.639513
811.440453	3658.246879
811.760107	3661.445491
812.079716	3615.697020
812.399281	3587.020416
812.718801	3606.506997
813.038276	3584.494798
813.357707	3582.039756
813.677093	3598.859566
813.996434	3544.354611
814.315731	3554.257957
814.634983	3559.175603
814.954191	3575.156061
815.273354	3602.804269
815.592473	3599.930811
815.911547	3601.483487
816.230577	3645.878408
816.549562	3696.882282
816.868502	3737.473653
817.187399	3764.653034
817.506250	3758.712034
817.825058	3732.840833
818.143821	3827.861541
818.462539	3928.246038
818.781213	3974.579283
819.099843	4030.841080
819.418429	4285.631078
819.736970	4523.064383
820.055466	4773.077887
820.373919	5139.002642
820.692327	5552.014295
821.010691	6005.387945
821.329011	7401.926192
821.647286	10185.298465
821.965517	14789.621207
822.283704	18836.704885
822.601847	20968.177828
822.919945	19116.879613
823.237999	16511.122314
823.556010	14013.999359
823.873976	11898.337995
824.191897	9798.546183
824.509775	8449.477962
824.827609	7322.890982
825.145398	6778.862262
825.463144	6662.615775
825.780845	6778.940400
826.098502	6971.152034
826.416116	7870.221658
826.733685	9205.613230
827.051210	10320.368621
827.368692	10339.446868
827.686129	9069.721366
828.003522	7546.027575
828.320872	6523.147213
828.638177	5818.277958
828.955439	5253.872894
829.272656	4756.202625
829.589830	4478.513186
829.906960	4299.668171
830.224046	4110.584573
830.541088	3988.185357
830.858086	3940.334725
831.175041	3864.964434
831.491952	3849.682176
831.808819	3858.907487
832.125642	3934.234929
832.442421	4082.341508
832.759157	4360.628324
833.075849	4921.935599
833.392497	5791.184277
833.709101	6572.835346
834.025662	6905.034781
834.342179	6537.002824
834.658653	5861.160534
834.975083	5211.088622
835.291469	4635.124192
835.607811	4221.714288
835.924110	4082.112136
836.240366	3885.116446
836.556578	3680.559026
836.872746	3566.903692
837.188871	3526.103113
837.504952	3461.961992
837.820990	3378.092316
838.136984	3333.815862
838.452935	3354.557689
838.768842	3354.703883
839.084706	3376.121225
839.400526	3534.509237
839.716303	3881.113770
840.032037	4416.849792
840.347727	4672.854708
840.663373	4385.302251
840.978977	4000.458046
841.294537	3691.631920
841.610054	3463.902837
841.925527	3358.540201
842.240957	3286.466824
842.556344	3233.650655
842.871687	3171.778053
843.186987	3123.277112
843.502244	3085.168510
843.817458	3052.995866
844.132629	3020.727440
844.447756	3031.404604
844.762840	3013.763086
845.077881	2983.957264
845.392879	2964.810962
845.707833	2962.819706
846.022745	2964.198462
846.337613	2963.505303
846.652438	2949.596759
846.967221	2949.717747
847.281960	2932.270314
847.596656	2928.474325
847.911309	2930.510951
848.225919	2923.246648
848.540485	2917.590474
848.855009	2919.349836
849.169490	2908.546644
849.483928	2897.662793
849.798323	2896.851167
850.112675	2896.004253
850.426984	2906.436921
850.741251	2903.671848
851.055474	2889.536453
851.369654	2887.835063
851.683792	2893.932339
851.997887	2902.711508
852.311938	2901.088257
852.625947	2892.137688
852.939914	2897.420817
853.253837	2901.567166
853.567718	2884.356667
853.881555	2883.774414
854.195350	2898.628173
854.509103	2894.867473
854.822812	2884.770042
855.136479	2882.814074
855.450103	2887.845145
855.763685	2878.670245
856.077224	2877.162940
856.390720	2889.478479
856.704173	2897.070457
857.017584	2891.555435
857.330953	2887.288098
857.644278	2899.091960
857.957561	2906.880542
858.270802	2909.774165
858.584000	2908.322312
858.897155	2898.665982
859.210268	2895.754716
859.523339	2891.479817
859.836367	2894.360837
860.149352	2888.641648
860.462295	2882.413302
860.775195	2889.382697
861.088054	2890.285064
861.400869	2873.104812
861.713642	2870.722866
862.026373	2887.719117
862.339062	2889.266751
862.651708	2894.403687
862.964312	2896.011815
863.276873	2892.760270
863.589392	2903.916344
863.901869	2913.398754
864.214303	2935.552105
864.526696	2949.977367
864.839045	2948.858230
865.151353	2944.162396
865.463619	2945.364711
865.775842	2945.236161
866.088023	2964.899182
866.400162	2970.862867
866.712258	2942.425718
867.024313	2927.982812
867.336325	2941.117539
867.648296	2962.774336
867.960224	2952.321503
868.272110	2940.331119
868.583954	2942.554268
868.895755	2957.569344
869.207515	2944.850513
869.519233	2952.576081
869.830909	2960.750312
870.142542	2968.317084
870.454134	2968.604430
870.765684	2971.926550
871.077191	2973.264977
871.388657	2981.424084
871.700081	2994.999912
872.011463	3006.937364
872.322803	3005.566170
872.634101	3007.106243
872.945357	3022.809437
873.256571	3046.177705
873.567744	3041.486912
873.878874	3033.418545
874.189963	3059.448543
874.501010	3060.371074
874.812015	3047.997562
875.122979	3048.017727
875.433900	3043.652087
875.744780	3050.871020
876.055618	3059.544325
876.366415	3055.161042
876.677169	3069.341807
876.987882	3062.445509
877.298554	3055.526525
877.609183	3079.207345
877.919771	3104.198866
878.230317	3130.904378
878.540822	3183.680218
878.851285	3224.289232
879.161707	3264.873042
879.472087	3371.425390
879.782425	3602.320318
880.092722	4045.546126
880.402977	4577.947425
880.713191	5218.423501
881.023363	6397.312451
881.333494	7682.204264
881.643583	8234.533244
881.953631	7926.097807
882.263637	7286.062833
882.573602	6690.483273
882.883526	6108.076249
883.193408	5531.441346
883.503248	5069.263320
883.813048	4759.930558
884.122806	4447.787353
884.432522	4130.862614
884.742197	3895.947365
885.051831	3698.187941
885.361424	3566.712128
885.670975	3492.566837
885.980485	3408.954260
886.289954	3328.237825
886.599382	3284.261319
886.908768	3246.452665
887.218113	3201.714946
887.527417	3142.620020
887.836680	3093.345261
888.145901	3087.429467
888.455082	3078.161306
888.764221	3024.561238
889.073319	2997.034017
889.382376	2994.218533
889.691392	2999.239522
890.000366	2997.422186
890.309300	2985.477172
890.618193	3000.126765
890.927044	3013.296779
891.235855	3014.715864
891.544625	2999.572238
891.853353	3012.467510
892.162041	3032.380067
892.470687	3067.857187
892.779293	3124.302987
893.087858	3170.358969
893.396381	3245.071389
893.704864	3366.205275
894.013306	3612.425311
894.321707	3917.168102
894.630068	4122.033033
894.938387	4115.797126
895.246665	4073.305240
895.554903	3946.878142
895.863100	3746.215014
896.171256	3577.623706
896.479371	3435.022066
896.787446	3311.236533
897.095480	3210.383210
897.403473	3142.877118
897.711425	3106.172477
898.019336	3094.668564
898.327207	3066.690160
898.635038	3031.651621
898.942827	3015.240144
899.250576	3003.758916
899.558284	2974.182467
899.865952	2952.858386
900.173579	2933.586055
900.481165	2926.664551
900.788711	2914.691810
901.096216	2888.823129
901.403681	2876.147148
901.711105	2885.957233
902.018489	2883.008158
902.325832	2882.829197
902.633135	2897.357803
902.940397	2926.329314
903.247619	3012.147396
903.554800	3208.434804
903.861941	3556.304666
904.169041	3997.599712
904.476101	4289.517808
904.783121	4243.507197
905.090100	3989.327178
905.397039	3713.366855
905.703938	3465.873928
906.010796	3280.987090
906.317614	3162.295643
906.624391	3069.878690
906.931129	2998.135509
907.237826	2933.124789
907.544483	2889.251627
907.851099	2856.017821
908.157675	2833.430931
908.464211	2814.007365
908.770707	2799.693009
909.077163	2785.547531
909.383578	2773.322733
909.689954	2761.334869
909.996289	2760.976947
910.302584	2761.803696
910.608839	2761.022317
910.915054	2757.569127
911.221229	2749.437746
911.527363	2750.602252
911.833458	2757.163314
912.139513	2762.529622
912.445527	2764.704880
912.751502	2774.477157
913.057436	2785.507202
913.363331	2795.876855
913.669186	2817.876451
913.975000	2853.666122
914.280775	2916.567119
914.586510	2987.511278
914.892205	3064.840057
915.197859	3197.795448
915.503475	3397.909092
915.809050	3611.959004
916.114585	3760.138681
916.420081	3778.606948
916.725536	3720.416909
917.030952	3595.320676
917.336328	3465.329483
917.641665	3336.543126
917.946961	3230.371385
918.252218	3160.828667
918.557435	3081.654826
918.862612	3022.585105
919.167750	2972.528968
919.472848	2934.221240
919.777906	2907.455234
920.082925	2879.307951
920.387904	2845.378465
920.692843	2832.526044
920.997743	2820.157573
921.302603	2806.329688
921.607423	2794.679581
921.912204	2782.638785
922.216946	2771.472629
922.521647	2760.160280
922.826310	2753.662233
923.130932	2747.559916
923.435516	2740.015829
923.740059	2732.292782
924.044564	2722.671740
924.349028	2717.292828
924.653454	2711.203115
924.957840	2706.172043
925.262186	2697.871783
925.566493	2696.281299
925.870761	2692.427337
926.174989	2687.156811
926.479178	2683.270081
926.783328	2678.223886
927.087438	2678.523835
927.391509	2676.956036
927.695541	2672.292969
927.999533	2667.319870
928.303486	2666.929181
928.607400	2665.915909
928.911275	2667.226609
929.215110	2665.366423
929.518906	2661.623367
929.822663	2662.866011
930.126381	2662.445075
930.430060	2662.540857
930.733699	2665.071516
931.037299	2666.490601
931.340861	2666.173008
931.644383	2666.982113
931.947866	2663.813748
932.251309	2664.678306
932.554714	2662.538336
932.858080	2661.494817
933.161407	2659.506082
933.464694	2659.201092
933.767943	2654.704383
934.071153	2657.527429
934.374323	2656.267141
934.677455	2660.335352
934.980548	2654.394352
935.283602	2655.634476
935.586617	2652.556851
935.889593	2654.379228
936.192530	2657.356030
936.495428	2654.691780
936.798287	2654.043992
937.101108	2660.811741
937.403890	2662.301402
937.706632	2667.634942
938.009336	2676.154492
938.312002	2685.720082
938.614628	2691.179652
938.917216	2699.782381
939.219765	2701.939994
939.522275	2698.005374
939.824747	2697.723069
940.127179	2693.503623
940.429573	2692.288705
940.731929	2687.648323
941.034246	2684.343847
941.336524	2682.040040
941.638763	2680.131963
941.940964	2677.228258
942.243126	2674.932013
942.545250	2675.168947
942.847335	2670.866322
943.149381	2668.960766
943.451389	2663.959941
943.753359	2663.415497
944.055290	2660.158911
944.357182	2661.507420
944.659036	2660.557162
944.960851	2657.905516
945.262628	2656.625062
945.564367	2658.341575
945.866067	2657.814775
946.167729	2658.538180
946.469352	2659.372491
946.770937	2659.201092
947.072484	2655.236225
947.373992	2656.458704
947.675462	2655.115237
947.976893	2650.311017
948.278286	2647.971922
948.579641	2651.160452
948.880958	2645.693320
949.182236	2650.091727
949.483476	2649.519556
949.784678	2646.890594
950.085841	2648.594504
950.386967	2651.551141
950.688054	2651.031902
950.989103	2650.197591
951.290114	2649.968219
951.591087	2655.568941
951.892021	2654.830412
952.192917	2659.916936
952.493776	2660.327790
952.794596	2661.207471
953.095378	2658.243273
953.396122	2662.475322
953.696828	2660.025321
953.997496	2653.698673
954.298126	2652.365287
954.598718	2651.672129
954.899272	2648.629793
955.199788	2647.021664
955.500266	2645.012765
955.800706	2642.378762
956.101108	2638.098822
956.401472	2637.887094
956.701798	2636.599079
957.002087	2634.935498
957.302337	2631.908285
957.602550	2633.992802
957.902724	2632.919037
958.202861	2630.222019
958.502960	2628.452574
958.803022	2628.082049
959.103045	2628.210599
959.403031	2624.459980
959.702979	2625.206071
960.002889	2625.392594
960.302762	2624.069291
960.602596	2627.230094
960.902393	2622.970319
961.202153	2623.179527
961.501875	2622.526698
961.801559	2623.502161
962.101205	2622.907305
962.400814	2623.976030
962.700385	2618.844135
962.999918	2618.075359
963.299414	2616.789865
963.598873	2618.024947
963.898293	2615.769031
964.197677	2617.871192
964.497022	2620.830350
964.796331	2619.199536
965.095601	2618.874382
965.394835	2620.449742
965.694030	2620.593415
965.993189	2619.902777
966.292309	2620.626183
966.591393	2621.717593
966.890439	2619.466717
967.189447	2619.159207
967.488419	2619.713734
967.787353	2622.113323
968.086249	2620.195164
968.385108	2620.197685
968.683930	2620.890843
968.982714	2619.103754
969.281462	2617.094855
969.580172	2616.684001
969.878844	2615.731222
970.177480	2620.117026
970.476078	2618.836573
970.774639	2620.520319
971.073162	2618.836573
971.371649	2621.402521
971.670098	2620.038888
971.968510	2619.421347
972.266885	2620.253137
972.565223	2621.087448
972.863524	2620.961420
973.161788	2621.384877
973.460014	2622.501492
973.758204	2622.241873
974.056356	2618.529063
974.354471	2620.326234
974.652550	2622.637603
974.950591	2618.037550
975.248595	2619.512088
975.546563	2618.171141
975.844493	2618.554269
976.142386	2621.079887
976.440243	2619.171810
976.738062	2618.453446
977.035845	2617.876233
977.333590	2620.064094
977.631299	2619.514608
977.928971	2616.736933
978.226606	2614.622169
978.524204	2616.197529
978.821765	2614.463372
979.119290	2617.709875
979.416777	2617.440174
979.714228	2617.782972
980.011642	2618.861779
980.309020	2617.760287
980.606360	2620.575771
980.903664	2619.607870
981.200931	2619.260030
981.498162	2618.377828
981.795356	2622.133488
982.092513	2621.314300
982.389633	2624.850670
982.686717	2626.536936
982.983764	2631.373923
983.280775	2632.656897
983.577749	2637.362814
983.874686	2634.320477
984.171587	2630.562297
984.468451	2629.854015
984.765279	2627.351082
985.062070	2627.086422
985.358824	2623.940742
985.655543	2620.474948
985.952224	2620.943776
986.248869	2619.769187
986.545478	2617.868672
986.842050	2617.218363
987.138586	2617.024278
987.435086	2617.220883
987.731549	2616.321038
988.027975	2614.866665
988.324366	2615.617797
988.620719	2615.534617
988.917037	2615.078393
989.213318	2617.379680
989.509563	2617.082252
989.805772	2613.639144
990.101944	2612.978752
990.398080	2615.660646
990.694180	2614.339864
990.990244	2614.153341
991.286271	2614.153341
991.582262	2612.877929
991.878217	2613.999586
992.174136	2613.450100
992.470019	2615.827004
992.765865	2610.911879
993.061676	2611.111005
993.357450	2610.062445
993.653188	2611.678135
993.948890	2614.400358
994.244556	2612.673763
994.540186	2613.107302
994.835780	2617.251130
995.131337	2616.142077
995.426859	2615.799278
995.722345	2615.998404
996.017795	2618.329937
996.313208	2617.530914
996.608586	2620.679115
996.903928	2621.379835
997.199234	2618.360184
997.494504	2621.072325
997.789738	2618.072838
998.084936	2617.518312
998.380099	2615.141407
998.675225	2617.021758
998.970316	2615.335492
999.265371	2617.339351
999.560390	2614.574278
999.855373	2614.753239
1000.150320	2613.692076
1000.445232	2614.803650
1000.740108	2612.396499
1001.034948	2613.104781
1001.329752	2610.750562
1001.624521	2610.853906
1001.919254	2611.620162
1002.213951	2615.282560
1002.508613	2612.260388
1002.803239	2614.128136
1003.097829	2611.910028
1003.392384	2612.754421
1003.686903	2609.480192
1003.981386	2612.804833
1004.275834	2612.295676
1004.570246	2610.944647
1004.864623	2609.434821
1005.158964	2612.741818
1005.453270	2611.610079
1005.747540	2614.120574
1006.041775	2611.047991
1006.335974	2612.429267
1006.630138	2610.826180
1006.924266	2614.279370
1007.218359	2613.059411
1007.512416	2608.960953
1007.806438	2606.200921
1008.100425	2608.141765
1008.394376	2606.969697
1008.688292	2611.438680
1008.982172	2609.260902
1009.276017	2610.558999
1009.569827	2609.875922
1009.863602	2613.394648
1010.157341	2610.637137
1010.451045	2612.172168
1010.744714	2609.160078
1011.038347	2610.614451
1011.331945	2611.899946
1011.625508	2610.755604
1011.919036	2612.028495
1012.212528	2610.876591
1012.505986	2610.349791
1012.799408	2610.911879
1013.092795	2610.070007
1013.386147	2611.968001
1013.679464	2611.292487
1013.972745	2611.237034
1014.265992	2610.513628
1014.559204	2612.600666
1014.852380	2611.862137
1015.145521	2610.833742
1015.438628	2610.778289
1015.731699	2610.793412
1016.024736	2606.735283
1016.317737	2611.403392
1016.610703	2610.342229
1016.903635	2613.256016
1017.196531	2611.917590
1017.489393	2609.873402
1017.782219	2607.622527
1018.075011	2609.202928
1018.367768	2608.255191
1018.660490	2611.610079
1018.953177	2611.610079
1019.245829	2611.610079
