Dividing Wavelength (nm)	Counts (n)	Blue Motor Position (mm): 27.300000	Red Motor Position (mm): 0.000000	
326.493990	2205.519931
326.888308	2205.519931
327.282561	2205.519931
327.676750	2164.152223
328.070874	2160.247849
328.464933	2162.218940
328.858929	2165.016781
329.252859	2169.430311
329.646726	2179.810047
330.040528	2191.591223
330.434265	2204.068079
330.827938	2223.799155
331.221547	2240.737432
331.615091	2258.552870
332.008571	2274.450148
332.401986	2293.339352
332.795338	2312.210911
333.188625	2331.997440
333.581847	2348.466890
333.975006	2368.379447
334.368100	2389.277551
334.761129	2410.682290
335.154095	2424.976482
335.546996	2450.492282
335.939833	2485.704741
336.332606	2501.133193
336.725315	2514.361180
337.117960	2526.752337
337.510540	2538.389840
337.903056	2546.985007
338.295508	2557.642007
338.687896	2566.196845
339.080220	2574.219841
339.472480	2582.174782
339.864676	2586.752150
340.256807	2592.620053
340.648875	2595.707759
341.040879	2595.748089
341.432818	2602.157916
341.824694	2603.410642
342.216506	2605.805191
342.608253	2606.054728
342.999937	2605.598503
343.391557	2605.704367
343.783113	2606.115222
344.174605	2605.540530
344.566033	2602.777978
344.957397	2604.920468
345.348697	2602.150354
345.739934	2600.542226
346.131106	2597.875456
346.522215	2596.791607
346.913260	2596.282451
347.304241	2594.757502
347.695159	2590.676688
348.086012	2590.157449
348.476802	2587.238621
348.867528	2580.380131
349.258191	2579.792837
349.648789	2577.549523
350.039324	2576.690007
350.429796	2580.647312
350.820203	2576.619430
351.210548	2579.155131
351.600828	2577.113463
351.991045	2574.718915
352.381198	2574.976014
352.771288	2572.367217
353.161314	2573.677917
353.551276	2574.456775
353.941175	2571.550550
354.331010	2570.895200
354.720782	2571.510221
355.110490	2570.922927
355.500135	2570.333112
355.889717	2571.106929
356.279235	2571.230437
356.668689	2571.573235
357.058080	2570.350756
357.447408	2570.698595
357.836672	2571.482495
358.225873	2569.844120
358.615010	2572.480643
359.004084	2573.864440
359.393095	2574.272773
359.782043	2574.386199
360.170927	2575.938875
360.559748	2572.294120
360.948505	2577.088258
361.337199	2577.917528
361.725830	2576.480799
362.114398	2577.219328
362.502903	2578.766962
362.891344	2578.000707
363.279722	2578.668659
363.668037	2576.581622
364.056289	2576.939544
364.444478	2582.371387
364.832603	2581.892477
365.220665	2580.601942
365.608665	2579.876016
365.996601	2582.615883
366.384474	2580.783423
366.772284	2581.975656
367.160031	2583.472879
367.547715	2582.590677
367.935336	2581.446335
368.322893	2580.269226
368.710388	2580.891808
369.097820	2581.839545
369.485189	2579.019020
369.872495	2585.998497
370.259738	2585.393559
370.646918	2588.839187
371.034035	2584.380287
371.421090	2587.389856
371.808081	2588.146029
372.195010	2586.452201
372.581875	2585.086048
372.968678	2589.144177
373.355418	2587.586461
373.742096	2588.443457
374.128710	2589.429002
374.515262	2588.297263
374.901751	2589.247521
375.288177	2589.572675
375.674540	2590.391863
376.060841	2591.180803
376.447079	2590.890937
376.833254	2590.475042
377.219367	2590.114599
377.605417	2589.534867
377.991404	2591.132912
378.377329	2592.635176
378.763191	2593.557707
379.148991	2590.951431
379.534727	2591.652151
379.920402	2592.030238
380.306013	2595.974941
380.691563	2594.389498
381.077049	2594.071905
381.462474	2593.734148
381.847835	2593.562748
382.233134	2595.044848
382.618371	2594.513006
383.003545	2593.033427
383.388657	2595.581731
383.773706	2596.519385
384.158693	2595.052409
384.543618	2596.766402
384.928480	2595.128027
385.313280	2595.309508
385.698017	2594.049220
386.082692	2594.817996
386.467305	2598.384612
386.851856	2601.391660
387.236344	2600.086002
387.620770	2593.003180
388.005133	2593.663572
388.389435	2596.930239
388.773674	2594.457553
389.157851	2600.660693
389.541965	2599.239088
389.926018	2600.184304
390.310008	2599.334870
390.693936	2601.376537
391.077802	2601.958790
391.461606	2600.106166
391.845348	2600.930395
392.229027	2603.720673
392.612645	2601.842844
392.996200	2603.665221
393.379694	2603.292175
393.763125	2603.947525
394.146494	2603.513986
394.529801	2603.692947
394.913047	2602.944336
395.296230	2603.818976
395.679351	2603.357710
396.062410	2604.580190
396.445408	2604.769233
396.828343	2606.110180
397.211217	2605.185129
397.594028	2606.468102
397.976778	2606.337032
398.359466	2608.958432
398.742092	2607.990531
399.124656	2605.601024
399.507158	2606.599172
399.889598	2609.462548
400.271977	2608.260233
400.654294	2606.899121
401.036549	2607.362907
401.418742	2609.449945
401.800874	2611.171499
402.182944	2605.674121
402.564952	2612.164606
402.946898	2610.543875
403.328783	2610.264091
403.710606	2611.935234
404.092367	2610.967332
404.474067	2609.671756
404.855705	2612.983794
405.237282	2613.802981
405.618797	2611.448762
406.000250	2612.300717
406.381642	2614.044957
406.762972	2612.388937
407.144240	2611.841972
407.525447	2610.364914
407.906593	2611.171499
408.287677	2615.688373
408.668700	2613.865996
409.049661	2616.497478
409.430560	2616.124432
409.811399	2613.908845
410.192176	2616.986470
410.572891	2617.281377
410.953545	2615.176696
411.334138	2616.749536
411.714669	2618.791203
412.095139	2619.658281
412.475547	2618.773559
412.855894	2616.401696
413.236180	2620.230452
413.616405	2619.814557
413.996568	2619.280195
414.376670	2618.191306
414.756711	2618.808847
415.136691	2617.248610
415.516609	2619.741460
415.896466	2620.603498
416.276262	2620.384207
416.655997	2623.744137
417.035670	2620.288426
417.415283	2625.228756
417.794834	2623.262706
418.174324	2623.187089
418.553753	2623.648355
418.933121	2623.459311
419.312428	2621.906636
419.691674	2626.310084
420.070859	2625.228756
420.449983	2629.279323
420.829045	2629.397791
421.208047	2628.886113
421.586988	2626.453757
421.965867	2627.683798
422.344686	2630.564818
422.723444	2629.543984
423.102141	2626.357975
423.480777	2629.687657
423.859352	2627.749333
424.237866	2631.300826
424.616319	2631.956176
424.994712	2633.508852
425.373044	2631.893162
425.751314	2630.781587
426.129524	2630.617750
426.507673	2632.293933
426.885762	2631.167236
427.263789	2635.611013
427.641756	2634.290230
428.019662	2637.289717
428.397508	2636.725108
428.775292	2636.329377
429.153016	2638.320633
429.530679	2639.359111
429.908282	2638.975983
430.285824	2639.139820
430.663305	2639.704430
431.040726	2642.774492
431.418086	2642.824904
431.795385	2646.020995
432.172624	2643.772641
432.549802	2644.979997
432.926920	2645.647950
433.303977	2646.477220
433.680974	2651.946872
434.057910	2651.546100
434.434786	2650.978970
434.811601	2656.267141
435.188355	2658.313849
435.565050	2660.995743
435.941683	2661.381391
436.318257	2671.446055
436.694770	2671.993020
437.071222	2676.189781
437.447614	2679.935358
437.823946	2686.635051
438.200218	2694.920188
438.576429	2698.496886
438.952580	2708.075079
439.328670	2717.270143
439.704700	2729.215157
440.080670	2739.978021
440.456580	2760.455188
440.832429	2772.687547
441.208218	2778.275667
441.583947	2803.196611
441.959616	2826.015393
442.335224	2842.419308
442.710773	2872.262939
443.086261	2905.000192
443.461689	2915.936975
443.837057	2966.088894
444.212365	3014.738549
444.587612	3034.416693
444.962800	3091.651434
445.337927	3121.243007
445.712995	3144.243271
446.088002	3264.744492
446.462949	3299.674647
446.837837	3356.576671
447.212664	3422.283070
447.587431	3538.025442
447.962139	3686.225283
448.336786	4025.247920
448.711374	4214.911251
449.085901	4023.846479
449.460369	4046.705592
449.834776	4063.379208
450.209124	4294.672388
450.583412	4471.684943
450.957640	4754.980145
451.331808	4717.491605
451.705917	4625.679590
452.079965	4586.285493
452.453954	4894.574736
452.827883	4921.454169
453.201752	5098.358339
453.575562	5096.823308
453.949311	5309.635618
454.323001	5420.994706
454.696632	5607.003201
455.070202	5820.859029
455.443713	6018.928484
455.817164	6313.067208
456.190556	6444.532939
456.563888	6725.405867
456.937160	6930.180057
457.310373	6823.539488
457.683526	6983.412121
458.056619	6954.130578
458.429653	7140.038250
458.802628	7069.028557
459.175542	7355.653441
459.548398	7910.318996
459.921194	8231.168274
460.293930	8402.406188
460.666607	8994.131785
461.039224	9650.038832
461.411782	10196.719199
461.784280	10338.915026
462.156719	10570.122506
462.529099	10555.356966
462.901419	10148.321602
463.273680	10209.793432
463.645882	10284.465523
464.018024	10270.499007
464.390106	10571.549152
464.762130	11193.887157
465.134094	11776.740323
465.505999	13139.301193
465.877845	15378.150713
466.249631	17522.561777
466.621358	17668.180547
466.993026	16962.058566
467.364634	16832.901684
467.736184	16061.950465
468.107674	15640.560415
468.479105	15903.522123
468.850477	15689.799885
469.221790	15546.618513
469.593043	15195.136664
469.964238	14941.188539
470.335373	14825.562114
470.706449	15267.729279
471.077467	15022.252813
471.448425	16586.537975
471.819324	20014.671305
472.190164	21997.881392
472.560945	19295.351583
472.931667	17323.433680
473.302330	16879.451699
473.672934	16521.363418
474.043479	16986.893811
474.413965	16917.593069
474.784393	16698.416302
475.154761	17371.979991
475.525070	17503.138212
475.895321	17245.411742
476.265513	17868.793265
476.635645	18488.126741
477.005719	18399.341939
477.375734	18647.379312
477.745691	19173.275001
478.115588	19698.923675
478.485427	20252.608725
478.855207	21298.617901
479.224928	22982.239777
479.594591	25145.048533
479.964194	25332.559291
480.333739	25640.546065
480.703226	25287.703104
481.072653	25021.199986
481.442022	25593.010505
481.811333	26514.072162
482.180584	26525.344182
482.549777	25642.509594
482.918912	25329.849671
483.287988	25466.273376
483.657005	25216.844646
484.025964	24950.177690
484.394864	24952.231960
484.763706	24696.781571
485.132489	24137.760459
485.501213	24327.973276
485.869879	24271.456900
486.238487	24081.997736
486.607036	24260.825107
486.975527	23951.966214
487.343959	24305.305728
487.712333	24290.693943
488.080648	23972.249296
488.448905	24439.453352
488.817104	24194.352452
489.185244	24848.197668
489.553326	24851.726476
489.921350	25794.417204
490.289315	28032.197999
490.657222	29855.537975
491.025070	30352.207575
491.392861	30163.320582
491.760593	29342.393883
492.128267	28465.850656
492.495883	27444.107073
492.863440	26579.193787
493.230939	25694.584713
493.598380	25540.111157
493.965763	25139.082327
494.333088	24725.803494
494.700354	24633.477282
495.067563	24540.016810
495.434713	24296.526558
495.801805	24425.217134
496.168839	24261.220838
496.535815	24083.525206
496.902733	24292.085302
497.269593	23965.037926
497.636395	24150.461646
498.003139	24147.235308
498.369825	23892.132759
498.736453	24075.091355
499.103023	23965.925169
499.469535	23989.429548
499.835989	24174.303783
500.202385	24213.259300
500.568723	23710.638617
500.935003	23994.553881
501.301226	23570.880189
501.667390	24400.013885
502.033497	24645.238293
502.399546	24375.750812
502.765537	23974.278361
503.131470	24348.102603
503.497345	24486.288192
503.863163	23684.757333
504.228923	24320.265352
504.594625	24489.156609
504.960269	24003.398586
505.325856	24515.736092
505.691385	23927.962760
506.056856	24533.911973
506.422270	24504.882488
506.787625	24098.222690
507.152924	24496.877136
507.518164	24511.695608
507.883347	24312.590195
508.248472	24024.369786
508.613540	24791.260356
508.978550	24577.134826
509.343503	24546.915629
509.708398	24840.262892
510.073236	24994.522199
510.438016	25198.237747
510.802738	24884.178903
511.167403	25120.689677
511.532010	24826.306457
511.896561	25611.120850
512.261053	25588.775935
512.625488	25422.115389
512.989866	25313.528935
513.354186	25171.867471
513.718449	25250.164152
514.082655	25642.098740
514.446803	25381.392948
514.810894	25833.866753
515.174927	25323.311294
515.538904	25349.479924
515.902822	25842.822363
516.266684	25595.551246
516.630488	25500.437276
516.994235	25493.296482
517.357925	25776.427846
517.721558	25976.866644
518.085133	26058.621556
518.448651	25978.411757
518.812112	25700.505549
519.175516	25891.494703
519.538863	26066.042135
519.902152	25833.758368
520.265385	26133.659131
520.628560	25924.103407
520.991678	25938.674862
521.354739	26017.309300
521.717743	26063.403091
522.080690	25856.035227
522.443580	26181.454311
522.806413	26192.582658
523.169189	26279.691276
523.531908	26336.270666
523.894569	25939.032784
524.257174	26002.732804
524.619722	26204.628495
524.982213	25893.294395
525.344647	25969.277187
525.707025	26083.469403
526.069345	26087.582985
526.431608	26033.420828
526.793815	26227.202782
527.155964	25672.874984
527.518057	25838.408833
527.880093	25778.938341
528.242072	25999.375396
528.603995	25709.778751
528.965860	25508.006568
529.327669	25552.766973
529.689421	25544.542331
530.051117	25367.796957
530.412755	25548.668515
530.774337	25356.570307
531.135862	25231.713529
531.497331	25418.886530
531.858743	24975.408665
532.220098	25462.810104
532.581396	25124.271417
532.942638	25082.276085
533.303824	25157.618650
533.664953	25193.277252
534.026025	24853.657238
534.387040	25094.969710
534.747999	25159.335163
535.108902	25310.955426
535.469748	24807.906246
535.830537	25003.145093
536.191270	25112.119716
536.551947	25006.643654
536.912567	24659.746734
537.273131	24975.123839
537.633638	24701.142169
537.994089	24904.162037
538.354483	24454.838954
538.714821	24950.825478
539.075103	24997.572097
539.435328	24782.536639
539.795497	24335.449307
540.155609	24741.962912
540.515665	25026.899010
540.875665	24284.901658
541.235609	24548.070053
541.595496	24520.210116
541.955328	24876.045002
542.315102	24790.541991
542.674821	24354.782132
543.034483	24224.972421
543.394090	24408.052005
543.753640	24175.765718
544.113134	24820.335211
544.472571	24411.061574
544.831953	24706.604259
545.191278	24322.556556
545.550548	24253.956535
545.909761	24460.918585
546.268918	24688.428379
546.628019	24638.846110
546.987064	24353.700805
547.346053	24113.857828
547.704986	24237.184616
548.063863	24393.415015
548.422684	24390.591969
548.781449	23940.404327
549.140158	24341.070194
549.498811	23922.803139
549.857408	23654.865812
550.215949	24090.602986
550.574434	23771.261013
550.932864	23996.328367
551.291237	24145.218846
551.649555	24007.461756
552.007817	24057.200300
552.366022	23924.232306
552.724173	23988.189425
553.082267	23914.331480
553.440305	24381.704414
553.798288	23653.315657
554.156215	24177.842673
554.514086	24258.538944
554.871902	23636.818481
555.229661	23924.469240
555.587365	23786.853302
555.945014	23620.901038
556.302606	23882.541963
556.660143	23830.434077
557.017625	24089.463685
557.375050	23626.411019
557.732421	24010.831767
558.089735	23820.815555
558.446994	23880.853177
558.804197	23904.153390
559.161345	23871.441343
559.518437	23608.774542
559.875474	23810.251817
560.232455	23985.933508
560.589381	23822.002747
560.946251	23782.885914
561.303065	24116.524599
561.659825	24192.109139
562.016528	23805.820643
562.373177	23549.286406
562.729770	23896.478233
563.086307	23761.423201
563.442789	23931.899901
563.799216	23762.343212
564.155587	23764.543675
564.511904	23754.542026
564.868164	23679.229708
565.224370	23683.290358
565.580520	23577.214398
565.936615	23717.948290
566.292654	23379.863308
566.648638	23698.698644
567.004567	23515.936653
567.360441	23468.196926
567.716260	23193.537220
568.072023	23521.744062
568.427732	23281.573411
568.783385	23067.440319
569.138982	23290.816366
569.494525	23335.148273
569.850013	23084.091250
570.205445	23180.830992
570.560823	22985.108194
570.916145	22751.508687
571.271412	22925.010078
571.626625	22682.102080
571.981782	22796.334627
572.336884	22594.214604
572.691931	22723.837793
573.046923	22462.695942
573.401860	22352.350125
573.756743	22344.609433
574.111570	22260.787648
574.466342	22199.514943
574.821059	22284.130711
575.175722	21990.972491
575.530330	21977.129482
575.884882	21994.690342
576.239380	21904.458729
576.593823	21803.063481
576.948211	21773.083739
577.302544	21631.089559
577.656823	21501.983088
578.011047	21596.300556
578.365216	21463.672840
578.719330	21349.616734
579.073389	21244.422977
579.427394	21388.413454
579.781344	21168.651914
580.135239	21055.881302
580.489080	21025.034482
580.842866	20786.678646
581.196597	20975.726956
581.550273	20945.543047
581.903895	20850.600477
582.257463	21157.710089
582.610975	20689.142401
582.964434	20996.877117
583.317837	20701.457940
583.671186	20801.587858
584.024481	20749.795044
584.377721	20533.688340
584.730906	20598.923391
585.084037	20622.354674
585.437113	20523.956393
585.790135	20719.157431
586.143103	20190.925167
586.496016	20206.227589
586.848874	20450.892429
587.201679	20388.770290
587.554428	20056.137316
587.907124	20385.506143
588.259765	20161.910806
588.612352	20248.258209
588.964884	19806.098605
589.317362	19973.543051
589.669786	20030.434993
590.022155	20078.036088
590.374470	20269.383164
590.726731	20074.598021
591.078937	19823.089814
591.431090	19926.443551
591.783188	19666.655249
592.135232	19642.941661
592.487222	19741.602083
592.839157	19758.868035
593.191038	19645.459718
593.542866	19528.338590
593.894639	19256.358258
594.246358	19468.921030
594.598022	19379.934583
594.949633	19134.546337
595.301190	19093.309698
595.652692	19264.650956
596.004141	19499.367079
596.355535	18830.829421
596.706876	18843.029013
597.058162	18736.824504
597.409395	18964.992168
597.760573	19045.653151
598.111698	18821.621753
598.462768	18748.083921
598.813785	18716.493531
599.164748	18545.326193
599.515657	18569.788392
599.866511	18360.605713
600.217312	18726.850581
600.568060	18253.271986
600.918753	18569.042301
601.269392	18470.538155
601.619978	18251.086646
601.970510	18464.307289
602.320988	18399.059635
602.671412	18601.663608
603.021783	18505.864041
603.372100	18246.287468
603.722363	18375.961068
604.072572	18326.134303
604.422728	18450.824723
604.772830	18225.613696
605.122878	18162.740425
605.472872	18159.531730
605.822813	18153.623498
606.172701	18115.847612
606.522534	18313.808682
606.872314	18337.544955
607.222041	18160.015681
607.571714	18384.561276
607.921333	18210.228094
608.270899	18290.528634
608.620411	18478.878744
608.969870	18241.178258
609.319276	18248.460205
609.668627	18271.747815
610.017926	18413.086645
610.367171	18523.956742
610.716362	18565.422753
611.065500	18385.748468
611.414585	18518.305608
611.763616	18501.158124
612.112594	18454.522409
612.461518	18417.810207
612.810389	18615.050392
613.159207	18467.178226
613.507971	18378.980719
613.856682	18655.339293
614.205340	18571.144463
614.553945	18728.904852
614.902496	18463.662021
615.250994	18699.111632
615.599439	18640.450246
615.947830	18628.633781
616.296169	18680.209826
616.644454	18659.042021
616.992686	18624.033728
617.340864	18828.886056
617.688990	18592.738245
618.037063	18760.374254
618.385082	18612.149208
618.733048	18893.982475
619.080961	18760.906096
619.428821	18806.538621
619.776628	18684.293161
620.124382	18608.128888
620.472083	18644.573909
620.819731	18677.810237
621.167326	18368.974029
621.514868	18415.440864
621.862357	18174.148556
622.209793	18186.438889
622.557176	18014.560749
622.904506	17840.378801
623.251783	17750.792456
623.599007	17523.630502
623.946179	17467.721585
624.293297	17402.688180
624.640363	17158.633319
624.987376	17180.970672
625.334336	16967.634082
625.681243	16815.910475
626.028097	16825.392886
626.374899	16757.042401
626.721647	16619.522245
627.068343	16449.826924
627.414987	16389.640588
627.761577	16358.347626
628.108115	16402.999646
628.454600	16125.799199
628.801032	16225.793006
629.147412	16143.879297
629.493739	16176.684606
629.840014	15974.272197
630.186236	16074.971765
630.532405	15841.246229
630.878521	16046.532096
631.224585	15930.436843
631.570597	15763.778818
631.916556	15789.420647
632.262462	15771.620332
632.608316	15685.751838
632.954117	15630.336955
633.299866	15631.014990
633.645562	15545.527103
633.991206	15299.309588
634.336797	15169.562890
634.682336	15146.630682
635.027823	15020.780796
635.373257	14908.705864
635.718639	14807.910513
636.063968	14753.120733
636.409245	14502.121683
636.754470	14535.854564
637.099642	14380.375297
637.444762	14146.312003
637.789829	14200.219582
638.134845	14036.543399
638.479808	14065.963573
638.824719	14014.558927
639.169577	13866.091905
639.514383	13906.141352
639.859137	13730.797418
640.203839	13815.382938
640.548489	13647.497392
640.893086	13640.124704
641.237632	13516.129964
641.582125	13658.577848
641.926566	13487.571827
642.270955	13502.418025
642.615292	13468.294455
642.959576	13474.941216
643.303809	13511.058563
643.647990	13445.579016
643.992118	13504.862985
644.336195	13277.254889
644.680219	13475.394920
645.024192	13404.181060
645.368112	13643.903049
645.711981	13691.209237
646.055797	13876.645561
646.399562	13845.448380
646.743274	14117.277478
647.086935	14391.443150
647.430544	14351.020658
647.774101	14382.522828
648.117606	14536.482188
648.461059	14508.266849
648.804460	14493.055168
649.147810	14228.359303
649.491108	14123.611688
649.834354	14139.675324
650.177548	13847.268237
650.520690	13643.870282
650.863781	13564.283065
651.206820	13604.904683
651.549807	13440.192543
651.892742	13243.504364
652.235626	13189.299357
652.578458	13184.507740
652.921238	12881.736040
653.263967	13078.283067
653.606644	12895.253894
653.949269	12876.256306
654.291843	12680.714990
654.634365	12832.257115
654.976836	12682.454188
655.319255	12702.699462
655.661622	12655.121052
656.003938	12562.986403
656.346203	12499.137669
656.688416	12569.721385
657.030577	12535.615458
657.372687	12448.161522
657.714746	12418.685895
658.056753	12615.280813
658.398708	12426.953387
658.740612	12428.294334
659.082465	12531.154037
659.424266	12493.925116
659.766016	12513.149556
660.107715	12430.328440
660.449362	12503.780572
660.790958	12457.820372
661.132503	12413.485945
661.473996	12473.548772
661.815438	12487.827841
662.156829	12502.976508
662.498168	12483.505051
662.839456	12474.879637
663.180693	12500.014830
663.521879	12589.432296
663.863013	12572.945203
664.204097	12536.732074
664.545129	12668.154955
664.886110	12627.001495
665.227040	12731.396230
665.567918	12728.616033
665.908746	12766.500305
666.249522	12748.599167
666.590248	12799.787043
666.930922	12906.674628
667.271545	12893.933112
667.612118	12968.774082
667.952639	12881.519271
668.293109	12893.459244
668.633528	12845.580885
668.973896	12819.855877
669.314213	12909.192685
669.654480	12635.994914
669.994695	12704.978063
670.334859	12727.277607
670.674973	12670.433556
671.015035	12711.453425
671.355047	12655.080722
671.695008	12621.660393
672.034918	12633.499543
672.374777	12671.358608
672.714585	12582.674630
673.054342	12626.893111
673.394049	12569.320613
673.733705	12667.287876
674.073310	12575.672467
674.412864	12588.492121
674.752368	12461.573511
675.091820	12477.291829
675.431223	12464.938482
675.770574	12335.516939
676.109875	12255.309661
676.449125	12215.880276
676.788324	12161.314827
677.127473	11992.562202
677.466571	11990.525575
677.805619	11878.364943
678.144616	11807.014973
678.483562	11771.973912
678.822458	11640.288891
679.161303	11621.850871
679.500098	11604.612646
679.838842	11566.665360
680.177535	11582.875190
680.516179	11648.374902
680.854771	11594.149731
681.193314	11806.611680
681.531805	11959.661111
681.870247	12373.270140
682.208638	12783.998150
682.546978	13100.675873
682.885268	13160.330367
683.223508	12851.068181
683.561697	12685.609950
683.899836	12592.358686
684.237925	12390.132800
684.575963	12303.624079
684.913951	12231.049108
685.251889	12176.186230
685.589776	12267.897422
685.927614	12199.841845
686.265401	12171.399655
686.603137	12207.726209
686.940824	12362.890404
687.278460	12483.477325
687.616046	12527.945343
687.953582	12706.540821
688.291068	12620.377419
688.628504	12857.624202
688.965889	12864.152496
689.303224	12836.305162
689.640510	12734.919996
689.977745	12424.221082
690.314930	12191.712984
690.652065	12106.605704
690.989150	11815.615181
691.326185	11590.227713
691.663170	11390.862681
692.000105	11151.831331
692.336990	11033.341530
692.673825	10784.091760
693.010610	10657.669704
693.347345	10455.975659
693.684030	10256.855124
694.020665	10198.607112
694.357251	10005.301547
694.693786	9947.623185
695.030272	9780.937433
695.366707	9662.162807
695.703093	9595.470862
696.039429	9592.627652
696.375716	9511.361731
696.711952	9385.519408
697.048139	9420.880581
697.384276	9380.493377
697.720363	9398.666737
698.056400	9334.760030
698.392388	9281.270867
698.728326	9247.921113
699.064214	9184.145476
699.400053	9226.017300
699.735842	9040.477633
700.071581	8999.268721
700.407270	8925.783821
700.742910	8849.995114
701.078501	8754.601360
701.414042	8629.714335
701.749533	8561.961227
702.084974	8423.826050
702.420366	8536.402577
702.755709	8417.121316
703.091002	8292.317470
703.426246	8315.390831
703.761440	8262.990557
704.096584	8223.782983
704.431679	8156.627252
704.766725	8152.528794
705.101721	8097.751617
705.436668	8138.037997
705.771565	8035.284159
706.106413	8112.562527
706.441212	8158.079105
706.775961	8109.661342
707.110661	8150.224987
707.445311	8294.107079
707.779913	8191.353241
708.114465	8319.791758
708.448967	8358.711987
708.783421	8499.171136
709.117825	8675.394751
709.452180	8721.906957
709.786485	8805.953073
710.120742	9083.602183
710.454949	9085.066638
710.789107	9189.471455
711.123216	9399.702694
711.457275	9562.554648
711.791286	9722.739832
712.125247	9714.837824
712.459159	9708.468326
712.793023	9956.508219
713.126837	9530.838229
713.460602	9686.375469
713.794318	9514.162092
714.127985	9540.645794
714.461602	9219.010096
714.795171	9170.834309
715.128691	8921.864324
715.462162	8669.310078
715.795584	8620.335268
716.128957	8474.910583
716.462281	8307.130900
716.795556	8355.460442
717.128782	8146.244996
717.461960	7884.178093
717.795088	7946.012886
718.128167	7859.297478
718.461198	7691.666510
718.794180	7626.378526
719.127113	7629.710729
719.459997	7473.966801
719.792833	7241.791420
720.125619	7308.750546
720.458357	7163.623288
720.791046	7156.999212
721.123686	7153.780435
721.456278	6990.953687
721.788821	7012.013107
722.121315	6904.626448
722.453761	6972.848383
722.786158	6915.659013
723.118506	6925.295178
723.450805	6893.672020
723.783056	6956.013449
724.115259	6871.644699
724.447412	6869.618155
724.779518	6907.373877
725.111574	6911.563075
725.443582	6993.577607
725.775542	6974.224618
726.107453	7163.313257
726.439315	7073.144659
726.771129	7134.848382
727.102895	7304.049670
727.434612	7411.247286
727.766281	7451.707587
728.097901	7530.959566
728.429473	7524.446395
728.760996	7500.606779
729.092471	7470.392623
729.423897	7422.786487
729.755276	7430.784278
730.086606	7355.983637
730.417887	7455.362423
730.749120	7644.062894
731.080305	7846.354315
731.411442	7958.109134
731.742530	7955.583516
732.073570	8072.039211
732.404562	8148.130387
732.735506	7996.603385
733.066401	8140.924058
733.397249	8075.555416
733.728048	7841.426587
734.058798	7503.744897
734.389501	7277.986904
734.720156	7102.539627
735.050762	6870.122270
735.381320	6770.302383
735.711831	6721.405711
736.042293	6614.623990
736.372707	6632.930941
736.703073	6500.275498
737.033391	6532.370004
737.363661	6541.058432
737.693883	6576.220480
738.024056	6658.051010
738.354182	6695.411001
738.684260	6734.031281
739.014290	6846.968251
739.344272	6955.186700
739.674207	6984.826164
740.004093	7055.735034
740.333931	7071.324803
740.663722	7077.323776
740.993464	7154.657596
741.323159	7149.845815
741.652806	6898.448514
741.982405	6907.217601
742.311956	6971.467107
742.641460	6805.618186
742.970915	6607.064780
743.300323	6602.956240
743.629683	6557.159878
743.958996	6417.444299
744.288260	6325.244116
744.617477	6273.945334
744.946647	6282.744668
745.275768	6114.067660
745.604842	6068.830866
745.933869	6050.622219
746.262847	6007.255693
746.591778	6003.247975
746.920662	5956.448424
747.249498	5947.369306
747.578286	5997.672459
747.907027	6075.550724
748.235720	6131.646164
748.564365	6101.701710
748.892963	6129.826307
749.221514	6282.381705
749.550017	6117.871211
749.878473	5994.272201
750.206881	6052.457199
750.535242	5991.973435
750.863555	5920.809987
751.191821	5940.105003
751.520039	5944.236228
751.848210	5843.445919
752.176334	5869.249065
752.504411	5917.137506
752.832440	5850.863977
753.160421	5771.498571
753.488356	5820.400284
753.816243	5855.408577
754.144082	5710.523295
754.471875	5674.330331
754.799620	5720.282969
755.127318	5736.727213
755.454969	5685.370458
755.782572	5649.802597
756.110129	5688.964801
756.437638	5682.963307
756.765100	5621.856961
757.092515	5621.776302
757.419882	5666.042674
757.747203	5652.020705
758.074477	5707.405341
758.401703	5698.606007
758.728882	5652.366024
759.056014	5703.558941
759.383099	5836.463921
759.710138	5845.971537
760.037129	5832.360422
760.364073	5836.428633
760.690970	5915.443678
761.017820	5902.245937
761.344623	5854.314647
761.671379	5956.806346
761.998088	6070.373459
762.324751	6311.640562
762.651366	6908.800523
762.977935	8202.758851
763.304456	9837.390794
763.630931	10748.932233
763.957359	10362.956289
764.283740	9421.215818
764.610074	8588.918797
764.936362	7598.140503
765.262602	6998.371745
765.588796	6465.902390
765.914943	6122.080574
766.241044	5962.172654
766.567097	5764.123363
766.893104	5506.981667
767.219064	5325.651363
767.544978	5265.187764
767.870845	5184.095763
768.196665	5080.479887
768.522438	5009.097149
768.848165	4978.804855
769.173846	4909.085698
769.499479	4867.594481
769.825066	4813.820493
770.150607	4754.657511
770.476101	4727.949478
770.801548	4725.333119
771.126949	4652.317047
771.452303	4594.686576
771.777611	4556.335998
772.102872	4572.538267
772.428087	4534.366650
772.753256	4496.779807
773.078378	4449.619813
773.403453	4380.566087
773.728482	4363.400958
774.053465	4319.505111
774.378401	4307.383657
774.703291	4309.604285
775.028135	4240.583327
775.352932	4185.423022
775.677683	4174.075385
776.002388	4193.549362
776.327046	4207.347000
776.651658	4133.143736
776.976224	4068.783325
777.300743	4075.941763
777.625216	4095.322479
777.949643	4093.043878
778.274024	4051.096437
778.598359	4005.746217
778.922647	4028.696069
779.246889	4019.929503
779.571086	4013.688554
779.895236	3998.673478
780.219339	3986.221828
780.543397	3976.835199
780.867409	4026.369577
781.191374	4044.137124
781.515294	3986.216787
781.839167	3973.818069
782.162995	3994.098631
782.486776	3979.577587
782.810511	3987.777024
783.134201	3987.472034
783.457844	3943.114921
783.781441	3887.851272
784.104993	3893.124319
784.428498	3911.161567
784.751958	3908.797266
785.075372	3891.027199
785.398739	3852.013709
785.722061	3862.143908
786.045337	3903.181421
786.368568	3936.967234
786.691752	3848.026157
787.014891	3898.553642
787.337983	4024.274977
787.661030	4180.701981
787.984031	4342.676775
788.306987	4517.587169
788.629897	4600.657823
788.952760	4554.261564
789.275579	4490.498529
789.598351	4423.113426
789.921078	4281.855254
790.243759	4083.604317
790.566395	4062.847366
790.888984	4059.182447
791.211529	3950.427115
791.534027	3889.857651
791.856480	3879.500601
792.178888	3819.692352
792.501249	3773.107049
792.823566	3778.528810
793.145836	3813.365703
793.468062	3759.863938
793.790241	3715.227041
794.112375	3745.315168
794.434464	3806.983603
794.756507	3831.463446
795.078505	3812.022236
795.400457	3846.748224
795.722364	3982.710664
796.044226	4087.087754
796.366042	4158.793127
796.687812	4138.232781
797.009538	4141.653204
797.331218	4106.924695
797.652852	4081.943257
797.974442	4056.208167
798.295986	4055.961150
798.617484	3976.817555
798.938938	3890.777662
799.260346	3933.025052
799.581709	3927.439453
799.903026	3857.080069
800.224299	3816.360149
800.545526	3810.658604
800.866708	3773.757358
801.187845	3711.448696
801.508936	3744.357348
801.829983	3743.104622
802.150984	3666.030421
802.471940	3654.382835
802.792851	3667.880524
803.113717	3665.841377
803.434538	3669.534022
803.755314	3613.869602
804.076045	3585.566043
804.396731	3602.690843
804.717372	3630.921305
805.037967	3618.371352
805.358518	3607.512707
805.679024	3635.470946
805.999485	3647.814211
806.319901	3649.555930
806.640272	3665.034793
806.960598	3680.604396
807.280879	3655.091117
807.601115	3668.298940
807.921306	3684.692772
808.241453	3722.055284
808.561554	3697.696428
808.881611	3633.504896
809.201623	3666.912623
809.521590	3680.445600
809.841513	3653.782937
810.161390	3682.489788
810.481223	3660.737209
810.801011	3607.132100
811.120755	3598.698249
811.440453	3633.343579
811.760107	3638.782984
812.079716	3594.788834
812.399281	3563.558886
812.718801	3585.775251
813.038276	3562.071746
813.357707	3555.949265
813.677093	3574.120104
813.996434	3520.401568
814.315731	3527.113865
814.634983	3533.725338
814.954191	3549.451217
815.273354	3577.069179
815.592473	3573.187490
815.911547	3580.429108
816.230577	3619.571147
816.549562	3667.479752
816.868502	3710.412739
817.187399	3735.051378
817.506250	3731.509968
817.825058	3706.704970
818.143821	3796.046819
818.462539	3901.106986
818.781213	3946.389151
819.099843	4000.223632
819.418429	4242.846805
819.736970	4485.180112
820.055466	4729.232452
820.373919	5092.959264
820.692327	5499.258620
821.010691	5937.823881
821.329011	7298.900131
821.647286	10021.143373
821.965517	14558.572524
822.283704	18595.130272
822.601847	20781.692945
822.919945	18979.056988
823.237999	16413.749907
823.556010	13918.386314
823.873976	11838.189468
824.191897	9743.383357
824.509775	8398.020384
824.827609	7270.248733
825.145398	6719.180042
825.463144	6608.481344
825.780845	6719.351441
826.098502	6901.994965
826.416116	7769.033098
826.733685	9088.618131
827.051210	10204.371671
827.368692	10261.034240
827.686129	9010.719702
828.003522	7503.273549
828.320872	6482.714638
828.638177	5787.098422
828.955439	5228.722578
829.272656	4727.546186
829.589830	4446.564873
829.906960	4270.333697
830.224046	4087.617076
830.541088	3962.374649
830.858086	3911.932864
831.175041	3835.534178
831.491952	3819.334430
831.808819	3827.853980
832.125642	3904.676123
832.442421	4053.662384
832.759157	4319.336233
833.075849	4863.354871
833.392497	5725.256067
833.709101	6501.767679
834.025662	6844.286357
834.342179	6489.696636
834.658653	5827.440256
834.975083	5181.063509
835.291469	4608.779122
835.607811	4196.321997
835.924110	4055.998959
836.240366	3855.474462
836.556578	3652.794871
836.872746	3547.515414
837.188871	3503.163343
837.504952	3440.257304
837.820990	3355.331506
838.136984	3308.811738
838.452935	3334.393074
838.768842	3330.128258
839.084706	3353.141125
839.400526	3508.547295
839.716303	3845.573635
840.032037	4364.230228
840.347727	4635.716528
840.663373	4359.610011
840.978977	3978.841578
841.294537	3671.850433
841.610054	3444.945578
841.925527	3338.075637
842.240957	3267.920419
842.556344	3210.471430
842.871687	3158.151815
843.186987	3102.512600
843.502244	3067.506827
843.817458	3031.243287
844.132629	3002.773371
844.447756	3008.593383
844.762840	2995.493945
845.077881	2964.742906
845.392879	2947.431584
845.707833	2945.205914
846.022745	2940.321036
846.337613	2941.621654
846.652438	2930.329469
846.967221	2927.766043
847.281960	2912.635019
847.596656	2910.026222
847.911309	2909.514545
848.225919	2905.748803
848.540485	2898.837381
848.855009	2901.153792
849.169490	2890.534601
849.483928	2879.880122
849.798323	2879.370966
850.112675	2876.293341
850.426984	2886.088303
850.741251	2884.969167
851.055474	2872.136910
851.369654	2869.482742
851.683792	2876.857951
851.997887	2883.040926
852.311938	2884.092006
852.625947	2872.668752
852.939914	2875.169164
853.253837	2881.057232
853.567718	2867.993082
853.881555	2868.106507
854.195350	2881.079917
854.509103	2873.808053
854.822812	2866.644573
855.136479	2864.857484
855.450103	2865.137268
855.763685	2860.040661
856.077224	2857.562934
856.390720	2870.168339
856.704173	2881.805843
857.017584	2874.203783
857.330953	2869.215561
857.644278	2879.101264
857.957561	2889.153325
858.270802	2887.910680
858.584000	2890.673233
858.897155	2880.369114
859.210268	2876.678990
859.523339	2875.937940
859.836367	2873.974411
860.149352	2868.159440
860.462295	2865.081815
860.775195	2872.938453
861.088054	2872.295706
861.400869	2856.844570
861.713642	2852.899867
862.026373	2869.838144
862.339062	2871.007692
862.651708	2876.285780
862.964312	2875.791747
863.276873	2869.616333
863.589392	2882.347767
863.901869	2894.398645
864.214303	2915.783220
864.526696	2929.462391
864.839045	2925.792431
865.151353	2923.750764
865.463619	2925.091711
865.775842	2927.435847
866.088023	2944.462344
866.400162	2953.329734
866.712258	2923.145825
867.024313	2912.077972
867.336325	2917.489651
867.648296	2941.178033
867.960224	2934.564039
868.272110	2920.022830
868.583954	2925.311001
868.895755	2941.495625
869.207515	2927.082966
869.519233	2932.081270
869.830909	2940.454627
870.142542	2949.458128
870.454134	2950.514249
870.765684	2956.011628
871.077191	2954.408541
871.388657	2959.545477
871.700081	2976.123311
872.011463	2986.472800
872.322803	2985.673777
872.634101	2985.976246
872.945357	2999.398318
873.256571	3028.032072
873.567744	3021.924714
873.878874	3013.914321
874.189963	3035.790408
874.501010	3037.189328
874.812015	3026.292874
875.122979	3026.993594
875.433900	3024.422606
875.744780	3031.139943
876.055618	3038.779812
876.366415	3033.010212
876.677169	3047.410267
876.987882	3045.666028
877.298554	3034.666231
877.609183	3057.540466
877.919771	3081.012078
878.230317	3105.716253
878.540822	3157.766166
878.851285	3197.692105
879.161707	3237.686099
879.472087	3338.305009
879.782425	3565.855132
880.092722	3998.504599
880.402977	4525.534548
880.713191	5150.342718
881.023363	6296.471730
881.333494	7581.098882
881.643583	8144.107547
881.953631	7851.440840
882.263637	7219.232256
882.573602	6635.310365
882.883526	6053.891407
883.193408	5486.184387
883.503248	5023.356053
883.813048	4718.610741
884.122806	4419.995472
884.432522	4101.021504
884.742197	3865.352602
885.051831	3672.460412
885.361424	3538.101059
885.670975	3467.161943
885.980485	3382.873850
886.289954	3305.282931
886.599382	3264.552928
886.908768	3220.175651
887.218113	3179.049918
887.527417	3123.471197
887.836680	3072.273238
888.145901	3065.344172
888.455082	3058.407545
888.764221	3004.966273
889.073319	2976.435863
889.382376	2975.137765
889.691392	2977.401243
890.000366	2975.485605
890.309300	2963.618729
890.618193	2975.142807
890.927044	2994.556290
891.235855	2994.551249
891.544625	2979.389979
891.853353	2988.816936
892.162041	3007.728825
892.470687	3048.219373
892.779293	3098.956066
893.087858	3146.529434
893.396381	3218.665825
893.704864	3335.781912
894.013306	3574.402408
894.321707	3877.620250
894.630068	4083.410233
894.938387	4077.403698
895.246665	4038.491031
895.554903	3915.814552
895.863100	3715.947926
896.171256	3549.854510
896.479371	3410.128848
896.787446	3289.108389
897.095480	3184.940506
897.403473	3121.714355
897.711425	3080.255905
898.019336	3075.093764
898.327207	3044.965308
898.635038	3013.311903
898.942827	2994.359685
899.250576	2986.256030
899.558284	2953.002059
899.865952	2935.481529
900.173579	2914.185174
900.481165	2904.624626
900.788711	2894.817061
901.096216	2868.209851
901.403681	2856.075794
901.711105	2862.402442
902.018489	2862.036958
902.325832	2862.183152
902.633135	2873.034235
902.940397	2906.691499
903.247619	2985.953561
903.554800	3177.610668
903.861941	3515.867050
904.169041	3943.054427
904.476101	4246.131117
904.783121	4204.498748
905.090100	3963.312304
905.397039	3687.288966
905.703938	3436.110955
906.010796	3253.651433
906.317614	3140.469967
906.624391	3048.796585
906.931129	2976.234216
907.237826	2915.014444
907.544483	2867.783874
907.851099	2836.959738
908.157675	2817.321924
908.464211	2796.449026
908.770707	2782.568209
909.077163	2770.943308
909.383578	2756.306318
909.689954	2747.081007
909.996289	2740.809811
910.302584	2744.338619
910.608839	2743.252250
910.915054	2736.602968
911.221229	2730.498131
911.527363	2736.146744
911.833458	2741.376941
912.139513	2743.975656
912.445527	2748.689135
912.751502	2756.379415
913.057436	2766.328132
913.363331	2778.883126
913.669186	2799.360292
913.975000	2833.894717
914.280775	2895.578275
914.586510	2962.154274
914.892205	3043.964639
915.197859	3167.077177
915.503475	3362.482383
915.809050	3578.508428
916.114585	3723.355902
916.420081	3741.239395
916.725536	3685.998431
917.030952	3566.505441
917.336328	3437.111624
917.641665	3307.821152
917.946961	3207.784495
918.252218	3138.937457
918.557435	3059.975343
918.862612	3002.417969
919.167750	2950.662963
919.472848	2911.493198
919.777906	2883.812222
920.082925	2858.074611
920.387904	2830.728872
920.692843	2814.264464
920.997743	2800.292906
921.302603	2788.090793
921.607423	2776.249123
921.912204	2763.346289
922.216946	2754.103334
922.521647	2746.123187
922.826310	2736.492063
923.130932	2728.932853
923.435516	2718.772407
923.740059	2714.152190
924.044564	2707.210521
924.349028	2702.098791
924.653454	2693.193592
924.957840	2688.931297
925.262186	2685.163034
925.566493	2680.058866
925.870761	2675.378155
926.174989	2671.100736
926.479178	2667.801301
926.783328	2661.751916
927.087438	2660.524395
927.391509	2659.536329
927.695541	2654.434681
927.999533	2652.629948
928.303486	2649.010400
928.607400	2649.459062
928.911275	2649.761532
929.215110	2648.435708
929.518906	2646.731798
929.822663	2648.314720
930.126381	2647.359422
930.430060	2646.472179
930.733699	2645.602580
931.037299	2650.525266
931.340861	2647.908907
931.644383	2651.490647
931.947866	2649.310348
932.251309	2650.293373
932.554714	2647.112405
932.858080	2644.017137
933.161407	2644.440594
933.464694	2643.495377
933.767943	2638.605458
934.071153	2644.768269
934.374323	2639.636374
934.677455	2641.050418
934.980548	2638.550005
935.283602	2636.094963
935.586617	2638.292907
935.889593	2638.534882
936.192530	2638.802063
936.495428	2637.859367
936.798287	2640.437917
937.101108	2643.013947
937.403890	2648.259268
937.706632	2653.910401
938.009336	2658.996925
938.312002	2671.388082
938.614628	2678.072652
938.917216	2681.465348
939.219765	2683.993487
939.522275	2684.338806
939.824747	2681.147755
940.127179	2678.337312
940.429573	2675.988134
940.731929	2671.488905
941.034246	2671.214162
941.336524	2665.676454
941.638763	2661.862821
941.940964	2662.639159
942.243126	2659.314518
942.545250	2658.039106
942.847335	2655.372336
943.149381	2651.793117
943.451389	2647.661891
943.753359	2647.636685
944.055290	2644.932106
944.357182	2643.946561
944.659036	2644.233906
944.960851	2641.710809
945.262628	2640.616878
945.564367	2643.782723
945.866067	2639.807773
946.167729	2640.410191
946.469352	2642.381282
946.770937	2643.616365
947.072484	2640.881539
947.373992	2639.008750
947.675462	2638.378606
947.976893	2636.364665
948.278286	2633.899541
948.579641	2634.567494
948.880958	2631.482308
949.182236	2633.692854
949.483476	2631.464664
949.784678	2633.695374
950.085841	2631.358799
950.386967	2633.193779
950.688054	2633.110600
950.989103	2635.641260
951.290114	2634.290230
951.591087	2637.309882
951.892021	2639.263329
952.192917	2640.125366
952.493776	2642.509832
952.794596	2644.906900
953.095378	2646.192395
953.396122	2644.788433
953.696828	2638.975983
953.997496	2641.609986
954.298126	2636.483132
954.598718	2634.764099
954.899272	2632.059520
955.199788	2634.532206
955.500266	2629.629684
955.800706	2629.586834
956.101108	2623.600464
956.401472	2623.839918
956.701798	2622.110803
957.002087	2619.297839
957.302337	2619.151645
957.602550	2619.345730
957.902724	2614.864144
958.202861	2614.100409
958.502960	2613.326592
958.803022	2616.265585
959.103045	2613.276181
959.403031	2609.051694
959.702979	2610.014554
960.002889	2609.855758
960.302762	2607.372989
960.602596	2608.534975
960.902393	2608.703854
961.202153	2608.154368
961.501875	2607.252002
961.801559	2606.856271
962.101205	2607.292331
962.400814	2607.085644
962.700385	2608.592949
962.999918	2602.543564
963.299414	2601.598348
963.598873	2605.170005
963.898293	2599.697833
964.197677	2605.391816
964.497022	2602.997268
964.796331	2606.221086
965.095601	2605.253184
965.394835	2603.342587
965.694030	2605.487598
965.993189	2606.548761
966.292309	2606.836107
966.591393	2605.386775
966.890439	2604.360900
967.189447	2602.276383
967.488419	2603.219079
967.787353	2605.333843
968.086249	2605.522886
968.385108	2603.158585
968.683930	2605.091867
968.982714	2604.063472
969.281462	2603.264449
969.580172	2604.814604
969.878844	2604.091198
970.177480	2604.280242
970.476078	2603.254367
970.774639	2604.318050
971.073162	2603.266970
971.371649	2602.041969
971.670098	2605.033894
971.968510	2605.064141
972.266885	2608.184615
972.565223	2604.401229
972.863524	2602.561208
973.161788	2603.947525
973.460014	2604.794439
973.758204	2602.861157
974.056356	2603.130858
974.354471	2605.883328
974.652550	2603.327463
974.950591	2607.839296
975.248595	2607.204111
975.546563	2602.205807
975.844493	2604.794439
976.142386	2603.009871
976.440243	2602.987186
976.738062	2603.118256
977.035845	2603.365272
977.333590	2604.885180
977.631299	2604.683534
977.928971	2600.259921
978.226606	2600.378388
978.524204	2598.545929
978.821765	2595.828747
979.119290	2604.181939
979.416777	2602.840992
979.714228	2601.691609
980.011642	2600.035590
980.309020	2600.476691
980.606360	2602.334356
980.903664	2603.740838
981.200931	2602.745210
981.498162	2602.959459
981.795356	2606.014398
982.092513	2604.035746
982.389633	2607.798967
982.686717	2613.666870
982.983764	2612.729215
983.280775	2618.811368
983.577749	2619.854886
983.874686	2619.330606
984.171587	2617.883795
984.468451	2615.002776
984.765279	2611.141252
985.062070	2606.581528
985.358824	2607.758638
985.655543	2607.705706
985.952224	2604.804522
986.248869	2604.129007
986.545478	2601.999119
986.842050	2602.969542
987.138586	2601.197576
987.435086	2600.277565
987.731549	2599.965014
988.027975	2599.465940
988.324366	2599.264293
988.620719	2597.031062
988.917037	2598.876125
989.213318	2596.899992
989.509563	2599.261773
989.805772	2598.868563
990.101944	2597.245311
990.398080	2600.758996
990.694180	2599.682709
990.990244	2596.040476
991.286271	2598.177925
991.582262	2597.646083
991.878217	2598.049375
992.174136	2599.286979
992.470019	2598.026690
992.765865	2596.209354
993.061676	2597.877976
993.357450	2596.375712
993.653188	2592.617532
993.948890	2596.595002
994.244556	2598.997112
994.540186	2599.549119
994.835780	2600.111207
995.131337	2599.334870
995.426859	2599.934767
995.722345	2601.069027
996.017795	2601.363934
996.313208	2603.743359
996.608586	2603.395519
996.903928	2604.280242
997.199234	2604.040787
997.494504	2603.362752
997.789738	2601.583224
998.084936	2602.450303
998.380099	2600.784201
998.675225	2600.489294
998.970316	2600.506938
999.265371	2601.159767
999.560390	2598.893769
999.855373	2597.265476
1000.150320	2599.115579
1000.445232	2597.431834
1000.740108	2597.993923
1001.034948	2598.215733
1001.329752	2598.298912
1001.624521	2597.883017
1001.919254	2595.672471
1002.213951	2599.491145
1002.508613	2595.662389
1002.803239	2595.546442
1003.097829	2596.474015
1003.392384	2596.887389
1003.686903	2596.733634
1003.981386	2597.578028
1004.275834	2595.886720
1004.570246	2596.680702
1004.864623	2596.801690
1005.158964	2597.242791
1005.453270	2595.944694
1005.747540	2595.808582
1006.041775	2598.243460
1006.335974	2595.377564
1006.630138	2597.905703
1006.924266	2598.659355
1007.218359	2598.409818
1007.512416	2591.977306
1007.806438	2595.312029
1008.100425	2593.845053
1008.394376	2594.013932
1008.688292	2596.564756
1008.982172	2593.948397
1009.276017	2597.308326
1009.569827	2595.133068
1009.863602	2595.407811
1010.157341	2595.637183
1010.451045	2595.952255
1010.744714	2594.780187
1011.038347	2595.717842
1011.331945	2596.027873
1011.625508	2594.732296
1011.919036	2594.767584
1012.212528	2594.223140
1012.505986	2594.881010
1012.799408	2596.161463
1013.092795	2595.589292
1013.386147	2594.981833
1013.679464	2596.766402
1013.972745	2597.131885
1014.265992	2594.404621
1014.559204	2595.289344
1014.852380	2595.216247
1015.145521	2594.548294
1015.438628	2596.247163
1015.731699	2592.239446
1016.024736	2594.505444
1016.317737	2593.635845
1016.610703	2597.653645
1016.903635	2595.531319
1017.196531	2595.395208
1017.489393	2593.477049
1017.782219	2594.863366
1018.075011	2597.900661
1018.367768	2594.548294
1018.660490	2592.660382
1018.953177	2592.660382
1019.245829	2592.660382
