Dividing Wavelength (nm)	Counts (n)	Blue Motor Position (mm): 26.300000	Red Motor Position (mm): 0.000000	
326.493990	2199.475588
326.888308	2199.475588
327.282561	2199.475588
327.676750	2163.910247
328.070874	2158.077632
328.464933	2160.454536
328.858929	2163.708601
329.252859	2167.744045
329.646726	2176.866013
330.040528	2189.214319
330.434265	2203.637060
330.827938	2219.166335
331.221547	2238.579818
331.615091	2253.975502
332.008571	2271.188522
332.401986	2292.056378
332.795338	2309.438277
333.188625	2329.093735
333.581847	2347.257013
333.975006	2368.019005
334.368100	2386.570451
334.761129	2405.444531
335.154095	2421.261151
335.546996	2443.999276
335.939833	2482.833804
336.332606	2497.725373
336.725315	2509.486385
337.117960	2521.703621
337.510540	2535.821372
337.903056	2545.190357
338.295508	2556.986657
338.687896	2568.596434
339.080220	2571.356466
339.472480	2578.101530
339.864676	2583.926583
340.256807	2585.075966
340.648875	2591.695001
341.040879	2593.587954
341.432818	2597.580548
341.824694	2600.673296
342.216506	2599.642380
342.608253	2602.720004
342.999937	2602.861157
343.391557	2604.988524
343.783113	2599.715477
344.174605	2602.369644
344.566033	2599.196238
344.957397	2598.089705
345.348697	2598.379571
345.739934	2596.741196
346.131106	2597.015939
346.522215	2595.566607
346.913260	2592.040320
347.304241	2589.325659
347.695159	2588.761049
348.086012	2585.146542
348.476802	2584.292067
348.867528	2581.093454
349.258191	2575.613720
349.648789	2576.511046
350.039324	2571.822773
350.429796	2576.064903
350.820203	2573.115828
351.210548	2575.235634
351.600828	2572.163050
351.991045	2573.657752
352.381198	2570.197000
352.771288	2569.478636
353.161314	2570.005437
353.551276	2571.268246
353.941175	2567.240364
354.331010	2566.138872
354.720782	2567.757082
355.110490	2568.387226
355.500135	2568.031825
355.889717	2567.527709
356.279235	2566.769016
356.668689	2569.216496
357.058080	2569.191290
357.447408	2569.818914
357.836672	2565.700291
358.225873	2568.883780
358.615010	2567.217678
359.004084	2569.740776
359.393095	2568.772874
359.782043	2570.050807
360.170927	2573.740932
360.559748	2571.217834
360.948505	2572.583987
361.337199	2574.489543
361.725830	2572.901579
362.114398	2574.751683
362.502903	2573.095664
362.891344	2575.681776
363.279722	2574.630695
363.668037	2574.560119
364.056289	2573.476271
364.444478	2577.564647
364.832603	2579.084555
365.220665	2577.128587
365.608665	2578.746797
365.996601	2576.337126
366.384474	2579.666808
366.772284	2579.744946
367.160031	2578.378793
367.547715	2581.597570
367.935336	2582.265523
368.322893	2580.385172
368.710388	2578.119174
369.097820	2581.060687
369.485189	2576.707651
369.872495	2585.116295
370.259738	2581.196798
370.646918	2584.483630
371.034035	2582.595718
371.421090	2582.908270
371.808081	2583.999680
372.195010	2584.017324
372.581875	2585.433888
372.968678	2585.748960
373.355418	2587.157962
373.742096	2587.551173
374.128710	2587.425144
374.515262	2587.125195
374.901751	2586.341296
375.288177	2587.528487
375.674540	2590.275916
376.060841	2586.928590
376.447079	2589.917994
376.833254	2588.642582
377.219367	2588.108220
377.605417	2587.956985
377.991404	2588.231728
378.377329	2588.980340
378.763191	2586.162335
379.148991	2589.476893
379.534727	2587.059660
379.920402	2588.594691
380.306013	2587.341965
380.691563	2589.902871
381.077049	2590.906060
381.462474	2589.338262
381.847835	2587.503282
382.233134	2588.778693
382.618371	2591.246338
383.003545	2590.192737
383.388657	2592.635176
383.773706	2594.008891
384.158693	2592.670464
384.543618	2590.540577
384.928480	2590.996801
385.313280	2594.954107
385.698017	2597.550301
386.082692	2595.740527
386.467305	2593.232553
386.851856	2596.567276
387.236344	2593.850094
387.620770	2593.386308
388.005133	2587.180648
388.389435	2591.730289
388.773674	2590.379260
389.157851	2597.600713
389.541965	2595.642224
389.926018	2595.226329
390.310008	2594.646597
390.693936	2594.928901
391.077802	2597.199941
391.461606	2595.924529
391.845348	2596.940322
392.229027	2597.535178
392.612645	2594.598706
392.996200	2597.991402
393.379694	2598.782863
393.763125	2598.861001
394.146494	2601.560539
394.529801	2602.026846
394.913047	2600.350662
395.296230	2597.933429
395.679351	2601.406784
396.062410	2600.416197
396.445408	2600.630446
396.828343	2602.775457
397.211217	2603.128338
397.594028	2599.637339
397.976778	2600.534664
398.359466	2606.853751
398.742092	2601.628595
399.124656	2599.826382
399.507158	2603.415684
399.889598	2602.861157
400.271977	2604.249995
400.654294	2603.476177
401.036549	2605.384254
401.418742	2602.725046
401.800874	2604.106322
402.182944	2607.151179
402.564952	2607.279728
402.946898	2605.326281
403.328783	2607.695623
403.710606	2605.855602
404.092367	2606.684872
404.474067	2607.556992
404.855705	2605.943822
405.237282	2607.332660
405.618797	2608.061107
406.000250	2609.432301
406.381642	2607.055397
406.762972	2606.604213
407.144240	2604.295365
407.525447	2609.172681
407.906593	2605.086826
408.287677	2608.875253
408.668700	2608.537496
409.049661	2608.842486
409.430560	2609.606221
409.811399	2611.063114
410.192176	2611.010182
410.572891	2610.614451
410.953545	2610.236365
411.334138	2613.782817
411.714669	2612.245265
412.095139	2611.204266
412.475547	2611.466406
412.855894	2616.759618
413.236180	2612.514966
413.616405	2615.569906
413.996568	2612.749380
414.376670	2615.007817
414.756711	2615.441356
415.136691	2618.980246
415.516609	2613.606376
415.896466	2616.802468
416.276262	2615.839607
416.655997	2614.259206
417.035670	2616.459669
417.415283	2616.923455
417.794834	2617.916563
418.174324	2618.445884
418.553753	2616.570575
418.933121	2619.106275
419.312428	2619.101234
419.691674	2619.076028
420.070859	2620.011162
420.449983	2619.766666
420.829045	2619.310442
421.208047	2622.052829
421.586988	2620.759773
421.965867	2617.790534
422.344686	2621.967130
422.723444	2623.449229
423.102141	2621.256327
423.480777	2620.593415
423.859352	2621.193313
424.237866	2624.681791
424.616319	2622.463683
424.994712	2623.287912
425.373044	2625.241359
425.751314	2624.903602
426.129524	2620.197685
426.507673	2625.236318
426.885762	2619.948148
427.263789	2627.525002
427.641756	2625.483335
428.019662	2626.541977
428.397508	2627.149436
428.775292	2628.331587
429.153016	2629.543984
429.530679	2627.388891
429.908282	2629.112965
430.285824	2626.504168
430.663305	2633.357617
431.040726	2634.418780
431.418086	2631.812503
431.795385	2632.644294
432.172624	2634.317957
432.549802	2632.256125
432.926920	2634.799387
433.303977	2635.462299
433.680974	2636.437762
434.057910	2636.498256
434.434786	2637.879532
434.811601	2638.353400
435.188355	2640.939512
435.565050	2641.178967
435.941683	2640.647125
436.318257	2642.008237
436.694770	2643.029071
437.071222	2644.508649
437.447614	2645.090902
437.823946	2644.491005
438.200218	2644.241468
438.576429	2645.980666
438.952580	2652.191368
439.328670	2652.798827
439.704700	2652.660195
440.080670	2654.427119
440.456580	2659.581699
440.832429	2663.750733
441.208218	2663.107986
441.583947	2669.911023
441.959616	2670.584017
442.335224	2677.230779
442.710773	2681.104906
443.086261	2686.607325
443.461689	2689.662264
443.837057	2699.767257
444.212365	2710.416695
444.587612	2710.341077
444.962800	2725.847667
445.337927	2735.546847
445.712995	2739.859554
446.088002	2772.090171
446.462949	2782.479989
446.837837	2795.574386
447.212664	2817.876451
447.587431	2850.845597
447.962139	2889.639796
448.336786	2999.156343
448.711374	3054.185578
449.085901	3010.748476
449.460369	3029.007535
449.834776	3045.608055
450.209124	3127.544449
450.583412	3200.011036
450.957640	3310.175371
451.331808	3311.985145
451.705917	3300.882003
452.079965	3311.826348
452.453954	3441.222685
452.827883	3475.709219
453.201752	3566.089546
453.575562	3591.726333
453.949311	3701.484856
454.323001	3772.189559
454.696632	3880.110580
455.070202	4000.211030
455.443713	4120.339205
455.817164	4289.192653
456.190556	4380.457702
456.563888	4540.083318
456.937160	4676.265048
457.310373	4654.225124
457.683526	4758.992904
458.056619	4782.978714
458.429653	4911.956635
458.802628	4920.743366
459.175542	5099.870686
459.548398	5418.685858
459.921194	5647.309746
460.293930	5791.083454
460.666607	6182.261869
461.039224	6612.360512
461.411782	6999.059862
461.784280	7113.098324
462.156719	7290.801517
462.529099	7311.369425
462.901419	7124.677854
463.273680	7197.141920
463.645882	7296.629091
464.018024	7333.273239
464.390106	7576.629899
464.762130	8038.767596
465.134094	8470.759193
465.505999	9433.463301
465.877845	11019.783347
466.249631	12515.050071
466.621358	12663.683451
466.993026	12256.239753
467.364634	12218.461347
467.736184	11787.399843
468.107674	11586.396436
468.479105	11842.350940
468.850477	11788.211469
469.221790	11754.123186
469.593043	11581.234295
469.964238	11500.764876
470.335373	11481.638739
470.706449	11887.025646
471.077467	11774.522215
471.448425	13027.289275
471.819324	15651.547610
472.190164	17233.686018
472.560945	15326.337734
472.931667	13951.675574
473.302330	13713.541548
473.672934	13500.920803
474.043479	13955.713538
474.413965	13996.486390
474.784393	13906.859716
475.154761	14536.552764
475.525070	14713.729157
475.895321	14591.826495
476.265513	15183.960426
476.635645	15751.664925
477.005719	15770.816268
477.375734	16068.871969
477.745691	16614.039990
478.115588	17132.739433
478.485427	17732.480465
478.855207	18716.967399
479.224928	20236.121631
479.594591	22222.290876
479.964194	22478.187407
480.333739	22928.339761
480.703226	22706.597047
481.072653	22608.546605
481.442022	23207.120609
481.811333	24125.938953
482.180584	24239.062446
482.549777	23543.050499
482.918912	23384.969997
483.287988	23590.565894
483.657005	23444.846301
484.025964	23291.461634
484.394864	23383.213154
484.763706	23234.357964
485.132489	22801.199340
485.501213	23034.466131
485.869879	23073.144384
486.238487	22931.840842
486.607036	23192.208876
486.975527	22949.903296
487.343959	23339.692873
487.712333	23393.799577
488.080648	23124.886787
488.448905	23635.066680
488.817104	23448.596920
489.185244	24134.927331
489.553326	24181.542880
489.921350	25126.693692
490.289315	27327.777407
490.657222	29165.885443
491.025070	29682.177735
491.392861	29540.206240
491.760593	28785.807649
492.128267	27967.308267
492.495883	26992.621335
492.863440	26167.218092
493.230939	25339.747977
493.598380	25208.572112
493.965763	24833.855585
494.333088	24440.774135
494.700354	24374.442632
495.067563	24292.120590
495.434713	24059.045362
495.801805	24202.569533
496.168839	24066.352515
496.535815	23905.627928
496.902733	24102.603452
497.269593	23781.567652
497.636395	23998.044880
498.003139	23991.277131
498.369825	23759.023612
498.736453	23947.222488
499.103023	23834.298121
499.469535	23873.500654
499.835989	24065.379572
500.202385	24108.476397
500.568723	23608.169604
500.935003	23901.000148
501.301226	23471.924859
501.667390	24305.963598
502.033497	24546.091400
502.399546	24288.934581
502.765537	23879.542477
503.131470	24255.458799
503.497345	24405.574278
503.863163	23610.788483
504.228923	24253.097018
504.594625	24425.554891
504.960269	23938.347537
505.325856	24441.021151
505.691385	23859.476164
506.056856	24464.661642
506.422270	24411.288426
506.787625	24028.329612
507.152924	24423.263687
507.518164	24446.710093
507.883347	24261.089767
508.248472	23954.524599
508.613540	24718.929880
508.978550	24506.402396
509.343503	24484.667461
509.708398	24777.762666
510.073236	24931.585914
510.438016	25138.510156
510.802738	24814.605939
511.167403	25066.532562
511.532010	24761.605768
511.896561	25539.619644
512.261053	25522.336048
512.625488	25365.147830
512.989866	25244.223152
513.354186	25113.833708
513.718449	25194.953435
514.082655	25572.268677
514.446803	25324.765667
514.810894	25766.098522
515.174927	25250.887558
515.538904	25285.159842
515.902822	25789.287830
516.266684	25535.619489
516.630488	25437.916886
516.994235	25440.893687
517.357925	25714.189761
517.721558	25912.324751
518.085133	25988.884754
518.448651	25913.854741
518.812112	25634.617668
519.175516	25817.911501
519.538863	25995.770971
519.902152	25770.665807
520.265385	26078.743322
520.628560	25854.580854
520.991678	25863.085281
521.354739	25956.097090
521.717743	26002.947053
522.080690	25806.047146
522.443580	26120.355526
522.806413	26122.440043
523.169189	26219.567954
523.531908	26282.547089
523.894569	25873.858227
524.257174	25932.731342
524.619722	26149.740412
524.982213	25822.186400
525.344647	25901.198924
525.707025	26010.090368
526.069345	26024.651741
526.431608	25966.292823
526.793815	26164.001836
527.155964	25605.736897
527.518057	25776.596725
527.880093	25707.285901
528.242072	25937.792660
528.603995	25647.472610
528.965860	25445.092968
529.327669	25491.305226
529.689421	25488.693908
530.051117	25299.133921
530.412755	25493.324208
530.774337	25302.617358
531.135862	25167.315309
531.497331	25380.982094
531.858743	24911.081021
532.220098	25410.999645
532.581396	25073.990949
532.942638	25028.113928
533.303824	25111.892864
533.664953	25136.115608
534.026025	24810.449508
534.387040	25030.873960
534.747999	25099.824342
535.108902	25258.313177
535.469748	24741.617593
535.830537	24943.253665
536.191270	25056.132661
536.551947	24951.659789
536.912567	24606.368477
537.273131	24919.474542
537.633638	24641.838035
537.994089	24846.997873
538.354483	24405.629731
538.714821	24900.217334
539.075103	24939.200577
539.435328	24731.270625
539.795497	24284.130361
540.155609	24687.195817
540.515665	24980.888399
540.875665	24224.954777
541.235609	24489.905220
541.595496	24469.637261
541.955328	24819.992412
542.315102	24744.002059
542.674821	24311.403003
543.034483	24184.993550
543.394090	24356.481001
543.753640	24140.828001
544.113134	24767.617344
544.472571	24373.552869
544.831953	24665.050028
545.191278	24274.872282
545.550548	24199.496950
545.909761	24413.516616
546.268918	24646.428006
546.628019	24599.696510
546.987064	24304.234483
547.346053	24064.141969
547.704986	24186.279044
548.063863	24345.105638
548.422684	24335.837476
548.781449	23900.853955
549.140158	24290.209993
549.498811	23871.922773
549.857408	23615.562456
550.215949	24055.118304
550.574434	23724.438776
550.932864	23944.023876
551.291237	24099.319141
551.649555	23965.476506
552.007817	24008.311190
552.366022	23880.185224
552.724173	23926.548716
553.082267	23861.774930
553.440305	24334.557023
553.798288	23605.707000
554.156215	24138.176354
554.514086	24208.964237
554.871902	23589.146810
555.229661	23879.918043
555.587365	23740.545263
555.945014	23574.817330
556.302606	23849.101469
556.660143	23782.137302
557.017625	24046.578589
557.375050	23574.343461
557.732421	23968.551610
558.089735	23770.439305
558.446994	23833.637730
558.804197	23858.399878
559.161345	23819.446882
559.518437	23558.012643
559.875474	23762.010496
560.232455	23939.259985
560.589381	23754.703343
560.946251	23740.174738
561.303065	24069.702362
561.659825	24147.598271
562.016528	23761.604683
562.373177	23495.887984
562.729770	23840.992773
563.086307	23721.769485
563.442789	23891.222830
563.799216	23718.187745
564.155587	23730.001689
564.511904	23720.063054
564.868164	23636.503409
565.224370	23627.026040
565.580520	23528.443756
565.936615	23660.368231
566.292654	23335.100382
566.648638	23640.695128
567.004567	23469.971412
567.360441	23424.961470
567.716260	23141.091576
568.072023	23459.775678
568.427732	23239.835177
568.783385	23024.081354
569.138982	23248.755499
569.494525	23279.078039
569.850013	23036.525443
570.205445	23134.969095
570.560823	22937.413837
570.916145	22708.684085
571.271412	22878.064333
571.626625	22633.694401
571.981782	22751.422987
572.336884	22551.967214
572.691931	22679.130320
573.046923	22429.827618
573.401860	22303.319863
573.756743	22296.726033
574.111570	22223.203325
574.466342	22154.404178
574.821059	22238.483062
575.175722	21945.667641
575.530330	21936.137340
575.884882	21955.951595
576.239380	21867.391125
576.593823	21744.820510
576.948211	21731.469014
577.302544	21586.248496
577.656823	21443.367072
578.011047	21548.495294
578.365216	21420.765059
578.719330	21304.032100
579.073389	21198.785411
579.427394	21348.540448
579.781344	21132.829475
580.135239	21011.221720
580.489080	20985.844552
580.842866	20750.347050
581.196597	20930.066705
581.550273	20917.680590
581.903895	20811.357614
582.257463	21119.959409
582.610975	20643.189763
582.964434	20958.803803
583.317837	20672.733445
583.671186	20756.971126
584.024481	20725.491641
584.377721	20505.402426
584.730906	20550.016637
585.084037	20583.038716
585.437113	20488.612863
585.790135	20696.094152
586.143103	20157.721607
586.496016	20173.621406
586.848874	20405.199411
587.201679	20344.418219
587.554428	20020.559372
587.907124	20341.053249
588.259765	20134.882659
588.612352	20203.956549
588.964884	19768.720970
589.317362	19945.448701
589.669786	19988.021245
590.022155	20041.341529
590.374470	20218.152438
590.726731	20020.899650
591.078937	19776.577608
591.431090	19882.963599
591.783188	19631.480598
592.135232	19603.761813
592.487222	19696.408139
592.839157	19732.240660
593.191038	19608.563513
593.542866	19500.292131
593.894639	19205.061997
594.246358	19444.365570
594.598022	19346.743626
594.949633	19086.158822
595.301190	19062.636798
595.652692	19220.848370
596.004141	19461.661769
596.355535	18790.603533
596.706876	18798.558474
597.058162	18692.903451
597.409395	18919.367206
597.760573	19000.895266
598.111698	18786.134551
598.462768	18719.498058
598.813785	18670.671963
599.164748	18507.202467
599.515657	18540.189257
599.866511	18332.483637
600.217312	18688.527730
600.568060	18215.032314
600.918753	18530.875726
601.269392	18428.295807
601.619978	18205.703658
601.970510	18418.251308
602.320988	18362.256691
602.671412	18575.948682
603.021783	18474.001428
603.372100	18204.773566
603.722363	18354.621864
604.072572	18281.348692
604.422728	18426.337318
604.772830	18182.113579
605.122878	18131.646588
605.472872	18118.693343
605.822813	18116.364330
606.172701	18077.338237
606.522534	18284.262479
606.872314	18303.244944
607.222041	18126.582749
607.571714	18356.144292
607.921333	18178.365481
608.270899	18251.898272
608.620411	18438.481458
608.969870	18200.523873
609.319276	18216.494248
609.668627	18237.901508
610.017926	18364.610910
610.367171	18490.733018
610.716362	18531.679790
611.065500	18351.657665
611.414585	18486.793356
611.763616	18466.296024
612.112594	18415.813910
612.461518	18376.150111
612.810389	18569.206139
613.159207	18422.188449
613.507971	18334.053956
613.856682	18605.129401
614.205340	18545.590854
614.553945	18685.530764
614.902496	18433.445345
615.250994	18677.974074
615.599439	18608.804402
615.947830	18591.707329
616.296169	18642.499475
616.644454	18603.579246
616.992686	18583.855732
617.340864	18795.934554
617.688990	18554.896824
618.037063	18730.381910
618.385082	18581.501513
618.733048	18849.133850
619.080961	18723.856136
619.428821	18767.878012
619.776628	18658.321136
620.124382	18581.027645
620.472083	18612.857490
620.819731	18642.068456
621.167326	18330.550354
621.514868	18372.233135
621.862357	18131.714643
622.209793	18149.583013
622.557176	17981.163104
622.904506	17807.666754
623.251783	17712.013380
623.599007	17489.436355
623.946179	17421.819359
624.293297	17373.578037
624.640363	17125.820449
624.987376	17145.430538
625.334336	16933.255934
625.681243	16779.455371
626.028097	16795.614790
626.374899	16718.412039
626.721647	16589.497132
627.068343	16419.486740
627.414987	16345.346490
627.761577	16321.302707
628.108115	16366.428595
628.454600	16085.777478
628.801032	16180.261304
629.147412	16123.505474
629.493739	16130.086700
629.840014	15943.228771
630.186236	16048.052004
630.532405	15817.262939
630.878521	16011.443144
631.224585	15906.476239
631.570597	15723.608383
631.916556	15753.230203
632.262462	15737.027935
632.608316	15656.712272
632.954117	15601.259579
633.299866	15599.903509
633.645562	15516.439645
633.991206	15266.186686
634.336797	15140.054496
634.682336	15101.151912
635.027823	15002.408311
635.373257	14878.642943
635.718639	14773.595379
636.063968	14731.153905
636.409245	14482.383045
636.754470	14505.879863
637.099642	14360.530795
637.444762	14125.562614
637.789829	14169.496270
638.134845	14009.830325
638.479808	14037.881825
638.824719	13984.029699
639.169577	13835.623171
639.514383	13885.802817
639.859137	13703.565105
640.203839	13784.863793
640.548489	13624.101397
640.893086	13615.748205
641.237632	13486.480418
641.582125	13635.431390
641.926566	13466.867808
642.270955	13472.576915
642.615292	13432.189711
642.959576	13457.347589
643.303809	13484.211898
643.647990	13411.596598
643.992118	13479.319458
644.336195	13247.910332
644.680219	13445.178244
645.024192	13381.145508
645.368112	13617.666364
645.711981	13670.371628
646.055797	13849.113299
646.399562	13815.017455
646.743274	14085.034258
647.086935	14364.679664
647.430544	14326.934025
647.774101	14353.949568
648.117606	14508.506304
648.461059	14478.566892
648.804460	14465.694305
649.147810	14202.883832
649.491108	14097.087657
649.834354	14114.545172
650.177548	13812.617866
650.520690	13620.791879
650.863781	13544.032750
651.206820	13590.703753
651.549807	13404.047470
651.892742	13218.044016
652.235626	13165.560564
652.578458	13157.076302
652.921238	12846.067356
653.263967	13053.377247
653.606644	12870.859751
653.949269	12846.805885
654.291843	12650.440340
654.634365	12810.955720
654.976836	12667.484481
655.319255	12665.117660
655.661622	12629.141465
656.003938	12542.844473
656.346203	12468.429481
656.688416	12548.528374
657.030577	12503.165551
657.372687	12432.289449
657.714746	12397.976835
658.056753	12579.571799
658.398708	12407.459245
658.740612	12405.510839
659.082465	12510.969257
659.424266	12468.459728
659.766016	12499.588852
660.107715	12399.771486
660.449362	12479.951038
660.790958	12441.156838
661.132503	12378.724668
661.473996	12447.624639
661.815438	12461.008902
662.156829	12481.503713
662.498168	12457.671658
662.839456	12449.812499
663.180693	12473.710089
663.521879	12569.121488
663.863013	12542.428578
664.204097	12518.299095
664.545129	12641.116726
664.886110	12606.771345
665.227040	12697.610417
665.567918	12697.035725
665.908746	12731.058473
666.249522	12719.438613
666.590248	12759.908996
666.930922	12882.358623
667.271545	12859.570087
667.612118	12947.785238
667.952639	12845.437212
668.293109	12861.914223
668.633528	12812.384887
668.973896	12793.190694
669.314213	12875.918549
669.654480	12615.830298
669.994695	12677.649968
670.334859	12707.024772
670.674973	12657.918892
671.015035	12687.460053
671.355047	12635.047177
671.695008	12596.346239
672.034918	12608.134977
672.374777	12648.665854
672.714585	12563.016650
673.054342	12597.583842
673.394049	12544.939072
673.733705	12642.795430
674.073310	12554.665979
674.412864	12572.027713
674.752368	12440.037702
675.091820	12449.015997
675.431223	12442.747322
675.770574	12314.565903
676.109875	12231.472565
676.449125	12194.919158
676.788324	12139.834470
677.127473	11967.820218
677.466571	11960.734877
677.805619	11854.646315
678.144616	11779.598657
678.483562	11748.968607
678.822458	11622.002106
679.161303	11596.599732
679.500098	11590.245357
679.838842	11534.001204
680.177535	11561.969525
680.516179	11619.577311
680.854771	11574.585013
681.193314	11783.644183
681.531805	11942.208636
681.870247	12350.305164
682.208638	12763.780602
682.546978	13085.759098
682.885268	13128.031694
683.223508	12826.321157
683.561697	12662.987772
683.899836	12565.000344
684.237925	12364.649767
684.575963	12283.204885
684.913951	12209.974564
685.251889	12155.507417
685.589776	12253.109197
685.927614	12182.893486
686.265401	12136.794654
686.603137	12192.075947
686.940824	12342.113289
687.278460	12461.114766
687.616046	12510.755008
687.953582	12684.503417
688.291068	12605.644647
688.628504	12850.188500
688.965889	12848.754291
689.303224	12820.327225
689.640510	12712.847304
689.977745	12406.279615
690.314930	12178.089266
690.652065	12087.940832
690.989150	11797.509877
691.326185	11572.064436
691.663170	11364.149607
692.000105	11126.897784
692.336990	11016.178922
692.673825	10765.827660
693.010610	10641.916098
693.347345	10434.966651
693.684030	10238.079346
694.020665	10181.956180
694.357251	9980.057969
694.693786	9926.714999
695.030272	9763.210216
695.366707	9640.385023
695.703093	9579.185415
696.039429	9574.086288
696.375716	9499.187345
696.711952	9366.579793
697.048139	9406.344414
697.384276	9364.646510
697.720363	9383.145024
698.056400	9319.238317
698.392388	9267.032128
698.728326	9235.174556
699.064214	9168.651490
699.400053	9214.258809
699.735842	9026.279223
700.071581	8989.856886
700.407270	8906.577025
700.742910	8835.980706
701.078501	8735.598730
701.414042	8615.039536
701.749533	8546.394144
702.084974	8412.483454
702.420366	8528.924026
702.755709	8410.288032
703.091002	8271.729397
703.426246	8300.577400
703.761440	8257.853622
704.096584	8214.666057
704.431679	8142.317937
704.766725	8134.438614
705.101721	8079.109430
705.436668	8122.221377
705.771565	8018.396293
706.106413	8098.515351
706.441212	8145.660222
706.775961	8097.739014
707.110661	8132.318808
707.445311	8282.837580
707.779913	8172.869850
708.114465	8304.156620
708.448967	8344.301848
708.783421	8479.556006
709.117825	8667.969131
709.452180	8705.989513
709.786485	8788.427502
710.120742	9073.214886
710.454949	9072.030215
710.789107	9175.018467
711.123216	9388.226507
711.457275	9559.330831
711.791286	9711.069561
712.125247	9709.043017
712.459159	9698.433909
712.793023	9951.668711
713.126837	9523.848669
713.460602	9677.722329
713.794318	9496.649124
714.127985	9527.206078
714.461602	9207.836379
714.795171	9154.768152
715.128691	8907.217251
715.462162	8662.774222
715.795584	8602.111497
716.128957	8454.698076
716.462281	8286.908312
716.795556	8334.665683
717.128782	8136.755024
717.461960	7863.400977
717.795088	7943.383924
718.128167	7846.046805
718.461198	7677.072369
718.794180	7616.555838
719.127113	7610.962678
719.459997	7465.406922
719.792833	7229.843885
720.125619	7291.529964
720.458357	7149.845815
720.791046	7140.252499
721.123686	7142.669732
721.456278	6981.120916
721.788821	7001.653536
722.121315	6890.864098
722.453761	6960.389171
722.786158	6903.862713
723.118506	6914.673467
723.450805	6885.520475
723.783056	6949.202851
724.115259	6861.511979
724.447412	6855.956628
724.779518	6901.163175
725.111574	6902.536889
725.443582	6982.255176
725.775542	6961.054603
726.107453	7153.331773
726.439315	7071.826397
726.771129	7124.428317
727.102895	7295.048690
727.434612	7406.614465
727.766281	7437.526821
728.097901	7516.879623
728.429473	7515.034561
728.760996	7487.587999
729.092471	7461.046324
729.423897	7416.787514
729.755276	7420.843122
730.086606	7349.374684
730.417887	7442.971267
730.749120	7636.503684
731.080305	7828.977458
731.411442	7955.986809
731.742530	7952.125285
732.073570	8051.562044
732.404562	8143.207701
732.735506	7986.667271
733.066401	8136.576063
733.397249	8061.493117
733.728048	7828.543919
734.058798	7492.011612
734.389501	7272.176975
734.720156	7091.118893
735.050762	6861.859819
735.381320	6759.113542
735.711831	6715.048816
736.042293	6606.474965
736.372707	6621.900896
736.703073	6489.094218
737.033391	6526.847420
737.363661	6536.445777
737.693883	6562.604324
738.024056	6646.978116
738.354182	6697.568615
738.684260	6728.264201
739.014290	6842.902560
739.344272	6953.709642
739.674207	6981.829198
740.004093	7054.202523
740.333931	7065.343473
740.663722	7075.196409
740.993464	7152.931001
741.323159	7140.751573
741.652806	6895.096146
741.982405	6900.996817
742.311956	6956.789787
742.641460	6801.993597
742.970915	6603.109995
743.300323	6596.284273
743.629683	6540.723196
743.958996	6406.283184
744.288260	6317.914278
744.617477	6272.372494
744.946647	6270.519870
745.275768	6101.994097
745.604842	6062.231996
745.933869	6048.520058
746.262847	6000.969374
746.591778	5999.744373
746.920662	5953.335511
747.249498	5938.237255
747.578286	5989.634339
747.907027	6062.078241
748.235720	6127.378827
748.564365	6096.269867
748.892963	6121.473115
749.221514	6279.273834
749.550017	6115.751406
749.878473	5989.669628
750.206881	6039.120826
750.535242	5983.771478
750.863555	5913.638945
751.191821	5937.138284
751.520039	5936.747594
751.848210	5842.046999
752.176334	5858.128280
752.504411	5917.011477
752.832440	5839.077759
753.160421	5771.226349
753.488356	5816.180838
753.816243	5850.483370
754.144082	5701.930648
754.471875	5671.792110
754.799620	5717.165015
755.127318	5726.276901
755.454969	5682.108831
755.782572	5645.583151
756.110129	5691.467733
756.437638	5675.058778
756.765100	5617.345128
757.092515	5614.058296
757.419882	5660.749463
757.747203	5644.960569
758.074477	5709.883068
758.401703	5692.859092
758.728882	5647.554242
759.056014	5700.130956
759.383099	5828.813970
759.710138	5844.134037
760.037129	5827.604093
760.364073	5828.529145
760.690970	5914.485859
761.017820	5895.999948
761.344623	5852.840109
761.671379	5952.226457
761.998088	6067.598304
762.324751	6308.840201
762.651366	6900.328864
762.977935	8214.734112
763.304456	9840.589407
763.630931	10754.512790
763.957359	10365.849911
764.283740	9418.480992
764.610074	8584.835463
764.936362	7586.664316
765.262602	6999.342167
765.588796	6458.451565
765.914943	6122.206603
766.241044	5956.932374
766.567097	5759.447693
766.893104	5502.308518
767.219064	5315.319519
767.544978	5259.317341
767.870845	5183.629457
768.196665	5077.220781
768.522438	5002.586499
768.848165	4969.859328
769.173846	4903.633690
769.499479	4864.554665
769.825066	4815.952901
770.150607	4751.254732
770.476101	4724.410588
770.801548	4724.861772
771.126949	4645.826562
771.452303	4592.211370
771.777611	4549.258218
772.102872	4569.616918
772.428087	4528.791134
772.753256	4490.216225
773.078378	4447.958752
773.403453	4378.489132
773.728482	4366.987739
774.053465	4316.828259
774.378401	4304.369047
774.703291	4305.606650
775.028135	4234.828850
775.352932	4184.122404
775.677683	4174.115714
776.002388	4191.800082
776.327046	4201.171587
776.651658	4130.061070
776.976224	4069.289961
777.300743	4070.983788
777.625216	4094.798199
777.949643	4089.724278
778.274024	4047.676014
778.598359	3998.991070
778.922647	4023.985111
779.246889	4014.928678
779.571086	4012.181249
779.895236	3994.993435
780.219339	3977.208245
780.543397	3971.133654
780.867409	4026.508209
781.191374	4038.569169
781.515294	3978.942402
781.839167	3971.047955
782.162995	3989.730471
782.486776	3979.668328
782.810511	3989.233917
783.134201	3984.928772
783.457844	3940.664920
783.781441	3885.963360
784.104993	3893.267992
784.428498	3910.473450
784.751958	3904.393818
785.075372	3887.705079
785.398739	3848.005992
785.722061	3860.253475
786.045337	3901.598499
786.368568	3932.538580
786.691752	3846.105477
787.014891	3895.929721
787.337983	4019.259029
787.661030	4182.486550
787.984031	4343.001929
788.306987	4516.712529
788.629897	4596.231690
788.952760	4555.088313
789.275579	4484.534844
789.598351	4419.357766
789.921078	4280.375675
790.243759	4084.436107
790.566395	4059.510122
790.888984	4058.937951
791.211529	3955.165799
791.534027	3890.949061
791.856480	3877.806773
792.178888	3818.101868
792.501249	3765.593209
792.823566	3780.366310
793.145836	3811.878563
793.468062	3756.791354
793.790241	3711.763768
794.112375	3741.864498
794.434464	3807.671720
794.756507	3827.238959
795.078505	3811.316474
795.400457	3842.753110
795.722364	3979.847289
796.044226	4086.127415
796.366042	4160.524763
796.687812	4136.191113
797.009538	4145.653359
797.331218	4101.883541
797.652852	4079.457968
797.974442	4059.268147
798.295986	4056.298907
798.617484	3973.734890
798.938938	3886.717012
799.260346	3930.118827
799.581709	3926.774021
799.903026	3851.033205
800.224299	3812.551557
800.545526	3809.191628
800.866708	3775.428500
801.187845	3709.848130
801.508936	3742.330805
801.829983	3743.129828
802.150984	3663.335924
802.471940	3656.348885
802.792851	3666.020338
803.113717	3668.309022
803.434538	3671.550484
803.755314	3610.285341
804.076045	3583.660487
804.396731	3605.092953
804.717372	3632.957931
805.037967	3615.097123
805.358518	3606.106225
805.679024	3635.246615
805.999485	3646.611896
806.319901	3650.133142
806.640272	3663.963547
806.960598	3678.209848
807.280879	3653.145231
807.601115	3667.240297
807.921306	3680.266639
808.241453	3722.554358
808.561554	3698.840770
808.881611	3634.702170
809.201623	3668.399763
809.521590	3677.612472
809.841513	3653.611538
810.161390	3681.138759
810.481223	3659.769308
810.801011	3605.297120
811.120755	3595.786983
811.440453	3631.092704
811.760107	3636.690905
812.079716	3595.129112
812.399281	3563.894123
812.718801	3583.615117
813.038276	3558.648802
813.357707	3556.092938
813.677093	3575.138417
813.996434	3521.276208
814.315731	3529.752909
814.634983	3533.692570
814.954191	3547.374262
815.273354	3575.193869
815.592473	3574.699836
815.911547	3576.504569
816.230577	3617.907566
816.549562	3666.612674
816.868502	3709.316288
817.187399	3731.653641
817.506250	3733.102973
817.825058	3705.041390
818.143821	3794.284936
818.462539	3896.103641
818.781213	3944.090384
819.099843	3999.875793
819.418429	4243.678596
819.736970	4486.256398
820.055466	4731.432916
820.373919	5094.839614
820.692327	5502.139639
821.010691	5942.358399
821.329011	7312.450753
821.647286	10041.683554
821.965517	14606.052631
822.283704	18688.676444
822.601847	20894.324924
822.919945	19072.774558
823.237999	16473.381715
823.556010	13969.836331
823.873976	11858.515400
824.191897	9765.498899
824.509775	8402.139006
824.827609	7272.610514
825.145398	6731.296455
825.463144	6610.051664
825.780845	6724.397636
826.098502	6909.055101
826.416116	7788.650748
826.733685	9111.517573
827.051210	10239.425334
827.368692	10296.997832
827.686129	9038.153661
828.003522	7518.049171
828.320872	6493.618654
828.638177	5788.444410
828.955439	5229.892126
829.272656	4728.466197
829.589830	4446.620326
829.906960	4272.430817
830.224046	4089.736881
830.541088	3958.011531
830.858086	3912.626023
831.175041	3835.307326
831.491952	3820.493895
831.808819	3832.045699
832.125642	3901.139754
832.442421	4047.121487
832.759157	4321.340091
833.075849	4871.748392
833.392497	5737.465742
833.709101	6518.774012
834.025662	6858.240271
834.342179	6501.384552
834.658653	5832.075597
834.975083	5187.841341
835.291469	4606.828195
835.607811	4197.214281
835.924110	4057.435687
836.240366	3860.064432
836.556578	3652.200015
836.872746	3543.139693
837.188871	3503.642252
837.504952	3440.204372
837.820990	3354.663553
838.136984	3307.085143
838.452935	3333.019359
838.768842	3330.546673
839.084706	3350.123994
839.400526	3503.750637
839.716303	3842.427955
840.032037	4368.331207
840.347727	4639.484790
840.663373	4365.246021
840.978977	3977.283862
841.294537	3669.060154
841.610054	3442.878704
841.925527	3337.175791
842.240957	3267.398660
842.556344	3213.322202
842.871687	3150.698469
843.186987	3104.718104
843.502244	3067.436251
843.817458	3032.458205
844.132629	3001.868484
844.447756	3009.306706
844.762840	2995.960251
845.077881	2963.006229
845.392879	2947.648353
845.707833	2945.213476
846.022745	2940.810028
846.337613	2942.821449
846.652438	2930.828544
846.967221	2928.542380
847.281960	2916.113416
847.596656	2909.627971
847.911309	2910.086716
848.225919	2905.209400
848.540485	2898.484501
848.855009	2898.182031
849.169490	2884.888509
849.483928	2877.422560
849.798323	2876.633619
850.112675	2873.994575
850.426984	2886.468910
850.741251	2884.452449
851.055474	2875.333002
851.369654	2867.877135
851.683792	2873.195552
851.997887	2882.219218
852.311938	2883.832387
852.625947	2870.919471
852.939914	2875.050697
853.253837	2880.638816
853.567718	2864.189531
853.881555	2863.660210
854.195350	2879.870040
854.509103	2875.663197
854.822812	2866.828575
855.136479	2863.536702
855.450103	2867.027701
855.763685	2859.990250
856.077224	2854.255937
856.390720	2867.297402
856.704173	2880.598487
857.017584	2870.438041
857.330953	2865.827906
857.644278	2878.161089
857.957561	2885.478324
858.270802	2889.170969
858.584000	2887.265413
858.897155	2875.670759
859.210268	2875.580018
859.523339	2874.569267
859.836367	2873.452651
860.149352	2867.602392
860.462295	2861.096783
860.775195	2869.094574
861.088054	2870.959801
861.400869	2854.674353
861.713642	2849.227386
862.026373	2868.250180
862.339062	2869.439893
862.651708	2874.382744
862.964312	2876.331150
863.276873	2871.579862
863.589392	2880.041439
863.901869	2891.137019
864.214303	2913.169382
864.526696	2931.433482
864.839045	2925.000970
865.151353	2925.560538
865.463619	2924.106165
865.775842	2925.439550
866.088023	2943.297838
866.400162	2948.538117
866.712258	2922.760177
867.024313	2910.487488
867.336325	2919.672470
867.648296	2939.675769
867.960224	2932.287958
868.272110	2918.273550
868.583954	2924.469128
868.895755	2937.886159
869.207515	2921.802358
869.519233	2929.706887
869.830909	2938.896910
870.142542	2949.702624
870.454134	2949.521142
870.765684	2948.863272
871.077191	2951.005762
871.388657	2957.828964
871.700081	2971.137610
872.011463	2985.386431
872.322803	2986.553458
872.634101	2985.683859
872.945357	3000.189779
873.256571	3024.205836
873.567744	3021.206350
873.878874	3011.073631
874.189963	3033.655479
874.501010	3038.144627
874.812015	3028.198430
875.122979	3028.329500
875.433900	3024.246166
875.744780	3028.798328
876.055618	3037.401057
876.366415	3034.572969
876.677169	3046.028991
876.987882	3041.834751
877.298554	3035.447609
877.609183	3058.397462
877.919771	3080.565936
878.230317	3109.393775
878.540822	3160.710200
878.851285	3197.326621
879.161707	3240.373034
879.472087	3342.161492
879.782425	3570.903848
880.092722	4005.186648
880.402977	4534.787586
880.713191	5171.518085
881.023363	6331.288459
881.333494	7631.782643
881.643583	8199.643418
881.953631	7900.796256
882.263637	7258.848164
882.573602	6666.885632
882.883526	6082.073978
883.193408	5505.875134
883.503248	5035.296025
883.813048	4730.288574
884.122806	4427.526956
884.432522	4109.435189
884.742197	3872.150598
885.051831	3679.742359
885.361424	3542.370917
885.670975	3469.032211
885.980485	3381.172461
886.289954	3305.469453
886.599382	3264.336159
886.908768	3221.398131
887.218113	3178.074455
887.527417	3123.289715
887.836680	3072.666448
888.145901	3067.504307
888.455082	3056.592729
888.764221	3002.400325
889.073319	2977.129021
889.382376	2975.228506
889.691392	2977.880153
890.000366	2977.988538
890.309300	2964.505972
890.618193	2977.295379
890.927044	2993.089314
891.235855	2994.311794
891.544625	2980.620020
891.853353	2993.447236
892.162041	3007.360821
892.470687	3047.511091
892.779293	3098.956066
893.087858	3149.241575
893.396381	3216.014178
893.704864	3341.831296
894.013306	3578.674786
894.321707	3885.368504
894.630068	4094.140329
894.938387	4090.883743
895.246665	4045.926733
895.554903	3923.386366
895.863100	3724.255748
896.171256	3550.605642
896.479371	3412.478026
896.787446	3292.763225
897.095480	3184.804395
897.403473	3120.227214
897.711425	3085.032399
898.019336	3073.851119
898.327207	3045.383724
898.635038	3013.919362
898.942827	2994.014366
899.250576	2984.902480
899.558284	2952.419806
899.865952	2935.042948
900.173579	2912.604773
900.481165	2906.353742
900.788711	2891.648696
901.096216	2869.530633
901.403681	2857.615866
901.711105	2865.560725
902.018489	2860.600229
902.325832	2865.351517
902.633135	2871.814276
902.940397	2902.895510
903.247619	2985.414158
903.554800	3179.672500
903.861941	3524.457177
904.169041	3957.260399
904.476101	4258.630658
904.783121	4222.503229
905.090100	3973.989468
905.397039	3692.345244
905.703938	3441.036163
906.010796	3254.611773
906.317614	3144.558343
906.624391	3046.026471
906.931129	2977.670945
907.237826	2912.582087
907.544483	2865.371682
907.851099	2836.745489
908.157675	2814.587098
908.464211	2795.516413
908.770707	2780.803805
909.077163	2770.550098
909.383578	2754.862027
909.689954	2744.585635
909.996289	2742.899369
910.302584	2746.783578
910.608839	2742.188567
910.915054	2734.052144
911.221229	2729.537791
911.527363	2731.738255
911.833458	2737.802763
912.139513	2742.601941
912.445527	2746.312231
912.751502	2753.775659
913.057436	2763.681526
913.363331	2778.013527
913.669186	2800.618060
913.975000	2834.053513
914.280775	2892.462842
914.586510	2964.178297
914.892205	3045.552602
915.197859	3170.689164
915.503475	3367.526057
915.809050	3586.375149
916.114585	3734.065833
916.420081	3752.939913
916.725536	3695.569062
917.030952	3573.207655
917.336328	3446.473047
917.641665	3315.526555
917.946961	3211.129300
918.252218	3139.776809
918.557435	3063.483987
918.862612	3000.643483
919.167750	2949.009465
919.472848	2914.490164
919.777906	2886.068139
920.082925	2859.818851
920.387904	2828.067143
920.692843	2811.902683
920.997743	2797.789973
921.302603	2786.659105
921.607423	2775.354318
921.912204	2764.130189
922.216946	2750.534197
922.521647	2744.230234
922.826310	2734.188256
923.130932	2731.319839
923.435516	2720.481358
923.740059	2714.757128
924.044564	2705.037783
924.349028	2701.372865
924.653454	2692.387008
924.957840	2683.963240
925.262186	2682.670184
925.566493	2677.021571
925.870761	2673.434790
926.174989	2669.963956
926.479178	2664.809376
926.783328	2658.949034
927.087438	2660.239570
927.391509	2656.950217
927.695541	2654.588436
927.999533	2649.539721
928.303486	2649.806902
928.607400	2648.138280
928.911275	2646.555358
929.215110	2645.209370
929.518906	2644.692651
929.822663	2645.000162
930.126381	2643.313896
930.430060	2644.622075
930.733699	2647.278763
931.037299	2648.549134
931.340861	2646.693989
931.644383	2649.451501
931.947866	2649.201963
932.251309	2646.983856
932.554714	2648.957467
932.858080	2644.178454
933.161407	2642.827424
933.464694	2639.449851
933.767943	2636.997330
934.071153	2638.166878
934.374323	2640.632002
934.677455	2638.597896
934.980548	2637.380458
935.283602	2639.974131
935.586617	2638.262660
935.889593	2633.135806
936.192530	2638.774337
936.495428	2636.959521
936.798287	2639.679224
937.101108	2645.138793
937.403890	2647.407313
937.706632	2653.781852
938.009336	2656.718324
938.312002	2667.324912
938.614628	2676.678772
938.917216	2680.162210
939.219765	2680.673887
939.522275	2680.197498
939.824747	2679.012827
940.127179	2675.204235
940.429573	2674.727846
940.731929	2670.493277
941.034246	2669.353976
941.336524	2664.363234
941.638763	2660.862152
941.940964	2661.323418
942.243126	2657.477017
942.545250	2657.595485
942.847335	2654.948879
943.149381	2650.111892
943.451389	2648.329844
943.753359	2642.993782
944.055290	2643.341622
944.357182	2643.886067
944.659036	2642.154430
944.960851	2639.795170
945.262628	2637.501445
945.564367	2638.834831
945.866067	2638.595376
946.167729	2641.000006
946.469352	2640.697537
946.770937	2638.323153
947.072484	2638.252577
947.373992	2637.945067
947.675462	2634.494397
947.976893	2632.450209
948.278286	2630.305198
948.579641	2632.944242
948.880958	2625.619446
949.182236	2632.445168
949.483476	2631.394087
949.784678	2631.341155
950.085841	2631.709160
950.386967	2633.244191
950.688054	2631.739407
950.989103	2632.014149
951.290114	2634.902731
951.591087	2636.359624
951.892021	2637.287196
952.192917	2641.960346
952.493776	2642.446817
952.794596	2643.712147
953.095378	2641.602424
953.396122	2642.280459
953.696828	2640.107722
953.997496	2637.360293
954.298126	2635.961373
954.598718	2635.288379
954.899272	2629.675054
955.199788	2628.949128
955.500266	2628.124899
955.800706	2622.990484
956.101108	2622.178858
956.401472	2618.854217
956.701798	2619.504526
957.002087	2617.104937
957.302337	2616.414299
957.602550	2612.842641
957.902724	2614.644854
958.202861	2612.086468
958.502960	2610.450614
958.803022	2607.708226
959.103045	2605.437186
959.403031	2610.080089
959.702979	2606.720160
960.002889	2606.846189
960.302762	2604.673452
960.602596	2605.406939
960.902393	2606.294183
961.202153	2605.601024
961.501875	2605.396857
961.801559	2604.224789
962.101205	2604.260077
962.400814	2604.058431
962.700385	2606.069851
962.999918	2604.088678
963.299414	2600.733790
963.598873	2600.068357
963.898293	2595.614498
964.197677	2601.792432
964.497022	2599.425610
964.796331	2603.188832
965.095601	2601.449634
965.394835	2603.892073
965.694030	2602.893924
965.993189	2602.936774
966.292309	2601.452154
966.591393	2601.636156
966.890439	2605.154882
967.189447	2602.150354
967.488419	2600.370827
967.787353	2601.270673
968.086249	2599.481063
968.385108	2600.285127
968.683930	2600.534664
968.982714	2599.186156
969.281462	2601.769747
969.580172	2602.142792
969.878844	2601.565580
970.177480	2604.307968
970.476078	2603.115735
970.774639	2602.470467
971.073162	2600.950559
971.371649	2605.170005
971.670098	2601.926023
971.968510	2604.648246
972.266885	2601.212699
972.565223	2604.789398
972.863524	2602.510797
973.161788	2600.552308
973.460014	2600.816969
973.758204	2600.002822
974.056356	2599.501228
974.354471	2601.812597
974.652550	2603.743359
974.950591	2600.670775
975.248595	2601.754623
975.546563	2602.079778
975.844493	2601.535333
976.142386	2602.858636
976.440243	2599.450816
976.738062	2600.385950
977.035845	2599.425610
977.333590	2601.444592
977.631299	2598.664396
977.928971	2595.727924
978.226606	2597.197420
978.524204	2598.863522
978.821765	2593.461925
979.119290	2603.110694
979.416777	2598.916454
979.714228	2599.370158
980.011642	2598.200610
980.309020	2598.450147
980.606360	2600.627926
980.903664	2600.466609
981.200931	2601.028697
981.498162	2599.733121
981.795356	2601.550457
982.092513	2604.426435
982.389633	2608.487084
982.686717	2607.325098
982.983764	2612.857765
983.280775	2619.645678
983.577749	2619.559979
983.874686	2617.349433
984.171587	2615.781634
984.468451	2612.646036
984.765279	2612.217538
985.062070	2605.790067
985.358824	2604.514655
985.655543	2603.519027
985.952224	2603.556836
986.248869	2601.880652
986.545478	2602.233533
986.842050	2599.755806
987.138586	2601.101794
987.435086	2599.226485
987.731549	2598.077102
988.027975	2596.579879
988.324366	2598.835795
988.620719	2596.163984
988.917037	2597.451999
989.213318	2597.860332
989.509563	2597.300764
989.805772	2597.593151
990.101944	2595.100300
990.398080	2597.212544
990.694180	2595.617019
990.990244	2596.519385
991.286271	2595.095259
991.582262	2595.947214
991.878217	2597.141968
992.174136	2599.155909
992.470019	2597.217585
992.765865	2592.965372
993.061676	2591.828592
993.357450	2593.764395
993.653188	2592.501586
993.948890	2596.751278
994.244556	2595.115424
994.540186	2595.438058
994.835780	2598.243460
995.131337	2595.944694
995.426859	2597.338573
995.722345	2601.333687
996.017795	2601.767226
996.313208	2597.847729
996.608586	2604.514655
996.903928	2601.595827
997.199234	2599.380240
997.494504	2602.044490
997.789738	2600.484253
998.084936	2598.843357
998.380099	2600.355703
998.675225	2600.552308
998.970316	2597.812441
999.265371	2596.988212
999.560390	2597.401587
999.855373	2596.416042
1000.150320	2599.274376
1000.445232	2597.547781
1000.740108	2596.405959
1001.034948	2597.608274
1001.329752	2594.898654
1001.624521	2593.590475
1001.919254	2593.658530
1002.213951	2596.279930
1002.508613	2593.083839
1002.803239	2593.794642
1003.097829	2596.184148
1003.392384	2595.740527
1003.686903	2593.013263
1003.981386	2592.761205
1004.275834	2594.119796
1004.570246	2593.918150
1004.864623	2593.769436
1005.158964	2595.722883
1005.453270	2596.423603
1005.747540	2594.918819
1006.041775	2595.357399
1006.335974	2593.754312
1006.630138	2594.659199
1006.924266	2593.245156
1007.218359	2595.554004
1007.512416	2592.138622
1007.806438	2588.267016
1008.100425	2591.332038
1008.394376	2586.154773
1008.688292	2593.194744
1008.982172	2593.585434
1009.276017	2592.559559
1009.569827	2594.636514
1009.863602	2593.038468
1010.157341	2594.056782
1010.451045	2593.098962
1010.744714	2589.426482
1011.038347	2595.133068
1011.331945	2588.803899
1011.625508	2590.880855
1011.919036	2591.737851
1012.212528	2593.840012
1012.505986	2593.640886
1012.799408	2592.123499
1013.092795	2592.693149
1013.386147	2592.846905
1013.679464	2592.524271
1013.972745	2592.977975
1014.265992	2593.066195
1014.559204	2593.923191
1014.852380	2589.141657
1015.145521	2593.499734
1015.438628	2590.870772
1015.731699	2593.222471
1016.024736	2594.974272
1016.317737	2591.478231
1016.610703	2593.139292
1016.903635	2592.720876
1017.196531	2591.090062
1017.489393	2591.972264
1017.782219	2594.833119
1018.075011	2591.074939
1018.367768	2592.562079
1018.660490	2589.847418
1018.953177	2589.847418
1019.245829	2589.847418
