Dividing Wavelength (nm)	Counts (n)	Blue Motor Position (mm): 28.000000	Red Motor Position (mm): 0.000000	
326.493990	2208.784078
326.888308	2208.784078
327.282561	2208.784078
327.676750	2166.813952
328.070874	2163.567449
328.464933	2164.069044
328.858929	2169.004333
329.252859	2172.772596
329.646726	2181.327434
330.040528	2193.451409
330.434265	2205.784592
330.827938	2226.977603
331.221547	2241.062586
331.615091	2259.787952
332.008571	2280.522218
332.401986	2297.722635
332.795338	2315.172589
333.188625	2333.582883
333.581847	2351.657940
333.975006	2369.599407
334.368100	2391.956924
334.761129	2411.186405
335.154095	2426.952614
335.546996	2451.122426
335.939833	2488.724392
336.332606	2504.049500
336.725315	2514.971160
337.117960	2529.900537
337.510540	2540.915458
337.903056	2554.962633
338.295508	2560.092008
338.687896	2571.606003
339.080220	2576.657239
339.472480	2581.814339
339.864676	2587.289032
340.256807	2595.475866
340.648875	2600.325456
341.040879	2602.906527
341.432818	2605.744697
341.824694	2607.564553
342.216506	2609.200408
342.608253	2608.204780
342.999937	2609.767537
343.391557	2608.991200
343.783113	2609.013885
344.174605	2605.769902
344.566033	2607.017588
344.957397	2608.108998
345.348697	2603.874429
345.739934	2600.942998
346.131106	2601.084150
346.522215	2598.039293
346.913260	2598.245980
347.304241	2592.539394
347.695159	2594.089549
348.086012	2592.337748
348.476802	2589.676019
348.867528	2585.461614
349.258191	2582.008424
349.648789	2580.874164
350.039324	2579.452559
350.429796	2582.205029
350.820203	2582.061356
351.210548	2581.342992
351.600828	2580.228897
351.991045	2576.672362
352.381198	2576.460634
352.771288	2577.869637
353.161314	2575.447362
353.551276	2576.294276
353.941175	2573.332598
354.331010	2574.169430
354.720782	2573.088102
355.110490	2576.334605
355.500135	2574.905438
355.889717	2576.558937
356.279235	2575.291086
356.668689	2574.466858
357.058080	2573.599779
357.447408	2574.953329
357.836672	2577.279822
358.225873	2573.050293
358.615010	2577.194122
359.004084	2577.168916
359.393095	2575.840572
359.782043	2578.777044
360.170927	2576.453072
360.559748	2580.859041
360.948505	2578.083886
361.337199	2579.679411
361.725830	2578.393917
362.114398	2577.577250
362.502903	2582.759556
362.891344	2582.807447
363.279722	2579.719740
363.668037	2582.167220
364.056289	2582.769638
364.444478	2583.220821
364.832603	2585.209557
365.220665	2586.555545
365.608665	2584.181161
365.996601	2584.019844
366.384474	2583.107395
366.772284	2585.088569
367.160031	2584.778538
367.547715	2588.193920
367.935336	2588.130905
368.322893	2583.384659
368.710388	2583.601428
369.097820	2586.114444
369.485189	2584.415575
369.872495	2589.746595
370.259738	2587.362129
370.646918	2589.184506
371.034035	2590.129723
371.421090	2588.120823
371.808081	2588.970257
372.195010	2589.688622
372.581875	2591.085021
372.968678	2589.159301
373.355418	2589.280288
373.742096	2591.989908
374.128710	2593.580392
374.515262	2592.776328
374.901751	2591.642069
375.288177	2592.141143
375.674540	2593.882862
376.060841	2591.919332
376.447079	2594.059302
376.833254	2593.963520
377.219367	2594.843202
377.605417	2593.678695
377.991404	2595.622060
378.377329	2594.238263
378.763191	2596.600044
379.148991	2594.707090
379.534727	2597.167173
379.920402	2593.625763
380.306013	2596.539550
380.691563	2596.983171
381.077049	2597.010898
381.462474	2595.536360
381.847835	2598.523244
382.233134	2597.129365
382.618371	2594.747420
383.003545	2596.564756
383.388657	2598.684561
383.773706	2600.693461
384.158693	2601.162288
384.543618	2598.124993
384.928480	2602.004161
385.313280	2600.897627
385.698017	2599.360075
386.082692	2602.064654
386.467305	2600.887545
386.851856	2602.818307
387.236344	2599.796135
387.620770	2599.100456
388.005133	2599.218923
388.389435	2600.413677
388.773674	2600.063316
389.157851	2601.505086
389.541965	2603.748400
389.926018	2603.448451
390.310008	2602.997268
390.693936	2605.658997
391.077802	2603.909717
391.461606	2606.289141
391.845348	2607.015068
392.229027	2606.137907
392.612645	2604.426435
392.996200	2604.123966
393.379694	2608.232506
393.763125	2607.801487
394.146494	2606.382403
394.529801	2609.185284
394.913047	2608.277877
395.296230	2606.246292
395.679351	2608.494646
396.062410	2611.153855
396.445408	2609.200408
396.828343	2607.357866
397.211217	2609.497836
397.594028	2609.207969
397.976778	2612.565378
398.359466	2610.024636
398.742092	2609.906169
399.124656	2606.684872
399.507158	2613.140069
399.889598	2613.797940
400.271977	2613.687035
400.654294	2611.534462
401.036549	2612.348608
401.418742	2608.940788
401.800874	2613.114864
402.182944	2613.114864
402.564952	2610.445573
402.946898	2614.851541
403.328783	2614.980091
403.710606	2614.549072
404.092367	2614.811212
404.474067	2613.245934
404.855705	2616.812550
405.237282	2615.393465
405.618797	2613.624020
406.000250	2618.035030
406.381642	2615.209463
406.762972	2614.707868
407.144240	2611.889863
407.525447	2614.738115
407.906593	2614.211315
408.287677	2616.827673
408.668700	2616.913373
409.049661	2620.172479
409.430560	2622.123406
409.811399	2620.525360
410.192176	2620.379166
410.572891	2621.193313
410.953545	2620.500154
411.334138	2621.568879
411.714669	2622.302367
412.095139	2623.209774
412.475547	2621.768004
412.855894	2621.435288
413.236180	2622.161214
413.616405	2621.362191
413.996568	2620.527880
414.376670	2622.002418
414.756711	2623.928139
415.136691	2625.019548
415.516609	2625.463170
415.896466	2625.077522
416.276262	2624.069291
416.655997	2627.260341
417.035670	2628.495424
417.415283	2629.039869
417.794834	2626.141205
418.174324	2628.152626
418.553753	2629.692698
418.933121	2630.375774
419.312428	2630.837040
419.691674	2633.014818
420.070859	2633.070271
420.449983	2633.728142
420.829045	2632.634211
421.208047	2633.745786
421.586988	2632.298975
421.965867	2634.212092
422.344686	2633.478605
422.723444	2637.650159
423.102141	2635.651342
423.480777	2635.863070
423.859352	2634.756537
424.237866	2640.949595
424.616319	2639.384316
424.994712	2640.503452
425.373044	2637.829120
425.751314	2637.698050
426.129524	2636.352062
426.507673	2639.901035
426.885762	2637.685447
427.263789	2643.208032
427.641756	2645.882364
428.019662	2643.626447
428.397508	2644.768269
428.775292	2647.576191
429.153016	2649.370842
429.530679	2648.244144
429.908282	2649.759011
430.285824	2651.914104
430.663305	2653.834784
431.040726	2654.704383
431.418086	2654.422078
431.795385	2656.778818
432.172624	2657.051040
432.549802	2661.940959
432.926920	2665.684016
433.303977	2668.645694
433.680974	2673.752383
434.057910	2679.859741
434.434786	2684.805112
434.811601	2691.325845
435.188355	2704.490818
435.565050	2711.137580
435.941683	2717.113867
436.318257	2735.125910
436.694770	2750.204001
437.071222	2764.609098
437.447614	2780.032509
437.823946	2797.298461
438.200218	2819.648416
438.576429	2835.868329
438.952580	2873.896273
439.328670	2903.094636
439.704700	2924.244797
440.080670	2962.000518
440.456580	3021.276926
440.832429	3054.603994
441.208218	3072.016139
441.583947	3138.173722
441.959616	3196.278061
442.335224	3237.373547
442.710773	3304.226809
443.086261	3383.874519
443.461689	3383.214128
443.837057	3510.404960
444.212365	3611.132255
444.587612	3648.681290
444.962800	3754.180037
445.337927	3805.690547
445.712995	3827.496058
446.088002	4075.611568
446.462949	4109.346969
446.837837	4194.476934
447.212664	4294.405206
447.587431	4493.240917
447.962139	4749.906224
448.336786	5361.554461
448.711374	5671.114075
449.085901	5270.738075
449.460369	5262.427732
449.834776	5247.697481
450.209124	5612.152739
450.583412	5866.655391
450.957640	6309.233411
451.331808	6196.913983
451.705917	5997.087685
452.079965	5883.565942
452.453954	6347.107600
452.827883	6331.583367
453.201752	6582.935297
453.575562	6530.713985
453.949311	6823.544529
454.323001	6937.159534
454.696632	7177.657861
455.070202	7450.381763
455.443713	7706.852986
455.817164	8083.883402
456.190556	8231.997543
456.563888	8572.671159
456.937160	8816.068149
457.310373	8617.953323
457.683526	8801.242115
458.056619	8701.686888
458.429653	8919.941124
458.802628	8761.646372
459.175542	9095.567362
459.548398	9799.748499
459.921194	10159.636472
460.293930	10315.972735
460.666607	11032.169462
461.039224	11826.189001
461.411782	12467.040643
461.784280	12605.251437
462.156719	12833.582939
462.529099	12781.278447
462.901419	12178.759739
463.273680	12183.243846
463.645882	12215.320708
464.018024	12138.233904
464.390106	12443.584154
464.762130	13180.253007
465.134094	13839.134335
465.505999	15404.208437
465.877845	18074.931087
466.249631	20580.699620
466.621358	20651.578243
466.993026	19721.495441
467.364634	19474.481423
467.736184	18434.244368
468.107674	17850.687961
468.479105	18080.322601
468.850477	17735.298470
469.221790	17474.194427
469.593043	16987.289541
469.964238	16617.291534
470.335373	16407.725728
470.706449	16850.447420
471.077467	16503.174935
471.448425	18232.215087
471.819324	21969.129171
472.190164	24080.114865
472.560945	20968.442489
472.931667	18758.778729
473.302330	18197.879788
473.672934	17729.919558
474.043479	18172.648813
474.413965	18043.171817
474.784393	17748.140809
475.154761	18415.700484
475.525070	18502.609976
475.895321	18178.766253
476.265513	18779.780176
476.635645	19369.017964
477.005719	19209.972081
477.375734	19425.874618
477.745691	19929.697615
478.115588	20440.900862
478.485427	20969.170936
478.855207	22022.094054
479.224928	23748.810234
479.594591	25949.520905
479.964194	26084.805309
480.333739	26316.970608
480.703226	25913.471613
481.072653	25593.038231
481.442022	26141.614072
481.811333	27055.973515
482.180584	27020.952620
482.549777	26093.581958
482.918912	25734.291362
483.287988	25853.660844
483.657005	25568.644087
484.025964	25280.408555
484.394864	25247.048719
484.763706	24965.674197
485.132489	24386.533840
485.501213	24552.597009
485.869879	24487.997143
486.238487	24284.019456
486.607036	24442.944351
486.975527	24116.849753
487.343959	24466.126097
487.712333	24437.046201
488.080648	24093.786474
488.448905	24566.157713
488.817104	24319.549508
489.185244	24978.813964
489.553326	24945.111330
489.921350	25896.336732
490.289315	28146.458271
490.657222	29968.273298
491.025070	30458.991816
491.392861	30267.664904
491.760593	29437.396948
492.128267	28543.686071
492.495883	27523.716975
492.863440	26632.972817
493.230939	25772.241168
493.598380	25616.832477
493.965763	25210.117226
494.333088	24778.690239
494.700354	24691.826117
495.067563	24594.068061
495.434713	24354.031000
495.801805	24484.092770
496.168839	24311.483662
496.535815	24127.637822
496.902733	24338.385779
497.269593	24012.182796
497.636395	24203.759245
498.003139	24196.878070
498.369825	23946.095790
498.736453	24132.401713
499.103023	24008.033927
499.469535	24035.354460
499.835989	24223.205496
500.202385	24255.673048
500.568723	23761.219034
500.935003	24036.876888
501.301226	23625.932109
501.667390	24446.629435
502.033497	24698.341808
502.399546	24412.992336
502.765537	24013.914433
503.131470	24398.166302
503.497345	24524.817731
503.863163	23733.437236
504.228923	24365.769327
504.594625	24546.361102
504.960269	24058.828593
505.325856	24563.397681
505.691385	23983.112983
506.056856	24566.901283
506.422270	24536.503126
506.787625	24140.643999
507.152924	24538.746439
507.518164	24564.867178
507.883347	24365.834862
508.248472	24064.585591
508.613540	24847.512071
508.978550	24614.328459
509.343503	24604.636840
509.708398	24886.790221
510.073236	25034.243971
510.438016	25254.028197
510.802738	24933.186481
511.167403	25176.873337
511.532010	24871.719692
511.896561	25661.628170
512.261053	25623.748940
512.625488	25465.804549
512.989866	25356.298085
513.354186	25215.105448
513.718449	25291.489011
514.082655	25698.552102
514.446803	25435.287924
514.810894	25872.229934
515.174927	25365.578849
515.538904	25388.931994
515.902822	25890.431020
516.266684	25646.920604
516.630488	25540.211980
516.994235	25527.107500
517.357925	25816.689021
517.721558	26014.176223
518.085133	26098.746620
518.448651	26022.491607
518.812112	25739.720684
519.175516	25927.556597
519.538863	26100.228719
519.902152	25874.634564
520.265385	26180.594794
520.628560	25951.441584
520.991678	25975.616437
521.354739	26059.637349
521.717743	26107.982014
522.080690	25902.068523
522.443580	26228.432823
522.806413	26241.766675
523.169189	26318.780383
523.531908	26374.104526
523.894569	25978.368908
524.257174	26053.000670
524.619722	26242.946305
524.982213	25933.437103
525.344647	25998.427659
525.707025	26126.278882
526.069345	26123.317204
526.431608	26084.056698
526.793815	26259.173780
527.155964	25713.032816
527.518057	25893.738017
527.880093	25805.401878
528.242072	26042.820059
528.603995	25737.124490
528.965860	25535.629571
529.327669	25595.667193
529.689421	25581.725882
530.051117	25408.511836
530.412755	25587.523209
530.774337	25394.089094
531.135862	25268.405567
531.497331	25467.538706
531.858743	25012.332596
532.220098	25496.028787
532.581396	25184.251066
532.942638	25126.023218
533.303824	25204.642533
533.664953	25236.051442
534.026025	24897.865636
534.387040	25129.834330
534.747999	25191.270872
535.108902	25347.753329
535.469748	24858.307702
535.830537	25041.324272
536.191270	25149.832588
536.551947	25037.137593
536.912567	24706.775658
537.273131	25019.027248
537.633638	24725.337187
537.994089	24939.293838
538.354483	24495.044676
538.714821	24985.954758
539.075103	25035.295052
539.435328	24818.709438
539.795497	24365.529872
540.155609	24783.028152
540.515665	25069.169085
540.875665	24317.369209
541.235609	24585.609005
541.595496	24568.766510
541.955328	24912.999180
542.315102	24840.131822
542.674821	24384.212388
543.034483	24265.125211
543.394090	24433.086375
543.753640	24219.616195
544.113134	24858.499266
544.472571	24462.960253
544.831953	24751.846094
545.191278	24354.300702
545.550548	24295.946826
545.909761	24497.850078
546.268918	24722.877104
546.628019	24689.323184
546.987064	24377.217788
547.346053	24155.689323
547.704986	24280.793117
548.063863	24428.788791
548.422684	24439.090389
548.781449	23983.760771
549.140158	24382.153077
549.498811	23951.900679
549.857408	23692.971894
550.215949	24138.708196
550.574434	23813.319359
550.932864	24030.656105
551.291237	24177.951058
551.649555	24045.303177
552.007817	24092.153140
552.366022	23968.110509
552.724173	24023.079250
553.082267	23950.463950
553.440305	24419.954169
553.798288	23684.457385
554.156215	24218.623088
554.514086	24303.397651
554.871902	23665.900898
555.229661	23953.428148
555.587365	23816.437313
555.945014	23677.719883
556.302606	23927.713222
556.660143	23867.652916
557.017625	24130.596980
557.375050	23667.141021
557.732421	24047.780904
558.089735	23862.843655
558.446994	23918.389608
558.804197	23944.631335
559.161345	23900.808584
559.518437	23643.918946
559.875474	23846.981664
560.232455	24028.440518
560.589381	23860.756617
560.946251	23829.385517
561.303065	24153.120855
561.659825	24230.968873
562.016528	23848.962838
562.373177	23582.653803
562.729770	23934.415437
563.086307	23798.536176
563.442789	23976.090655
563.799216	23793.815135
564.155587	23817.516120
564.511904	23791.420587
564.868164	23739.791610
565.224370	23708.239028
565.580520	23620.953970
565.936615	23753.727880
566.292654	23426.672942
566.648638	23740.247834
567.004567	23554.352766
567.360441	23504.994828
567.716260	23235.613211
568.072023	23558.229413
568.427732	23333.094003
568.783385	23104.109672
569.138982	23341.921063
569.494525	23381.783987
569.850013	23123.477785
570.205445	23225.639288
570.560823	23027.544627
570.916145	22790.078555
571.271412	22968.631183
571.626625	22725.503894
571.981782	22830.579185
572.336884	22644.916009
572.691931	22775.673458
573.046923	22507.970544
573.401860	22384.769785
573.756743	22390.226834
574.111570	22299.218884
574.466342	22241.328794
574.821059	22327.650992
575.175722	22038.313967
575.530330	22013.559381
575.884882	22041.442003
576.239380	21957.438736
576.593823	21838.096980
576.948211	21817.748363
577.302544	21653.215183
577.656823	21539.055734
578.011047	21629.577213
578.365216	21503.452585
578.719330	21384.284749
579.073389	21282.758431
579.427394	21426.517015
579.781344	21200.890093
580.135239	21091.560069
580.489080	21064.894885
580.842866	20825.767753
581.196597	21013.054180
581.550273	20992.226653
581.903895	20879.629961
582.257463	21197.618384
582.610975	20730.384081
582.964434	21040.178108
583.317837	20745.996534
583.671186	20830.997950
584.024481	20807.856533
584.377721	20578.826832
584.730906	20627.355499
585.084037	20661.274903
585.437113	20563.703370
585.790135	20765.747775
586.143103	20227.715507
586.496016	20239.408464
586.848874	20483.546503
587.201679	20414.260885
587.554428	20088.289795
587.907124	20418.424878
588.259765	20205.867147
588.612352	20280.844228
588.964884	19849.623928
589.317362	20023.563900
589.669786	20069.481250
590.022155	20115.295256
590.374470	20305.061931
590.726731	20106.080027
591.078937	19856.762202
591.431090	19957.280289
591.783188	19706.555982
592.135232	19681.909780
592.487222	19789.704773
592.839157	19801.531320
593.191038	19682.146715
593.542866	19582.031920
593.894639	19290.590213
594.246358	19515.529018
594.598022	19421.047713
594.949633	19173.980763
595.301190	19126.571232
595.652692	19298.388878
596.004141	19545.039933
596.355535	18869.555564
596.706876	18874.606801
597.058162	18764.757538
597.409395	19000.081120
597.760573	19087.030941
598.111698	18857.126600
598.462768	18791.631929
598.813785	18750.785980
599.164748	18580.601667
599.515657	18606.210729
599.866511	18406.321417
600.217312	18769.347508
600.568060	18293.122307
600.918753	18603.475903
601.269392	18510.771604
601.619978	18284.678375
601.970510	18492.315940
602.320988	18439.330892
602.671412	18647.427203
603.021783	18554.014622
603.372100	18287.826575
603.722363	18418.818437
604.072572	18361.225775
604.422728	18501.143000
604.772830	18257.110825
605.122878	18210.759936
605.472872	18203.752732
605.822813	18189.541719
606.172701	18156.514600
606.522534	18357.306278
606.872314	18386.239981
607.222041	18214.417293
607.571714	18426.463347
607.921333	18262.371269
608.270899	18333.121343
608.620411	18518.300567
608.969870	18285.822717
609.319276	18284.935473
609.668627	18319.878231
610.017926	18451.280948
610.367171	18567.257733
610.716362	18609.731975
611.065500	18432.003575
611.414585	18572.107323
611.763616	18544.126398
612.112594	18490.821238
612.461518	18465.809553
612.810389	18663.710129
613.159207	18504.162651
613.507971	18425.349252
613.856682	18693.775571
614.205340	18618.730434
614.553945	18774.711296
614.902496	18513.002315
615.250994	18749.626514
615.599439	18697.495943
615.947830	18684.492286
616.296169	18721.128872
616.644454	18691.035704
616.992686	18659.778029
617.340864	18876.159476
617.688990	18639.905801
618.037063	18810.790834
618.385082	18651.102204
618.733048	18940.799671
619.080961	18814.090269
619.428821	18848.516309
619.776628	18732.990707
620.124382	18652.743099
620.472083	18690.130817
620.819731	18719.177945
621.167326	18416.413807
621.514868	18455.210527
621.862357	18215.833857
622.209793	18224.981031
622.557176	18059.573211
622.904506	17889.807314
623.251783	17801.503943
623.599007	17565.441832
623.946179	17506.530908
624.293297	17452.477136
624.640363	17207.507306
624.987376	17226.872898
625.334336	17011.245104
625.681243	16868.073815
626.028097	16870.614556
626.374899	16800.882796
626.721647	16666.646951
627.068343	16487.151627
627.414987	16431.668688
627.761577	16399.559058
628.108115	16444.039679
628.454600	16163.335630
628.801032	16260.498830
629.147412	16194.220259
629.493739	16210.480501
629.840014	16022.415216
630.186236	16123.296266
630.532405	15879.947167
630.878521	16082.278918
631.224585	15981.765872
631.570597	15794.834846
631.916556	15829.951524
632.262462	15802.739375
632.608316	15721.251644
632.954117	15668.269117
633.299866	15665.594785
633.645562	15585.049749
633.991206	15337.629918
634.336797	15196.621284
634.682336	15177.056566
635.027823	15066.793928
635.373257	14950.265136
635.718639	14844.615155
636.063968	14796.560356
636.409245	14551.542635
636.754470	14582.812912
637.099642	14419.232511
637.444762	14192.173900
637.789829	14236.404984
638.134845	14077.522938
638.479808	14102.138893
638.824719	14045.546900
639.169577	13909.357608
639.514383	13951.491572
639.859137	13770.768727
640.203839	13853.647817
640.548489	13692.285523
640.893086	13676.645343
641.237632	13541.754149
641.582125	13705.102657
641.926566	13535.608982
642.270955	13539.951936
642.615292	13510.448583
642.959576	13515.676260
643.303809	13549.459552
643.647990	13479.629489
643.992118	13536.700392
644.336195	13310.536587
644.680219	13511.847504
645.024192	13442.806381
645.368112	13677.976208
645.711981	13742.200508
646.055797	13909.571857
646.399562	13875.463410
646.743274	14158.128468
647.086935	14426.136371
647.430544	14391.546494
647.774101	14424.278706
648.117606	14573.895111
648.461059	14542.977714
648.804460	14536.406570
649.147810	14260.292492
649.491108	14164.210620
649.834354	14180.717878
650.177548	13879.324934
650.520690	13684.393597
650.863781	13599.712295
651.206820	13645.695179
651.549807	13477.446670
651.892742	13279.394859
652.235626	13221.580386
652.578458	13224.930233
652.921238	12904.174216
653.263967	13111.680711
653.606644	12930.907455
653.949269	12911.090679
654.291843	12716.555073
654.634365	12875.527859
654.976836	12723.106052
655.319255	12732.601066
655.661622	12691.379551
656.003938	12604.412085
656.346203	12538.587219
656.688416	12609.647323
657.030577	12564.652505
657.372687	12485.975217
657.714746	12453.805093
658.056753	12652.666010
658.398708	12461.104684
658.740612	12464.341105
659.082465	12563.339284
659.424266	12534.831559
659.766016	12552.737738
660.107715	12467.373359
660.449362	12539.731561
660.790958	12499.755211
661.132503	12436.277001
661.473996	12506.901046
661.815438	12527.141279
662.156829	12536.243082
662.498168	12519.458560
662.839456	12514.790452
663.180693	12533.684697
663.521879	12623.815486
663.863013	12602.793875
664.204097	12577.194895
664.545129	12696.423225
664.886110	12677.884382
665.227040	12765.643308
665.567918	12759.997216
665.908746	12794.874439
666.249522	12783.584775
666.590248	12822.197493
666.930922	12944.342130
667.271545	12923.078543
667.612118	13005.715657
667.952639	12912.300556
668.293109	12926.088112
668.633528	12877.433416
668.973896	12854.450795
669.314213	12939.137139
669.654480	12669.513546
669.994695	12737.896798
670.334859	12764.115839
670.674973	12713.621121
671.015035	12746.144125
671.355047	12693.721167
671.695008	12654.909323
672.034918	12666.962722
672.374777	12711.735730
672.714585	12622.277934
673.054342	12655.630208
673.394049	12604.407044
673.733705	12704.176520
674.073310	12613.362654
674.412864	12627.114921
674.752368	12497.993327
675.091820	12510.903722
675.431223	12505.282836
675.770574	12369.524563
676.109875	12288.382150
676.449125	12250.959145
676.788324	12193.923530
677.127473	12034.023171
677.466571	12018.224195
677.805619	11915.525809
678.144616	11834.741319
678.483562	11807.072946
678.822458	11677.232987
679.161303	11652.412866
679.500098	11646.229891
679.838842	11596.894639
680.177535	11617.560849
680.516179	11679.067967
680.854771	11627.348249
681.193314	11839.351454
681.531805	11996.587563
681.870247	12410.234401
682.208638	12824.564315
682.546978	13138.580308
682.885268	13188.492772
683.223508	12877.501471
683.561697	12724.215106
683.899836	12624.150723
684.237925	12424.737800
684.575963	12343.106396
684.913951	12267.930189
685.251889	12206.957433
685.589776	12303.561065
685.927614	12233.486506
686.265401	12199.519211
686.603137	12243.601581
686.940824	12388.751523
687.278460	12511.909433
687.616046	12558.514900
687.953582	12741.758322
688.291068	12655.161381
688.628504	12884.634704
688.965889	12907.735791
689.303224	12869.425543
689.640510	12761.106270
689.977745	12444.587343
690.314930	12228.185732
690.652065	12138.085190
690.989150	11852.884431
691.326185	11625.808177
691.663170	11414.833368
692.000105	11175.066009
692.336990	11058.186857
692.673825	10812.370113
693.010610	10690.369149
693.347345	10478.373506
693.684030	10276.969328
694.020665	10215.868022
694.357251	10030.320793
694.693786	9972.052617
695.030272	9809.704777
695.366707	9691.870327
695.703093	9619.865006
696.039429	9616.376528
696.375716	9540.618067
696.711952	9404.857274
697.048139	9444.763048
697.384276	9398.407118
697.720363	9419.658102
698.056400	9354.027320
698.392388	9309.017378
698.728326	9265.907950
699.064214	9202.013846
699.400053	9251.470086
699.735842	9070.585924
700.071581	9025.303760
700.407270	8947.740567
700.742910	8876.453610
701.078501	8775.675903
701.414042	8654.599991
701.749533	8590.030372
702.084974	8441.021426
702.420366	8557.729179
702.755709	8445.230789
703.091002	8309.543093
703.426246	8334.090991
703.761440	8294.822923
704.096584	8248.091427
704.431679	8177.021240
704.766725	8161.824682
705.101721	8118.218701
705.436668	8162.248139
705.771565	8054.730410
706.106413	8129.420145
706.441212	8181.215480
706.775961	8128.333776
707.110661	8164.171339
707.445311	8313.807909
707.779913	8206.091054
708.114465	8340.571394
708.448967	8372.000468
708.783421	8511.214452
709.117825	8707.453968
709.452180	8732.505983
709.786485	8826.339500
710.120742	9106.121018
710.454949	9105.563970
710.789107	9205.663641
711.123216	9414.601824
711.457275	9588.672867
711.791286	9745.309078
712.125247	9737.001257
712.459159	9728.874917
712.793023	9985.121808
713.126837	9547.330364
713.460602	9706.424138
713.794318	9529.008290
714.127985	9562.718486
714.461602	9234.841840
714.795171	9189.600005
715.128691	8944.602448
715.462162	8691.463428
715.795584	8638.821179
716.128957	8489.930701
716.462281	8321.339393
716.795556	8365.076443
717.128782	8157.935432
717.461960	7895.760144
717.795088	7971.034653
718.128167	7877.289356
718.461198	7711.213584
718.794180	7642.328737
719.127113	7639.293962
719.459997	7490.053123
719.792833	7261.250274
720.125619	7319.916702
720.458357	7180.173396
720.791046	7167.010944
721.123686	7166.826942
721.456278	7003.445666
721.788821	7020.131885
722.121315	6919.873417
722.453761	6984.317008
722.786158	6931.256343
723.118506	6942.442663
723.450805	6910.126347
723.783056	6971.494833
724.115259	6882.006790
724.447412	6878.044443
724.779518	6928.334994
725.111574	6923.692092
725.443582	7002.389544
725.775542	6983.646534
726.107453	7176.861358
726.439315	7081.896102
726.771129	7143.788868
727.102895	7318.265724
727.434612	7426.486694
727.766281	7459.072712
728.097901	7545.886423
728.429473	7531.877056
728.760996	7507.266143
729.092471	7485.584140
729.423897	7432.079854
729.755276	7445.212060
730.086606	7365.806325
730.417887	7467.683003
730.749120	7660.113928
731.080305	7850.604008
731.411442	7976.463976
731.742530	7969.318140
732.073570	8075.915859
732.404562	8162.061616
732.735506	8015.187599
733.066401	8156.642376
733.397249	8087.515554
733.728048	7851.050150
734.058798	7516.098245
734.389501	7288.691795
734.720156	7112.415247
735.050762	6880.590226
735.381320	6787.578417
735.711831	6734.361477
736.042293	6627.292410
736.372707	6641.992415
736.703073	6505.843452
737.033391	6539.236055
737.363661	6555.597120
737.693883	6584.540905
738.024056	6668.481158
738.354182	6708.283588
738.684260	6746.321614
739.014290	6855.616350
739.344272	6972.886191
739.674207	6995.011816
740.004093	7064.536889
740.333931	7082.717810
740.663722	7086.715445
740.993464	7170.484299
741.323159	7162.274780
741.652806	6908.792961
741.982405	6917.617501
742.311956	6974.229659
742.641460	6816.736451
742.970915	6616.985771
743.300323	6609.895388
743.629683	6560.550054
743.958996	6427.110711
744.288260	6336.117884
744.617477	6288.829341
744.946647	6291.390247
745.275768	6123.358507
745.604842	6079.732362
745.933869	6066.181740
746.262847	6013.105952
746.591778	6007.490106
746.920662	5964.834383
747.249498	5959.324402
747.578286	6006.302915
747.907027	6079.036682
748.235720	6143.444984
748.564365	6114.528926
748.892963	6134.156658
749.221514	6297.215300
749.550017	6130.254805
749.878473	5997.420402
750.206881	6057.170678
750.535242	5998.262274
750.863555	5925.815852
751.191821	5945.677998
751.520039	5948.725376
751.848210	5851.466395
752.176334	5875.714345
752.504411	5926.584628
752.832440	5854.791036
753.160421	5782.395025
753.488356	5829.335729
753.816243	5865.924424
754.144082	5712.312905
754.471875	5682.738976
754.799620	5731.426439
755.127318	5739.988839
755.454969	5690.840110
755.782572	5656.151930
756.110129	5699.609197
756.437638	5684.228637
756.765100	5627.760152
757.092515	5626.507425
757.419882	5675.094066
757.747203	5657.565974
758.074477	5718.241302
758.401703	5710.551021
758.728882	5652.492052
759.056014	5708.771494
759.383099	5844.585220
759.710138	5856.777250
760.037129	5838.671946
760.364073	5838.056926
760.690970	5924.268218
761.017820	5908.491927
761.344623	5857.604000
761.671379	5961.522345
761.998088	6074.807154
762.324751	6322.358055
762.651366	6913.508961
762.977935	8218.275523
763.304456	9844.486218
763.630931	10757.295507
763.957359	10366.603563
764.283740	9434.887427
764.610074	8599.633770
764.936362	7603.665608
765.262602	7004.894998
765.588796	6467.807946
765.914943	6125.044773
766.241044	5970.467873
766.567097	5770.961688
766.893104	5508.330176
767.219064	5330.934493
767.544978	5269.019041
767.870845	5192.222103
768.196665	5087.587914
768.522438	5014.362634
768.848165	4978.567921
769.173846	4913.902520
769.499479	4870.203278
769.825066	4817.119928
770.150607	4758.763531
770.476101	4732.710848
770.801548	4728.872009
771.126949	4654.618334
771.452303	4605.204944
771.777611	4559.096030
772.102872	4576.775357
772.428087	4542.775295
772.753256	4501.490765
773.078378	4457.453766
773.403453	4383.679000
773.728482	4372.638873
774.053465	4323.792613
774.378401	4313.652332
774.703291	4313.992610
775.028135	4243.020725
775.352932	4194.033313
775.677683	4177.072351
776.002388	4202.215105
776.327046	4209.764233
776.651658	4134.751864
776.976224	4073.090991
777.300743	4083.770675
777.625216	4103.075774
777.949643	4092.854834
778.274024	4050.461251
778.598359	4006.996423
778.922647	4029.853014
779.246889	4021.648536
779.571086	4018.580994
779.895236	4002.676154
780.219339	3987.489678
780.543397	3981.510869
780.867409	4031.446019
781.191374	4046.468657
781.515294	3987.638392
781.839167	3979.000375
782.162995	3998.791945
782.486776	3984.041529
782.810511	3991.699041
783.134201	3992.606449
783.457844	3946.011064
783.781441	3888.468813
784.104993	3894.543404
784.428498	3916.311106
784.751958	3915.088626
785.075372	3890.341602
785.398739	3852.850541
785.722061	3864.367057
786.045337	3910.118049
786.368568	3942.462092
786.691752	3852.112012
787.014891	3903.617481
787.337983	4025.930997
787.661030	4188.445194
787.984031	4346.835727
788.306987	4516.215976
788.629897	4601.068677
788.952760	4559.453952
789.275579	4491.665556
789.598351	4424.522428
789.921078	4284.390954
790.243759	4087.342333
790.566395	4066.885330
790.888984	4062.633117
791.211529	3955.649750
791.534027	3893.719175
791.856480	3882.048904
792.178888	3824.579750
792.501249	3774.415228
792.823566	3786.166158
793.145836	3813.572391
793.468062	3762.500461
793.790241	3714.982545
794.112375	3745.035384
794.434464	3808.059889
794.756507	3831.828929
795.078505	3815.120025
795.400457	3848.782330
795.722364	3987.401458
796.044226	4091.034978
796.366042	4163.332686
796.687812	4144.393071
797.009538	4152.794154
797.331218	4110.534161
797.652852	4080.413267
797.974442	4063.308632
798.295986	4062.179413
798.617484	3978.990292
798.938938	3893.454515
799.260346	3933.118313
799.581709	3926.756377
799.903026	3857.586705
800.224299	3821.449194
800.545526	3812.914520
800.866708	3776.426649
801.187845	3711.844427
801.508936	3746.416660
801.829983	3749.133842
802.150984	3669.448323
802.471940	3659.297960
802.792851	3668.016635
803.113717	3670.910258
803.434538	3671.525278
803.755314	3614.214921
804.076045	3588.671394
804.396731	3607.689147
804.717372	3636.640494
805.037967	3620.632310
805.358518	3610.096298
805.679024	3637.394146
805.999485	3650.286897
806.319901	3654.652536
806.640272	3665.123013
806.960598	3684.332330
807.280879	3656.845438
807.601115	3667.436902
807.921306	3685.423739
808.241453	3724.359091
808.561554	3699.239022
808.881611	3635.170997
809.201623	3670.711132
809.521590	3681.022812
809.841513	3651.559788
810.161390	3685.552289
810.481223	3660.888444
810.801011	3608.157974
811.120755	3600.510544
811.440453	3638.437665
811.760107	3638.535967
812.079716	3599.540122
812.399281	3569.164649
812.718801	3587.892536
813.038276	3563.221129
813.357707	3562.903536
813.677093	3577.462389
813.996434	3525.316693
814.315731	3532.079401
814.634983	3535.875390
814.954191	3550.865261
815.273354	3576.801997
815.592473	3575.818972
815.911547	3580.713933
816.230577	3621.252372
816.549562	3672.508303
816.868502	3716.661249
817.187399	3739.306112
817.506250	3735.046337
817.825058	3710.453068
818.143821	3796.258548
818.462539	3901.094383
818.781213	3946.195066
819.099843	4003.248325
819.418429	4244.260849
819.736970	4487.478878
820.055466	4729.229931
820.373919	5096.878761
820.692327	5501.164176
821.010691	5941.302277
821.329011	7308.183416
821.647286	10028.989929
821.965517	14579.304269
822.283704	18611.771121
822.601847	20784.140425
822.919945	18991.478391
823.237999	16401.724234
823.556010	13920.243980
823.873976	11834.564878
824.191897	9742.861598
824.509775	8390.745999
824.827609	7270.939371
825.145398	6725.889818
825.463144	6605.219718
825.780845	6720.223561
826.098502	6903.351036
826.416116	7772.708099
826.733685	9093.470242
827.051210	10209.979955
827.368692	10263.045661
827.686129	9014.601390
828.003522	7498.421439
828.320872	6483.803527
828.638177	5787.952898
828.955439	5225.100509
829.272656	4731.264037
829.589830	4447.598310
829.906960	4272.947535
830.224046	4087.533897
830.541088	3965.308601
830.858086	3916.147269
831.175041	3837.979137
831.491952	3821.620593
831.808819	3835.314887
832.125642	3902.788211
832.442421	4051.151889
832.759157	4322.507118
833.075849	4867.050036
833.392497	5732.787551
833.709101	6502.904459
834.025662	6841.717889
834.342179	6485.356203
834.658653	5824.362631
834.975083	5179.495711
835.291469	4606.777784
835.607811	4198.028427
835.924110	4054.380748
836.240366	3861.425544
836.556578	3657.949451
836.872746	3544.591545
837.188871	3508.254908
837.504952	3441.683951
837.820990	3359.356868
838.136984	3314.994714
838.452935	3335.605471
838.768842	3331.731344
839.084706	3355.437370
839.400526	3510.263808
839.716303	3847.020447
840.032037	4370.025035
840.347727	4634.925066
840.663373	4360.141852
840.978977	3977.886280
841.294537	3671.114424
841.610054	3445.863068
841.925527	3339.151923
842.240957	3268.278341
842.556344	3215.084086
842.871687	3158.590395
843.186987	3105.832199
843.502244	3069.104873
843.817458	3038.028680
844.132629	3007.343177
844.447756	3013.077489
844.762840	2998.742968
845.077881	2968.012094
845.392879	2951.330916
845.707833	2945.994855
846.022745	2943.789350
846.337613	2948.432253
846.652438	2932.678647
846.967221	2932.237546
847.281960	2917.577871
847.596656	2912.831624
847.911309	2913.456728
848.225919	2906.242836
848.540485	2898.567680
848.855009	2901.708318
849.169490	2892.329252
849.483928	2882.047818
849.798323	2881.021944
850.112675	2877.888867
850.426984	2889.818757
850.741251	2886.915053
851.055474	2878.513970
851.369654	2871.385778
851.683792	2875.927858
851.997887	2885.193498
852.311938	2888.276164
852.625947	2876.343753
852.939914	2882.395658
853.253837	2881.679814
853.567718	2867.274717
853.881555	2867.879656
854.195350	2882.584701
854.509103	2877.651932
854.822812	2869.477701
855.136479	2870.904348
855.450103	2868.807228
855.763685	2865.348996
856.077224	2859.150898
856.390720	2873.014071
856.704173	2882.751059
857.017584	2876.459699
857.330953	2869.870911
857.644278	2881.231152
857.957561	2889.337327
858.270802	2894.270096
858.584000	2893.024931
858.897155	2880.727036
859.210268	2876.772251
859.523339	2875.259905
859.836367	2876.558002
860.149352	2872.774616
860.462295	2865.830427
860.775195	2874.745707
861.088054	2876.076572
861.400869	2856.285002
861.713642	2854.744929
862.026373	2869.318905
862.339062	2869.951570
862.651708	2879.975904
862.964312	2884.339023
863.276873	2873.087168
863.589392	2885.112840
863.901869	2897.229253
864.214303	2919.107861
864.526696	2932.945828
864.839045	2928.968358
865.151353	2927.715631
865.463619	2925.641196
865.775842	2927.181269
866.088023	2947.562654
866.400162	2955.452060
866.712258	2925.260589
867.024313	2912.037643
867.336325	2920.610125
867.648296	2946.022581
867.960224	2937.389605
868.272110	2925.343768
868.583954	2928.428954
868.895755	2943.375976
869.207515	2929.243101
869.519233	2931.829213
869.830909	2944.968980
870.142542	2951.388890
870.454134	2953.617080
870.765684	2955.114302
871.077191	2954.736216
871.388657	2962.169397
871.700081	2976.524083
872.011463	2984.325268
872.322803	2990.518326
872.634101	2987.571771
872.945357	3007.154133
873.256571	3029.972916
873.567744	3022.156607
873.878874	3015.008251
874.189963	3038.119421
874.501010	3042.767365
874.812015	3029.657844
875.122979	3029.733462
875.433900	3026.880168
875.744780	3030.668596
876.055618	3041.970863
876.366415	3037.630429
876.677169	3049.393962
876.987882	3044.015050
877.298554	3039.906510
877.609183	3058.798234
877.919771	3082.574836
878.230317	3109.497118
878.540822	3162.875376
878.851285	3199.779142
879.161707	3242.593662
879.472087	3343.129393
879.782425	3566.018969
880.092722	4003.056761
880.402977	4528.047564
880.713191	5155.850178
881.023363	6307.511857
881.333494	7588.542146
881.643583	8144.115108
881.953631	7850.742640
882.263637	7220.290899
882.573602	6634.917155
882.883526	6055.829731
883.193408	5482.857226
883.503248	5024.258419
883.813048	4720.932192
884.122806	4414.833331
884.432522	4101.550825
884.742197	3866.741440
885.051831	3674.912934
885.361424	3540.051986
885.670975	3467.529947
885.980485	3381.369066
886.289954	3304.670431
886.599382	3260.779625
886.908768	3226.363667
887.218113	3178.729805
887.527417	3123.486320
887.836680	3076.699371
888.145901	3069.634194
888.455082	3058.452915
888.764221	3008.008609
889.073319	2978.631285
889.382376	2977.071048
889.691392	2979.846203
890.000366	2976.322437
890.309300	2966.532516
890.618193	2981.323261
890.927044	2993.895899
891.235855	2998.911847
891.544625	2982.676811
891.853353	2991.753408
892.162041	3011.010616
892.470687	3049.033519
892.779293	3099.077053
893.087858	3148.316523
893.396381	3220.296639
893.704864	3338.962880
894.013306	3579.705702
894.321707	3876.634705
894.630068	4086.800409
894.938387	4083.506015
895.246665	4039.332904
895.554903	3917.747835
895.863100	3719.020509
896.171256	3550.093964
896.479371	3410.272521
896.787446	3289.373049
897.095480	3189.676670
897.403473	3122.646968
897.711425	3085.584405
898.019336	3078.819177
898.327207	3048.988149
898.635038	3011.797036
898.942827	3000.298164
899.250576	2988.138901
899.558284	2956.427523
899.865952	2935.373144
900.173579	2916.327665
900.481165	2906.197466
900.788711	2897.551887
901.096216	2874.380223
901.403681	2859.995291
901.711105	2867.622557
902.018489	2865.215406
902.325832	2865.162474
902.633135	2874.652446
902.940397	2906.396592
903.247619	2989.068994
903.554800	3180.237110
903.861941	3523.267464
904.169041	3945.572484
904.476101	4249.768310
904.783121	4205.353224
905.090100	3961.618476
905.397039	3687.911549
905.703938	3437.295627
906.010796	3254.954571
906.317614	3142.183960
906.624391	3048.360525
906.931129	2979.009372
907.237826	2917.986204
907.544483	2870.183463
907.851099	2837.932681
908.157675	2818.917449
908.464211	2797.437092
908.770707	2786.452418
909.077163	2770.441713
909.383578	2757.296905
909.689954	2747.857344
909.996289	2744.988928
910.302584	2744.827611
910.608839	2748.225348
910.915054	2741.006416
911.221229	2736.202197
911.527363	2736.381157
911.833458	2742.241499
912.139513	2747.252406
912.445527	2749.755339
912.751502	2759.351175
913.057436	2768.200921
913.363331	2784.002417
913.669186	2802.087557
913.975000	2835.041579
914.280775	2895.974006
914.586510	2966.038483
914.892205	3041.912889
915.197859	3172.007426
915.503475	3365.655789
915.809050	3577.938778
916.114585	3724.921180
916.420081	3746.348604
916.725536	3684.932227
917.030952	3565.605595
917.336328	3440.532047
917.641665	3307.274187
917.946961	3209.248950
918.252218	3138.655152
918.557435	3061.921229
918.862612	3005.097343
919.167750	2951.797223
919.472848	2914.462438
919.777906	2887.772049
920.082925	2863.186341
920.387904	2831.658965
920.692843	2812.409319
920.997743	2801.391877
921.302603	2788.915022
921.607423	2777.254833
921.912204	2767.593462
922.216946	2757.012080
922.521647	2746.264340
922.826310	2739.211765
923.130932	2732.996023
923.435516	2724.294991
923.740059	2716.188816
924.044564	2707.618854
924.349028	2704.906713
924.653454	2695.880527
924.957840	2690.587316
925.262186	2687.257634
925.566493	2683.471727
925.870761	2679.466531
926.174989	2676.943433
926.479178	2668.718791
926.783328	2662.407266
927.087438	2663.188645
927.391509	2665.714263
927.695541	2659.042296
927.999533	2657.277892
928.303486	2652.587098
928.607400	2653.600370
928.911275	2650.797489
929.215110	2650.258085
929.518906	2649.055770
929.822663	2650.220277
930.126381	2648.949906
930.430060	2651.989722
930.733699	2649.494350
931.037299	2649.912766
931.340861	2651.760349
931.644383	2655.828560
931.947866	2652.095586
932.251309	2650.333702
932.554714	2650.961326
932.858080	2648.536531
933.161407	2646.814977
933.464694	2644.307003
933.767943	2639.500263
934.071153	2647.281284
934.374323	2642.731642
934.677455	2644.057466
934.980548	2644.281797
935.283602	2641.148720
935.586617	2643.951602
935.889593	2642.048566
936.192530	2639.343987
936.495428	2642.731643
936.798287	2644.133083
937.101108	2647.281284
937.403890	2651.162972
937.706632	2657.051040
938.009336	2661.756957
938.312002	2671.083092
938.614628	2680.270595
938.917216	2684.984073
939.219765	2686.917356
939.522275	2686.314938
939.824747	2683.375945
940.127179	2679.655574
940.429573	2679.189267
940.731929	2674.500994
941.034246	2671.980417
941.336524	2669.779953
941.638763	2665.036228
941.940964	2665.459685
942.243126	2663.357523
942.545250	2660.645383
942.847335	2658.341575
943.149381	2654.424599
943.451389	2650.106851
943.753359	2650.121974
944.055290	2647.813126
944.357182	2644.375059
944.659036	2644.415388
944.960851	2645.216931
945.262628	2646.676345
945.564367	2642.454379
945.866067	2645.345481
946.167729	2645.794143
946.469352	2641.972949
946.770937	2644.123001
947.072484	2642.645943
947.373992	2642.086375
947.675462	2640.821045
947.976893	2636.510859
948.278286	2634.817031
948.579641	2635.946249
948.880958	2632.994654
949.182236	2635.293420
949.483476	2634.199490
949.784678	2635.308543
950.085841	2635.467340
950.386967	2633.869294
950.688054	2635.300982
950.989103	2638.973462
951.290114	2639.386837
951.591087	2638.187042
951.892021	2643.185346
952.192917	2644.896818
952.493776	2647.949237
952.794596	2648.854124
953.095378	2646.608290
953.396122	2645.620224
953.696828	2642.353556
953.997496	2644.395223
954.298126	2642.250212
954.598718	2639.442290
954.899272	2634.638070
955.199788	2634.295272
955.500266	2630.864766
955.800706	2630.350569
956.101108	2625.571555
956.401472	2625.069960
956.701798	2624.039044
957.002087	2619.098713
957.302337	2619.048302
957.602550	2619.749022
957.902724	2620.394290
958.202861	2614.072683
958.502960	2615.045626
958.803022	2615.920266
959.103045	2612.116715
959.403031	2611.910028
959.702979	2612.671242
960.002889	2609.941457
960.302762	2614.198712
960.602596	2612.446911
960.902393	2609.616303
961.202153	2607.367948
961.501875	2611.713423
961.801559	2609.684358
962.101205	2608.587908
962.400814	2612.837600
962.700385	2610.155706
962.999918	2605.054059
963.299414	2603.019953
963.598873	2604.733945
963.898293	2604.418873
964.197677	2607.466251
964.497022	2604.441558
964.796331	2606.594131
965.095601	2606.997423
965.394835	2607.761158
965.694030	2608.328288
965.993189	2607.415839
966.292309	2605.084306
966.591393	2608.865171
966.890439	2605.777464
967.189447	2608.784512
967.488419	2607.337701
967.787353	2605.681682
968.086249	2603.864346
968.385108	2607.312496
968.683930	2603.982813
968.982714	2604.804522
969.281462	2605.139758
969.580172	2608.953391
969.878844	2607.388113
970.177480	2606.838627
970.476078	2605.565736
970.774639	2606.800818
971.073162	2605.999275
971.371649	2608.456837
971.670098	2609.341560
971.968510	2608.466920
972.266885	2607.007506
972.565223	2608.343412
972.863524	2608.237547
973.161788	2611.088320
973.460014	2605.767382
973.758204	2608.413988
974.056356	2606.115222
974.354471	2606.276538
974.652550	2605.863164
974.950591	2608.010695
975.248595	2606.175715
975.546563	2609.661673
975.844493	2604.713781
976.142386	2606.452979
976.440243	2603.037597
976.738062	2605.288472
977.035845	2605.248143
977.333590	2607.504059
977.631299	2603.481219
977.928971	2602.679675
978.226606	2598.906372
978.524204	2602.755292
978.821765	2598.843357
979.119290	2605.621188
979.416777	2603.587083
979.714228	2605.563215
980.011642	2604.290324
980.309020	2602.173039
980.606360	2604.665890
980.903664	2603.130858
981.200931	2603.569439
981.498162	2606.014398
981.795356	2608.736622
982.092513	2607.962804
982.389633	2611.529421
982.686717	2613.278701
982.983764	2618.980246
983.280775	2623.784466
983.577749	2622.186420
983.874686	2619.796913
984.171587	2620.127109
984.468451	2615.973198
984.765279	2612.726695
985.062070	2612.764503
985.358824	2612.426746
985.655543	2609.850717
985.952224	2607.511621
986.248869	2608.141765
986.545478	2606.715119
986.842050	2605.079264
987.138586	2603.272011
987.435086	2601.270673
987.731549	2604.975921
988.027975	2600.945518
988.324366	2601.764706
988.620719	2601.908379
988.917037	2600.161619
989.213318	2602.107504
989.509563	2600.885024
989.805772	2602.082298
990.101944	2598.866042
990.398080	2602.445262
990.694180	2600.360744
990.990244	2601.812597
991.286271	2602.029366
991.582262	2602.145313
991.878217	2601.399222
992.174136	2602.825869
992.470019	2598.830754
992.765865	2599.183635
993.061676	2596.723552
993.357450	2599.307143
993.653188	2596.390836
993.948890	2601.018615
994.244556	2602.130189
994.540186	2599.947370
994.835780	2604.411312
995.131337	2600.728749
995.426859	2601.691609
995.722345	2604.219748
996.017795	2603.080447
996.313208	2606.311827
996.608586	2605.953905
996.903928	2606.732763
997.199234	2608.965994
997.494504	2607.337701
997.789738	2602.104984
998.084936	2604.678493
998.380099	2605.157402
998.675225	2603.584562
998.970316	2604.610437
999.265371	2603.758482
999.560390	2603.335025
999.855373	2603.854264
1000.150320	2600.882504
1000.445232	2602.561208
1000.740108	2601.230343
1001.034948	2602.205807
1001.329752	2599.072730
1001.624521	2600.655652
1001.919254	2600.630446
1002.213951	2597.706577
1002.508613	2600.466609
1002.803239	2600.799325
1003.097829	2597.474684
1003.392384	2601.590786
1003.686903	2599.629777
1003.981386	2598.409818
1004.275834	2599.037442
1004.570246	2598.626587
1004.864623	2601.046341
1005.158964	2600.270004
1005.453270	2597.431834
1005.747540	2598.465271
1006.041775	2598.979468
1006.335974	2598.346803
1006.630138	2600.471650
1006.924266	2601.585745
1007.218359	2599.528954
1007.512416	2595.163315
1007.806438	2596.940322
1008.100425	2596.365630
1008.394376	2592.804055
1008.688292	2598.649273
1008.982172	2595.122986
1009.276017	2597.426793
1009.569827	2598.568614
1009.863602	2596.169025
1010.157341	2598.412338
1010.451045	2597.925867
1010.744714	2599.292020
1011.038347	2598.815631
1011.331945	2598.351845
1011.625508	2598.717328
1011.919036	2597.978799
1012.212528	2597.273038
1012.505986	2598.492997
1012.799408	2598.435024
1013.092795	2596.980651
1013.386147	2598.039293
1013.679464	2597.421752
1013.972745	2598.321598
1014.265992	2598.162801
1014.559204	2596.408480
1014.852380	2597.298243
1015.145521	2597.545260
1015.438628	2594.513006
1015.731699	2596.194231
1016.024736	2598.855960
1016.317737	2597.986361
1016.610703	2596.383274
1016.903635	2598.929057
1017.196531	2597.804879
1017.489393	2597.625918
1017.782219	2597.825044
1018.075011	2594.787749
1018.367768	2597.358737
1018.660490	2598.407297
1018.953177	2598.407297
1019.245829	2598.407297
