Dividing Wavelength (nm)	Counts (n)	Blue Motor Position (mm): 15.000000	Red Motor Position (mm): 0.000000	
326.493990	2174.968018
326.888308	2174.968018
327.282561	2174.968018
327.676750	2134.175001
328.070874	2130.046296
328.464933	2131.145268
328.858929	2132.493777
329.252859	2137.943264
329.646726	2145.822587
330.040528	2157.913795
330.434265	2170.451144
330.827938	2190.933353
331.221547	2208.353060
331.615091	2224.376367
332.008571	2241.912021
332.401986	2262.127048
332.795338	2280.343257
333.188625	2299.867646
333.581847	2319.792807
333.975006	2334.079437
334.368100	2353.339165
334.761129	2369.634695
335.154095	2391.777963
335.546996	2410.253792
335.939833	2437.637339
336.332606	2451.412292
336.725315	2463.957204
337.117960	2478.143011
337.510540	2488.114413
337.903056	2500.878614
338.295508	2509.362876
338.687896	2520.866789
339.080220	2525.872655
339.472480	2530.596216
339.864676	2536.786753
340.256807	2543.499050
340.648875	2546.198587
341.040879	2550.995245
341.432818	2549.871068
341.824694	2556.966492
342.216506	2557.705021
342.608253	2556.038920
342.999937	2558.335165
343.391557	2556.333827
343.783113	2555.807027
344.174605	2554.786193
344.566033	2553.084804
344.957397	2555.691080
345.348697	2549.286294
345.739934	2552.114382
346.131106	2548.648588
346.522215	2545.288659
346.913260	2546.372507
347.304241	2546.276725
347.695159	2542.258926
348.086012	2539.874460
348.476802	2540.086188
348.867528	2535.138296
349.258191	2532.771474
349.648789	2529.381298
350.039324	2527.291740
350.429796	2532.388347
350.820203	2528.511699
351.210548	2526.704446
351.600828	2525.766791
351.991045	2526.611184
352.381198	2523.873838
352.771288	2522.542973
353.161314	2523.886441
353.551276	2524.050278
353.941175	2523.717562
354.331010	2522.167407
354.720782	2522.900895
355.110490	2522.064063
355.500135	2522.608508
355.889717	2522.328724
356.279235	2522.391738
356.668689	2522.734537
357.058080	2520.229083
357.447408	2522.666481
357.836672	2522.971471
358.225873	2524.728313
358.615010	2522.464835
359.004084	2525.169414
359.393095	2524.935001
359.782043	2527.637059
360.170927	2524.420803
360.559748	2528.305012
360.948505	2529.340969
361.337199	2527.531195
361.725830	2529.280475
362.114398	2525.461801
362.502903	2530.099663
362.891344	2529.928263
363.279722	2529.610671
363.668037	2530.150074
364.056289	2532.345497
364.444478	2532.219468
364.832603	2531.274252
365.220665	2534.036804
365.608665	2532.148892
365.996601	2532.607637
366.384474	2534.359438
366.772284	2536.771630
367.160031	2532.403470
367.547715	2535.544109
367.935336	2533.588141
368.322893	2533.759540
368.710388	2530.949097
369.097820	2534.790456
369.485189	2532.595034
369.872495	2536.960673
370.259738	2533.837678
370.646918	2539.125849
371.034035	2537.053934
371.421090	2537.996630
371.808081	2538.407484
372.195010	2538.004192
372.581875	2537.936136
372.968678	2539.226672
373.355418	2538.241126
373.742096	2538.208359
374.128710	2538.039480
374.515262	2540.814635
374.901751	2539.451003
375.288177	2539.773637
375.674540	2540.769265
376.060841	2538.594007
376.447079	2538.667104
376.833254	2543.766231
377.219367	2540.930582
377.605417	2543.320089
377.991404	2542.848741
378.377329	2542.997455
378.763191	2540.882691
379.148991	2541.379244
379.534727	2541.989224
379.920402	2542.309337
380.306013	2544.323278
380.691563	2545.518032
381.077049	2539.390509
381.462474	2544.676159
381.847835	2542.667259
382.233134	2544.224976
382.618371	2543.486447
383.003545	2545.366797
383.388657	2543.451159
383.773706	2544.784544
384.158693	2543.962836
384.543618	2545.691952
384.928480	2545.023999
385.313280	2545.437373
385.698017	2545.069369
386.082692	2546.755635
386.467305	2546.609442
386.851856	2547.088351
387.236344	2545.694472
387.620770	2544.388813
388.005133	2541.643905
388.389435	2544.971067
388.773674	2544.280428
389.157851	2547.219421
389.541965	2547.315203
389.926018	2550.581871
390.310008	2549.878630
390.693936	2548.273022
391.077802	2546.251520
391.461606	2549.772766
391.845348	2548.784699
392.229027	2547.242106
392.612645	2548.174720
392.996200	2550.670091
393.379694	2552.510112
393.763125	2547.801674
394.146494	2549.177909
394.529801	2551.885009
394.913047	2552.515153
395.296230	2551.547252
395.679351	2548.477189
396.062410	2552.454659
396.445408	2551.000287
396.828343	2553.034392
397.211217	2551.955585
397.594028	2550.647406
397.976778	2554.614794
398.359466	2551.766542
398.742092	2552.600853
399.124656	2554.614794
399.507158	2554.231666
399.889598	2552.396686
400.271977	2551.824515
400.654294	2553.856100
401.036549	2555.189485
401.418742	2554.665205
401.800874	2552.855431
402.182944	2553.793086
402.564952	2555.370967
402.946898	2554.690411
403.328783	2555.436502
403.710606	2553.132695
404.092367	2556.404403
404.474067	2554.710576
404.855705	2556.245607
405.237282	2556.318704
405.618797	2554.302242
406.000250	2555.476831
406.381642	2558.372974
406.762972	2556.230484
407.144240	2552.968857
407.525447	2557.987326
407.906593	2551.751418
408.287677	2557.359702
408.668700	2556.664023
409.049661	2558.040258
409.430560	2557.720145
409.811399	2558.488921
410.192176	2558.302398
410.572891	2559.237532
410.953545	2558.133519
411.334138	2558.491441
411.714669	2554.851728
412.095139	2559.686195
412.475547	2556.878272
412.855894	2558.420865
413.236180	2559.114024
413.616405	2560.729713
413.996568	2558.829198
414.376670	2560.681822
414.756711	2560.828016
415.136691	2560.651576
415.516609	2560.066802
415.896466	2559.814744
416.276262	2560.354147
416.655997	2562.388253
417.035670	2560.964127
417.415283	2560.384394
417.794834	2559.199723
418.174324	2559.691236
418.553753	2559.787018
418.933121	2562.358006
419.312428	2561.256514
419.691674	2563.464539
420.070859	2561.430434
420.449983	2563.109138
420.829045	2559.696277
421.208047	2561.274158
421.586988	2562.158881
421.965867	2565.377657
422.344686	2564.399673
422.723444	2562.675599
423.102141	2564.371947
423.480777	2560.843139
423.859352	2563.698953
424.237866	2565.912020
424.616319	2562.282389
424.994712	2562.436144
425.373044	2562.468912
425.751314	2563.260373
426.129524	2558.574620
426.507673	2562.002605
426.885762	2557.919270
427.263789	2563.025959
427.641756	2564.124931
428.019662	2565.964952
428.397508	2565.155847
428.775292	2563.898079
429.153016	2565.425548
429.530679	2567.157185
429.908282	2564.568552
430.285824	2564.792883
430.663305	2566.950497
431.040726	2565.707853
431.418086	2564.271124
431.795385	2565.627194
432.172624	2563.537636
432.549802	2565.959911
432.926920	2565.097873
433.303977	2567.436969
433.680974	2566.824468
434.057910	2567.832699
434.434786	2565.110476
434.811601	2566.897565
435.188355	2566.670713
435.565050	2569.551733
435.941683	2565.080229
436.318257	2567.842782
436.694770	2563.041082
437.071222	2566.769016
437.447614	2568.649366
437.823946	2567.651218
438.200218	2567.832699
438.576429	2566.262380
438.952580	2570.297823
439.328670	2566.148954
439.704700	2566.968141
440.080670	2568.364541
440.456580	2567.144582
440.832429	2568.387226
441.208218	2566.839592
441.583947	2569.009809
441.959616	2569.836558
442.335224	2565.914540
442.710773	2568.208265
443.086261	2568.843451
443.461689	2568.944274
443.837057	2570.504511
444.212365	2570.849830
444.587612	2568.667010
444.962800	2566.700960
445.337927	2566.476629
445.712995	2566.219530
446.088002	2571.202711
446.462949	2568.649366
446.837837	2568.107442
447.212664	2569.410580
447.587431	2574.224882
447.962139	2571.190108
448.336786	2571.923596
448.711374	2572.306723
449.085901	2572.009295
449.460369	2572.271435
449.834776	2571.870663
450.209124	2573.783781
450.583412	2569.266907
450.957640	2571.613565
451.331808	2573.060376
451.705917	2571.033832
452.079965	2570.915365
452.453954	2575.651529
452.827883	2573.720767
453.201752	2570.849830
453.575562	2574.222362
453.949311	2574.418967
454.323001	2571.936198
454.696632	2575.182702
455.070202	2575.906107
455.443713	2573.914851
455.817164	2571.976528
456.190556	2574.640778
456.563888	2575.502815
456.937160	2573.430901
457.310373	2573.012485
457.683526	2574.794533
458.056619	2574.368555
458.429653	2576.085068
458.802628	2574.693710
459.175542	2576.246385
459.548398	2577.131107
459.921194	2573.657752
460.293930	2576.662280
460.666607	2578.666139
461.039224	2576.705130
461.411782	2580.032292
461.784280	2575.744790
462.156719	2577.468865
462.529099	2579.253433
462.901419	2578.315779
463.273680	2574.219841
463.645882	2575.432239
464.018024	2575.520459
464.390106	2573.186405
464.762130	2578.373752
465.134094	2577.741087
465.505999	2577.768813
465.877845	2579.112281
466.249631	2582.603280
466.621358	2582.721747
466.993026	2580.475913
467.364634	2583.856007
467.736184	2583.417426
468.107674	2578.850141
468.479105	2582.131932
468.850477	2582.686459
469.221790	2581.350553
469.593043	2581.506829
469.964238	2581.738722
470.335373	2580.266705
470.706449	2582.394072
471.077467	2580.929617
471.448425	2585.837180
471.819324	2583.636717
472.190164	2586.235431
472.560945	2583.525811
472.931667	2582.595718
473.302330	2581.940368
473.672934	2581.590008
474.043479	2583.729978
474.413965	2580.725450
474.784393	2584.556727
475.154761	2584.213929
475.525070	2581.436253
475.895321	2580.319637
476.265513	2583.397262
476.635645	2584.408013
477.005719	2583.787951
477.375734	2584.196285
477.745691	2586.565627
478.115588	2584.413054
478.485427	2585.885071
478.855207	2583.883733
479.224928	2586.346337
479.594591	2587.629310
479.964194	2589.018148
480.333739	2590.570824
480.703226	2588.312387
481.072653	2591.306832
481.442022	2591.027048
481.811333	2584.765935
482.180584	2588.088055
482.549777	2590.008735
482.918912	2587.253744
483.287988	2590.875813
483.657005	2589.227356
484.025964	2590.575865
484.394864	2589.998653
484.763706	2590.379260
485.132489	2591.803386
485.501213	2590.656523
485.869879	2591.400093
486.238487	2592.448653
486.607036	2589.882706
486.975527	2590.044023
487.343959	2590.696852
487.712333	2592.025197
488.080648	2594.719693
488.448905	2591.258941
488.817104	2587.863724
489.185244	2591.445464
489.553326	2592.768767
489.921350	2594.210537
490.289315	2595.884200
490.657222	2597.081474
491.025070	2596.801690
491.392861	2598.437544
491.760593	2595.327152
492.128267	2597.988882
492.495883	2595.044848
492.863440	2596.882348
493.230939	2596.116093
493.598380	2593.842532
493.965763	2593.756833
494.333088	2594.092070
494.700354	2593.887903
495.067563	2594.656679
495.434713	2592.299939
495.801805	2595.690115
496.168839	2596.559714
496.535815	2595.672471
496.902733	2595.324632
497.269593	2593.787080
497.636395	2594.744899
498.003139	2596.335383
498.369825	2594.603747
498.736453	2596.201792
499.103023	2594.081987
499.469535	2596.156422
499.835989	2595.654827
500.202385	2593.550146
500.568723	2589.827253
500.935003	2594.271031
501.301226	2593.635845
501.667390	2598.934098
502.033497	2599.450816
502.399546	2596.907554
502.765537	2599.294540
503.131470	2597.935949
503.497345	2600.945518
503.863163	2598.349324
504.228923	2601.832761
504.594625	2602.041969
504.960269	2602.684716
505.325856	2602.016763
505.691385	2600.262442
506.056856	2602.286465
506.422270	2602.682196
506.787625	2604.411312
507.152924	2605.464913
507.518164	2604.935592
507.883347	2606.420211
508.248472	2608.119080
508.613540	2607.519183
508.978550	2606.541199
509.343503	2608.696292
509.708398	2606.914244
510.073236	2609.696961
510.438016	2612.320882
510.802738	2612.308279
511.167403	2612.943464
511.532010	2609.815428
511.896561	2616.583177
512.261053	2613.913887
512.625488	2612.207456
512.989866	2616.404217
513.354186	2615.529576
513.718449	2618.324896
514.082655	2617.140225
514.446803	2618.823970
514.810894	2621.536111
515.174927	2622.914867
515.538904	2623.023252
515.902822	2625.742954
516.266684	2625.253962
516.630488	2627.456946
516.994235	2626.945269
517.357925	2629.065074
517.721558	2631.719242
518.085133	2628.472739
518.448651	2628.629015
518.812112	2627.061216
519.175516	2632.188069
519.538863	2631.189921
519.902152	2635.434572
520.265385	2637.156126
520.628560	2638.986065
520.991678	2637.287196
521.354739	2644.052425
521.717743	2642.771972
522.080690	2645.335398
522.443580	2646.739360
522.806413	2648.380255
523.169189	2650.106851
523.531908	2652.251862
523.894569	2650.368991
524.257174	2652.362767
524.619722	2654.028868
524.982213	2657.134219
525.344647	2657.035917
525.707025	2659.664878
526.069345	2662.969355
526.431608	2661.701504
526.793815	2667.098060
527.155964	2665.807524
527.518057	2669.653925
527.880093	2670.531085
528.242072	2675.156344
528.603995	2676.058711
528.965860	2676.436797
529.327669	2678.294462
529.689421	2682.760925
530.051117	2684.003569
530.412755	2684.893333
530.774337	2689.679908
531.135862	2689.498427
531.497331	2696.309026
531.858743	2696.792976
532.220098	2702.237422
532.581396	2705.796477
532.942638	2705.587269
533.303824	2713.557333
533.664953	2713.653115
534.026025	2715.707386
534.387040	2722.830536
534.747999	2726.767677
535.108902	2731.841598
535.469748	2730.785477
535.830537	2735.410735
536.191270	2748.137128
536.551947	2742.768299
536.912567	2745.304000
537.273131	2758.350506
537.633638	2759.444436
537.994089	2764.987185
538.354483	2770.729059
538.714821	2781.176851
539.075103	2784.677932
539.435328	2791.077677
539.795497	2797.366516
540.155609	2806.027218
540.515665	2814.798826
540.875665	2816.182623
541.235609	2823.376349
541.595496	2839.487877
541.955328	2846.202694
542.315102	2857.696525
542.674821	2859.022348
543.034483	2865.238091
543.394090	2878.549258
543.753640	2885.347254
544.113134	2902.658576
544.472571	2907.571180
544.831953	2929.381733
545.191278	2930.301743
545.550548	2941.336829
545.909761	2952.137501
546.268918	2969.963021
546.628019	2984.887357
546.987064	3000.474605
547.346053	3009.672190
547.704986	3019.567975
548.063863	3043.788198
548.422684	3047.264074
548.781449	3060.018193
549.140158	3088.979622
549.498811	3099.883638
549.857408	3105.678444
550.215949	3138.708084
550.574434	3149.113026
550.932864	3173.552540
551.291237	3193.875951
551.649555	3221.493913
552.007817	3243.034763
552.366022	3260.804830
552.724173	3277.954836
553.082267	3306.399546
553.440305	3346.217100
553.798288	3349.579550
554.156215	3390.662433
554.514086	3420.054880
554.871902	3419.875919
555.229661	3459.275057
555.587365	3487.971826
555.945014	3515.428470
556.302606	3565.834967
556.660143	3580.711412
557.017625	3637.840288
557.375050	3653.500633
557.732421	3688.599666
558.089735	3727.441757
558.446994	3751.740118
558.804197	3800.268786
559.161345	3845.187987
559.518437	3841.334025
559.875474	3906.984972
560.232455	3939.800362
560.589381	3987.320799
560.946251	4015.054707
561.303065	4082.437290
561.659825	4135.591216
562.016528	4150.860871
562.373177	4184.571067
562.729770	4232.323397
563.086307	4298.503664
563.442789	4353.542982
563.799216	4389.199063
564.155587	4425.452521
564.511904	4491.146317
564.868164	4519.860730
565.224370	4589.874795
565.580520	4617.311275
565.936615	4694.004869
566.292654	4703.222619
566.648638	4808.703722
567.004567	4832.243390
567.360441	4888.515269
567.716260	4908.929422
568.072023	5019.003016
568.427732	5053.837389
568.783385	5082.186318
569.138982	5162.406199
569.494525	5241.091049
569.850013	5284.588645
570.205445	5349.133058
570.560823	5364.652250
570.916145	5429.466365
571.271412	5486.275128
571.626625	5558.018309
571.981782	5607.358602
572.336884	5640.541997
572.691931	5732.623713
573.046923	5742.988326
573.401860	5820.067568
573.756743	5900.657974
574.111570	5941.330003
574.466342	5987.464123
574.821059	6078.008287
575.175722	6085.832158
575.530330	6183.204565
575.884882	6244.749492
576.239380	6311.249872
576.593823	6357.497418
576.948211	6402.903091
577.302544	6444.232990
577.656823	6493.802656
578.011047	6598.958605
578.365216	6642.685573
578.719330	6706.095727
579.073389	6739.556386
579.427394	6876.731223
579.781344	6869.187136
580.135239	6953.422296
580.489080	6996.980386
580.842866	7000.572208
581.196597	7169.019843
581.550273	7178.600556
581.903895	7291.013246
582.257463	7419.262720
582.610975	7407.640340
582.964434	7549.543780
583.317837	7563.381747
583.671186	7669.006523
584.024481	7752.178000
584.377721	7745.203563
584.730906	7847.748194
585.084037	7943.015920
585.437113	7990.039803
585.790135	8106.074562
586.143103	8048.638175
586.496016	8100.357893
586.848874	8300.814335
587.201679	8332.422369
587.554428	8306.339439
587.907124	8489.867686
588.259765	8502.952001
588.612352	8631.420766
588.964884	8564.993481
589.317362	8699.430972
589.669786	8784.548334
590.022155	8878.233137
590.374470	9039.615595
590.726731	9053.549345
591.078937	9031.143936
591.431090	9139.806008
591.783188	9109.808622
592.135232	9168.117128
592.487222	9323.001538
592.839157	9382.736691
593.191038	9446.792112
593.542866	9447.991907
593.894639	9444.989900
594.246358	9597.300801
594.598022	9623.971026
594.949633	9612.454510
595.301190	9656.032764
595.652692	9804.681268
596.004141	9973.955652
596.355535	9777.199417
596.706876	9855.075162
597.058162	9895.946317
597.409395	10035.508141
597.760573	10175.657259
598.111698	10157.499023
598.462768	10201.157935
598.813785	10244.408515
599.164748	10240.093287
599.515657	10319.186470
599.866511	10302.384305
600.217312	10526.246823
600.568060	10380.491942
600.918753	10615.046748
601.269392	10655.254992
601.619978	10594.675446
601.970510	10806.172014
602.320988	10821.857564
602.671412	10999.185192
603.021783	11022.303924
603.372100	10966.153032
603.722363	11116.621392
604.072572	11155.239151
604.422728	11267.510688
604.772830	11259.248237
605.122878	11255.142217
605.472872	11355.894718
605.822813	11422.067424
606.172701	11471.889147
606.522534	11646.018163
606.872314	11725.295348
607.222041	11669.847697
607.571714	11876.678678
607.921333	11857.975997
608.270899	11960.828138
608.620411	12173.161538
608.969870	12052.274669
609.319276	12135.191567
609.668627	12248.960327
610.017926	12383.733055
610.367171	12527.042976
610.716362	12651.161225
611.065500	12554.446689
611.414585	12717.094476
611.763616	12784.376236
612.112594	12822.898213
612.461518	12850.100279
612.810389	13048.767111
613.159207	12986.831495
613.507971	13000.041839
613.856682	13295.929843
614.205340	13294.092343
614.553945	13473.338129
614.902496	13330.376048
615.250994	13590.398763
615.599439	13604.781175
615.947830	13642.894818
616.296169	13709.652298
616.644454	13785.335141
616.992686	13780.049491
617.340864	13992.952542
617.688990	13905.168409
618.037063	14081.573506
618.385082	14011.556920
618.733048	14265.058903
619.080961	14199.927195
619.428821	14306.817301
619.776628	14306.426611
620.124382	14276.431746
620.472083	14370.245098
620.819731	14459.980157
621.167326	14273.444862
621.514868	14365.841650
621.862357	14258.351648
622.209793	14322.354137
622.557176	14261.787194
622.904506	14166.456454
623.251783	14151.602694
623.599007	14073.996651
623.946179	14073.101847
624.293297	14087.403600
624.640363	13947.420840
624.987376	13998.273479
625.334336	13876.496847
625.681243	13806.991938
626.028097	13853.884751
626.374899	13871.659859
626.721647	13773.775775
627.068343	13687.549359
627.414987	13680.244727
627.761577	13721.022621
628.108115	13805.038491
628.454600	13590.739041
628.801032	13695.043034
629.147412	13690.526161
629.493739	13741.381321
629.840014	13627.282365
630.186236	13725.025297
630.532405	13570.347573
630.878521	13770.554478
631.224585	13702.569477
631.570597	13610.538172
631.916556	13649.604594
632.262462	13657.703208
632.608316	13634.387871
632.954117	13608.236886
633.299866	13638.012461
633.645562	13612.471455
633.991206	13419.286878
634.336797	13335.419722
634.682336	13362.513403
635.027823	13291.387764
635.373257	13244.505033
635.718639	13163.617199
636.063968	13149.018017
636.409245	12976.734064
636.754470	13016.549097
637.099642	12913.875917
637.444762	12736.840676
637.789829	12806.569916
638.134845	12686.524919
638.479808	12728.104356
638.824719	12713.328734
639.169577	12589.215527
639.514383	12662.866784
639.859137	12521.142306
640.203839	12614.328035
640.548489	12478.741161
640.893086	12493.652894
641.237632	12383.123075
641.582125	12560.208727
641.926566	12423.643870
642.270955	12447.307046
642.615292	12434.852875
642.959576	12457.596041
643.303809	12519.904703
643.647990	12468.943678
643.992118	12551.721945
644.336195	12339.380983
644.680219	12537.291642
645.024192	12499.278822
645.368112	12733.833628
645.711981	12813.655258
646.055797	12992.500273
646.399562	12972.280205
646.743274	13227.034914
647.086935	13501.349301
647.430544	13477.507164
647.774101	13500.983817
648.117606	13675.604345
648.461059	13645.208708
648.804460	13674.928831
649.147810	13443.358387
649.491108	13353.686343
649.834354	13397.249474
650.177548	13135.984114
650.520690	12960.887197
650.863781	12894.001168
651.206820	12951.533336
651.549807	12789.863532
651.892742	12628.614665
652.235626	12578.137591
652.578458	12589.344076
652.921238	12297.942699
653.263967	12492.778254
653.606644	12338.440808
653.949269	12319.450782
654.291843	12165.811536
654.634365	12306.585757
654.976836	12184.108404
655.319255	12210.529091
655.661622	12173.446363
656.003938	12107.785334
656.346203	12048.569421
656.688416	12118.898558
657.030577	12082.952611
657.372687	12025.634691
657.714746	12006.138029
658.056753	12178.159842
658.398708	12034.691124
658.740612	12042.333513
659.082465	12137.266002
659.424266	12107.369439
659.766016	12129.860547
660.107715	12053.532437
660.449362	12123.463323
660.790958	12092.228334
661.132503	12054.795246
661.473996	12113.764143
661.815438	12140.114254
662.156829	12149.947025
662.498168	12138.027216
662.839456	12147.827219
663.180693	12166.111484
663.521879	12259.178746
663.863013	12252.022828
664.204097	12236.012124
664.545129	12339.328051
664.886110	12315.667396
665.227040	12398.480950
665.567918	12415.015935
665.908746	12455.453551
666.249522	12444.521808
666.590248	12489.120897
666.930922	12596.628543
667.271545	12587.118407
667.612118	12685.962831
667.952639	12589.790218
668.293109	12587.947677
668.633528	12561.242164
668.973896	12538.942620
669.314213	12638.787713
669.654480	12383.181048
669.994695	12435.689707
670.334859	12465.619037
670.674973	12416.087180
671.015035	12461.941516
671.355047	12398.813667
671.695008	12374.243083
672.034918	12386.780432
672.374777	12429.247112
672.714585	12347.653517
673.054342	12379.233825
673.394049	12336.394100
673.733705	12422.441555
674.073310	12345.911798
674.412864	12370.021116
674.752368	12244.894637
675.091820	12244.635017
675.431223	12247.662230
675.770574	12131.125877
676.109875	12050.689226
676.449125	12021.566480
676.788324	11958.247067
677.127473	11805.603449
677.466571	11785.602672
677.805619	11699.005731
678.144616	11613.974068
678.483562	11583.913668
678.822458	11448.304109
679.161303	11431.796851
679.500098	11427.718557
679.838842	11383.973945
680.177535	11399.099927
680.516179	11458.940943
680.854771	11411.070147
681.193314	11623.723660
681.531805	11764.540731
681.870247	12165.456134
682.208638	12561.595045
682.546978	12893.587793
682.885268	12961.522382
683.223508	12652.313129
683.561697	12483.310967
683.899836	12383.992674
684.237925	12202.019623
684.575963	12115.596602
684.913951	12042.391487
685.251889	11994.417346
685.589776	12081.195768
685.927614	12016.792507
686.265401	11976.969913
686.603137	12017.238650
686.940824	12171.472752
687.278460	12280.432251
687.616046	12343.330727
687.953582	12515.070236
688.291068	12437.756580
688.628504	12655.332780
688.965889	12660.328563
689.303224	12643.271819
689.640510	12547.885627
689.977745	12248.940163
690.314930	12018.617405
690.652065	11933.532811
690.989150	11655.805563
691.326185	11428.633527
691.663170	11225.331354
692.000105	10978.985289
692.336990	10875.087108
692.673825	10631.947217
693.010610	10513.054124
693.347345	10307.238936
693.684030	10103.878790
694.020665	10052.141428
694.357251	9854.238331
694.693786	9816.734667
695.030272	9639.391915
695.366707	9521.330613
695.703093	9454.240417
696.039429	9448.715312
696.375716	9382.109067
696.711952	9253.675591
697.048139	9287.887381
697.384276	9245.269467
697.720363	9254.610725
698.056400	9194.870531
698.392388	9156.083893
698.728326	9114.272563
699.064214	9045.266729
699.400053	9094.513761
699.735842	8909.984845
700.071581	8869.083443
700.407270	8793.917319
700.742910	8718.380669
701.078501	8629.308522
701.414042	8511.257302
701.749533	8445.160213
702.084974	8303.627298
702.420366	8412.294411
702.755709	8298.581103
703.091002	8174.528390
703.426246	8192.893313
703.761440	8149.509143
704.096584	8098.948891
704.431679	8037.106536
704.766725	8024.692694
705.101721	7971.609344
705.436668	8015.119543
705.771565	7910.767659
706.106413	7993.709763
706.441212	8041.373872
706.775961	7987.398238
707.110661	8017.017538
707.445311	8168.811721
707.779913	8068.636433
708.114465	8190.130761
708.448967	8241.336281
708.783421	8364.158953
709.117825	8547.649392
709.452180	8588.334024
709.786485	8672.392743
710.120742	8946.427346
710.454949	8950.291390
710.789107	9046.456441
711.123216	9249.766176
711.457275	9412.678624
711.791286	9585.028112
712.125247	9567.179907
712.459159	9564.465246
712.793023	9822.927724
713.126837	9397.471983
713.460602	9546.493532
713.794318	9362.567034
714.127985	9393.645748
714.461602	9093.850849
714.795171	9040.656594
715.128691	8803.397208
715.462162	8541.010192
715.795584	8494.281216
716.128957	8360.234415
716.462281	8186.460801
716.795556	8235.007112
717.128782	8030.490021
717.461960	7759.558249
717.795088	7822.633166
718.128167	7737.293993
718.461198	7575.641833
718.794180	7518.480190
719.127113	7506.192377
719.459997	7371.031481
719.792833	7135.579349
720.125619	7189.307967
720.458357	7056.821403
720.791046	7037.612086
721.123686	7041.380349
721.456278	6892.542802
721.788821	6907.129381
722.121315	6797.191898
722.453761	6856.922009
722.786158	6811.342416
723.118506	6824.406567
723.450805	6789.219313
723.783056	6861.166660
724.115259	6755.562049
724.447412	6750.974599
724.779518	6802.853113
725.111574	6803.558875
725.443582	6884.484517
725.775542	6862.769747
726.107453	7050.956020
726.439315	6967.706406
726.771129	7014.100145
727.102895	7177.191554
727.434612	7296.613968
727.766281	7320.551887
728.097901	7411.164107
728.429473	7389.877835
728.760996	7362.113680
729.092471	7351.194541
729.423897	7297.322250
729.755276	7314.003428
730.086606	7248.024807
730.417887	7342.392686
730.749120	7507.694641
731.080305	7705.481792
731.411442	7846.326589
731.742530	7841.739139
732.073570	7936.321268
732.404562	8023.228239
732.735506	7864.517593
733.066401	8016.077362
733.397249	7955.371788
733.728048	7716.955458
734.058798	7391.390181
734.389501	7178.628283
734.720156	6996.110787
735.050762	6761.871053
735.381320	6656.034549
735.711831	6610.094514
736.042293	6510.612384
736.372707	6531.122318
736.703073	6394.224744
737.033391	6430.362256
737.363661	6437.404747
737.693883	6458.375947
738.024056	6544.163783
738.354182	6595.142451
738.684260	6633.160313
739.014290	6731.873667
739.344272	6841.838877
739.674207	6868.463731
740.004093	6934.311282
740.333931	6949.301153
740.663722	6965.183308
740.993464	7039.313476
741.323159	7037.508742
741.652806	6787.160001
741.982405	6777.332272
742.311956	6850.282809
742.641460	6702.287135
742.970915	6509.178175
743.300323	6496.411453
743.629683	6439.562361
743.958996	6310.327341
744.288260	6222.941460
744.617477	6168.958264
744.946647	6183.239853
745.275768	6011.321383
745.604842	5969.704138
745.933869	5952.869204
746.262847	5905.104272
746.591778	5897.925669
746.920662	5860.474937
747.249498	5842.646896
747.578286	5890.613475
747.907027	5966.200536
748.235720	6026.114649
748.564365	5995.280432
748.892963	6012.906826
749.221514	6173.631414
749.550017	6025.613054
749.878473	5890.608434
750.206881	5938.070897
750.535242	5885.045521
750.863555	5820.702753
751.191821	5833.736657
751.520039	5843.188820
751.848210	5752.909317
752.176334	5761.428867
752.504411	5821.920192
752.832440	5742.713583
753.160421	5668.253220
753.488356	5721.008895
753.816243	5759.339308
754.144082	5610.209375
754.471875	5572.045319
754.799620	5620.954594
755.127318	5631.853569
755.454969	5584.711218
755.782572	5545.982554
756.110129	5587.892187
756.437638	5585.096867
756.765100	5524.197208
757.092515	5517.522720
757.419882	5557.451179
757.747203	5543.741761
758.074477	5610.214416
758.401703	5606.738540
758.728882	5553.380447
759.056014	5593.412250
759.383099	5735.187140
759.710138	5746.234829
760.037129	5723.300099
760.364073	5730.904680
760.690970	5812.815868
761.017820	5801.546369
761.344623	5751.124748
761.671379	5841.530281
761.998088	5954.822652
762.324751	6177.886147
762.651366	6743.130564
762.977935	8002.221751
763.304456	9595.274257
763.630931	10519.408498
763.957359	10184.958188
764.283740	9268.670503
764.610074	8464.435065
764.936362	7485.770663
765.262602	6898.854327
765.588796	6351.379978
765.914943	6011.258369
766.241044	5856.131983
766.567097	5668.817829
766.893104	5413.740486
767.219064	5229.771138
767.544978	5175.462788
767.870845	5096.649388
768.196665	4987.886494
768.522438	4917.433848
768.848165	4887.449065
769.173846	4820.376513
769.499479	4783.583652
769.825066	4728.153645
770.150607	4667.780787
770.476101	4640.044358
770.801548	4640.372033
771.126949	4572.122372
771.452303	4521.524311
771.777611	4476.340449
772.102872	4489.901153
772.428087	4451.454793
772.753256	4417.038835
773.078378	4372.540570
773.403453	4306.773677
773.728482	4291.791368
774.053465	4242.569542
774.378401	4227.110844
774.703291	4239.370930
775.028135	4166.112882
775.352932	4113.556333
775.677683	4102.654838
776.002388	4122.900111
776.327046	4138.638594
776.651658	4059.799989
776.976224	3998.073580
777.300743	4000.972244
777.625216	4021.099051
777.949643	4025.542828
778.274024	3979.943071
778.598359	3928.634207
778.922647	3948.738328
779.246889	3945.136424
779.571086	3943.011577
779.895236	3930.156635
780.219339	3914.050149
780.543397	3901.722007
780.867409	3956.428608
781.191374	3973.008963
781.515294	3910.344901
781.839167	3904.476997
782.162995	3919.555089
782.486776	3911.005292
782.810511	3915.438987
783.134201	3917.299172
783.457844	3879.442627
783.781441	3818.633709
784.104993	3818.968946
784.428498	3841.205476
784.751958	3841.076926
785.075372	3822.333916
785.398739	3782.919655
785.722061	3789.868885
786.045337	3832.912777
786.368568	3870.993654
786.691752	3783.743883
787.014891	3824.335254
787.337983	3945.305302
787.661030	4099.776339
787.984031	4260.085031
788.306987	4433.697328
788.629897	4510.131303
788.952760	4466.419458
789.275579	4398.252976
789.598351	4339.460519
789.921078	4211.639543
790.243759	4014.666538
790.566395	3985.884070
790.888984	3986.196622
791.211529	3880.355076
791.534027	3820.791323
791.856480	3817.393585
792.178888	3756.125922
792.501249	3703.251780
792.823566	3709.457440
793.145836	3741.188983
793.468062	3694.051674
793.790241	3648.877895
794.112375	3674.786905
794.434464	3733.594485
794.756507	3758.868310
795.078505	3748.977566
795.400457	3772.376082
795.722364	3901.706883
796.044226	4008.050024
796.366042	4078.071651
796.687812	4070.315836
797.009538	4076.992844
797.331218	4028.335627
797.652852	4002.696318
797.974442	3982.226713
798.295986	3987.492198
798.617484	3909.223244
798.938938	3820.367866
799.260346	3855.741643
799.581709	3853.352136
799.903026	3787.560037
800.224299	3750.164758
800.545526	3743.954056
800.866708	3707.763613
801.187845	3643.236843
801.508936	3680.637164
801.829983	3688.554296
802.150984	3601.521295
802.471940	3589.377156
802.792851	3602.153960
803.113717	3599.638424
803.434538	3604.702263
803.755314	3550.587998
804.076045	3521.266126
804.396731	3540.876215
804.717372	3566.674319
805.037967	3554.222669
805.358518	3543.381668
805.679024	3568.027869
805.999485	3579.388109
806.319901	3585.808019
806.640272	3598.541973
806.960598	3612.879015
807.280879	3589.241045
807.601115	3598.042899
807.921306	3611.709467
808.241453	3656.066580
808.561554	3634.394660
808.881611	3568.312694
809.201623	3598.451233
809.521590	3614.638378
809.841513	3588.348760
810.161390	3617.504274
810.481223	3598.572220
810.801011	3544.500804
811.120755	3531.204761
811.440453	3564.463773
811.760107	3568.703384
812.079716	3531.048485
812.399281	3495.546159
812.718801	3517.785209
813.038276	3493.413751
813.357707	3489.587515
813.677093	3510.452851
813.996434	3460.830253
814.315731	3461.977116
814.634983	3464.422075
814.954191	3481.778768
815.273354	3508.118797
815.592473	3511.057790
815.911547	3508.585104
816.230577	3548.080023
816.549562	3595.371088
816.868502	3640.350783
817.187399	3667.618384
817.506250	3664.555883
817.825058	3630.472642
818.143821	3715.915158
818.462539	3818.628668
818.781213	3867.951317
819.099843	3919.113988
819.418429	4145.643277
819.736970	4380.407291
820.055466	4610.767857
820.373919	4966.610304
820.692327	5368.493609
821.010691	5765.383652
821.329011	7035.333485
821.647286	9614.791085
821.965517	13977.755983
822.283704	17958.213252
822.601847	20247.144114
822.919945	18539.233959
823.237999	16061.388376
823.556010	13631.300165
823.873976	11611.324942
824.191897	9564.845853
824.509775	8214.061118
824.827609	7110.197140
825.145398	6558.669703
825.463144	6445.483197
825.780845	6559.262039
826.098502	6717.554270
826.416116	7511.460383
826.733685	8786.945403
827.051210	9906.096680
827.368692	10034.794817
827.686129	8845.379938
828.003522	7354.438523
828.320872	6351.349731
828.638177	5668.810267
828.955439	5131.995438
829.272656	4642.655676
829.589830	4353.953836
829.906960	4185.433104
830.224046	4005.524406
830.541088	3876.037328
830.858086	3836.502079
831.175041	3766.571193
831.491952	3741.993047
831.808819	3751.598966
832.125642	3816.733194
832.442421	3955.198567
832.759157	4211.972259
833.075849	4727.279005
833.392497	5554.237443
833.709101	6312.898330
834.025662	6669.504512
834.342179	6363.700558
834.658653	5704.284867
834.975083	5082.398046
835.291469	4524.964898
835.607811	4115.766879
835.924110	3978.861743
836.240366	3788.406951
836.556578	3581.187801
836.872746	3476.541009
837.188871	3438.485339
837.504952	3379.886967
837.820990	3296.402938
838.136984	3247.705392
838.452935	3272.001233
838.768842	3266.430758
839.084706	3288.609314
839.400526	3430.631221
839.716303	3746.126793
840.032037	4240.600971
840.347727	4524.289383
840.663373	4281.885501
840.978977	3910.362545
841.294537	3606.990947
841.610054	3383.733367
841.925527	3274.350411
842.240957	3209.440514
842.556344	3157.113337
842.871687	3101.118721
843.186987	3052.968140
843.502244	3018.839528
843.817458	2983.314517
844.132629	2948.202880
844.447756	2961.524129
844.762840	2946.446038
845.077881	2915.952099
845.392879	2901.340314
845.707833	2895.994171
846.022745	2891.505023
846.337613	2893.884448
846.652438	2883.424053
846.967221	2881.427757
847.281960	2865.291023
847.596656	2863.506455
847.911309	2859.607122
848.225919	2857.724251
848.540485	2849.829804
848.855009	2851.700072
849.169490	2844.370235
849.483928	2832.518482
849.798323	2831.664006
850.112675	2827.608398
850.426984	2838.688854
850.741251	2835.782629
851.055474	2830.895230
851.369654	2825.932214
851.683792	2825.634786
851.997887	2832.969665
852.311938	2835.293637
852.625947	2827.346258
852.939914	2827.661330
853.253837	2832.931857
853.567718	2820.326451
853.881555	2815.151707
854.195350	2830.209633
854.509103	2825.254179
854.822812	2823.174703
855.136479	2819.739157
855.450103	2820.722182
855.763685	2815.612972
856.077224	2808.552837
856.390720	2820.520536
856.704173	2832.168122
857.017584	2828.036896
857.330953	2821.039775
857.644278	2828.939263
857.957561	2839.288752
858.270802	2839.639112
858.584000	2841.360666
858.897155	2831.593430
859.210268	2830.764160
859.523339	2827.651248
859.836367	2827.331135
860.149352	2821.193530
860.462295	2815.648261
860.775195	2826.199396
861.088054	2826.363233
861.400869	2811.070893
861.713642	2803.514203
862.026373	2820.313848
862.339062	2822.340392
862.651708	2829.120744
862.964312	2829.917247
863.276873	2823.494817
863.589392	2832.785663
863.901869	2846.215297
864.214303	2863.965200
864.526696	2878.506408
864.839045	2878.040101
865.151353	2875.007847
865.463619	2873.003988
865.775842	2876.026160
866.088023	2890.191803
866.400162	2898.716394
866.712258	2874.891901
867.024313	2858.195599
867.336325	2866.495859
867.648296	2888.407234
867.960224	2882.463714
868.272110	2870.357383
868.583954	2874.455841
868.895755	2890.622821
869.207515	2877.392313
869.519233	2879.318034
869.830909	2887.159548
870.142542	2899.500293
870.454134	2899.449882
870.765684	2902.403998
871.077191	2901.239491
871.388657	2906.852816
871.700081	2919.377563
872.011463	2931.408276
872.322803	2933.162598
872.634101	2933.772578
872.945357	2948.081893
873.256571	2971.409832
873.567744	2966.053606
873.878874	2958.088583
874.189963	2978.043991
874.501010	2982.724702
874.812015	2971.704740
875.122979	2972.909575
875.433900	2969.630305
875.744780	2974.676500
876.055618	2980.826708
876.366415	2980.055411
876.677169	2991.057729
876.987882	2991.463542
877.298554	2978.255719
877.609183	2997.318842
877.919771	3020.901360
878.230317	3043.710061
878.540822	3096.992536
878.851285	3130.543936
879.161707	3170.880728
879.472087	3259.486569
879.782425	3465.422744
880.092722	3875.245867
880.402977	4379.842682
880.713191	4968.294050
881.023363	6060.858282
881.333494	7307.616286
881.643583	7877.548975
881.953631	7595.448527
882.263637	7014.097624
882.573602	6464.808460
882.883526	5898.470113
883.193408	5338.627293
883.503248	4877.081932
883.813048	4588.533848
884.122806	4308.906085
884.432522	4008.433152
884.742197	3776.950929
885.051831	3593.526025
885.361424	3457.319090
885.670975	3388.343502
885.980485	3310.089671
886.289954	3236.972776
886.599382	3192.663554
886.908768	3154.386073
887.218113	3112.040380
887.527417	3058.848646
887.836680	3010.042715
888.145901	3002.286899
888.455082	3001.629029
888.764221	2948.986780
889.073319	2921.562903
889.382376	2917.782038
889.691392	2923.506268
890.000366	2920.332861
890.309300	2906.225192
890.618193	2922.031730
890.927044	2938.170984
891.235855	2940.023608
891.544625	2923.755805
891.853353	2932.988678
892.162041	2949.014506
892.470687	2986.853407
892.779293	3035.336704
893.087858	3081.004517
893.396381	3145.581697
893.704864	3256.713934
894.013306	3477.904641
894.321707	3766.384670
894.630068	3973.719766
894.938387	3977.089777
895.246665	3929.844084
895.554903	3818.656394
895.863100	3628.320069
896.171256	3469.707725
896.479371	3338.037828
896.787446	3221.690518
897.095480	3120.194447
897.403473	3058.636917
897.711425	3018.615197
898.019336	3011.981038
898.327207	2988.350630
898.635038	2952.855865
898.942827	2939.111159
899.250576	2927.864345
899.558284	2896.815879
899.865952	2880.074207
900.173579	2861.028727
900.481165	2853.313242
900.788711	2842.252950
901.096216	2820.389466
901.403681	2805.283648
901.711105	2813.261274
902.018489	2811.854792
902.325832	2811.317909
902.633135	2817.614311
902.940397	2848.332582
903.247619	2923.939807
903.554800	3096.659820
903.861941	3416.042122
904.169041	3819.798216
904.476101	4120.923979
904.783121	4097.832974
905.090100	3867.611039
905.397039	3610.744086
905.703938	3365.686036
906.010796	3184.811957
906.317614	3080.742377
906.624391	2991.027482
906.931129	2921.656164
907.237826	2864.386136
907.544483	2819.358550
907.851099	2786.137346
908.157675	2767.873246
908.464211	2752.091913
908.770707	2737.286045
909.077163	2724.446226
909.383578	2708.916951
909.689954	2697.652493
909.996289	2701.274562
910.302584	2699.651311
910.608839	2698.630477
910.915054	2693.523788
911.221229	2689.029599
911.527363	2689.218643
911.833458	2695.714169
912.139513	2701.130889
912.445527	2703.616178
912.751502	2713.022971
913.057436	2719.878940
913.363331	2731.892010
913.669186	2750.410689
913.975000	2781.431429
914.280775	2837.708350
914.586510	2902.764440
914.892205	2976.367807
915.197859	3095.502875
915.503475	3271.681120
915.809050	3473.982624
916.114585	3615.417236
916.420081	3643.861947
916.725536	3588.875561
917.030952	3481.582163
917.336328	3357.433667
917.641665	3232.289544
917.946961	3136.646252
918.252218	3071.443968
918.557435	2999.312619
918.862612	2945.619289
919.167750	2894.534757
919.472848	2858.805579
919.777906	2834.666013
920.082925	2807.922692
920.387904	2778.051335
920.692843	2763.389139
920.997743	2753.027047
921.302603	2738.556415
921.607423	2733.313615
921.912204	2719.374825
922.216946	2707.931406
922.521647	2700.110056
922.826310	2689.954651
923.130932	2686.246882
923.435516	2678.728002
923.740059	2672.852537
924.044564	2662.409787
924.349028	2658.623880
924.653454	2653.965854
924.957840	2649.847231
925.262186	2641.468833
925.566493	2639.565798
925.870761	2637.123359
926.174989	2631.754530
926.479178	2625.122892
926.783328	2620.926132
927.087438	2619.822119
927.391509	2619.761625
927.695541	2618.554269
927.999533	2612.424226
928.303486	2611.226952
928.607400	2611.224431
928.911275	2611.458845
929.215110	2608.119080
929.518906	2607.229317
929.822663	2606.727722
930.126381	2607.806529
930.430060	2604.650766
930.733699	2608.043463
931.037299	2608.560181
931.340861	2610.427929
931.644383	2612.386417
931.947866	2611.479009
932.251309	2608.214862
932.554714	2608.232506
932.858080	2606.019440
933.161407	2601.537854
933.464694	2602.067175
933.767943	2597.348655
934.071153	2602.936774
934.374323	2601.076588
934.677455	2601.303440
934.980548	2601.628595
935.283602	2601.376537
935.586617	2598.475353
935.889593	2600.043152
936.192530	2597.547781
936.495428	2598.838316
936.798287	2602.112545
937.101108	2604.796960
937.403890	2607.254522
937.706632	2613.669391
938.009336	2621.510905
938.312002	2627.346041
938.614628	2635.898358
938.917216	2641.110912
939.219765	2639.956487
939.522275	2641.337763
939.824747	2639.162506
940.127179	2635.868112
940.429573	2633.150930
940.731929	2630.355610
941.034246	2631.605816
941.336524	2626.141205
941.638763	2623.479476
941.940964	2622.204064
942.243126	2620.159876
942.545250	2619.607870
942.847335	2618.690380
943.149381	2612.008330
943.451389	2608.134204
943.753359	2608.545058
944.055290	2605.296034
944.357182	2604.847371
944.659036	2605.699326
944.960851	2602.518358
945.262628	2599.614654
945.564367	2600.433841
945.866067	2601.283276
946.167729	2602.793101
946.469352	2600.960642
946.770937	2604.759151
947.072484	2599.531475
947.373992	2604.219748
947.675462	2598.208172
947.976893	2597.572986
948.278286	2591.248859
948.579641	2594.873448
948.880958	2592.723396
949.182236	2593.713983
949.483476	2593.235073
949.784678	2592.609970
950.085841	2595.856473
950.386967	2594.820516
950.688054	2595.198603
950.989103	2594.263469
951.290114	2599.286979
951.591087	2598.361927
951.892021	2597.187338
952.192917	2602.861157
952.493776	2606.614296
952.794596	2604.343256
953.095378	2605.830396
953.396122	2604.192021
953.696828	2601.487442
953.997496	2599.589448
954.298126	2599.972576
954.598718	2597.250352
954.899272	2595.927050
955.199788	2592.259610
955.500266	2590.200299
955.800706	2587.694845
956.101108	2586.605956
956.401472	2583.603949
956.701798	2582.764597
957.002087	2579.853331
957.302337	2582.142014
957.602550	2579.618917
957.902724	2577.854513
958.202861	2575.714543
958.502960	2578.449369
958.803022	2574.229923
959.103045	2572.909141
959.403031	2573.410736
959.702979	2572.021898
960.002889	2572.926785
960.302762	2572.145406
960.602596	2573.635067
960.902393	2573.423339
961.202153	2568.349417
961.501875	2569.907134
961.801559	2570.786815
962.101205	2567.744479
962.400814	2573.383010
962.700385	2569.186249
962.999918	2566.791701
963.299414	2562.927657
963.598873	2567.194993
963.898293	2563.462019
964.197677	2566.713563
964.497022	2566.317832
964.796331	2567.147102
965.095601	2566.758933
965.394835	2567.202555
965.694030	2567.552915
965.993189	2567.593244
966.292309	2566.995868
966.591393	2570.522155
966.890439	2568.639284
967.189447	2567.671382
967.488419	2569.221537
967.787353	2567.590724
968.086249	2567.588203
968.385108	2567.938563
968.683930	2565.685168
968.982714	2565.959911
969.281462	2567.452092
969.580172	2566.758933
969.878844	2566.078378
970.177480	2568.054510
970.476078	2569.327401
970.774639	2566.098542
971.073162	2571.059038
971.371649	2566.416135
971.670098	2568.770354
971.968510	2568.147771
972.266885	2570.139027
972.565223	2569.776064
972.863524	2568.992165
973.161788	2564.767678
973.460014	2566.383368
973.758204	2568.654407
974.056356	2568.966959
974.354471	2568.321691
974.652550	2563.519992
974.950591	2569.821434
975.248595	2567.610888
975.546563	2569.259346
975.844493	2570.144068
976.142386	2567.061403
976.440243	2566.428738
976.738062	2568.631722
977.035845	2566.413614
977.333590	2569.133317
977.631299	2567.404201
977.928971	2564.099725
978.226606	2562.337842
978.524204	2564.744993
978.821765	2559.340876
979.119290	2563.293140
979.416777	2566.458985
979.714228	2564.447564
980.011642	2565.150805
980.309020	2562.912533
980.606360	2564.349262
980.903664	2565.037379
981.200931	2565.274314
981.498162	2567.048800
981.795356	2569.168605
982.092513	2571.984089
982.389633	2568.200703
982.686717	2573.957701
982.983764	2578.285532
983.280775	2579.830645
983.577749	2580.927096
983.874686	2583.488002
984.171587	2580.589339
984.468451	2575.661611
984.765279	2574.164388
985.062070	2574.156827
985.358824	2573.947619
985.655543	2570.849830
985.952224	2568.351938
986.248869	2567.237843
986.545478	2568.787998
986.842050	2564.114848
987.138586	2564.941597
987.435086	2562.098387
987.731549	2564.170301
988.027975	2564.598799
988.324366	2561.685012
988.620719	2562.615105
988.917037	2561.402707
989.213318	2564.707184
989.509563	2564.777760
989.805772	2561.788356
990.101944	2565.138202
990.398080	2563.789694
990.694180	2564.195507
990.990244	2559.603016
991.286271	2561.306926
991.582262	2561.279199
991.878217	2562.297512
992.174136	2562.093346
992.470019	2562.990671
992.765865	2560.598643
993.061676	2558.834240
993.357450	2562.163922
993.653188	2558.236863
993.948890	2564.414797
994.244556	2561.954714
994.540186	2560.114693
994.835780	2562.912533
995.131337	2564.266083
995.426859	2565.236505
995.722345	2565.193655
996.017795	2565.110476
996.313208	2570.411249
996.608586	2567.769685
996.903928	2567.419325
997.199234	2567.184911
997.494504	2565.599468
997.789738	2567.119376
998.084936	2565.838923
998.380099	2564.865980
998.675225	2565.181052
998.970316	2564.150136
999.265371	2563.583007
999.560390	2562.320198
999.855373	2565.201217
1000.150320	2564.230795
1000.445232	2560.543191
1000.740108	2561.720300
1001.034948	2561.190979
1001.329752	2559.187120
1001.624521	2561.937070
1001.919254	2560.911195
1002.213951	2561.705177
1002.508613	2560.429765
1002.803239	2562.799107
1003.097829	2558.793910
1003.392384	2560.396997
1003.686903	2558.758622
1003.981386	2563.509910
1004.275834	2559.214847
1004.570246	2562.156360
1004.864623	2560.923798
1005.158964	2560.918757
1005.453270	2562.005125
1005.747540	2561.019580
1006.041775	2558.771225
1006.335974	2561.553942
1006.630138	2559.023283
1006.924266	2560.414641
1007.218359	2560.938921
1007.512416	2558.471277
1007.806438	2556.701832
1008.100425	2558.814075
1008.394376	2557.102603
1008.688292	2560.263407
1008.982172	2561.410269
1009.276017	2564.482852
1009.569827	2563.267934
1009.863602	2560.328942
1010.157341	2560.505382
1010.451045	2560.722152
1010.744714	2561.705177
1011.038347	2560.311298
1011.331945	2560.724672
1011.625508	2563.391443
1011.919036	2558.567058
1012.212528	2562.005125
1012.505986	2556.807696
1012.799408	2561.069991
1013.092795	2559.555125
1013.386147	2560.412121
1013.679464	2560.427244
1013.972745	2561.372461
1014.265992	2558.171328
1014.559204	2561.846329
1014.852380	2561.039744
1015.145521	2560.177707
1015.438628	2560.497820
1015.731699	2559.368602
1016.024736	2559.489590
1016.317737	2558.327604
1016.610703	2560.381874
1016.903635	2561.783315
1017.196531	2561.894220
1017.489393	2559.804662
1017.782219	2560.621329
1018.075011	2561.800959
1018.367768	2558.204095
1018.660490	2558.859445
1018.953177	2558.859445
1019.245829	2558.859445
