Dividing Wavelength (nm)	Counts (n)	Blue Motor Position (mm): 17.500000	Red Motor Position (mm): 0.000000	
326.493990	2177.745694
326.888308	2177.745694
327.282561	2177.745694
327.676750	2139.725312
328.070874	2133.549898
328.464933	2134.255660
328.858929	2138.684313
329.252859	2144.164048
329.646726	2154.185862
330.040528	2164.923519
330.434265	2177.097906
330.827938	2194.656245
331.221547	2212.108719
331.615091	2228.346276
332.008571	2248.944430
332.401986	2267.518562
332.795338	2286.034720
333.188625	2306.965591
333.581847	2319.840698
333.975006	2339.907010
334.368100	2357.737572
334.761129	2376.462938
335.154095	2396.224261
335.546996	2416.966088
335.939833	2446.497167
336.332606	2459.417645
336.725315	2473.225365
337.117960	2486.385297
337.510540	2496.402070
337.903056	2509.004954
338.295508	2519.369567
338.687896	2527.906761
339.080220	2531.299457
339.472480	2540.645757
339.864676	2546.614483
340.256807	2551.937941
340.648875	2553.742674
341.040879	2556.658982
341.432818	2560.233160
341.824694	2562.330280
342.216506	2565.231464
342.608253	2565.188614
342.999937	2566.645507
343.391557	2565.120558
343.783113	2563.676268
344.174605	2561.919426
344.566033	2563.378840
344.957397	2562.032852
345.348697	2560.780125
345.739934	2560.717111
346.131106	2556.714434
346.522215	2559.461863
346.913260	2556.374157
347.304241	2550.372663
347.695159	2548.915769
348.086012	2546.964843
348.476802	2545.202960
348.867528	2541.003678
349.258191	2537.157278
349.648789	2540.739018
350.039324	2534.987061
350.429796	2538.339429
350.820203	2536.595189
351.210548	2534.974458
351.600828	2535.745755
351.991045	2535.468492
352.381198	2536.149047
352.771288	2533.217616
353.161314	2528.988088
353.551276	2530.966741
353.941175	2532.348017
354.331010	2529.202337
354.720782	2529.877852
355.110490	2528.983047
355.500135	2529.003212
355.889717	2533.441948
356.279235	2529.363654
356.668689	2530.137471
357.058080	2530.863398
357.447408	2529.678726
357.836672	2531.296937
358.225873	2533.303316
358.615010	2530.631504
359.004084	2531.780888
359.393095	2534.112421
359.782043	2532.239633
360.170927	2533.560415
360.559748	2535.541588
360.948505	2534.631660
361.337199	2536.958153
361.725830	2535.521424
362.114398	2535.806249
362.502903	2536.146527
362.891344	2537.290869
363.279722	2537.152237
363.668037	2537.089222
364.056289	2536.227185
364.444478	2540.565098
364.832603	2541.853113
365.220665	2540.131559
365.608665	2539.438400
365.996601	2542.805891
366.384474	2541.210366
366.772284	2539.516538
367.160031	2542.011909
367.547715	2541.906045
367.935336	2545.321427
368.322893	2541.452341
368.710388	2538.452855
369.097820	2542.342105
369.485189	2539.871939
369.872495	2546.191026
370.259738	2543.705737
370.646918	2545.197918
371.034035	2544.073741
371.421090	2547.048022
371.808081	2544.925696
372.195010	2546.609442
372.581875	2547.910059
372.968678	2546.412837
373.355418	2547.184133
373.742096	2545.472661
374.128710	2549.268650
374.515262	2549.492982
374.901751	2547.869730
375.288177	2547.937786
375.674540	2547.332847
376.060841	2548.172199
376.447079	2547.136242
376.833254	2551.504402
377.219367	2548.585574
377.605417	2548.192364
377.991404	2548.809905
378.377329	2553.364588
378.763191	2547.020296
379.148991	2551.108671
379.534727	2550.148332
379.920402	2550.133208
380.306013	2548.187323
380.691563	2553.687222
381.077049	2549.417364
381.462474	2553.057077
381.847835	2551.539690
382.233134	2551.184289
382.618371	2551.824515
383.003545	2555.118909
383.388657	2548.089020
383.773706	2554.569423
384.158693	2555.655792
384.543618	2552.316028
384.928480	2553.137736
385.313280	2554.032541
385.698017	2552.799978
386.082692	2553.639331
386.467305	2553.730071
386.851856	2556.051523
387.236344	2555.328117
387.620770	2551.126315
388.005133	2551.186809
388.389435	2553.140256
388.773674	2550.402910
389.157851	2556.737120
389.541965	2557.195865
389.926018	2557.548745
390.310008	2555.108827
390.693936	2556.401883
391.077802	2554.708055
391.461606	2561.092677
391.845348	2558.365412
392.229027	2556.638817
392.612645	2557.692418
392.996200	2558.151163
393.379694	2558.103272
393.763125	2556.545556
394.146494	2558.435988
394.529801	2559.991184
394.913047	2557.866338
395.296230	2558.173848
395.679351	2559.348437
396.062410	2560.631411
396.445408	2560.321380
396.828343	2558.879610
397.211217	2561.049827
397.594028	2560.744837
397.976778	2560.631411
398.359466	2560.248283
398.742092	2560.507903
399.124656	2561.695094
399.507158	2560.626370
399.889598	2561.949673
400.271977	2560.742316
400.654294	2563.961093
401.036549	2563.424210
401.418742	2562.930177
401.800874	2563.595609
402.182944	2563.101576
402.564952	2563.041083
402.946898	2563.797256
403.328783	2562.242060
403.710606	2564.147616
404.092367	2562.768860
404.474067	2563.202399
404.855705	2563.431772
405.237282	2563.764488
405.618797	2562.695763
406.000250	2567.590724
406.381642	2563.328428
406.762972	2564.465208
407.144240	2561.642162
407.525447	2563.462019
407.906593	2560.356668
408.287677	2567.182390
408.668700	2565.256670
409.049661	2565.254149
409.430560	2566.675754
409.811399	2567.298337
410.192176	2564.230795
410.572891	2564.707184
410.953545	2569.254305
411.334138	2569.748338
411.714669	2568.293965
412.095139	2567.401681
412.475547	2565.579303
412.855894	2567.442010
413.236180	2568.659448
413.616405	2568.848492
413.996568	2569.302196
414.376670	2569.581980
414.756711	2568.299006
415.136691	2567.116855
415.516609	2571.583318
415.896466	2568.843451
416.276262	2568.089798
416.655997	2566.567370
417.035670	2567.036197
417.415283	2570.784295
417.794834	2570.859912
418.174324	2568.704819
418.553753	2571.588359
418.933121	2570.386044
419.312428	2569.299675
419.691674	2568.914027
420.070859	2569.403019
420.449983	2572.266394
420.829045	2571.850499
421.208047	2572.052145
421.586988	2570.184397
421.965867	2571.711867
422.344686	2570.973338
422.723444	2571.583318
423.102141	2571.270766
423.480777	2574.292938
423.859352	2572.762948
424.237866	2572.399985
424.616319	2571.588359
424.994712	2573.418298
425.373044	2573.667835
425.751314	2571.409398
426.129524	2569.463512
426.507673	2569.723132
426.885762	2566.090981
427.263789	2574.749162
427.641756	2573.982907
428.019662	2573.693041
428.397508	2573.962742
428.775292	2572.422670
429.153016	2573.990469
429.530679	2574.383679
429.908282	2572.062227
430.285824	2572.694892
430.663305	2575.253278
431.040726	2573.708164
431.418086	2574.711354
431.795385	2574.101374
432.172624	2576.286714
432.549802	2576.105233
432.926920	2571.389233
433.303977	2575.107084
433.680974	2577.166396
434.057910	2575.512897
434.434786	2574.877712
434.811601	2574.308061
435.188355	2574.829821
435.565050	2574.993658
435.941683	2575.611200
436.318257	2577.365521
436.694770	2576.579101
437.071222	2577.428536
437.447614	2573.922413
437.823946	2578.653536
438.200218	2576.052301
438.576429	2576.574060
438.952580	2577.872157
439.328670	2578.774524
439.704700	2576.039698
440.080670	2580.438104
440.456580	2579.082034
440.832429	2580.533886
441.208218	2578.303176
441.583947	2579.064390
441.959616	2582.429360
442.335224	2579.709658
442.710773	2577.539441
443.086261	2581.252251
443.461689	2578.724112
443.837057	2579.815522
444.212365	2578.925758
444.587612	2580.561613
444.962800	2574.963411
445.337927	2576.198494
445.712995	2574.865109
446.088002	2578.991293
446.462949	2580.546489
446.837837	2580.859041
447.212664	2582.542786
447.587431	2580.314596
447.962139	2580.924576
448.336786	2583.238465
448.711374	2583.036819
449.085901	2583.815677
449.460369	2582.948599
449.834776	2583.387179
450.209124	2582.507498
450.583412	2583.309042
450.957640	2582.802406
451.331808	2582.308372
451.705917	2585.524629
452.079965	2583.119998
452.453954	2586.185020
452.827883	2583.372056
453.201752	2582.999011
453.575562	2582.406675
453.949311	2583.520770
454.323001	2580.475913
454.696632	2585.877509
455.070202	2583.641758
455.443713	2584.143352
455.817164	2582.613362
456.190556	2584.755853
456.563888	2588.158632
456.937160	2584.670153
457.310373	2585.373394
457.683526	2583.679566
458.056619	2585.645616
458.429653	2586.532859
458.802628	2587.263827
459.175542	2587.387335
459.548398	2586.658888
459.921194	2587.551172
460.293930	2588.778693
460.666607	2587.009248
461.039224	2589.262644
461.411782	2591.314394
461.784280	2589.849939
462.156719	2590.777511
462.529099	2594.134919
462.901419	2589.870103
463.273680	2585.501943
463.645882	2586.663929
464.018024	2588.398086
464.390106	2584.251737
464.762130	2591.392532
465.134094	2591.415217
465.505999	2595.359920
465.877845	2594.644076
466.249631	2595.632142
466.621358	2597.197420
466.993026	2596.612647
467.364634	2598.903851
467.736184	2598.790425
468.107674	2595.947214
468.479105	2593.305650
468.850477	2595.606936
469.221790	2594.386977
469.593043	2594.691967
469.964238	2595.904364
470.335373	2594.255907
470.706449	2595.581731
471.077467	2591.516040
471.448425	2594.916298
471.819324	2599.723038
472.190164	2601.961311
472.560945	2597.973758
472.931667	2598.079622
473.302330	2594.760023
473.672934	2596.650455
474.043479	2599.037442
474.413965	2595.440578
474.784393	2597.285641
475.154761	2594.719693
475.525070	2599.148347
475.895321	2597.409149
476.265513	2596.804210
476.635645	2596.549632
477.005719	2600.285127
477.375734	2599.629777
477.745691	2600.227154
478.115588	2600.322936
478.485427	2601.482401
478.855207	2602.936774
479.224928	2603.955087
479.594591	2607.209152
479.964194	2607.947681
480.333739	2608.252671
480.703226	2605.568256
481.072653	2606.916765
481.442022	2610.816097
481.811333	2606.909203
482.180584	2605.248143
482.549777	2607.027670
482.918912	2604.260077
483.287988	2610.886674
483.657005	2607.443566
484.025964	2612.555296
484.394864	2611.461365
484.763706	2611.254678
485.132489	2610.009513
485.501213	2613.462703
485.869879	2611.920110
486.238487	2610.765686
486.607036	2610.281735
486.975527	2612.192333
487.343959	2614.521346
487.712333	2612.784668
488.080648	2611.090840
488.448905	2613.986983
488.817104	2612.751901
489.185244	2614.995214
489.553326	2613.296345
489.921350	2617.689711
490.289315	2618.259361
490.657222	2622.294805
491.025070	2624.502830
491.392861	2621.407562
491.760593	2622.350257
492.128267	2625.233798
492.495883	2620.316152
492.863440	2619.509567
493.230939	2620.543004
493.598380	2621.616770
493.965763	2618.581995
494.333088	2620.658950
494.700354	2619.958230
495.067563	2620.603498
495.434713	2621.636934
495.801805	2620.772376
496.168839	2620.192644
496.535815	2624.051647
496.902733	2625.032151
497.269593	2624.442336
497.636395	2625.357306
498.003139	2626.852008
498.369825	2629.135651
498.736453	2626.889817
499.103023	2631.570528
499.469535	2631.313429
499.835989	2630.484159
500.202385	2630.116155
500.568723	2631.394087
500.935003	2631.454581
501.301226	2632.951804
501.667390	2640.233751
502.033497	2643.807929
502.399546	2643.364307
502.765537	2644.503608
503.131470	2646.308341
503.497345	2648.687766
503.863163	2651.251192
504.228923	2651.835966
504.594625	2655.861328
504.960269	2657.106493
505.325856	2659.803510
505.691385	2662.329128
506.056856	2668.680982
506.422270	2670.873884
506.787625	2674.816066
507.152924	2676.010820
507.518164	2681.334278
507.883347	2682.418126
508.248472	2690.678057
508.613540	2695.595702
508.978550	2698.496886
509.343503	2703.543081
509.708398	2708.231354
510.073236	2716.690411
510.438016	2721.071173
510.802738	2725.943448
511.167403	2732.426372
511.532010	2737.412073
511.896561	2753.490834
512.261053	2759.131885
512.625488	2766.620519
512.989866	2775.263577
513.354186	2783.732716
513.718449	2792.713531
514.082655	2808.628454
514.446803	2820.702017
514.810894	2833.078050
515.174927	2842.585666
515.538904	2858.823223
515.902822	2874.697816
516.266684	2889.032337
516.630488	2897.630025
516.994235	2917.585433
517.357925	2938.115532
517.721558	2962.360961
518.085133	2979.064824
518.448651	2998.629542
518.812112	3011.512211
519.175516	3036.985161
519.538863	3062.760581
519.902152	3082.098447
520.265385	3118.893829
520.628560	3139.751603
520.991678	3164.065088
521.354739	3196.827547
521.717743	3229.322825
522.080690	3254.253851
522.443580	3297.723721
522.806413	3328.179852
523.169189	3366.739637
523.531908	3402.325142
523.894569	3431.034513
524.257174	3473.614619
524.619722	3521.498019
524.982213	3550.719067
525.344647	3598.710852
525.707025	3648.376300
526.069345	3693.151828
526.431608	3744.175867
526.793815	3809.196669
527.155964	3822.205367
527.518057	3881.650653
527.880093	3933.077984
528.242072	3987.512363
528.603995	4028.091131
528.965860	4075.810693
529.327669	4149.174605
529.689421	4195.626317
530.051117	4247.421653
530.412755	4331.009024
530.774337	4363.980691
531.135862	4423.443621
531.497331	4500.669057
531.858743	4535.662227
532.220098	4658.568078
532.581396	4675.029966
532.942638	4771.555459
533.303824	4837.813865
533.664953	4919.861164
534.026025	4977.342921
534.387040	5056.708326
534.747999	5162.058359
535.108902	5248.637656
535.469748	5281.942039
535.830537	5391.418257
536.191270	5474.171317
536.551947	5578.031690
536.912567	5586.432772
537.273131	5722.312033
537.633638	5766.180154
537.994089	5916.197331
538.354483	5921.319143
538.714821	6091.972283
539.075103	6214.532815
539.435328	6276.004645
539.795497	6294.379651
540.155609	6460.016843
540.515665	6607.457990
540.875665	6574.992959
541.235609	6712.450101
541.595496	6831.234809
541.955328	6988.523851
542.315102	7081.276040
542.674821	7116.440609
543.034483	7189.870056
543.394090	7304.994886
543.753640	7373.037860
544.113134	7595.055317
544.472571	7655.085377
544.831953	7856.333279
545.191278	7851.289605
545.550548	7973.736711
545.909761	8080.251251
546.268918	8279.124770
546.628019	8372.930561
546.987064	8481.882498
547.346053	8520.643930
547.704986	8649.299218
548.063863	8816.594949
548.422684	8879.974856
548.781449	8929.025283
549.140158	9152.368563
549.498811	9204.088281
549.857408	9198.134678
550.215949	9454.159758
550.574434	9476.882759
550.932864	9663.239094
551.291237	9811.872474
551.649555	9920.312734
552.007817	10058.979753
552.366022	10161.728551
552.724173	10252.562581
553.082267	10375.332321
553.440305	10656.207770
553.798288	10538.411128
554.156215	10851.368479
554.514086	11008.539053
554.871902	10898.079811
555.229661	11123.555499
555.587365	11217.210055
555.945014	11270.865576
556.302606	11519.381857
556.660143	11581.453585
557.017625	11834.272491
557.375050	11783.341714
557.732421	12032.939323
558.089735	12121.204886
558.446994	12235.553379
558.804197	12397.530693
559.161345	12534.992876
559.518437	12485.118220
559.875474	12778.084876
560.232455	12935.308382
560.589381	13035.992828
560.946251	13111.900002
561.303065	13429.717025
561.659825	13594.020832
562.016528	13519.089121
562.373177	13536.904559
562.729770	13788.692549
563.086307	13913.756015
563.442789	14110.050984
563.799216	14149.336696
564.155587	14248.372683
564.511904	14394.026742
564.868164	14446.250575
565.224370	14607.917858
565.580520	14623.757163
565.936615	14857.727196
566.292654	14759.475107
566.648638	15122.584378
567.004567	15108.822028
567.360441	15199.298136
567.716260	15152.455735
568.072023	15499.045144
568.427732	15453.825994
568.783385	15428.859680
569.138982	15667.979251
569.494525	15840.174984
569.850013	15808.685416
570.205445	15963.068232
570.560823	15924.291677
570.916145	15924.969712
571.271412	16099.532267
571.626625	16101.510920
571.981782	16241.186169
572.336884	16202.139912
572.691931	16412.600523
573.046923	16299.048533
573.401860	16373.420676
573.756743	16479.544526
574.111570	16495.250241
574.466342	16552.164868
574.821059	16732.698669
575.175722	16600.527177
575.530330	16724.025364
575.884882	16806.932180
576.239380	16854.971856
576.593823	16844.524064
576.948211	16905.801810
577.302544	16875.171759
577.656823	16877.551184
578.011047	17048.163995
578.365216	17030.661108
578.719330	17030.908125
579.073389	17013.329622
579.427394	17240.834374
579.781344	17113.850229
580.135239	17145.206206
580.489080	17166.883168
580.842866	17039.649486
581.196597	17301.595401
581.550273	17317.061661
581.903895	17348.732710
582.257463	17668.387235
582.610975	17352.369903
582.964434	17661.806008
583.317837	17500.378180
583.671186	17644.046023
584.024481	17679.994491
584.377721	17548.291827
584.730906	17666.272471
585.084037	17761.850227
585.437113	17738.219818
585.790135	17969.560889
586.143103	17576.446671
586.496016	17632.242162
586.848874	17937.473945
587.201679	17930.060928
587.554428	17669.919745
587.907124	18030.876443
588.259765	17876.755767
588.612352	18023.682717
588.964884	17676.173297
589.317362	17893.759579
589.669786	17985.717787
590.022155	18083.407787
590.374470	18279.138147
590.726731	18162.609355
591.078937	17974.160942
591.431090	18128.211042
591.783188	17932.311803
592.135232	17947.876366
592.487222	18102.536445
592.839157	18170.453390
593.191038	18109.031972
593.542866	18037.795427
593.894639	17828.847162
594.246358	18070.114264
594.598022	18016.267179
594.949633	17826.808015
595.301190	17822.308785
595.652692	18006.154625
596.004141	18281.215102
596.355535	17675.243204
596.706876	17714.475984
597.058162	17643.357906
597.409395	17877.932877
597.760573	18016.751130
598.111698	17830.155341
598.462768	17800.271381
598.813785	17783.668341
599.164748	17638.478069
599.515657	17691.271552
599.866511	17516.708998
600.217312	17888.055513
600.568060	17454.614585
600.918753	17784.646325
601.269392	17719.416314
601.619978	17500.070669
601.970510	17755.069875
602.320988	17714.541519
602.671412	17929.899611
603.021783	17850.854319
603.372100	17627.195967
603.722363	17774.077546
604.072572	17721.319350
604.422728	17864.949385
604.772830	17675.974171
605.122878	17609.879603
605.472872	17637.986556
605.822813	17636.423799
606.172701	17602.839632
606.522534	17827.415474
606.872314	17868.271505
607.222041	17706.452987
607.571714	17928.777954
607.921333	17781.727497
608.270899	17865.803860
608.620411	18072.823884
608.969870	17817.391139
609.319276	17846.536570
609.668627	17884.360348
610.017926	18028.260084
610.367171	18168.646137
610.716362	18212.587354
611.065500	18038.188637
611.414585	18161.921237
611.763616	18152.189290
612.112594	18121.090412
612.461518	18099.085775
612.810389	18303.300397
613.159207	18146.071850
613.507971	18065.229386
613.856682	18381.476090
614.205340	18310.053022
614.553945	18460.292010
614.902496	18190.265125
615.250994	18465.151682
615.599439	18396.871774
615.947830	18385.496410
616.296169	18411.821316
616.644454	18394.971259
616.992686	18371.234986
617.340864	18576.112520
617.688990	18355.806535
618.037063	18539.433084
618.385082	18383.427017
618.733048	18668.554678
619.080961	18525.332977
619.428821	18574.388445
619.776628	18473.938413
620.124382	18401.252537
620.472083	18425.082071
620.819731	18459.734962
621.167326	18158.427718
621.514868	18210.338999
621.862357	17963.514025
622.209793	17991.547881
622.557176	17831.720619
622.904506	17658.257036
623.251783	17562.102067
623.599007	17352.616919
623.946179	17300.483827
624.293297	17244.915188
624.640363	16995.181468
624.987376	17019.192483
625.334336	16807.010318
625.681243	16659.606980
626.028097	16665.023699
626.374899	16599.985253
626.721647	16481.624002
627.068343	16310.892724
627.414987	16232.442288
627.761577	16221.482819
628.108115	16273.557939
628.454600	15981.851571
628.801032	16081.142137
629.147412	16008.960376
629.493739	16032.003490
629.840014	15844.293606
630.186236	15947.158351
630.532405	15709.188163
630.878521	15900.439457
631.224585	15796.291739
631.570597	15620.421005
631.916556	15655.179761
632.262462	15645.803215
632.608316	15555.145625
632.954117	15504.597975
633.299866	15495.670092
633.645562	15418.850469
633.991206	15170.142623
634.336797	15047.657708
634.682336	15005.352345
635.027823	14909.346091
635.373257	14792.119099
635.718639	14682.032902
636.063968	14640.156037
636.409245	14389.257810
636.754470	14414.309824
637.099642	14266.735086
637.444762	14036.417370
637.789829	14086.770935
638.134845	13937.434314
638.479808	13954.909474
638.824719	13918.600563
639.169577	13761.490483
639.514383	13813.474862
639.859137	13629.878559
640.203839	13705.700034
640.548489	13542.578377
640.893086	13531.376934
641.237632	13397.317529
641.582125	13547.203636
641.926566	13380.170045
642.270955	13393.304771
642.615292	13361.313609
642.959576	13373.770300
643.303809	13403.117377
643.647990	13344.002286
643.992118	13396.379875
644.336195	13172.608097
644.680219	13361.767313
645.024192	13293.179894
645.368112	13523.147250
645.711981	13597.133744
646.055797	13769.616823
646.399562	13728.390267
646.743274	14001.661135
647.086935	14277.560964
647.430544	14243.386982
647.774101	14264.519499
648.117606	14427.847843
648.461059	14386.790165
648.804460	14391.395259
649.147810	14116.901912
649.491108	14018.770811
649.834354	14040.193194
650.177548	13746.190581
650.520690	13553.467270
650.863781	13469.315289
651.206820	13512.853214
651.549807	13334.461903
651.892742	13149.817040
652.235626	13093.005757
652.578458	13095.554060
652.921238	12769.134308
653.263967	12968.559833
653.606644	12795.812094
653.949269	12767.132969
654.291843	12586.188314
654.634365	12734.587280
654.976836	12575.503588
655.319255	12603.925614
655.661622	12547.810010
656.003938	12471.751601
656.346203	12394.478274
656.688416	12463.307668
657.030577	12427.860795
657.372687	12355.358920
657.714746	12321.578148
658.056753	12510.823064
658.398708	12333.855879
658.740612	12338.186230
659.082465	12430.514962
659.424266	12389.764795
659.766016	12412.102148
660.107715	12320.189311
660.449362	12395.511711
660.790958	12353.171060
661.132503	12310.820326
661.473996	12358.459230
661.815438	12389.185063
662.156829	12389.598437
662.498168	12375.397507
662.839456	12370.802495
663.180693	12399.829459
663.521879	12480.455153
663.863013	12466.644912
664.204097	12446.611367
664.545129	12557.163871
664.886110	12519.806400
665.227040	12606.824277
665.567918	12619.843057
665.908746	12658.354952
666.249522	12630.326136
666.590248	12676.608970
666.930922	12796.336374
667.271545	12782.342131
667.612118	12858.768543
667.952639	12769.630861
668.293109	12773.225204
668.633528	12731.088719
668.973896	12702.946478
669.314213	12799.156899
669.654480	12534.093030
669.994695	12586.263931
670.334859	12619.371709
670.674973	12559.689489
671.015035	12602.824122
671.355047	12539.184595
671.695008	12517.094259
672.034918	12517.389167
672.374777	12573.063670
672.714585	12472.505253
673.054342	12507.720234
673.394049	12452.554887
673.733705	12553.788818
674.073310	12467.239768
674.412864	12478.226963
674.752368	12361.937626
675.091820	12357.912265
675.431223	12359.424611
675.770574	12235.634037
676.109875	12151.633291
676.449125	12119.730348
676.788324	12049.658310
677.127473	11890.637632
677.466571	11878.193544
677.805619	11786.416818
678.144616	11697.863909
678.483562	11661.726398
678.822458	11530.230421
679.161303	11516.790704
679.500098	11508.145126
679.838842	11464.695421
680.177535	11472.289919
680.516179	11544.968234
680.854771	11486.566467
681.193314	11701.939682
681.531805	11843.253307
681.870247	12240.448339
682.208638	12653.139878
682.546978	12968.796767
682.885268	13038.629351
683.223508	12734.506622
683.561697	12562.812483
683.899836	12460.257770
684.237925	12272.646189
684.575963	12191.420597
684.913951	12120.002571
685.251889	12054.122252
685.589776	12155.688899
685.927614	12092.654311
686.265401	12044.964996
686.603137	12096.304107
686.940824	12238.704100
687.278460	12355.152233
687.616046	12407.703741
687.953582	12581.608426
688.291068	12506.495233
688.628504	12732.785068
688.965889	12737.160789
689.303224	12711.836553
689.640510	12614.368364
689.977745	12315.402735
690.314930	12082.027559
690.652065	11997.424394
690.989150	11708.916639
691.326185	11488.189718
691.663170	11283.952411
692.000105	11040.202540
692.336990	10935.833012
692.673825	10688.642553
693.010610	10568.471528
693.347345	10362.303459
693.684030	10153.839145
694.020665	10102.225291
694.357251	9900.057378
694.693786	9859.634886
695.030272	9688.192805
695.366707	9567.580679
695.703093	9502.733796
696.039429	9490.624945
696.375716	9422.634903
696.711952	9299.431623
697.048139	9333.106531
697.384276	9282.120301
697.720363	9299.913054
698.056400	9236.969207
698.392388	9188.319552
698.728326	9153.097010
699.064214	9083.471113
699.400053	9137.499680
699.735842	8954.039488
700.071581	8910.587263
700.407270	8839.491870
700.742910	8759.082946
701.078501	8671.729832
701.414042	8545.516983
701.749533	8475.417219
702.084974	8340.142896
702.420366	8445.840769
702.755709	8335.005961
703.091002	8208.341929
703.426246	8228.141061
703.761440	8181.901077
704.096584	8132.870815
704.431679	8072.936537
704.766725	8058.513796
705.101721	8002.370465
705.436668	8045.482413
705.771565	7947.303421
706.106413	8025.151439
706.441212	8069.989982
706.775961	8021.332765
707.110661	8052.333341
707.445311	8202.292544
707.779913	8101.446782
708.114465	8227.818427
708.448967	8267.661186
708.783421	8402.872494
709.117825	8587.721523
709.452180	8623.483469
709.786485	8708.222744
710.120742	8987.777410
710.454949	8987.656423
710.789107	9082.886339
711.123216	9288.411661
711.457275	9452.435684
711.791286	9616.144634
712.125247	9605.354045
712.459159	9602.435217
712.793023	9865.215443
713.126837	9438.650649
713.460602	9584.826466
713.794318	9407.571935
714.127985	9440.977141
714.461602	9130.810068
714.795171	9075.037263
715.128691	8838.231582
715.462162	8583.413857
715.795584	8527.187348
716.128957	8394.196668
716.462281	8220.448260
716.795556	8265.841330
717.128782	8065.505876
717.461960	7792.177035
717.795088	7863.988272
718.128167	7772.970239
718.461198	7608.195084
718.794180	7551.023358
719.127113	7546.279633
719.459997	7401.159937
719.792833	7161.478277
720.125619	7223.366002
720.458357	7090.450940
720.791046	7071.891932
721.123686	7076.653302
721.456278	6918.567759
721.788821	6931.203411
722.121315	6829.190622
722.453761	6893.727473
722.786158	6840.031623
723.118506	6854.978644
723.450805	6815.977757
723.783056	6888.366206
724.115259	6787.633870
724.447412	6781.186234
724.779518	6830.002247
725.111574	6834.158679
725.443582	6909.569299
725.775542	6896.948770
726.107453	7078.314362
726.439315	6991.712380
726.771129	7044.357150
727.102895	7214.803603
727.434612	7325.192269
727.766281	7348.532811
728.097901	7437.103364
728.429473	7421.349758
728.760996	7397.308495
729.092471	7379.729992
729.423897	7329.815007
729.755276	7342.695155
730.086606	7274.710154
730.417887	7370.592901
730.749120	7543.925414
731.080305	7738.317347
731.411442	7876.787761
731.742530	7874.788944
732.073570	7974.961712
732.404562	8059.343065
732.735506	7905.229951
733.066401	8052.582878
733.397249	7988.618197
733.728048	7752.354440
734.058798	7422.423524
734.389501	7203.708023
734.720156	7021.402256
735.050762	6790.078829
735.381320	6684.670823
735.711831	6646.572303
736.042293	6531.129880
736.372707	6557.225413
736.703073	6419.543939
737.033391	6452.795390
737.363661	6468.231403
737.693883	6485.681357
738.024056	6569.735036
738.354182	6618.871163
738.684260	6655.565721
739.014290	6761.263594
739.344272	6867.596652
739.674207	6894.796198
740.004093	6961.891435
740.333931	6977.408106
740.663722	6989.285065
740.993464	7067.775830
741.323159	7061.602937
741.652806	6815.093035
741.982405	6811.460883
742.311956	6871.291818
742.641460	6729.688327
742.970915	6533.012751
743.300323	6524.110073
743.629683	6467.911290
743.958996	6336.412792
744.288260	6251.151757
744.617477	6191.562798
744.946647	6201.267019
745.275768	6042.054778
745.604842	5999.502398
745.933869	5978.069933
746.262847	5931.159475
746.591778	5921.989617
746.920662	5878.204675
747.249498	5867.918200
747.578286	5919.595068
747.907027	5993.395040
748.235720	6051.043155
748.564365	6025.487026
748.892963	6038.873810
749.221514	6205.123502
749.550017	6047.491662
749.878473	5916.577938
750.206881	5967.854034
750.535242	5910.397483
750.863555	5840.116237
751.191821	5861.152972
751.520039	5867.000710
751.848210	5776.917812
752.176334	5784.545078
752.504411	5843.841650
752.832440	5770.071925
753.160421	5692.717940
753.488356	5745.277010
753.816243	5776.083501
754.144082	5631.246110
754.471875	5594.879226
754.799620	5643.072657
755.127318	5653.744779
755.454969	5610.058140
755.782572	5575.064971
756.110129	5615.348831
756.437638	5608.457574
756.765100	5548.455240
757.092515	5541.127923
757.419882	5584.063430
757.747203	5571.044650
758.074477	5635.170648
758.401703	5626.199915
758.728882	5574.863324
759.056014	5617.496362
759.383099	5758.169761
759.710138	5773.008397
760.037129	5749.335138
760.364073	5757.751345
760.690970	5837.288150
761.017820	5824.682744
761.344623	5772.922697
761.671379	5866.481472
761.998088	5983.355582
762.324751	6207.757505
762.651366	6781.496265
762.977935	8044.433853
763.304456	9651.125201
763.630931	10572.854811
763.957359	10231.851001
764.283740	9307.129465
764.610074	8498.745158
764.936362	7522.808020
765.262602	6925.577483
765.588796	6382.577158
765.914943	6035.725609
766.241044	5880.526126
766.567097	5693.128794
766.893104	5437.315442
767.219064	5256.564871
767.544978	5194.803174
767.870845	5123.657370
768.196665	5004.366026
768.522438	4934.329276
768.848165	4912.251542
769.173846	4844.178321
769.499479	4802.586282
769.825066	4748.232561
770.150607	4688.371379
770.476101	4663.755425
770.801548	4660.579498
771.126949	4591.613993
771.452303	4536.103328
771.777611	4490.375021
772.102872	4508.623998
772.428087	4470.585972
772.753256	4432.926032
773.078378	4389.930031
773.403453	4322.023168
773.728482	4309.858863
774.053465	4261.196605
774.378401	4245.879059
774.703291	4254.781737
775.028135	4187.033671
775.352932	4134.945948
775.677683	4119.179740
776.002388	4137.799242
776.327046	4150.775172
776.651658	4079.687341
776.976224	4012.677803
777.300743	4017.179553
777.625216	4040.275600
777.949643	4039.307698
778.274024	3994.012931
778.598359	3946.648770
778.922647	3963.960092
779.246889	3960.564875
779.571086	3958.997076
779.895236	3945.721198
780.219339	3931.787448
780.543397	3918.362856
780.867409	3968.928149
781.191374	3986.042867
781.515294	3927.308383
781.839167	3919.182043
782.162995	3936.770629
782.486776	3922.307559
782.810511	3929.539094
783.134201	3937.073098
783.457844	3893.686408
783.781441	3832.380936
784.104993	3837.941328
784.428498	3855.353474
784.751958	3857.354812
785.075372	3836.169363
785.398739	3796.576141
785.722061	3804.889003
786.045337	3849.427597
786.368568	3885.524780
786.691752	3797.775935
787.014891	3842.483408
787.337983	3961.966316
787.661030	4117.501036
787.984031	4281.318371
788.306987	4450.650729
788.629897	4529.217111
788.952760	4487.907376
789.275579	4416.922889
789.598351	4359.272253
789.921078	4231.607553
790.243759	4028.053322
790.566395	4006.489787
790.888984	4002.298067
791.211529	3894.984505
791.534027	3837.482583
791.856480	3834.054599
792.178888	3770.064713
792.501249	3717.031774
792.823566	3728.424782
793.145836	3758.487703
793.468062	3711.239488
793.790241	3661.415244
794.112375	3690.318700
794.434464	3751.165427
794.756507	3776.529992
795.078505	3763.259155
795.400457	3787.701189
795.722364	3921.755552
796.044226	4021.487219
796.366042	4096.852469
796.687812	4084.259667
797.009538	4093.127057
797.331218	4047.602917
797.652852	4016.904811
797.974442	3998.746574
798.295986	4004.574148
798.617484	3922.584822
798.938938	3833.016121
799.260346	3872.644632
799.581709	3869.622460
799.903026	3801.067809
800.224299	3765.285699
800.545526	3758.649020
800.866708	3721.962022
801.187845	3658.766118
801.508936	3694.263403
801.829983	3695.695090
802.150984	3618.731795
802.471940	3603.015998
802.792851	3617.723564
803.113717	3613.776340
803.434538	3618.830097
803.755314	3569.008374
804.076045	3537.659958
804.396731	3553.118657
804.717372	3580.519848
805.037967	3569.323446
805.358518	3559.778021
805.679024	3583.529417
805.999485	3592.656426
806.319901	3600.364351
806.640272	3613.302472
806.960598	3629.789566
807.280879	3600.964248
807.601115	3610.204683
807.921306	3627.483238
808.241453	3670.353210
808.561554	3647.703306
808.881611	3583.531938
809.201623	3613.093264
809.521590	3631.972385
809.841513	3602.116152
810.161390	3630.402066
810.481223	3612.359776
810.801011	3555.346847
811.120755	3545.070455
811.440453	3584.018409
811.760107	3586.949840
812.079716	3546.628171
812.399281	3511.889580
812.718801	3535.351110
813.038276	3508.333046
813.357707	3509.873118
813.677093	3525.541025
813.996434	3475.805001
814.315731	3479.318685
814.634983	3480.828511
814.954191	3495.034482
815.273354	3520.295704
815.592473	3524.116899
815.911547	3523.738812
816.230577	3564.194072
816.549562	3613.496556
816.868502	3657.455418
817.187399	3684.476003
817.506250	3677.297399
817.825058	3646.536279
818.143821	3736.614136
818.462539	3840.613140
818.781213	3885.504615
819.099843	3935.412038
819.418429	4164.950896
819.736970	4405.421496
820.055466	4638.605109
820.373919	4998.682125
820.692327	5400.613321
821.010691	5806.080887
821.329011	7096.074347
821.647286	9704.964724
821.965517	14103.013533
822.283704	18099.378162
822.601847	20380.059177
822.919945	18648.372419
823.237999	16164.011145
823.556010	13721.541860
823.873976	11694.357787
824.191897	9622.856931
824.509775	8270.254860
824.827609	7157.808317
825.145398	6600.808708
825.463144	6486.097252
825.780845	6601.569923
826.098502	6765.188132
826.416116	7574.968839
826.733685	8859.175055
827.051210	9971.248553
827.368692	10085.352549
827.686129	8897.381960
828.003522	7400.938126
828.320872	6388.099742
828.638177	5703.775711
828.955439	5156.878574
829.272656	4668.312628
829.589830	4380.366962
829.906960	4206.391701
830.224046	4025.908311
830.541088	3902.463057
830.858086	3852.308617
831.175041	3784.479892
831.491952	3760.534411
831.808819	3772.537398
832.125642	3835.680371
832.442421	3977.034325
832.759157	4238.004777
833.075849	4756.684055
833.392497	5595.330409
833.709101	6355.796028
834.025662	6713.912036
834.342179	6400.178347
834.658653	5743.119396
834.975083	5111.782932
835.291469	4544.212023
835.607811	4130.933190
835.924110	3998.139115
836.240366	3805.297337
836.556578	3599.988785
836.872746	3492.423164
837.188871	3453.820529
837.504952	3393.566138
837.820990	3312.358190
838.136984	3258.750560
838.452935	3286.499592
838.768842	3281.957512
839.084706	3303.884011
839.400526	3453.213070
839.716303	3767.468518
840.032037	4264.191051
840.347727	4548.320564
840.663373	4302.728151
840.978977	3928.319135
841.294537	3624.793782
841.610054	3399.708783
841.925527	3289.942700
842.240957	3221.806464
842.556344	3169.050789
842.871687	3115.299486
843.186987	3064.071281
843.502244	3028.085004
843.817458	2994.170642
844.132629	2961.987916
844.447756	2971.959318
844.762840	2960.891465
845.077881	2928.635642
845.392879	2910.008578
845.707833	2904.937178
846.022745	2901.420973
846.337613	2906.147054
846.652438	2893.745816
846.967221	2892.908984
847.281960	2879.257540
847.596656	2872.081457
847.911309	2869.283617
848.225919	2862.909078
848.540485	2859.970085
848.855009	2860.915302
849.169490	2851.006914
849.483928	2842.873012
849.798323	2841.348063
850.112675	2836.715242
850.426984	2846.971470
850.741251	2847.132787
851.055474	2837.756241
851.369654	2831.633759
851.683792	2835.742300
851.997887	2844.531552
852.311938	2845.605317
852.625947	2836.921930
852.939914	2841.494256
853.253837	2845.126408
853.567718	2828.661999
853.881555	2825.387770
854.195350	2843.225893
854.509103	2839.563494
854.822812	2830.927998
855.136479	2827.184941
855.450103	2830.171825
855.763685	2821.669919
856.077224	2818.383087
856.390720	2832.485714
856.704173	2842.764627
857.017584	2836.536282
857.330953	2829.488748
857.644278	2841.332939
857.957561	2850.079341
858.270802	2849.182016
858.584000	2851.072449
858.897155	2839.535768
859.210268	2837.365551
859.523339	2837.640294
859.836367	2836.644666
860.149352	2832.573935
860.462295	2825.528922
860.775195	2833.652742
861.088054	2832.952021
861.400869	2819.887871
861.713642	2815.444094
862.026373	2829.453460
862.339062	2832.120231
862.651708	2837.945284
862.964312	2843.891325
863.276873	2834.328256
863.589392	2842.416787
863.901869	2853.308200
864.214303	2874.044987
864.526696	2890.315311
864.839045	2887.212481
865.151353	2887.797254
865.463619	2884.376832
865.775842	2882.740977
866.088023	2899.989285
866.400162	2912.907242
866.712258	2883.058570
867.024313	2874.402909
867.336325	2879.282746
867.648296	2899.114645
867.960224	2889.675084
868.272110	2880.646378
868.583954	2882.677963
868.895755	2899.389388
869.207515	2884.021430
869.519233	2886.753736
869.830909	2898.542474
870.142542	2908.720563
870.454134	2910.641243
870.765684	2913.691141
871.077191	2909.711150
871.388657	2915.659712
871.700081	2930.702515
872.011463	2943.393620
872.322803	2942.667693
872.634101	2943.902776
872.945357	2958.781742
873.256571	2984.148828
873.567744	2977.431490
873.878874	2967.896148
874.189963	2991.566886
874.501010	2993.038903
874.812015	2984.325268
875.122979	2984.577326
875.433900	2980.816625
875.744780	2988.007831
876.055618	2994.694922
876.366415	2991.639983
876.677169	3001.805469
876.987882	2998.919409
877.298554	2988.398521
877.609183	3010.561953
877.919771	3031.041641
878.230317	3060.537432
878.540822	3111.347222
878.851285	3146.221924
879.161707	3182.296421
879.472087	3275.840072
879.782425	3488.879233
880.092722	3904.058582
880.402977	4410.823093
880.713191	5007.710832
881.023363	6104.522236
881.333494	7353.768050
881.643583	7920.610512
881.953631	7641.998541
882.263637	7055.959366
882.573602	6497.903635
882.883526	5934.365649
883.193408	5367.497982
883.503248	4908.626953
883.813048	4618.503508
884.122806	4333.073377
884.432522	4026.540976
884.742197	3803.822799
885.051831	3609.758541
885.361424	3472.606389
885.670975	3403.424114
885.980485	3322.957216
886.289954	3249.815115
886.599382	3208.220555
886.908768	3169.050789
887.218113	3125.643934
887.527417	3073.745255
887.836680	3024.082328
888.145901	3019.091586
888.455082	3008.943743
888.764221	2961.133440
889.073319	2931.710746
889.382376	2931.761157
889.691392	2931.887186
890.000366	2933.374326
890.309300	2919.692635
890.618193	2932.292999
890.927044	2949.412757
891.235855	2952.351750
891.544625	2933.316353
891.853353	2944.971501
892.162041	2959.467339
892.470687	2999.778925
892.779293	3050.145093
893.087858	3095.407093
893.396381	3159.628873
893.704864	3274.133641
894.013306	3497.282837
894.321707	3789.301756
894.630068	3997.720700
894.938387	3996.941841
895.246665	3952.529276
895.554903	3843.441227
895.863100	3648.577946
896.171256	3483.414622
896.479371	3354.623224
896.787446	3234.086715
897.095480	3135.385964
897.403473	3070.725604
897.711425	3033.310160
898.019336	3023.842873
898.327207	3000.656086
898.635038	2966.981178
898.942827	2949.954681
899.250576	2939.890018
899.558284	2909.789288
899.865952	2890.481669
900.173579	2869.465098
900.481165	2864.726414
900.788711	2850.873323
901.096216	2829.849191
901.403681	2816.457366
901.711105	2823.131853
902.018489	2823.641010
902.325832	2822.476503
902.633135	2827.865497
902.940397	2859.372708
903.247619	2938.874225
903.554800	3112.446193
903.861941	3433.421500
904.169041	3842.775795
904.476101	4144.758554
904.783121	4121.312148
905.090100	3890.215573
905.397039	3626.296046
905.703938	3381.570712
906.010796	3201.117569
906.317614	3093.443564
906.624391	3004.061386
906.931129	2933.911209
907.237826	2875.877446
907.544483	2827.835250
907.851099	2798.654531
908.157675	2777.917745
908.464211	2760.102307
908.770707	2743.831983
909.077163	2734.256311
909.383578	2719.188302
909.689954	2707.381920
909.996289	2705.221786
910.302584	2706.971066
910.608839	2710.646067
910.915054	2703.215406
911.221229	2696.790456
911.527363	2699.069057
911.833458	2703.432176
912.139513	2708.359904
912.445527	2710.061293
912.751502	2720.718292
913.057436	2730.074674
913.363331	2743.474061
913.669186	2761.251690
913.975000	2791.801082
914.280775	2850.734691
914.586510	2913.597880
914.892205	2988.814416
915.197859	3107.624330
915.503475	3289.478913
915.809050	3494.996673
916.114585	3637.983961
916.420081	3662.168897
916.725536	3607.275773
917.030952	3493.416272
917.336328	3372.358003
917.641665	3247.975094
917.946961	3151.721823
918.252218	3084.674477
918.557435	3011.333250
918.862612	2955.028603
919.167750	2904.004564
919.472848	2866.712628
919.777906	2845.123887
920.082925	2819.103972
920.387904	2790.024076
920.692843	2772.934564
920.997743	2762.582555
921.302603	2748.535379
921.607423	2739.615058
921.912204	2729.222719
922.216946	2717.567571
922.521647	2708.264122
922.826310	2702.668441
923.130932	2695.840198
923.435516	2685.536080
923.740059	2679.148938
924.044564	2670.420180
924.349028	2667.413132
924.653454	2661.492297
924.957840	2656.239414
925.262186	2651.979639
925.566493	2646.643578
925.870761	2643.162661
926.174989	2640.702578
926.479178	2634.368368
926.783328	2630.849643
927.087438	2628.102214
927.391509	2626.289919
927.695541	2623.839918
927.999533	2623.189610
928.303486	2616.794906
928.607400	2617.394803
928.911275	2616.348764
929.215110	2615.002776
929.518906	2614.990173
929.822663	2615.632920
930.126381	2615.700976
930.430060	2615.741305
930.733699	2617.233486
931.037299	2619.383538
931.340861	2616.200050
931.644383	2617.281377
931.947866	2616.336161
932.251309	2614.360029
932.554714	2613.596294
932.858080	2615.587550
933.161407	2611.131170
933.464694	2610.866509
933.767943	2607.998092
934.071153	2610.720316
934.374323	2609.107146
934.677455	2610.750562
934.980548	2610.130501
935.283602	2607.630088
935.586617	2607.652773
935.889593	2608.779471
936.192530	2608.585387
936.495428	2610.773248
936.798287	2606.626899
937.101108	2614.291973
937.403890	2615.312807
937.706632	2617.934207
938.009336	2627.741772
938.312002	2631.822586
938.614628	2642.756848
938.917216	2648.682725
939.219765	2651.228507
939.522275	2650.363949
939.824747	2647.550986
940.127179	2643.714667
940.429573	2642.918165
940.731929	2640.538741
941.034246	2634.764099
941.336524	2633.589510
941.638763	2630.131278
941.940964	2631.028604
942.243126	2626.509209
942.545250	2628.845784
942.847335	2622.960237
943.149381	2621.016872
943.451389	2616.772221
943.753359	2613.969339
944.055290	2612.600666
944.357182	2613.046808
944.659036	2610.248968
944.960851	2609.235696
945.262628	2608.308123
945.564367	2608.701333
945.866067	2612.862806
946.167729	2608.983638
946.469352	2610.518669
946.770937	2606.803339
947.072484	2609.568412
947.373992	2609.306272
947.675462	2606.541199
947.976893	2601.686568
948.278286	2599.886876
948.579641	2602.767895
948.880958	2596.796649
949.182236	2597.908223
949.483476	2597.068871
949.784678	2601.172370
950.085841	2599.990220
950.386967	2603.617330
950.688054	2600.411156
950.989103	2603.549274
951.290114	2602.304109
951.591087	2602.795622
951.892021	2604.754110
952.192917	2609.734770
952.493776	2612.051180
952.794596	2613.687035
953.095378	2612.928341
953.396122	2613.238372
953.696828	2610.213680
953.997496	2608.083792
954.298126	2606.064810
954.598718	2605.946343
954.899272	2602.906527
955.199788	2600.824531
955.500266	2597.636001
955.800706	2597.593151
956.101108	2594.976792
956.401472	2590.936307
956.701798	2591.722727
957.002087	2587.246183
957.302337	2587.190730
957.602550	2587.795668
957.902724	2584.536562
958.202861	2584.700400
958.502960	2580.712847
958.803022	2582.159658
959.103045	2582.401634
959.403031	2578.832497
959.702979	2578.179667
960.002889	2579.132446
960.302762	2577.582291
960.602596	2580.682600
960.902393	2576.533731
961.202153	2574.872671
961.501875	2577.466344
961.801559	2578.124215
962.101205	2577.337795
962.400814	2580.990111
962.700385	2577.194122
962.999918	2573.811508
963.299414	2571.903431
963.598873	2572.533575
963.898293	2570.383523
964.197677	2576.170768
964.497022	2574.197156
964.796331	2574.441652
965.095601	2573.831672
965.394835	2573.909810
965.694030	2575.454924
965.993189	2573.902248
966.292309	2573.516600
966.591393	2573.718246
966.890439	2573.357804
967.189447	2575.659091
967.488419	2574.368555
967.787353	2572.911662
968.086249	2574.421487
968.385108	2574.131621
968.683930	2574.794533
968.982714	2573.332598
969.281462	2574.398802
969.580172	2572.992320
969.878844	2573.536765
970.177480	2574.570201
970.476078	2574.063565
970.774639	2574.580284
971.073162	2574.431570
971.371649	2577.491550
971.670098	2572.672207
971.968510	2570.953173
972.266885	2573.655232
972.565223	2574.300500
972.863524	2574.381158
973.161788	2575.336457
973.460014	2576.795871
973.758204	2576.745459
974.056356	2574.290417
974.354471	2572.720098
974.652550	2573.274625
974.950591	2573.549368
975.248595	2572.861250
975.546563	2572.939388
975.844493	2574.653380
976.142386	2573.456106
976.440243	2575.049111
976.738062	2571.921075
977.035845	2571.696744
977.333590	2574.335788
977.631299	2572.407546
977.928971	2569.239181
978.226606	2569.024932
978.524204	2571.432083
978.821765	2569.642473
979.119290	2571.840417
979.416777	2572.722618
979.714228	2574.464337
980.011642	2571.573235
980.309020	2571.432083
980.606360	2573.985427
980.903664	2571.479974
981.200931	2572.402505
981.498162	2572.495767
981.795356	2574.713874
982.092513	2576.742939
982.389633	2576.337126
982.686717	2581.862230
982.983764	2585.025554
983.280775	2585.985894
983.577749	2587.906574
983.874686	2590.278437
984.171587	2583.130081
984.468451	2584.133270
984.765279	2581.693352
985.062070	2581.748804
985.358824	2577.279822
985.655543	2579.082034
985.952224	2576.715212
986.248869	2574.998699
986.545478	2572.949470
986.842050	2569.617268
987.138586	2570.978379
987.435086	2570.164233
987.731549	2571.394274
988.027975	2568.908986
988.324366	2570.320509
988.620719	2569.203893
988.917037	2571.553071
989.213318	2569.798749
989.509563	2567.767164
989.805772	2569.576938
990.101944	2568.639284
990.398080	2570.373441
990.694180	2568.117524
990.990244	2570.527196
991.286271	2568.568708
991.582262	2569.939902
991.878217	2571.001064
992.174136	2570.786815
992.470019	2567.174829
992.765865	2566.554767
993.061676	2562.693243
993.357450	2568.165415
993.653188	2564.503017
993.948890	2569.171126
994.244556	2567.966290
994.540186	2569.418142
994.835780	2571.865622
995.131337	2570.859912
995.426859	2570.053327
995.722345	2572.019377
996.017795	2572.919223
996.313208	2573.892166
996.608586	2571.669017
996.903928	2574.285376
997.199234	2575.553226
997.494504	2574.771848
997.789738	2572.697413
998.084936	2569.685323
998.380099	2573.796384
998.675225	2571.366548
998.970316	2571.041394
999.265371	2571.532906
999.560390	2571.207752
999.855373	2571.192628
1000.150320	2569.037535
1000.445232	2567.535271
1000.740108	2568.682134
1001.034948	2565.962431
1001.329752	2565.985116
1001.624521	2568.724983
1001.919254	2567.560477
1002.213951	2568.273800
1002.508613	2565.980075
1002.803239	2569.070302
1003.097829	2566.640466
1003.392384	2568.135168
1003.686903	2566.781619
1003.981386	2571.515262
1004.275834	2562.988150
1004.570246	2568.719942
1004.864623	2568.309088
1005.158964	2565.896896
1005.453270	2564.127451
1005.747540	2570.065930
1006.041775	2565.233984
1006.335974	2566.799263
1006.630138	2566.017884
1006.924266	2567.754561
1007.218359	2565.075188
1007.512416	2565.352452
1007.806438	2563.399004
1008.100425	2562.224416
1008.394376	2563.870352
1008.688292	2565.942267
1008.982172	2567.865467
1009.276017	2566.554767
1009.569827	2566.890003
1009.863602	2566.237174
1010.157341	2564.182904
1010.451045	2567.777247
1010.744714	2564.934036
1011.038347	2570.098698
1011.331945	2567.671382
1011.625508	2568.266238
1011.919036	2564.490414
1012.212528	2567.910837
1012.505986	2564.891186
1012.799408	2565.271793
1013.092795	2566.511917
1013.386147	2565.478480
1013.679464	2563.078891
1013.972745	2565.982596
1014.265992	2566.542164
1014.559204	2567.058882
1014.852380	2565.523851
1015.145521	2566.206927
1015.438628	2566.854715
1015.731699	2563.812379
1016.024736	2565.619633
1016.317737	2565.886814
1016.610703	2566.383367
1016.903635	2565.619633
1017.196531	2565.365054
1017.489393	2565.032338
1017.782219	2564.319015
1018.075011	2567.908317
1018.367768	2565.077709
1018.660490	2566.075857
1018.953177	2566.075857
1019.245829	2566.075857
