Dividing Wavelength (nm)	Counts (n)	Blue Motor Position (mm): 26.900000	Red Motor Position (mm): 0.000000	
326.493990	2203.178315
326.888308	2203.178315
327.282561	2203.178315
327.676750	2163.368323
328.070874	2159.529485
328.464933	2163.595175
328.858929	2161.964362
329.252859	2167.917965
329.646726	2175.988852
330.040528	2188.574093
330.434265	2204.052955
330.827938	2221.641541
331.221547	2237.261556
331.615091	2254.099010
332.008571	2275.292021
332.401986	2295.875052
332.795338	2314.484472
333.188625	2331.029538
333.581847	2349.676767
333.975006	2366.451206
334.368100	2386.560369
334.761129	2404.645508
335.154095	2422.569331
335.546996	2449.680656
335.939833	2485.077118
336.332606	2496.994405
336.725315	2511.782630
337.117960	2526.646472
337.510540	2537.134593
337.903056	2548.711603
338.295508	2556.865669
338.687896	2566.217009
339.080220	2573.544327
339.472480	2579.956674
339.864676	2585.950606
340.256807	2591.992429
340.648875	2594.518047
341.040879	2599.299582
341.432818	2601.530292
341.824694	2605.810232
342.216506	2604.751589
342.608253	2603.360231
342.999937	2605.628750
343.391557	2603.166147
343.783113	2602.682196
344.174605	2602.838472
344.566033	2603.337546
344.957397	2601.091712
345.348697	2598.795466
345.739934	2598.049375
346.131106	2596.080805
346.522215	2596.438727
346.913260	2592.436051
347.304241	2591.279106
347.695159	2589.605443
348.086012	2590.323807
348.476802	2585.494382
348.867528	2579.999524
349.258191	2579.702096
349.648789	2577.037846
350.039324	2575.051632
350.429796	2578.978690
350.820203	2576.122877
351.210548	2576.735377
351.600828	2572.682289
351.991045	2572.377299
352.381198	2570.431414
352.771288	2569.715570
353.161314	2571.295972
353.551276	2572.906621
353.941175	2570.040725
354.331010	2571.169943
354.720782	2568.997206
355.110490	2569.529047
355.500135	2568.399829
355.889717	2568.374623
356.279235	2568.525858
356.668689	2571.663976
357.058080	2568.999726
357.447408	2571.893349
357.836672	2570.544840
358.225873	2571.066599
358.615010	2571.197669
359.004084	2569.574418
359.393095	2571.595921
359.782043	2573.957701
360.170927	2574.497105
360.559748	2572.747824
360.948505	2571.666497
361.337199	2575.764955
361.725830	2574.524831
362.114398	2579.271077
362.502903	2573.410736
362.891344	2577.274780
363.279722	2576.163206
363.668037	2579.525656
364.056289	2578.784606
364.444478	2577.887281
364.832603	2580.833835
365.220665	2578.068762
365.608665	2579.734863
365.996601	2580.067580
366.384474	2581.423650
366.772284	2584.287025
367.160031	2581.443815
367.547715	2583.316603
367.935336	2582.230235
368.322893	2583.014134
368.710388	2574.171950
369.097820	2582.207549
369.485189	2579.767631
369.872495	2585.302818
370.259738	2585.569999
370.646918	2583.099834
371.034035	2584.105544
371.421090	2585.938003
371.808081	2585.877509
372.195010	2585.421285
372.581875	2586.179979
372.968678	2587.054619
373.355418	2587.243662
373.742096	2585.300297
374.128710	2589.572675
374.515262	2588.360278
374.901751	2588.226687
375.288177	2590.159970
375.674540	2588.173755
376.060841	2592.032758
376.447079	2591.279106
376.833254	2589.245000
377.219367	2587.588981
377.605417	2590.192737
377.991404	2588.148549
378.377329	2589.227356
378.763191	2589.353385
379.148991	2590.780032
379.534727	2592.017635
379.920402	2592.373036
380.306013	2592.362954
380.691563	2594.515527
381.077049	2591.581575
381.462474	2594.099631
381.847835	2591.377408
382.233134	2592.683067
382.618371	2593.499734
383.003545	2590.369177
383.388657	2592.365474
383.773706	2593.741709
384.158693	2594.928901
384.543618	2592.574682
384.928480	2594.787749
385.313280	2594.996957
385.698017	2596.095928
386.082692	2594.623911
386.467305	2595.944694
386.851856	2597.782194
387.236344	2595.964858
387.620770	2593.199785
388.005133	2594.810434
388.389435	2595.054930
388.773674	2594.767584
389.157851	2600.280086
389.541965	2596.748758
389.926018	2597.951073
390.310008	2598.767740
390.693936	2599.302102
391.077802	2598.845878
391.461606	2600.887545
391.845348	2599.138265
392.229027	2602.722525
392.612645	2600.184304
392.996200	2601.863008
393.379694	2599.695312
393.763125	2601.520210
394.146494	2600.698502
394.529801	2601.222782
394.913047	2602.404932
395.296230	2603.713112
395.679351	2602.712443
396.062410	2605.114552
396.445408	2603.864346
396.828343	2604.000457
397.211217	2602.626743
397.594028	2606.115222
397.976778	2606.906683
398.359466	2606.546240
398.742092	2604.512135
399.124656	2603.450972
399.507158	2602.876280
399.889598	2606.929368
400.271977	2606.707557
400.654294	2606.266456
401.036549	2603.854264
401.418742	2606.757969
401.800874	2607.015067
402.182944	2610.662342
402.564952	2606.810901
402.946898	2607.446086
403.328783	2608.285438
403.710606	2608.086313
404.092367	2609.525562
404.474067	2610.695110
404.855705	2608.378700
405.237282	2610.165789
405.618797	2610.816097
406.000250	2608.169492
406.381642	2611.562188
406.762972	2609.853237
407.144240	2611.847013
407.525447	2609.545727
407.906593	2607.239399
408.287677	2609.883484
408.668700	2611.877260
409.049661	2614.833897
409.430560	2614.246603
409.811399	2612.204935
410.192176	2612.862806
410.572891	2616.522684
410.953545	2615.821963
411.334138	2615.459000
411.714669	2617.414968
412.095139	2614.977570
412.475547	2613.891201
412.855894	2615.733743
413.236180	2615.763990
413.616405	2617.609052
413.996568	2613.923969
414.376670	2613.175357
414.756711	2615.416150
415.136691	2618.728188
415.516609	2620.238014
415.896466	2618.783641
416.276262	2618.145935
416.655997	2619.794392
417.035670	2618.024947
417.415283	2621.765484
417.794834	2620.288426
418.174324	2620.280864
418.553753	2621.944445
418.933121	2621.347068
419.312428	2623.373612
419.691674	2621.057202
420.070859	2623.073663
420.449983	2621.841101
420.829045	2623.663478
421.208047	2623.686163
421.586988	2620.835391
421.965867	2624.865793
422.344686	2625.725310
422.723444	2624.412089
423.102141	2623.144239
423.480777	2627.514920
423.859352	2625.851339
424.237866	2628.336628
424.616319	2627.698922
424.994712	2626.844446
425.373044	2629.397791
425.751314	2625.931997
426.129524	2626.531895
426.507673	2628.329066
426.885762	2629.700260
427.263789	2630.060702
427.641756	2631.389046
428.019662	2631.860394
428.397508	2631.565487
428.775292	2634.834675
429.153016	2634.355765
429.530679	2634.333080
429.908282	2634.564973
430.285824	2636.672176
430.663305	2638.638226
431.040726	2637.393061
431.418086	2638.955818
431.795385	2639.941364
432.172624	2639.621251
432.549802	2642.391365
432.926920	2642.172074
433.303977	2639.875829
433.680974	2644.985038
434.057910	2642.817342
434.434786	2645.965543
434.811601	2647.840852
435.188355	2648.584422
435.565050	2649.181799
435.941683	2648.239103
436.318257	2657.668581
436.694770	2653.444094
437.071222	2656.337717
437.447614	2659.017090
437.823946	2663.705363
438.200218	2666.087308
438.576429	2668.481856
438.952580	2676.777075
439.328670	2680.976356
439.704700	2684.449711
440.080670	2687.597912
440.456580	2699.079140
440.832429	2704.415201
441.208218	2711.951726
441.583947	2724.917574
441.959616	2737.238154
442.335224	2746.269381
442.710773	2760.661875
443.086261	2779.230965
443.461689	2785.313117
443.837057	2817.541214
444.212365	2842.096674
444.587612	2857.935980
444.962800	2886.466390
445.337927	2909.922879
445.712995	2919.894281
446.088002	2994.185765
446.462949	3020.951772
446.837837	3060.487021
447.212664	3101.222064
447.587431	3178.006399
447.962139	3274.146244
448.336786	3498.654031
448.711374	3628.471304
449.085901	3516.782020
449.460369	3539.494938
449.834776	3563.211047
450.209124	3724.893453
450.583412	3864.414948
450.957640	4073.365734
451.331808	4061.440884
451.705917	4008.418028
452.079965	3996.722551
452.453954	4226.682346
452.827883	4265.647944
453.201752	4408.899892
453.575562	4421.719547
453.949311	4594.958799
454.323001	4693.737688
454.696632	4845.357951
455.070202	5026.337895
455.443713	5195.682856
455.817164	5436.150935
456.190556	5558.885387
456.563888	5785.265963
456.937160	5967.216328
457.310373	5904.567389
457.683526	6038.699890
458.056619	6040.529829
458.429653	6203.177616
458.802628	6172.325755
459.175542	6419.198620
459.548398	6874.898763
459.921194	7160.638925
460.293930	7319.899058
460.666607	7845.419181
461.039224	8417.769104
461.411782	8911.582891
461.784280	9047.600783
462.156719	9258.530222
462.529099	9264.231767
462.901419	8953.588305
463.273680	9030.458339
463.645882	9109.145710
464.018024	9126.504923
464.390106	9401.862828
464.762130	9972.632349
465.134094	10492.420681
465.505999	11688.005933
465.877845	13700.540413
466.249631	15587.111581
466.621358	15740.254273
466.993026	15193.210943
467.364634	15101.358599
467.736184	14475.650584
468.107674	14164.271114
468.479105	14415.287808
468.850477	14285.231080
469.221790	14181.337940
469.593043	13904.702102
469.964238	13729.136358
470.335373	13649.208864
470.706449	14097.712760
471.077467	13898.057862
471.448425	15353.933010
471.819324	18505.833794
472.190164	20374.130780
472.560945	17931.850538
472.931667	16191.664394
473.302330	15821.419371
473.672934	15530.070925
474.043479	15984.248640
474.413965	15959.652850
474.784393	15803.067050
475.154761	16461.923173
475.525070	16619.204652
475.895321	16415.499187
476.265513	17035.208229
476.635645	17644.300602
477.005719	17578.226198
477.375734	17859.701544
477.745691	18423.736083
478.115588	18950.055230
478.485427	19549.771056
478.855207	20570.498845
479.224928	22201.601981
479.594591	24327.259953
479.964194	24546.456884
480.333739	24909.102368
480.703226	24611.817964
481.072653	24413.730865
481.442022	24985.062474
481.811333	25894.428655
482.180584	25942.823732
482.549777	25130.615709
482.918912	24857.538926
483.287988	25021.469687
483.657005	24806.456914
484.025964	24573.616100
484.394864	24615.550938
484.763706	24378.483117
485.132489	23860.844837
485.501213	24061.853285
485.869879	24052.784249
486.238487	23850.631460
486.607036	24066.617176
486.975527	23764.158027
487.343959	24136.048988
487.712333	24143.499813
488.080648	23832.432894
488.448905	24313.905936
488.817104	24085.715587
489.185244	24752.511527
489.553326	24750.835343
489.921350	25699.479674
490.289315	27926.338809
490.657222	29764.565312
491.025070	30276.807037
491.392861	30088.487173
491.760593	29288.577046
492.128267	28414.161185
492.495883	27409.877639
492.863440	26544.563581
493.230939	25680.799678
493.598380	25532.962801
493.965763	25137.653160
494.333088	24712.013417
494.700354	24635.029957
495.067563	24537.987745
495.434713	24296.191322
495.801805	24420.478449
496.168839	24267.814667
496.535815	24096.659932
496.902733	24290.454489
497.269593	23969.307783
497.636395	24173.600543
498.003139	24157.768799
498.369825	23903.903853
498.736453	24095.409726
499.103023	23976.458660
499.469535	24004.747094
499.835989	24204.588515
500.202385	24224.518717
500.568723	23736.144335
500.935003	24010.786397
501.301226	23584.062806
501.667390	24419.618933
502.033497	24660.790253
502.399546	24400.144955
502.765537	23993.243181
503.131470	24367.435428
503.497345	24502.072045
503.863163	23713.733886
504.228923	24345.337531
504.594625	24516.358675
504.960269	24035.835890
505.325856	24535.648650
505.691385	23946.481438
506.056856	24557.166815
506.422270	24523.665827
506.787625	24118.203303
507.152924	24518.009653
507.518164	24539.212746
507.883347	24349.864487
508.248472	24047.927098
508.613540	24812.750795
508.978550	24603.754638
509.343503	24592.873308
509.708398	24869.050401
510.073236	25026.992271
510.438016	25232.678910
510.802738	24918.332721
511.167403	25156.219730
511.532010	24842.715413
511.896561	25642.905325
512.261053	25611.735871
512.625488	25451.611180
512.989866	25347.539080
513.354186	25189.569483
513.718449	25291.131089
514.082655	25676.129049
514.446803	25420.023310
514.810894	25858.462543
515.174927	25339.634551
515.538904	25379.305911
515.902822	25872.209769
516.266684	25618.685101
516.630488	25526.689085
516.994235	25515.868248
517.357925	25805.366590
517.721558	26006.611972
518.085133	26085.145587
518.448651	26014.438363
518.812112	25731.687606
519.175516	25917.633086
519.538863	26091.353768
519.902152	25866.132658
520.265385	26164.800859
520.628560	25949.475534
520.991678	25952.026358
521.354739	26039.324019
521.717743	26080.283394
522.080690	25884.830298
522.443580	26204.963732
522.806413	26231.049182
523.169189	26309.905431
523.531908	26366.878032
523.894569	25975.376983
524.257174	26031.472422
524.619722	26238.071510
524.982213	25915.888847
525.344647	25987.508519
525.707025	26111.689783
526.069345	26110.232889
526.431608	26051.407665
526.793815	26259.330055
527.155964	25696.626381
527.518057	25875.025254
527.880093	25797.618336
528.242072	26032.160540
528.603995	25735.997792
528.965860	25533.366093
529.327669	25586.605719
529.689421	25566.569653
530.051117	25405.643419
530.412755	25567.943367
530.774337	25386.847477
531.135862	25259.039103
531.497331	25470.321423
531.858743	24992.523382
532.220098	25490.821275
532.581396	25156.139071
532.942638	25109.672236
533.303824	25199.326636
533.664953	25228.918209
534.026025	24889.615788
534.387040	25117.244049
534.747999	25181.183523
535.108902	25355.672982
535.469748	24853.284192
535.830537	25031.937643
536.191270	25144.020137
536.551947	25028.318095
536.912567	24682.633573
537.273131	25007.684652
537.633638	24730.060748
537.994089	24934.141779
538.354483	24484.112934
538.714821	24978.100641
539.075103	25013.043399
539.435328	24813.622914
539.795497	24363.583987
540.155609	24777.911380
540.515665	25056.306581
540.875665	24301.343381
541.235609	24577.787655
541.595496	24550.983840
541.955328	24906.879219
542.315102	24821.711446
542.674821	24387.090887
543.034483	24254.773202
543.394090	24429.058493
543.753640	24210.658064
544.113134	24851.391239
544.472571	24450.957265
544.831953	24743.039199
545.191278	24336.021478
545.550548	24273.985039
545.909761	24487.137627
546.268918	24717.687236
546.628019	24677.300032
546.987064	24378.256265
547.346053	24147.505010
547.704986	24268.895994
548.063863	24430.114615
548.422684	24417.637759
548.781449	23972.110664
549.140158	24374.235945
549.498811	23945.770636
549.857408	23681.599051
550.215949	24124.444251
550.574434	23798.737822
550.932864	24019.815103
551.291237	24164.844058
551.649555	24031.979407
552.007817	24083.056378
552.366022	23966.255364
552.724173	24000.787268
553.082267	23945.871459
553.440305	24408.689711
553.798288	23688.742366
554.156215	24200.658936
554.514086	24283.180104
554.871902	23653.827334
555.229661	23943.784421
555.587365	23815.676099
555.945014	23661.159692
556.302606	23923.282048
556.660143	23855.670093
557.017625	24118.979641
557.375050	23644.659996
557.732421	24031.518142
558.089735	23846.354041
558.446994	23917.872890
558.804197	23937.772845
559.161345	23886.262335
559.518437	23629.962512
559.875474	23827.941226
560.232455	24005.926724
560.589381	23836.322144
560.946251	23814.965296
561.303065	24136.442197
561.659825	24223.386978
562.016528	23827.626154
562.373177	23567.621083
562.729770	23918.792901
563.086307	23796.174395
563.442789	23961.418377
563.799216	23795.050218
564.155587	23798.420229
564.511904	23781.837354
564.868164	23711.185583
565.224370	23693.385268
565.580520	23604.792031
565.936615	23741.540890
566.292654	23400.690835
566.648638	23713.375964
567.004567	23542.427916
567.360441	23491.756758
567.716260	23219.610068
568.072023	23547.176683
568.427732	23303.348675
568.783385	23090.944698
569.138982	23314.106497
569.494525	23361.377397
569.850013	23106.544549
570.205445	23213.830385
570.560823	23006.497810
570.916145	22777.425258
571.271412	22944.980609
571.626625	22705.661913
571.981782	22826.286642
572.336884	22622.223255
572.691931	22754.059510
573.046923	22488.201659
573.401860	22376.295606
573.756743	22378.385164
574.111570	22287.233541
574.466342	22215.046738
574.821059	22312.280514
575.175722	22006.322804
575.530330	22000.074294
575.884882	22022.799816
576.239380	21932.558121
576.593823	21816.173002
576.948211	21792.310700
577.302544	21644.541878
577.656823	21516.196622
578.011047	21619.232765
578.365216	21486.857106
578.719330	21347.176816
579.073389	21260.516860
579.427394	21409.593862
579.781344	21175.454951
580.135239	21072.222203
580.489080	21044.208511
580.842866	20803.319495
581.196597	20994.011221
581.550273	20971.530196
581.903895	20860.866786
582.257463	21176.493429
582.610975	20707.678724
582.964434	21013.936382
583.317837	20727.548432
583.671186	20820.698872
584.024481	20786.318203
584.377721	20554.004190
584.730906	20613.285639
585.084037	20638.806480
585.437113	20553.321114
585.790135	20738.520503
586.143103	20212.478620
586.496016	20218.641430
586.848874	20466.678802
587.201679	20407.777961
587.554428	20078.043650
587.907124	20404.218906
588.259765	20180.956285
588.612352	20258.706001
588.964884	19833.832513
589.317362	19993.901751
589.669786	20052.865607
590.022155	20098.775395
590.374470	20284.809095
590.726731	20082.152190
591.078937	19828.642645
591.431090	19935.941084
591.783188	19687.812972
592.135232	19659.272479
592.487222	19754.230173
592.839157	19776.181878
593.191038	19662.236678
593.542866	19558.661131
593.894639	19266.269166
594.246358	19495.772736
594.598022	19400.847809
594.949633	19154.292537
595.301190	19104.102809
595.652692	19267.526934
596.004141	19518.964565
596.355535	18837.680349
596.706876	18857.701291
597.058162	18754.929808
597.409395	18973.879723
597.760573	19061.706705
598.111698	18831.938474
598.462768	18761.352238
598.813785	18724.471157
599.164748	18544.096152
599.515657	18589.774047
599.866511	18374.887302
600.217312	18748.199868
600.568060	18263.896218
600.918753	18579.424558
601.269392	18483.125916
601.619978	18259.588552
601.970510	18471.468248
602.320988	18411.871727
602.671412	18618.405280
603.021783	18518.202265
603.372100	18258.482019
603.722363	18396.471002
604.072572	18335.258792
604.422728	18474.074525
604.772830	18247.204958
605.122878	18176.563269
605.472872	18175.083690
605.822813	18172.406837
606.172701	18129.015106
606.522534	18329.411053
606.872314	18347.332355
607.222041	18182.264814
607.571714	18398.300941
607.921333	18234.934789
608.270899	18303.212177
608.620411	18492.164705
608.969870	18257.975383
609.319276	18254.116379
609.668627	18285.928581
610.017926	18421.326411
610.367171	18524.039921
610.716362	18581.216688
611.065500	18392.511176
611.414585	18522.406587
611.763616	18509.851593
612.112594	18450.837326
612.461518	18432.356456
612.810389	18613.976626
613.159207	18478.309094
613.507971	18377.392756
613.856682	18661.272732
614.205340	18590.729345
614.553945	18737.225276
614.902496	18485.840578
615.250994	18716.163335
615.599439	18662.321292
615.947830	18637.004617
616.296169	18687.312812
616.644454	18649.171442
616.992686	18632.951529
617.340864	18838.083641
617.688990	18600.695706
618.037063	18769.430687
618.385082	18625.215879
618.733048	18903.419515
619.080961	18761.052290
619.428821	18807.151121
619.776628	18699.439307
620.124382	18622.581876
620.472083	18647.515423
620.819731	18683.194189
621.167326	18373.800933
621.514868	18405.797137
621.862357	18186.131379
622.209793	18186.214558
622.557176	18022.054424
622.904506	17849.631839
623.251783	17750.903361
623.599007	17519.748813
623.946179	17477.040158
624.293297	17408.583809
624.640363	17164.770924
624.987376	17182.339345
625.334336	16974.709342
625.681243	16810.332438
626.028097	16835.074422
626.374899	16759.378976
626.721647	16630.277547
627.068343	16456.140969
627.414987	16385.101029
627.761577	16363.066146
628.108115	16402.641724
628.454600	16123.875999
628.801032	16222.710340
629.147412	16154.528735
629.493739	16178.161664
629.840014	15983.784854
630.186236	16094.407934
630.532405	15842.216651
630.878521	16050.557457
631.224585	15934.149653
631.570597	15754.619041
631.916556	15786.287570
632.262462	15770.750733
632.608316	15697.759867
632.954117	15637.555887
633.299866	15627.234125
633.645562	15546.837803
633.991206	15298.729855
634.336797	15173.379044
634.682336	15136.603827
635.027823	15032.254463
635.373257	14910.145113
635.718639	14809.536286
636.063968	14761.156332
636.409245	14513.340771
636.754470	14542.289597
637.099642	14385.711358
637.444762	14154.708045
637.789829	14207.856930
638.134845	14045.287280
638.479808	14066.626484
638.824719	14013.112116
639.169577	13861.839692
639.514383	13920.811109
639.859137	13736.917379
640.203839	13821.568434
640.548489	13653.750943
640.893086	13647.094100
641.237632	13511.073687
641.582125	13662.898117
641.926566	13494.705060
642.270955	13506.582018
642.615292	13470.744456
642.959576	13476.864417
643.303809	13505.117563
643.647990	13441.052060
643.992118	13502.967511
644.336195	13270.161985
644.680219	13482.308863
645.024192	13400.037232
645.368112	13637.639416
645.711981	13704.457389
646.055797	13872.042987
646.399562	13848.140356
646.743274	14112.977373
647.086935	14389.998860
647.430544	14353.269013
647.774101	14382.071645
648.117606	14540.522672
648.461059	14496.513399
648.804460	14495.338810
649.147810	14225.271596
649.491108	14127.183345
649.834354	14147.297549
650.177548	13841.360004
650.520690	13644.734840
650.863781	13570.622316
651.206820	13612.395838
651.549807	13441.722533
651.892742	13246.123243
652.235626	13184.991691
652.578458	13189.558977
652.921238	12878.189589
653.263967	13070.149165
653.606644	12895.556364
653.949269	12871.258002
654.291843	12679.177438
654.634365	12834.649143
654.976836	12686.018283
655.319255	12699.289121
655.661622	12651.451092
656.003938	12571.760532
656.346203	12502.190088
656.688416	12570.512846
657.030577	12529.535827
657.372687	12449.613374
657.714746	12421.894589
658.056753	12608.843259
658.398708	12424.470619
658.740612	12434.605859
659.082465	12531.360725
659.424266	12494.368738
659.766016	12518.747758
660.107715	12429.297524
660.449362	12512.295081
660.790958	12458.606792
661.132503	12405.082341
661.473996	12472.273360
661.815438	12487.185093
662.156829	12508.030265
662.498168	12484.364568
662.839456	12481.107983
663.180693	12500.279491
663.521879	12597.924120
663.863013	12569.991087
664.204097	12538.763659
664.545129	12669.846262
664.886110	12634.550623
665.227040	12725.243502
665.567918	12732.608627
665.908746	12762.162392
666.249522	12744.306625
666.590248	12791.711115
666.930922	12907.156059
667.271545	12891.682237
667.612118	12974.715082
667.952639	12872.616593
668.293109	12893.431517
668.633528	12841.711799
668.973896	12825.159171
669.314213	12902.379565
669.654480	12641.537663
669.994695	12708.403527
670.334859	12726.380282
670.674973	12677.723065
671.015035	12709.048795
671.355047	12652.441678
671.695008	12624.727935
672.034918	12626.482257
672.374777	12677.077797
672.714585	12587.249477
673.054342	12612.896347
673.394049	12574.714648
673.733705	12660.734376
674.073310	12569.774317
674.412864	12598.322371
674.752368	12460.625774
675.091820	12479.325935
675.431223	12468.918473
675.770574	12336.903256
676.109875	12263.264601
676.449125	12219.782129
676.788324	12162.191987
677.127473	11992.088333
677.466571	11988.209165
677.805619	11888.570759
678.144616	11802.273767
678.483562	11774.401228
678.822458	11646.885241
679.161303	11620.381375
679.500098	11613.112031
679.838842	11565.495812
680.177535	11581.660272
680.516179	11650.807259
680.854771	11591.646798
681.193314	11809.185189
681.531805	11960.762603
681.870247	12372.080428
682.208638	12785.535702
682.546978	13104.449176
682.885268	13163.266839
683.223508	12844.852438
683.561697	12692.917103
683.899836	12584.330649
684.237925	12390.500804
684.575963	12306.694142
684.913951	12230.915517
685.251889	12183.584124
685.589776	12273.873710
685.927614	12199.141124
686.265401	12164.831031
686.603137	12208.416848
686.940824	12362.807225
687.278460	12483.767191
687.616046	12533.609079
687.953582	12704.214328
688.291068	12623.984365
688.628504	12859.063451
688.965889	12870.973177
689.303224	12841.696676
689.640510	12735.043505
689.977745	12421.438365
690.314930	12204.267978
690.652065	12117.151798
690.989150	11821.357055
691.326185	11595.223497
691.663170	11388.110211
692.000105	11140.133333
692.336990	11036.703980
692.673825	10790.975456
693.010610	10669.100521
693.347345	10456.996493
693.684030	10257.749928
694.020665	10198.579385
694.357251	10006.468574
694.693786	9949.495974
695.030272	9784.609914
695.366707	9656.622579
695.703093	9598.752654
696.039429	9591.533721
696.375716	9518.502526
696.711952	9387.868585
697.048139	9424.979039
697.384276	9378.759220
697.720363	9396.443588
698.056400	9333.900513
698.392388	9283.307493
698.728326	9241.360052
699.064214	9180.747738
699.400053	9232.114576
699.735842	9046.027943
700.071581	9000.571859
700.407270	8923.903471
700.742910	8849.644754
701.078501	8762.475642
701.414042	8631.992937
701.749533	8565.570693
702.084974	8423.876462
702.420366	8545.547230
702.755709	8420.491327
703.091002	8295.964745
703.426246	8318.266809
703.761440	8271.764686
704.096584	8229.408911
704.431679	8155.951738
704.766725	8147.641396
705.101721	8098.941329
705.436668	8143.086713
705.771565	8037.547637
706.106413	8114.878937
706.441212	8160.259404
706.775961	8113.908515
707.110661	8144.571333
707.445311	8295.763098
707.779913	8186.430554
708.114465	8317.253537
708.448967	8352.594546
708.783421	8491.115372
709.117825	8681.411368
709.452180	8718.342861
709.786485	8804.657497
710.120742	9081.961288
710.454949	9080.532121
710.789107	9183.248151
711.123216	9404.113704
711.457275	9557.808402
711.791286	9721.754287
712.125247	9719.077434
712.459159	9712.803718
712.793023	9957.418147
713.126837	9532.549701
713.460602	9684.658956
713.794318	9513.148820
714.127985	9546.859016
714.461602	9225.135098
714.795171	9168.364144
715.128691	8931.765150
715.462162	8677.194442
715.795584	8619.821071
716.128957	8473.743556
716.462281	8304.081002
716.795556	8354.490020
717.128782	8150.121643
717.461960	7884.036940
717.795088	7951.182589
718.128167	7867.113787
718.461198	7694.703805
718.794180	7630.396326
719.127113	7624.538505
719.459997	7475.655588
719.792833	7240.634475
720.125619	7311.472769
720.458357	7166.176633
720.791046	7154.254304
721.123686	7154.735734
721.456278	6992.002247
721.788821	7013.265834
722.121315	6907.323465
722.453761	6974.796789
722.786158	6919.943994
723.118506	6927.906496
723.450805	6897.611682
723.783056	6962.128369
724.115259	6866.248143
724.447412	6864.569439
724.779518	6910.519557
725.111574	6912.989722
725.443582	6995.072309
725.775542	6979.485062
726.107453	7163.214955
726.439315	7077.800165
726.771129	7134.301417
727.102895	7301.965153
727.434612	7416.918584
727.766281	7449.920498
728.097901	7530.732714
728.429473	7521.217536
728.760996	7493.597054
729.092471	7468.119063
729.423897	7419.260200
729.755276	7435.575894
730.086606	7359.177208
730.417887	7457.026004
730.749120	7647.753018
731.080305	7842.921290
731.411442	7962.255483
731.742530	7962.091646
732.073570	8063.766678
732.404562	8154.489803
732.735506	8006.665528
733.066401	8143.321127
733.397249	8076.490550
733.728048	7838.270825
734.058798	7503.447469
734.389501	7278.390197
734.720156	7104.311593
735.050762	6866.669080
735.381320	6774.680625
735.711831	6723.409570
736.042293	6613.857735
736.372707	6632.280632
736.703073	6501.374469
737.033391	6532.087699
737.363661	6549.434309
737.693883	6574.282157
738.024056	6657.846843
738.354182	6701.750252
738.684260	6735.455407
739.014290	6846.081008
739.344272	6965.914276
739.674207	6988.733058
740.004093	7060.902217
740.333931	7072.900163
740.663722	7078.659681
740.993464	7162.219327
741.323159	7147.055536
741.652806	6903.305665
741.982405	6904.855820
742.311956	6971.053732
742.641460	6807.722868
742.970915	6615.574248
743.300323	6605.396158
743.629683	6554.919085
743.958996	6419.755668
744.288260	6329.846689
744.617477	6272.697648
744.946647	6283.730214
745.275768	6116.348782
745.604842	6071.139715
745.933869	6055.945677
746.262847	6011.296178
746.591778	6000.679508
746.920662	5960.836748
747.249498	5951.785356
747.578286	5999.278067
747.907027	6074.960909
748.235720	6133.823942
748.564365	6102.432677
748.892963	6128.649198
749.221514	6284.864473
749.550017	6121.331963
749.878473	5994.549464
750.206881	6054.269493
750.535242	5990.763558
750.863555	5922.155975
751.191821	5941.251865
751.520039	5945.128513
751.848210	5853.457651
752.176334	5871.860383
752.504411	5921.283855
752.832440	5845.417010
753.160421	5779.093070
753.488356	5822.028577
753.816243	5855.446386
754.144082	5709.386515
754.471875	5675.295712
754.799620	5725.409822
755.127318	5735.091358
755.454969	5687.795253
755.782572	5653.096991
756.110129	5695.606521
756.437638	5682.567576
756.765100	5619.626250
757.092515	5621.123473
757.419882	5669.969733
757.747203	5652.673534
758.074477	5715.622422
758.401703	5702.099527
758.728882	5654.316950
759.056014	5703.100196
759.383099	5838.034240
759.710138	5847.733420
760.037129	5835.039795
760.364073	5837.328479
760.690970	5918.052475
761.017820	5897.290483
761.344623	5855.186766
761.671379	5952.685202
761.998088	6073.622483
762.324751	6315.023176
762.651366	6900.132259
762.977935	8206.365797
763.304456	9837.935239
763.630931	10744.115410
763.957359	10364.725734
764.283740	9423.217156
764.610074	8586.632634
764.936362	7599.718384
765.262602	7010.397417
765.588796	6465.458769
765.914943	6128.056862
766.241044	5963.624506
766.567097	5769.802223
766.893104	5506.686760
767.219064	5326.369728
767.544978	5261.769862
767.870845	5187.725394
768.196665	5078.002160
768.522438	5007.531871
768.848165	4976.047344
769.173846	4910.615688
769.499479	4868.960634
769.825066	4815.116069
770.150607	4755.262450
770.476101	4728.287236
770.801548	4728.846804
771.126949	4647.958970
771.452303	4593.295218
771.777611	4557.092172
772.102872	4572.578596
772.428087	4534.258265
772.753256	4492.300742
773.078378	4452.314309
773.403453	4383.850399
773.728482	4366.236607
774.053465	4320.553671
774.378401	4310.158812
774.703291	4308.901044
775.028135	4240.106938
775.352932	4187.510060
775.677683	4176.245601
776.002388	4195.611194
776.327046	4208.138461
776.651658	4136.483500
776.976224	4071.248449
777.300743	4074.472267
777.625216	4095.509002
777.949643	4094.596553
778.274024	4044.948749
778.598359	4001.380577
778.922647	4026.351933
779.246889	4018.954040
779.571086	4015.369779
779.895236	3996.664578
780.219339	3984.142352
780.543397	3974.889314
780.867409	4028.416285
781.191374	4042.516393
781.515294	3981.750324
781.839167	3973.807986
782.162995	3992.906398
782.486776	3982.801405
782.810511	3993.070235
783.134201	3990.267354
783.457844	3946.714305
783.781441	3885.391189
784.104993	3892.569792
784.428498	3911.345570
784.751958	3908.371289
785.075372	3885.940675
785.398739	3850.430787
785.722061	3859.840101
786.045337	3903.559507
786.368568	3936.397584
786.691752	3850.962629
787.014891	3898.515833
787.337983	4026.316645
787.661030	4185.065100
787.984031	4343.485880
788.306987	4515.308568
788.629897	4598.853090
788.952760	4554.014547
789.275579	4483.299762
789.598351	4423.347839
789.921078	4281.915748
790.243759	4084.829317
790.566395	4063.101944
790.888984	4061.254362
791.211529	3953.832414
791.534027	3894.503075
791.856480	3882.991600
792.178888	3820.342660
792.501249	3771.561935
792.823566	3781.142648
793.145836	3809.549550
793.468062	3759.984925
793.790241	3714.730487
794.112375	3741.703181
794.434464	3807.447389
794.756507	3833.878158
795.078505	3811.684479
795.400457	3844.832586
795.722364	3982.158658
796.044226	4088.360646
796.366042	4160.577695
796.687812	4140.796208
797.009538	4146.260818
797.331218	4104.852781
797.652852	4081.746652
797.974442	4058.169175
798.295986	4057.748239
798.617484	3978.249243
798.938938	3889.020820
799.260346	3931.731996
799.581709	3929.597067
799.903026	3855.199719
800.224299	3819.117660
800.545526	3811.387051
800.866708	3776.978655
801.187845	3709.520455
801.508936	3746.893049
801.829983	3747.573605
802.150984	3669.541584
802.471940	3657.775531
802.792851	3667.207530
803.113717	3664.805420
803.434538	3668.026717
803.755314	3610.849951
804.076045	3580.542534
804.396731	3605.387860
804.717372	3633.247797
805.037967	3618.588122
805.358518	3607.374075
805.679024	3633.066316
805.999485	3646.753048
806.319901	3651.441321
806.640272	3662.715862
806.960598	3674.870084
807.280879	3647.763800
807.601115	3667.817510
807.921306	3680.115404
808.241453	3725.566448
808.561554	3697.729196
808.881611	3631.420379
809.201623	3668.016635
809.521590	3681.721012
809.841513	3650.662463
810.161390	3682.842669
810.481223	3662.365502
810.801011	3608.762913
811.120755	3597.271603
811.440453	3637.119403
811.760107	3634.359372
812.079716	3593.485696
812.399281	3561.368505
812.718801	3587.083431
813.038276	3557.829615
813.357707	3553.491702
813.677093	3573.605906
813.996434	3522.801158
814.315731	3529.153011
814.634983	3535.386398
814.954191	3546.308058
815.273354	3575.743355
815.592473	3571.160946
815.911547	3579.408274
816.230577	3619.664408
816.549562	3669.176101
816.868502	3710.798387
817.187399	3734.753950
817.506250	3732.921491
817.825058	3703.955021
818.143821	3797.665030
818.462539	3899.821492
818.781213	3944.564253
819.099843	4002.096421
819.418429	4238.650045
819.736970	4485.548116
820.055466	4731.813523
820.373919	5095.711734
820.692327	5495.747456
821.010691	5936.369508
821.329011	7300.210831
821.647286	10017.884267
821.965517	14550.186564
822.283704	18564.396878
822.601847	20767.323136
822.919945	18970.008117
823.237999	16415.305102
823.556010	13938.467751
823.873976	11844.243894
824.191897	9754.466334
824.509775	8401.022391
824.827609	7276.262830
825.145398	6728.435600
825.463144	6607.437826
825.780845	6721.592234
826.098502	6905.143166
826.416116	7772.040146
826.733685	9091.395807
827.051210	10201.112565
827.368692	10263.093552
827.686129	9014.598869
828.003522	7500.296748
828.320872	6482.608774
828.638177	5787.985665
828.955439	5229.040171
829.272656	4728.975353
829.589830	4447.381540
829.906960	4273.668420
830.224046	4085.993824
830.541088	3962.389773
830.858086	3912.593255
831.175041	3838.851257
831.491952	3820.156138
831.808819	3831.851615
832.125642	3903.176380
832.442421	4048.996796
832.759157	4319.096778
833.075849	4864.239593
833.392497	5725.903855
833.709101	6498.770713
834.025662	6837.173289
834.342179	6488.325442
834.658653	5822.134441
834.975083	5182.671637
835.291469	4607.410449
835.607811	4197.579764
835.924110	4053.067528
836.240366	3859.746839
836.556578	3652.386538
836.872746	3541.498797
837.188871	3507.571832
837.504952	3439.228909
837.820990	3354.976105
838.136984	3308.831903
838.452935	3333.364678
838.768842	3327.703463
839.084706	3352.019468
839.400526	3508.418746
839.716303	3843.731094
840.032037	4364.119323
840.347727	4630.670333
840.663373	4358.354763
840.978977	3975.839571
841.294537	3673.692974
841.610054	3443.977676
841.925527	3336.356603
842.240957	3266.571910
842.556344	3212.296327
842.871687	3154.786844
843.186987	3103.475460
843.502244	3068.875501
843.817458	3034.252856
844.132629	3000.640963
844.447756	3010.388034
844.762840	2993.129643
845.077881	2966.041003
845.392879	2948.081893
845.707833	2944.986624
846.022745	2940.837755
846.337613	2942.949998
846.652438	2931.007505
846.967221	2929.386774
847.281960	2913.343302
847.596656	2908.889442
847.911309	2909.990934
848.225919	2906.396592
848.540485	2898.776888
848.855009	2900.616909
849.169490	2888.346740
849.483928	2878.559340
849.798323	2878.985318
850.112675	2876.653784
850.426984	2889.478479
850.741251	2885.143087
851.055474	2873.498022
851.369654	2869.762527
851.683792	2874.211345
851.997887	2882.141080
852.311938	2883.522356
852.625947	2872.641025
852.939914	2875.113711
853.253837	2879.144114
853.567718	2866.163143
853.881555	2863.120806
854.195350	2880.984135
854.509103	2874.891901
854.822812	2869.013915
855.136479	2866.747917
855.450103	2865.638863
855.763685	2859.385311
856.077224	2856.340454
856.390720	2868.837475
856.704173	2880.984135
857.017584	2871.695809
857.330953	2869.434852
857.644278	2879.071017
857.957561	2887.613252
858.270802	2890.819426
858.584000	2890.721124
858.897155	2875.340563
859.210268	2875.113711
859.523339	2873.344266
859.836367	2874.667569
860.149352	2867.819162
860.462295	2862.205837
860.775195	2871.264790
861.088054	2870.009543
861.400869	2853.840042
861.713642	2852.536904
862.026373	2866.299254
862.339062	2867.052906
862.651708	2875.398537
862.964312	2879.721326
863.276873	2870.087681
863.589392	2880.159906
863.901869	2892.770353
864.214303	2916.597366
864.526696	2930.904161
864.839045	2926.417534
865.151353	2922.588778
865.463619	2920.148859
865.775842	2925.006011
866.088023	2944.026284
866.400162	2951.146914
866.712258	2921.502409
867.024313	2910.137128
867.336325	2920.610125
867.648296	2941.941767
867.960224	2934.705191
868.272110	2917.776996
868.583954	2925.129519
868.895755	2940.106787
869.207515	2925.507606
869.519233	2930.770570
869.830909	2939.060748
870.142542	2948.737243
870.454134	2948.316306
870.765684	2952.162707
871.077191	2953.672532
871.388657	2959.913481
871.700081	2972.498721
872.011463	2984.778972
872.322803	2984.279898
872.634101	2984.700834
872.945357	3000.431755
873.256571	3027.762370
873.567744	3018.078314
873.878874	3011.416429
874.189963	3035.498021
874.501010	3037.055737
874.812015	3026.857483
875.122979	3028.654655
875.433900	3024.692308
875.744780	3030.935777
876.055618	3037.912734
876.366415	3033.221940
876.677169	3044.219217
876.987882	3040.970193
877.298554	3035.765202
877.609183	3057.323697
877.919771	3081.117943
878.230317	3105.862446
878.540822	3158.424037
878.851285	3196.472146
879.161707	3240.400760
879.472087	3342.675689
879.782425	3562.795152
880.092722	3997.340092
880.402977	4523.654198
880.713191	5149.725177
881.023363	6294.432583
881.333494	7572.642347
881.643583	8132.192780
881.953631	7841.421546
882.263637	7213.470217
882.573602	6629.253419
882.883526	6053.954421
883.193408	5478.025280
883.503248	5021.967215
883.813048	4717.342891
884.122806	4415.614709
884.432522	4100.799693
884.742197	3869.015001
885.051831	3674.557532
885.361424	3541.692882
885.670975	3465.382415
885.980485	3378.122563
886.289954	3301.529792
886.599382	3258.664861
886.908768	3221.705641
887.218113	3174.190246
887.527417	3120.625465
887.836680	3070.224009
888.145901	3063.844429
888.455082	3056.446536
888.764221	3003.852178
889.073319	2975.833445
889.382376	2975.581387
889.691392	2978.727067
890.000366	2975.392344
890.309300	2962.439099
890.618193	2973.035604
890.927044	2992.774242
891.235855	2992.658296
891.544625	2979.178250
891.853353	2988.585043
892.162041	3008.638753
892.470687	3045.575288
892.779293	3098.625870
893.087858	3143.348466
893.396381	3215.353787
893.704864	3334.889627
894.013306	3571.657500
894.321707	3874.532544
894.630068	4077.834717
894.938387	4076.156012
895.246665	4032.655896
895.554903	3913.306578
895.863100	3711.708316
896.171256	3545.383006
896.479371	3407.502407
896.787446	3284.369704
897.095480	3188.580219
897.403473	3120.680918
897.711425	3083.184816
898.019336	3072.404308
898.327207	3045.716440
898.635038	3010.778723
898.942827	2993.215343
899.250576	2983.334682
899.558284	2951.593056
899.865952	2931.587237
900.173579	2912.987900
900.481165	2906.215110
900.788711	2891.164745
901.096216	2871.690768
901.403681	2855.501102
901.711105	2860.864890
902.018489	2862.581403
902.325832	2861.142153
902.633135	2875.431304
902.940397	2904.329718
903.247619	2982.306286
903.554800	3174.475071
903.861941	3515.988038
904.169041	3937.539405
904.476101	4244.175149
904.783121	4202.489848
905.090100	3955.639668
905.397039	3682.915765
905.703938	3436.390739
906.010796	3251.950044
906.317614	3139.759165
906.624391	3045.905483
906.931129	2977.358394
907.237826	2914.459917
907.544483	2866.185828
907.851099	2836.385047
908.157675	2812.147179
908.464211	2795.902061
908.770707	2780.045112
909.077163	2767.401898
909.383578	2752.638879
909.689954	2740.676221
909.996289	2741.752507
910.302584	2742.934657
910.608839	2744.192425
910.915054	2737.664131
911.221229	2730.034345
911.527363	2734.122721
911.833458	2739.778895
912.139513	2743.726119
912.445527	2744.051273
912.751502	2756.482758
913.057436	2766.441558
913.363331	2775.596293
913.669186	2799.972793
913.975000	2833.864470
914.280775	2890.756412
914.586510	2961.196454
914.892205	3039.238557
915.197859	3168.360151
915.503475	3359.435005
915.809050	3569.605750
916.114585	3718.274418
916.420081	3739.480032
916.725536	3681.650436
917.030952	3562.502765
917.336328	3438.351748
917.641665	3307.652273
917.946961	3204.353990
918.252218	3137.062148
918.557435	3058.974674
918.862612	2998.165756
919.167750	2952.888633
919.472848	2912.292221
919.777906	2885.516132
920.082925	2857.343644
920.387904	2828.102431
920.692843	2807.773978
920.997743	2801.732155
921.302603	2788.602470
921.607423	2774.598145
921.912204	2764.919129
922.216946	2753.233735
922.521647	2745.601428
922.826310	2734.846126
923.130932	2727.997719
923.435516	2722.828015
923.740059	2714.615976
924.044564	2704.004347
924.349028	2700.273893
924.653454	2692.339117
924.957840	2686.667819
925.262186	2681.724967
925.566493	2679.554751
925.870761	2673.454955
926.174989	2667.738286
926.479178	2666.120076
926.783328	2661.083963
927.087438	2662.225784
927.391509	2658.102121
927.695541	2654.038951
927.999533	2654.175062
928.303486	2649.383445
928.607400	2651.871254
928.911275	2647.004020
929.215110	2649.080976
929.518906	2644.611993
929.822663	2647.059473
930.126381	2646.189874
930.430060	2647.266160
930.733699	2643.356746
931.037299	2647.210708
931.340861	2648.203815
931.644383	2649.645585
931.947866	2652.813950
932.251309	2647.019144
932.554714	2644.891777
932.858080	2645.000162
933.161407	2643.006385
933.464694	2641.604945
933.767943	2637.181332
934.071153	2641.804070
934.374323	2641.244502
934.677455	2639.296096
934.980548	2637.367855
935.283602	2637.133441
935.586617	2636.954480
935.889593	2637.728297
936.192530	2638.479429
936.495428	2637.612351
936.798287	2640.316930
937.101108	2644.123001
937.403890	2648.276912
937.706632	2648.861686
938.009336	2657.908036
938.312002	2666.041938
938.614628	2675.297496
938.917216	2679.106088
939.219765	2683.880061
939.522275	2684.676563
939.824747	2679.932837
940.127179	2679.237158
940.429573	2673.903617
940.731929	2672.045952
941.034246	2666.389778
941.336524	2665.623522
941.638763	2662.359375
941.940964	2660.209323
942.243126	2659.498520
942.545250	2657.058602
942.847335	2654.258241
943.149381	2651.331851
943.451389	2648.528969
943.753359	2645.595018
944.055290	2644.808598
944.357182	2642.174595
944.659036	2640.740387
944.960851	2640.052269
945.262628	2639.734677
945.564367	2639.482619
945.866067	2642.182157
946.167729	2640.775675
946.469352	2641.368010
946.770937	2640.238792
947.072484	2637.546816
947.373992	2638.159316
947.675462	2639.449851
947.976893	2634.010446
948.278286	2630.905096
948.579641	2633.206382
948.880958	2629.662451
949.182236	2631.283182
949.483476	2630.350569
949.784678	2628.341669
950.085841	2629.758233
950.386967	2630.930301
950.688054	2633.438275
950.989103	2633.914664
951.290114	2634.859881
951.591087	2635.966414
951.892021	2636.468009
952.192917	2643.134935
952.493776	2643.502939
952.794596	2643.729791
953.095378	2645.108547
953.396122	2643.437404
953.696828	2643.054276
953.997496	2640.221148
954.298126	2637.141003
954.598718	2635.477422
954.899272	2632.959366
955.199788	2628.853346
955.500266	2629.004581
955.800706	2625.664816
956.101108	2622.577109
956.401472	2620.638786
956.701798	2619.108796
957.002087	2614.851541
957.302337	2618.461007
957.602550	2616.885647
957.902724	2612.651078
958.202861	2613.719802
958.502960	2611.481530
958.803022	2612.338526
959.103045	2610.576643
959.403031	2608.053545
959.702979	2608.668566
960.002889	2607.239399
960.302762	2606.432814
960.602596	2610.876591
960.902393	2607.975407
961.202153	2607.390633
961.501875	2603.748400
961.801559	2604.829727
962.101205	2605.051538
962.400814	2604.461723
962.700385	2604.239912
962.999918	2601.157247
963.299414	2602.261259
963.598873	2602.296547
963.898293	2599.476022
964.197677	2604.048348
964.497022	2602.967021
964.796331	2605.154882
965.095601	2602.157916
965.394835	2604.018102
965.694030	2602.326794
965.993189	2599.884355
966.292309	2603.650097
966.591393	2603.861826
966.890439	2603.637494
967.189447	2601.845364
967.488419	2601.799994
967.787353	2602.798142
968.086249	2603.433328
968.385108	2600.816969
968.683930	2602.258739
968.982714	2602.049531
969.281462	2600.988368
969.580172	2603.703029
969.878844	2603.788729
970.177480	2602.316712
970.476078	2601.651280
970.774639	2602.982144
971.073162	2600.171701
971.371649	2603.939964
971.670098	2602.994747
971.968510	2605.089347
972.266885	2604.275200
972.565223	2602.228492
972.863524	2604.013060
973.161788	2602.568770
973.460014	2604.131527
973.758204	2602.525920
974.056356	2604.794439
974.354471	2605.835437
974.652550	2602.450303
974.950591	2602.283945
975.248595	2602.732607
975.546563	2602.921651
975.844493	2603.861826
976.142386	2604.917947
976.440243	2604.154213
976.738062	2602.644387
977.035845	2598.593820
977.333590	2602.344438
977.631299	2601.016094
977.928971	2598.296392
978.226606	2599.145826
978.524204	2600.053234
978.821765	2596.534509
979.119290	2603.206476
979.416777	2600.511979
979.714228	2600.668255
980.011642	2600.854777
980.309020	2600.312853
980.606360	2602.780498
980.903664	2601.472319
981.200931	2603.317381
981.498162	2602.399891
981.795356	2601.348811
982.092513	2605.906014
982.389633	2606.054728
982.686717	2610.180912
982.983764	2614.496140
983.280775	2616.976387
983.577749	2620.414454
983.874686	2620.230452
984.171587	2614.912035
984.468451	2614.498660
984.765279	2610.261571
985.062070	2609.926334
985.358824	2608.199739
985.655543	2605.366610
985.952224	2603.680344
986.248869	2603.957608
986.545478	2603.970211
986.842050	2600.169181
987.138586	2601.225302
987.435086	2601.051382
987.731549	2599.234047
988.027975	2599.654983
988.324366	2596.237081
988.620719	2600.033069
988.917037	2597.656165
989.213318	2597.283120
989.509563	2602.253698
989.805772	2598.586258
990.101944	2598.397215
990.398080	2598.198089
990.694180	2598.863522
990.990244	2599.070209
991.286271	2597.164653
991.582262	2596.642893
991.878217	2598.288830
992.174136	2601.321084
992.470019	2594.787749
992.765865	2593.766915
993.061676	2593.744230
993.357450	2596.539550
993.653188	2593.114086
993.948890	2597.429313
994.244556	2595.990064
994.540186	2596.620208
994.835780	2601.250508
995.131337	2601.767226
995.426859	2599.150867
995.722345	2600.209510
996.017795	2601.288317
996.313208	2599.448296
996.608586	2601.356372
996.903928	2602.891404
997.199234	2603.100612
997.494504	2605.064141
997.789738	2600.474170
998.084936	2598.868563
998.380099	2601.845364
998.675225	2600.365786
998.970316	2599.375199
999.265371	2599.223964
999.560390	2598.659355
999.855373	2599.286979
1000.150320	2597.124324
1000.445232	2598.417380
1000.740108	2598.422421
1001.034948	2596.342945
1001.329752	2597.504931
1001.624521	2596.647935
1001.919254	2598.482915
1002.213951	2599.755806
1002.508613	2594.213057
1002.803239	2596.466453
1003.097829	2594.386977
1003.392384	2596.723552
1003.686903	2593.101483
1003.981386	2596.655496
1004.275834	2595.158274
1004.570246	2597.058789
1004.864623	2594.533171
1005.158964	2594.623911
1005.453270	2594.397059
1005.747540	2595.014601
1006.041775	2595.748089
1006.335974	2593.524940
1006.630138	2596.489138
1006.924266	2595.382605
1007.218359	2596.882348
1007.512416	2593.280444
1007.806438	2590.724579
1008.100425	2591.758015
1008.394376	2591.291709
1008.688292	2595.264138
1008.982172	2596.839498
1009.276017	2596.985692
1009.569827	2594.591144
1009.863602	2595.306988
1010.157341	2595.364961
1010.451045	2594.258428
1010.744714	2593.459405
1011.038347	2596.985692
1011.331945	2594.223140
1011.625508	2595.987543
1011.919036	2597.373861
1012.212528	2593.040989
1012.505986	2596.042996
1012.799408	2596.224478
1013.092795	2592.360433
1013.386147	2594.366812
1013.679464	2592.912440
1013.972745	2594.044179
1014.265992	2594.621391
1014.559204	2593.550146
1014.852380	2591.926894
1015.145521	2593.419076
1015.438628	2593.381267
1015.731699	2593.277923
1016.024736	2595.052409
1016.317737	2592.625094
1016.610703	2596.942842
1016.903635	2595.982502
1017.196531	2596.736155
1017.489393	2594.608788
1017.782219	2594.026535
1018.075011	2593.393870
1018.367768	2592.337748
1018.660490	2591.447984
1018.953177	2591.447984
1019.245829	2591.447984
