Dividing Wavelength (nm)	Counts (n)	Blue Motor Position (mm): 48.600000	Red Motor Position (mm): 0.000000	
326.493990	2282.886519
326.888308	2282.886519
327.282561	2282.886519
327.676750	2241.085272
328.070874	2238.421022
328.464933	2239.179715
328.858929	2243.991497
329.252859	2248.331930
329.646726	2256.412900
330.040528	2269.230033
330.434265	2281.452311
330.827938	2302.746145
331.221547	2317.594863
331.615091	2334.117245
332.008571	2355.590040
332.401986	2374.171733
332.795338	2392.128323
333.188625	2414.763104
333.581847	2430.854467
333.975006	2450.015893
334.368100	2472.138996
334.761129	2490.698004
335.154095	2506.411281
335.546996	2532.234591
335.939833	2574.040880
336.332606	2587.523446
336.725315	2602.634305
337.117960	2614.410440
337.510540	2624.084414
337.903056	2638.686117
338.295508	2642.892959
338.687896	2651.387304
339.080220	2660.166473
339.472480	2666.104952
339.864676	2671.625016
340.256807	2678.354956
340.648875	2679.305214
341.040879	2681.288908
341.432818	2684.860565
341.824694	2688.114630
342.216506	2689.011955
342.608253	2688.522963
342.999937	2688.152439
343.391557	2688.840556
343.783113	2690.393232
344.174605	2687.207222
344.566033	2688.928776
344.957397	2690.115968
345.348697	2686.693025
345.739934	2684.147242
346.131106	2684.820236
346.522215	2682.828980
346.913260	2679.847138
347.304241	2678.818742
347.695159	2677.432425
348.086012	2676.305727
348.476802	2670.972186
348.867528	2668.761640
349.258191	2663.743172
349.648789	2665.484890
350.039324	2661.550270
350.429796	2665.532781
350.820203	2663.226453
351.210548	2664.605209
351.600828	2663.188645
351.991045	2661.225115
352.381198	2658.321411
352.771288	2660.184117
353.161314	2660.264776
353.551276	2655.609270
353.941175	2658.921308
354.331010	2659.800989
354.720782	2659.130516
355.110490	2658.359219
355.500135	2657.610608
355.889717	2660.002636
356.279235	2657.572799
356.668689	2659.216216
357.058080	2658.313849
357.447408	2660.781494
357.836672	2658.639003
358.225873	2657.441729
358.615010	2659.070022
359.004084	2662.026659
359.393095	2662.087153
359.782043	2661.381391
360.170927	2663.695281
360.559748	2665.404232
360.948505	2665.195024
361.337199	2666.034376
361.725830	2666.107473
362.114398	2666.382216
362.502903	2665.341217
362.891344	2669.916065
363.279722	2668.975889
363.668037	2670.130314
364.056289	2669.086795
364.444478	2669.790036
364.832603	2671.357835
365.220665	2673.074347
365.608665	2670.949501
365.996601	2671.264573
366.384474	2674.183401
366.772284	2672.416477
367.160031	2676.290604
367.547715	2676.338495
367.935336	2675.327743
368.322893	2675.257167
368.710388	2673.898576
369.097820	2674.367403
369.485189	2674.929492
369.872495	2681.656912
370.259738	2681.452745
370.646918	2685.490709
371.034035	2688.908612
371.421090	2693.460774
371.808081	2699.787422
372.195010	2705.824203
372.581875	2714.522714
372.968678	2724.136195
373.355418	2733.043914
373.742096	2745.155286
374.128710	2759.638521
374.515262	2771.432300
374.901751	2791.861576
375.288177	2805.573515
375.674540	2827.618480
376.060841	2849.504650
376.447079	2870.344780
376.833254	2903.049265
377.219367	2917.310690
377.605417	2957.168573
377.991404	2975.742704
378.377329	3014.448683
378.763191	3034.202444
379.148991	3077.241295
379.534727	3119.266874
379.920402	3158.812206
380.306013	3175.397602
380.691563	3240.108373
381.077049	3261.308946
381.462474	3302.616160
381.847835	3363.712424
382.233134	3401.324473
382.618371	3424.176024
383.003545	3496.544308
383.388657	3517.752442
383.773706	3581.059252
384.158693	3612.069910
384.543618	3642.891524
384.928480	3697.078887
385.313280	3753.582660
385.698017	3775.620064
386.082692	3865.566852
386.467305	3869.624980
386.851856	3904.343407
387.236344	3981.684789
387.620770	4010.500025
388.005133	4062.134043
388.389435	4107.791773
388.773674	4119.096561
389.157851	4186.804298
389.541965	4258.091255
389.926018	4226.231162
390.310008	4322.975946
390.693936	4378.143813
391.077802	4412.922733
391.461606	4415.423146
391.845348	4476.330366
392.229027	4536.062998
392.612645	4536.163821
392.996200	4637.768277
393.379694	4700.016445
393.763125	4802.780366
394.146494	4832.969316
394.529801	4884.603334
394.913047	4971.964010
395.296230	4917.305299
395.679351	5024.901166
396.062410	5083.615485
396.445408	5052.428387
396.828343	5114.646308
397.211217	5167.096993
397.594028	5047.800608
397.976778	5166.565151
398.359466	5215.895362
398.742092	5238.499896
399.124656	5156.976876
399.507158	5277.964569
399.889598	5337.792983
400.271977	5456.247495
400.654294	5459.554492
401.036549	5505.529815
401.418742	5425.375469
401.800874	5629.824504
402.182944	5694.018557
402.564952	5795.146624
402.946898	5855.451427
403.328783	5686.776940
403.710606	5712.658224
404.092367	6041.543101
404.474067	6060.621347
404.855705	5956.985307
405.237282	5891.190687
405.618797	6156.695657
406.000250	6122.491428
406.381642	6337.113512
406.762972	6358.261153
407.144240	6411.009266
407.525447	6395.550568
407.906593	6402.509881
408.287677	6575.618063
408.668700	6490.911554
409.049661	6598.232679
409.430560	6626.362317
409.811399	6496.161916
410.192176	6752.923005
410.572891	6778.552231
410.953545	6966.458720
411.334138	6692.489653
411.714669	6864.723194
412.095139	6659.792729
412.475547	6902.078144
412.855894	6977.362736
413.236180	7167.731829
413.616405	6821.205434
413.996568	7033.049842
414.376670	7097.102743
414.756711	6990.711711
415.136691	7087.791732
415.516609	7287.146681
415.896466	7268.703620
416.276262	7475.060732
416.655997	7467.556974
417.035670	7634.698951
417.415283	7984.260120
417.794834	8054.085142
418.174324	7902.762306
418.553753	7837.837286
418.933121	8126.080381
419.312428	8224.070329
419.691674	8004.505394
420.070859	8485.675967
420.449983	8168.511772
420.829045	8534.675982
421.208047	8301.368862
421.586988	8614.301007
421.965867	8639.103484
422.344686	8722.574909
422.723444	8812.050349
423.102141	8136.238306
423.480777	8908.293538
423.859352	8432.935415
424.237866	9052.518429
424.616319	8908.653980
424.994712	9355.219553
425.373044	8878.981749
425.751314	9369.531388
426.129524	9256.365046
426.507673	9322.580602
426.885762	9483.844593
427.263789	9409.961442
427.641756	9354.652423
428.019662	9427.015666
428.397508	9707.286175
428.775292	9353.034212
429.153016	9753.526159
429.530679	9583.412422
429.908282	9584.453421
430.285824	9314.333274
430.663305	10008.043934
431.040726	9457.169327
431.418086	9431.010780
431.795385	9772.732955
432.172624	9871.849602
432.549802	9765.269527
432.926920	9840.617133
433.303977	9708.289365
433.680974	9913.786960
434.057910	10020.397282
434.434786	10097.267316
434.811601	9915.478268
435.188355	10468.455036
435.565050	10229.935362
435.941683	10143.406477
436.318257	10615.581111
436.694770	10799.953751
437.071222	10842.261635
437.447614	10663.935858
437.823946	10604.175500
438.200218	10674.466829
438.576429	10527.469303
438.952580	10785.866247
439.328670	10789.390013
439.704700	10607.858063
440.080670	10592.296021
440.456580	11100.257806
440.832429	10900.315562
441.208218	10502.170273
441.583947	10780.028590
441.959616	10977.712397
442.335224	10796.172886
442.710773	10889.585466
443.086261	11128.510953
443.461689	10390.589373
443.837057	11085.472102
444.212365	11308.596092
444.587612	10942.641090
444.962800	11148.970476
445.337927	10884.682944
445.712995	10591.948182
446.088002	11610.417534
446.462949	11314.305198
446.837837	11278.223140
447.212664	11183.666217
447.587431	11797.197325
447.962139	12570.296076
448.336786	14873.536254
448.711374	15335.280741
449.085901	13140.266574
449.460369	12797.987352
449.834776	12243.142836
450.209124	13194.317826
450.583412	13619.123257
450.957640	14538.070151
451.331808	13560.565214
451.705917	12650.899085
452.079965	11874.621887
452.453954	12796.827886
452.827883	12458.959673
453.201752	12742.509453
453.575562	12314.533136
453.949311	12717.233108
454.323001	12703.763145
454.696632	12945.365484
455.070202	13220.468811
455.443713	13389.765881
455.817164	13915.338937
456.190556	13870.286145
456.563888	14234.048245
456.937160	14372.470768
457.310373	13733.849837
457.683526	13858.762067
458.056619	13371.030433
458.429653	13583.545314
458.802628	12927.769337
459.175542	13353.812372
459.548398	14298.786742
459.921194	14674.128373
460.293930	14751.318520
460.666607	15583.645788
461.039224	16651.750341
461.411782	17384.401394
461.784280	17128.971170
462.156719	17264.132067
462.529099	16909.985968
462.901419	15892.794548
463.273680	15648.137269
463.645882	15552.420881
464.018024	15269.826399
464.390106	15501.359034
464.762130	16209.754575
465.134094	17024.667177
465.505999	19114.520353
465.877845	22390.428481
466.249631	25172.311093
466.621358	24751.190744
466.993026	23349.180325
467.364634	22733.075707
467.736184	21263.846543
468.107674	20495.594861
468.479105	20617.237903
468.850477	20065.501259
469.221790	19678.580098
469.593043	18973.080700
469.964238	18403.074914
470.335373	18045.548721
470.706449	18563.411332
471.077467	18155.317326
471.448425	20052.149763
471.819324	24211.928435
472.190164	25990.180331
472.560945	22267.406683
472.931667	19997.624643
473.302330	19398.405370
473.672934	19077.762780
474.043479	19271.572460
474.413965	19072.777079
474.784393	18664.322630
475.154761	19451.755902
475.525070	19347.038533
475.895321	19086.035313
476.265513	19699.659683
476.635645	20280.163672
477.005719	20030.921464
477.375734	20212.022395
477.745691	20703.232426
478.115588	21261.726737
478.485427	21818.960760
478.855207	22936.589609
479.224928	24742.930814
479.594591	26968.776677
479.964194	26837.812542
480.333739	27077.547133
480.703226	26657.341754
481.072653	26385.923511
481.442022	27034.838478
481.811333	27963.950858
482.180584	27824.784765
482.549777	26878.010702
482.918912	26572.073158
483.287988	26698.462446
483.657005	26309.608003
484.025964	26109.043177
484.394864	25949.541069
484.763706	25607.516425
485.132489	25091.100625
485.501213	25274.117195
485.869879	25183.699059
486.238487	25043.491968
486.607036	25155.917260
486.975527	24926.131386
487.343959	25198.988879
487.712333	25112.240703
488.080648	24760.287507
488.448905	25283.350068
488.817104	25071.440125
489.185244	25758.577120
489.553326	25705.191301
489.921350	26774.891380
490.289315	29150.920778
490.657222	30836.725474
491.025070	31355.775277
491.392861	31095.563518
491.760593	30216.930732
492.128267	29281.269893
492.495883	28222.967863
492.863440	27361.079270
493.230939	26487.338923
493.598380	26319.158469
493.965763	25949.725071
494.333088	25431.038232
494.700354	25432.616113
495.067563	25254.900316
495.434713	25015.397618
495.801805	25214.228287
496.168839	24952.698267
496.535815	24837.838097
496.902733	25064.372427
497.269593	24783.769201
497.636395	24931.240595
498.003139	24854.284861
498.369825	24589.321815
498.736453	24808.145701
499.103023	24681.521998
499.469535	24677.010166
499.835989	24891.967486
500.202385	24915.449181
500.568723	24465.909328
500.935003	24624.481342
501.301226	24338.663043
501.667390	25184.850963
502.033497	25370.506577
502.399546	25115.928308
502.765537	24631.491067
503.131470	25017.444326
503.497345	25183.988926
503.863163	24422.268059
504.228923	24936.173364
504.594625	25223.504010
504.960269	24783.706187
505.325856	25250.902681
505.691385	24650.788604
506.056856	25250.607774
506.422270	25244.727268
506.787625	24747.472893
507.152924	25203.916607
507.518164	25230.110442
507.883347	25033.903693
508.248472	24727.199893
508.613540	25491.857232
508.978550	25292.066223
509.343503	25322.655944
509.708398	25497.654559
510.073236	25673.789954
510.438016	25880.941048
510.802738	25542.309100
511.167403	25806.377341
511.532010	25568.298768
511.896561	26292.057226
512.261053	26267.625274
512.625488	26090.353099
512.989866	25985.431564
513.354186	25806.261395
513.718449	25951.083662
514.082655	26325.611146
514.446803	26033.395622
514.810894	26522.745467
515.174927	26025.511258
515.538904	26067.617495
515.902822	26560.465901
516.266684	26304.821428
516.630488	26213.455555
516.994235	26138.609544
517.357925	26506.986820
517.721558	26652.807237
518.085133	26786.319676
518.448651	26655.108523
518.812112	26441.224968
519.175516	26663.630594
519.538863	26808.805742
519.902152	26608.356863
520.265385	26849.092123
520.628560	26667.948342
520.991678	26638.553374
521.354739	26679.401844
521.717743	26797.168239
522.080690	26563.924132
522.443580	26900.247232
522.806413	26856.631169
523.169189	26985.977094
523.531908	27035.478704
523.894569	26664.303588
524.257174	26756.166014
524.619722	26878.517338
524.982213	26605.710257
525.344647	26612.467923
525.707025	26784.048636
526.069345	26719.116054
526.431608	26709.053911
526.793815	26865.463270
527.155964	26389.278399
527.518057	26555.540694
527.880093	26482.862379
528.242072	26677.294641
528.603995	26409.886636
528.965860	26206.216458
529.327669	26229.622536
529.689421	26237.824493
530.051117	26079.260040
530.412755	26244.118374
530.774337	26021.551431
531.135862	25923.198520
531.497331	26086.531904
531.858743	25703.736928
532.220098	26146.448538
532.581396	25859.884148
532.942638	25725.416410
533.303824	25856.299888
533.664953	25844.652302
534.026025	25513.960171
534.387040	25754.834064
534.747999	25804.960777
535.108902	25952.943848
535.469748	25461.264990
535.830537	25615.178979
536.191270	25766.441320
536.551947	25567.376237
536.912567	25191.308681
537.273131	25667.027246
537.633638	25311.938451
537.994089	25543.829008
538.354483	25014.701938
538.714821	25533.799632
539.075103	25585.678146
539.435328	25351.740882
539.795497	24956.116169
540.155609	25280.123729
540.515665	25604.970642
540.875665	24813.610311
541.235609	25160.842468
541.595496	25085.262969
541.955328	25456.546470
542.315102	25375.109150
542.674821	24880.692946
543.034483	24774.478355
543.394090	24938.131852
543.753640	24754.981692
544.113134	25368.916093
544.472571	24955.712877
544.831953	25258.973568
545.191278	24920.608802
545.550548	24803.175123
545.909761	25008.541648
546.268918	25248.765232
546.628019	25228.827468
546.987064	24899.960236
547.346053	24637.956347
547.704986	24718.660179
548.063863	24899.650205
548.422684	24925.377733
548.781449	24403.451952
549.140158	24823.405273
549.498811	24402.955398
549.857408	24170.414533
550.215949	24556.244284
550.574434	24264.883236
550.932864	24447.912408
551.291237	24649.387163
551.649555	24474.353260
552.007817	24542.373549
552.366022	24381.885896
552.724173	24401.914400
553.082267	24382.117789
553.440305	24856.339131
553.798288	24080.475307
554.156215	24564.068155
554.514086	24717.208326
554.871902	24114.959320
555.229661	24385.076946
555.587365	24230.515169
555.945014	24136.159893
556.302606	24329.067207
556.660143	24343.933569
557.017625	24560.332660
557.375050	24082.678292
557.732421	24465.531241
558.089735	24288.329642
558.446994	24344.846018
558.804197	24387.673141
559.161345	24261.230920
559.518437	24077.785852
559.875474	24232.080448
560.232455	24413.398149
560.589381	24233.146652
560.946251	24239.024637
561.303065	24530.002558
561.659825	24617.522030
562.016528	24229.882505
562.373177	23957.902172
562.729770	24323.917668
563.086307	24168.461086
563.442789	24341.725544
563.799216	24191.547050
564.155587	24171.594163
564.511904	24156.153109
564.868164	24121.719508
565.224370	24077.556479
565.580520	24036.680283
565.936615	24147.331090
566.292654	23851.647252
566.648638	24057.044024
567.004567	23909.328134
567.360441	23835.709644
567.716260	23567.931114
568.072023	23858.329302
568.427732	23658.248426
568.783385	23407.067894
569.138982	23672.686291
569.494525	23703.638975
569.850013	23461.724084
570.205445	23573.902360
570.560823	23399.178489
570.916145	23175.363861
571.271412	23367.804868
571.626625	23116.236167
571.981782	23205.235218
572.336884	23019.942567
572.691931	23158.302076
573.046923	22890.669738
573.401860	22763.236931
573.756743	22820.408657
574.111570	22708.300957
574.466342	22625.205097
574.821059	22704.978837
575.175722	22406.751737
575.530330	22359.533769
575.884882	22362.248431
576.239380	22277.904886
576.593823	22168.247187
576.948211	22153.277480
577.302544	22001.924398
577.656823	21866.332483
578.011047	21979.539154
578.365216	21838.575890
578.719330	21706.606044
579.073389	21592.572623
579.427394	21766.610898
579.781344	21498.628201
580.135239	21400.749157
580.489080	21327.919608
580.842866	21121.731374
581.196597	21332.761636
581.550273	21290.526849
581.903895	21169.045124
582.257463	21478.234213
582.610975	21012.630723
582.964434	21348.517763
583.317837	21007.715598
583.671186	21090.692990
584.024481	21083.416085
584.377721	20850.907987
584.730906	20953.369439
585.084037	20920.226373
585.437113	20849.748522
585.790135	21064.627704
586.143103	20504.041314
586.496016	20546.818025
586.848874	20775.000813
587.201679	20667.558701
587.554428	20390.136443
587.907124	20721.922504
588.259765	20463.318873
588.612352	20548.418592
588.964884	20101.719429
589.317362	20284.904877
589.669786	20347.011893
590.022155	20334.351035
590.374470	20592.929459
590.726731	20335.039152
591.078937	20139.139914
591.431090	20216.811492
591.783188	19983.847169
592.135232	19936.072154
592.487222	20047.285049
592.839157	20045.596263
593.191038	19918.738147
593.542866	19822.603343
593.894639	19506.752369
594.246358	19729.752851
594.598022	19620.626994
594.949633	19377.230004
595.301190	19372.778665
595.652692	19535.544920
596.004141	19747.916128
596.355535	19072.772038
596.706876	19109.234703
597.058162	18994.339246
597.409395	19250.515561
597.760573	19281.695097
598.111698	19053.746723
598.462768	19003.567078
598.813785	18986.863214
599.164748	18766.756355
599.515657	18832.969390
599.866511	18634.327764
600.217312	18984.730806
600.568060	18482.644486
600.918753	18795.788360
601.269392	18698.201704
601.619978	18503.877826
601.970510	18676.600360
602.320988	18626.914747
602.671412	18829.395212
603.021783	18773.413199
603.372100	18457.163974
603.722363	18633.032188
604.072572	18569.188495
604.422728	18726.782526
604.772830	18467.707547
605.122878	18435.794523
605.472872	18402.351508
605.822813	18392.904386
606.172701	18388.942039
606.522534	18557.097287
606.872314	18588.884283
607.222041	18435.852496
607.571714	18641.539135
607.921333	18464.743349
608.270899	18536.297487
608.620411	18679.620011
608.969870	18491.889962
609.319276	18484.020721
609.668627	18509.337396
610.017926	18647.228077
610.367171	18755.391074
610.716362	18815.579930
611.065500	18626.347618
611.414585	18766.849617
611.763616	18764.215614
612.112594	18690.065282
612.461518	18668.905038
612.810389	18863.075161
613.159207	18721.597699
613.507971	18637.400347
613.856682	18866.422487
614.205340	18789.779305
614.553945	18950.302246
614.902496	18694.042752
615.250994	18888.742196
615.599439	18845.489096
615.947830	18836.155400
616.296169	18925.061189
616.644454	18869.104381
616.992686	18851.369602
617.340864	19078.526515
617.688990	18819.328028
618.037063	18988.599892
618.385082	18847.208129
618.733048	19118.414645
619.080961	19013.845990
619.428821	19043.956802
619.776628	18915.011649
620.124382	18846.711576
620.472083	18907.591070
620.819731	18899.547909
621.167326	18600.373073
621.514868	18644.586512
621.862357	18438.413402
622.209793	18419.637625
622.557176	18248.601357
622.904506	18082.734793
623.251783	18022.309002
623.599007	17773.160056
623.946179	17712.096559
624.293297	17637.447153
624.640363	17355.876025
624.987376	17388.131848
625.334336	17190.561467
625.681243	17030.227569
626.028097	17066.569247
626.374899	16973.081049
626.721647	16836.566603
627.068343	16676.013415
627.414987	16613.861029
627.761577	16568.170531
628.108115	16597.305880
628.454600	16331.642113
628.801032	16428.412102
629.147412	16375.535440
629.493739	16370.678288
629.840014	16190.310845
630.186236	16277.394257
630.532405	16045.780964
630.878521	16241.413021
631.224585	16158.702810
631.570597	15979.724204
631.916556	16001.751526
632.262462	15969.036958
632.608316	15887.463527
632.954117	15839.413769
633.299866	15813.882846
633.645562	15746.379275
633.991206	15508.373799
634.336797	15386.261930
634.682336	15356.113309
635.027823	15206.990937
635.373257	15082.456793
635.718639	15003.245143
636.063968	14926.483493
636.409245	14684.732440
636.754470	14727.806579
637.099642	14580.244444
637.444762	14358.605074
637.789829	14393.326021
638.134845	14230.819386
638.479808	14256.443571
638.824719	14158.854394
639.169577	14032.649108
639.514383	14056.400504
639.859137	13899.814704
640.203839	13999.115352
640.548489	13848.077342
640.893086	13831.905320
641.237632	13715.384090
641.582125	13878.909039
641.926566	13682.296477
642.270955	13698.599568
642.615292	13650.075942
642.959576	13665.645546
643.303809	13685.505171
643.647990	13611.758132
643.992118	13691.211757
644.336195	13454.164101
644.680219	13686.160521
645.024192	13597.000154
645.368112	13825.868538
645.711981	13863.483108
646.055797	14050.257858
646.399562	14036.853430
646.743274	14292.540753
647.086935	14567.835644
647.430544	14533.268452
647.774101	14581.643364
648.117606	14703.818248
648.461059	14698.335993
648.804460	14667.176622
649.147810	14389.842584
649.491108	14314.827694
649.834354	14333.464840
650.177548	14003.236495
650.520690	13813.411847
650.863781	13734.127100
651.206820	13778.995890
651.549807	13605.930558
651.892742	13381.463101
652.235626	13336.785875
652.578458	13341.315351
652.921238	13045.301318
653.263967	13247.078542
653.606644	13066.683372
653.949269	13057.347155
654.291843	12842.435205
654.634365	13008.140452
654.976836	12860.525386
655.319255	12852.323428
655.661622	12823.467864
656.003938	12737.362435
656.346203	12663.731342
656.688416	12754.348603
657.030577	12692.977596
657.372687	12593.429931
657.714746	12599.759100
658.056753	12785.139971
658.398708	12588.345928
658.740612	12591.426073
659.082465	12706.266078
659.424266	12680.099969
659.766016	12709.021068
660.107715	12617.851801
660.449362	12702.011344
660.790958	12644.751398
661.132503	12586.939446
661.473996	12664.757217
661.815438	12663.207062
662.156829	12701.227445
662.498168	12673.027230
662.839456	12670.322651
663.180693	12674.151407
663.521879	12791.033080
663.863013	12752.291813
664.204097	12727.552350
664.545129	12860.429604
664.886110	12830.792660
665.227040	12930.123556
665.567918	12921.873707
665.908746	12943.114609
666.249522	12935.872992
666.590248	12995.605623
666.930922	13103.183847
667.271545	13068.641860
667.612118	13160.141323
667.952639	13048.031103
668.293109	13096.978186
668.633528	13023.624357
668.973896	13002.920338
669.314213	13070.592787
669.654480	12817.733551
669.994695	12906.566244
670.334859	12930.330243
670.674973	12863.119059
671.015035	12893.756672
671.355047	12843.478724
671.695008	12815.681802
672.034918	12832.851972
672.374777	12873.992828
672.714585	12785.205506
673.054342	12829.986076
673.394049	12787.965538
673.733705	12877.171276
674.073310	12762.386723
674.412864	12783.451184
674.752368	12620.518572
675.091820	12685.083149
675.431223	12650.596616
675.770574	12505.701252
676.109875	12421.874425
676.449125	12383.022252
676.788324	12345.367353
677.127473	12171.634068
677.466571	12164.336998
677.805619	12049.096221
678.144616	11990.071872
678.483562	11971.359108
678.822458	11839.480003
679.161303	11813.792804
679.500098	11788.685337
679.838842	11747.395767
680.177535	11791.442848
680.516179	11865.633509
680.854771	11804.723768
681.193314	12015.625480
681.531805	12187.727952
681.870247	12638.618834
682.208638	13042.667315
682.546978	13329.806397
682.885268	13347.795755
683.223508	13055.272720
683.561697	12903.297055
683.899836	12810.812047
684.237925	12609.498609
684.575963	12518.044517
684.913951	12434.414295
685.251889	12400.136969
685.589776	12495.114828
685.927614	12404.472362
686.265401	12386.195658
686.603137	12458.894138
686.940824	12595.950508
687.278460	12734.118453
687.616046	12763.977207
687.953582	12899.385120
688.291068	12851.897451
688.628504	13090.916199
688.965889	13090.298657
689.303224	13033.910831
689.640510	12917.757605
689.977745	12597.717433
690.314930	12387.135834
690.652065	12295.008747
690.989150	11984.861839
691.326185	11763.381265
691.663170	11552.691282
692.000105	11327.691982
692.336990	11199.689525
692.673825	10938.025914
693.010610	10828.935344
693.347345	10627.349684
693.684030	10433.330796
694.020665	10373.686385
694.357251	10175.926960
694.693786	10088.904042
695.030272	9942.655128
695.366707	9832.778139
695.703093	9775.258573
696.039429	9761.710472
696.375716	9660.867231
696.711952	9539.458602
697.048139	9597.671326
697.384276	9548.867916
697.720363	9571.674096
698.056400	9502.469136
698.392388	9443.374210
698.728326	9412.507225
699.064214	9357.432619
699.400053	9384.758193
699.735842	9203.453095
700.071581	9170.425976
700.407270	9098.718083
700.742910	9012.153910
701.078501	8922.978419
701.414042	8779.050956
701.749533	8728.871311
702.084974	8591.073891
702.420366	8717.916883
702.755709	8587.552645
703.091002	8454.594733
703.426246	8481.819484
703.761440	8434.911548
704.096584	8395.910661
704.431679	8333.329777
704.766725	8316.038619
705.101721	8269.859129
705.436668	8326.604878
705.771565	8211.467444
706.106413	8294.500289
706.441212	8322.816451
706.775961	8291.914178
707.110661	8345.426026
707.445311	8469.188873
707.779913	8361.288016
708.114465	8487.238724
708.448967	8526.620218
708.783421	8699.930046
709.117825	8859.580868
709.452180	8891.430878
709.786485	8977.538827
710.120742	9266.049103
710.454949	9284.056104
710.789107	9387.021672
711.123216	9605.656514
711.457275	9785.237537
711.791286	9922.495554
712.125247	9934.417883
712.459159	9921.769627
712.793023	10140.709460
713.126837	9716.493843
713.460602	9876.300940
713.794318	9700.447850
714.127985	9728.716120
714.461602	9381.889777
714.795171	9347.718316
715.128691	9090.921939
715.462162	8854.539714
715.795584	8790.766597
716.128957	8609.083413
716.462281	8447.630379
716.795556	8497.179880
717.128782	8286.726830
717.461960	8039.919500
717.795088	8104.884849
718.128167	8007.993872
718.461198	7846.838266
718.794180	7794.511089
719.127113	7792.839947
719.459997	7614.075590
719.792833	7393.877990
720.125619	7469.954043
720.458357	7323.148081
720.791046	7316.491237
721.123686	7297.415511
721.456278	7144.300546
721.788821	7155.741444
722.121315	7056.334932
722.453761	7137.167313
722.786158	7065.439255
723.118506	7074.306645
723.450805	7041.897067
723.783056	7096.873370
724.115259	7021.853439
724.447412	7017.941504
724.779518	7072.988383
725.111574	7073.442087
725.443582	7145.066801
725.775542	7121.380940
726.107453	7318.364026
726.439315	7227.892959
726.771129	7317.242369
727.102895	7484.487689
727.434612	7589.920902
727.766281	7638.192470
728.097901	7701.844599
728.429473	7720.925367
728.760996	7713.043523
729.092471	7680.553286
729.423897	7616.152546
729.755276	7608.895805
730.086606	7519.773246
730.417887	7630.603013
730.749120	7853.227929
731.080305	8038.636526
731.411442	8139.467165
731.742530	8121.848332
732.073570	8226.064105
732.404562	8311.196591
732.735506	8178.281529
733.066401	8301.169736
733.397249	8211.144811
733.728048	7973.230075
734.058798	7642.704303
734.389501	7406.213694
734.720156	7239.638847
735.050762	7023.058275
735.381320	6943.823939
735.711831	6870.417178
736.042293	6765.525890
736.372707	6781.579444
736.703073	6658.111504
737.033391	6696.177257
737.363661	6702.498864
737.693883	6740.640234
738.024056	6819.942625
738.354182	6852.211051
738.684260	6892.920888
739.014290	7025.425097
739.344272	7124.524099
739.674207	7154.080384
740.004093	7233.549133
740.333931	7248.647389
740.663722	7249.895075
740.993464	7331.498753
741.323159	7303.215359
741.652806	7062.364152
741.982405	7102.186746
742.311956	7135.019781
742.641460	6944.456604
742.970915	6758.148161
743.300323	6750.387305
743.629683	6714.181738
743.958996	6573.783083
744.288260	6478.016283
744.617477	6424.068375
744.946647	6415.483290
745.275768	6262.943016
745.604842	6220.330142
745.933869	6198.338109
746.262847	6154.951418
746.591778	6143.528163
746.920662	6104.537359
747.249498	6107.448625
747.578286	6152.335059
747.907027	6230.979580
748.235720	6286.676768
748.564365	6257.037304
748.892963	6306.624614
749.221514	6439.544717
749.550017	6237.971660
749.878473	6136.173120
750.206881	6204.752977
750.535242	6158.376882
750.863555	6088.332570
751.191821	6092.965390
751.520039	6084.161015
751.848210	5989.732642
752.176334	6030.739908
752.504411	6066.174178
752.832440	5991.174412
753.160421	5922.657569
753.488356	5972.340661
753.816243	5994.975442
754.144082	5849.114697
754.471875	5829.247509
754.799620	5867.656060
755.127318	5883.177773
755.454969	5837.298232
755.782572	5808.500641
756.110129	5851.980593
756.437638	5820.390202
756.765100	5767.962202
757.092515	5782.757988
757.419882	5834.102140
757.747203	5805.775897
758.074477	5860.048959
758.401703	5844.335683
758.728882	5809.592050
759.056014	5885.385798
759.383099	5987.864894
759.710138	6001.100444
760.037129	5991.159288
760.364073	5995.040977
760.690970	6074.638276
761.017820	6050.171035
761.344623	6013.302557
761.671379	6123.913034
761.998088	6251.529843
762.324751	6518.423652
762.651366	7170.214597
762.977935	8558.137512
763.304456	10216.152848
763.630931	11059.374048
763.957359	10572.023021
764.283740	9601.903375
764.610074	8718.937717
764.936362	7722.069708
765.262602	7145.966647
765.588796	6620.386029
765.914943	6291.460823
766.241044	6116.305933
766.567097	5895.939454
766.893104	5639.019569
767.219064	5472.389270
767.544978	5406.962654
767.870845	5319.977545
768.196665	5216.777564
768.522438	5145.200741
768.848165	5108.556594
769.173846	5040.649731
769.499479	4993.668698
769.825066	4945.780257
770.150607	4887.628026
770.476101	4863.072566
770.801548	4857.353377
771.126949	4769.128143
771.452303	4717.289958
771.777611	4684.255277
772.102872	4703.535170
772.428087	4664.370446
772.753256	4617.984269
773.078378	4563.938058
773.403453	4499.935569
773.728482	4488.671111
774.053465	4448.878763
774.378401	4431.537194
774.703291	4423.274743
775.028135	4351.249257
775.352932	4304.086742
775.677683	4289.885812
776.002388	4305.442813
776.327046	4314.153927
776.651658	4238.607195
776.976224	4182.965459
777.300743	4181.175850
777.625216	4207.881362
777.949643	4195.374260
778.274024	4154.765245
778.598359	4121.160913
778.922647	4149.262825
779.246889	4133.491576
779.571086	4123.323568
779.895236	4110.632463
780.219339	4098.858849
780.543397	4099.988067
780.867409	4152.234586
781.191374	4160.696162
781.515294	4093.311059
781.839167	4089.532714
782.162995	4117.027167
782.486776	4103.317749
782.810511	4115.572794
783.134201	4098.959672
783.457844	4050.693144
783.781441	3997.418230
784.104993	4008.435672
784.428498	4027.274464
784.751958	4013.176877
785.075372	3997.390504
785.398739	3961.353816
785.722061	3974.675065
786.045337	4022.583670
786.368568	4043.569994
786.691752	3956.852065
787.014891	4022.860934
787.337983	4153.129390
787.661030	4322.572653
787.984031	4476.169049
788.306987	4638.620232
788.629897	4726.477461
788.952760	4677.071633
789.275579	4612.214668
789.598351	4543.234040
789.921078	4383.144637
790.243759	4187.620965
790.566395	4184.737425
790.888984	4172.119417
791.211529	4065.463725
791.534027	4008.183614
791.856480	3985.455572
792.178888	3926.156480
792.501249	3887.841190
792.823566	3895.055081
793.145836	3915.381013
793.468062	3864.155328
793.790241	3829.368846
794.112375	3856.104606
794.434464	3928.122530
794.756507	3945.963173
795.078505	3918.501487
795.400457	3963.090493
795.722364	4111.144141
796.044226	4215.627095
796.366042	4290.959578
796.687812	4254.378445
797.009538	4260.301801
797.331218	4225.164958
797.652852	4202.462122
797.974442	4177.657124
798.295986	4171.630425
798.617484	4086.291252
798.938938	4006.240250
799.260346	4055.406623
799.581709	4040.348697
799.903026	3963.549238
800.224299	3926.370729
800.545526	3920.946447
800.866708	3882.681569
801.187845	3828.572344
801.508936	3859.290615
801.829983	3850.950026
802.150984	3772.308026
802.471940	3768.506996
802.792851	3770.457923
803.113717	3778.198614
803.434538	3773.391874
803.755314	3711.993141
804.076045	3695.947148
804.396731	3717.964388
804.717372	3739.928695
805.037967	3724.555696
805.358518	3712.595559
805.679024	3742.081268
805.999485	3758.036519
806.319901	3763.790997
806.640272	3772.116462
806.960598	3786.282104
807.280879	3760.597426
807.601115	3778.332205
807.921306	3794.262251
808.241453	3834.614167
808.561554	3798.496820
808.881611	3741.632605
809.201623	3781.419912
809.521590	3786.972742
809.841513	3761.814864
810.161390	3790.980460
810.481223	3763.130605
810.801011	3712.368707
811.120755	3713.097153
811.440453	3743.303747
811.760107	3737.856781
812.079716	3696.844473
812.399281	3672.445289
812.718801	3697.217519
813.038276	3668.742561
813.357707	3663.121675
813.677093	3677.209179
813.996434	3622.603401
814.315731	3638.364568
814.634983	3646.054848
814.954191	3660.447343
815.273354	3682.026002
815.592473	3672.747758
815.911547	3691.354657
816.230577	3735.338724
816.549562	3786.314872
816.868502	3827.801048
817.187399	3846.372658
817.506250	3847.784181
817.825058	3828.521933
818.143821	3928.220832
818.462539	4022.588712
818.781213	4063.200247
819.099843	4133.907471
819.418429	4406.195313
819.736970	4649.534330
820.055466	4905.806427
820.373919	5271.970637
820.692327	5690.005799
821.010691	6199.043870
821.329011	7712.355405
821.647286	10652.310958
821.965517	15440.721515
822.283704	19419.875645
822.601847	21311.861012
822.919945	19356.619246
823.237999	16688.258378
823.556010	14162.794056
823.873976	11987.402581
824.191897	9878.002330
824.509775	8561.106752
824.827609	7440.148221
825.145398	6924.231495
825.463144	6807.117929
825.780845	6914.358395
826.098502	7152.194992
826.416116	8135.575394
826.733685	9507.119600
827.051210	10583.743704
827.368692	10496.415796
827.686129	9139.564032
828.003522	7639.414950
828.320872	6622.616740
828.638177	5901.441873
828.955439	5330.397610
829.272656	4832.797917
829.589830	4568.621290
829.906960	4392.311976
830.224046	4193.466183
830.541088	4075.384716
830.858086	4024.390924
831.175041	3949.401240
831.491952	3941.922688
831.808819	3953.345943
832.125642	4030.959547
832.442421	4193.332592
832.759157	4488.726564
833.075849	5086.007513
833.392497	5987.028063
833.709101	6776.807992
834.025662	7067.778351
834.342179	6625.817873
834.658653	5948.501045
834.975083	5288.989572
835.291469	4703.401580
835.607811	4312.442455
835.924110	4164.983664
836.240366	3959.259216
836.556578	3759.233793
836.872746	3649.848317
837.188871	3604.588837
837.504952	3537.458312
837.820990	3455.935293
838.136984	3415.021288
838.452935	3438.603806
838.768842	3434.316305
839.084706	3460.275726
839.400526	3632.128661
839.716303	4005.756299
840.032037	4561.533428
840.347727	4782.615751
840.663373	4455.187767
840.978977	4064.730237
841.294537	3758.628855
841.610054	3534.867159
841.925527	3433.204730
842.240957	3359.674460
842.556344	3304.836789
842.871687	3242.248343
843.186987	3191.637679
843.502244	3156.586536
843.817458	3123.377935
844.132629	3093.977926
844.447756	3105.103753
844.762840	3084.308993
845.077881	3052.252296
845.392879	3036.697816
845.707833	3034.605737
846.022745	3034.285623
846.337613	3032.601878
846.652438	3018.804240
846.967221	3015.272912
847.281960	3000.933350
847.596656	2995.783811
847.911309	2999.504183
848.225919	2993.701814
848.540485	2990.777945
848.855009	2987.881802
849.169490	2976.158599
849.483928	2966.746765
849.798323	2968.012094
850.112675	2969.678196
850.426984	2982.341574
850.741251	2971.205665
851.055474	2959.890796
851.369654	2956.235959
851.683792	2963.447330
851.997887	2972.536530
852.311938	2972.397898
852.625947	2957.284519
852.939914	2963.442288
853.253837	2967.427321
853.567718	2953.307049
853.881555	2956.795527
854.195350	2968.186014
854.509103	2962.199644
854.822812	2957.019858
855.136479	2953.120526
855.450103	2958.058336
855.763685	2946.834207
856.077224	2946.685493
856.390720	2960.009263
856.704173	2967.306333
857.017584	2960.304170
857.330953	2959.149746
857.644278	2968.949749
857.957561	2981.124136
858.270802	2981.199753
858.584000	2977.587766
858.897155	2965.138637
859.210268	2963.684264
859.523339	2963.651496
859.836367	2964.344655
860.149352	2958.214612
860.462295	2950.007613
860.775195	2959.326186
861.088054	2959.905919
861.400869	2941.477981
861.713642	2942.710543
862.026373	2957.052626
862.339062	2962.769294
862.651708	2965.667958
862.964312	2965.007567
863.276873	2956.944241
863.589392	2972.012250
863.901869	2984.607573
864.214303	3005.452744
864.526696	3020.099817
864.839045	3013.566481
865.151353	3016.187881
865.463619	3015.388858
865.775842	3018.290042
866.088023	3039.329298
866.400162	3039.883825
866.712258	3009.037004
867.024313	2999.657938
867.336325	3011.703775
867.648296	3031.671785
867.960224	3025.783718
868.272110	3009.689834
868.583954	3013.662263
868.895755	3028.594161
869.207515	3015.282994
869.519233	3025.337575
869.830909	3033.821837
870.142542	3042.212838
870.454134	3041.935574
870.765684	3043.324412
871.077191	3042.555636
871.388657	3058.074828
871.700081	3070.952456
872.011463	3077.228692
872.322803	3076.936306
872.634101	3076.374217
872.945357	3096.460694
873.256571	3123.771145
873.567744	3113.918210
873.878874	3108.670369
874.189963	3133.455202
874.501010	3130.072588
874.812015	3122.034468
875.122979	3121.726957
875.433900	3119.433233
875.744780	3128.673667
876.055618	3134.239101
876.366415	3129.845736
876.677169	3141.148003
876.987882	3135.622898
877.298554	3134.672641
877.609183	3160.138029
877.919771	3182.193077
878.230317	3211.877912
878.540822	3261.860952
878.851285	3301.623053
879.161707	3351.260774
879.472087	3471.250318
879.782425	3721.389852
880.092722	4187.507539
880.402977	4733.101537
880.713191	5399.595008
881.023363	6643.519884
881.333494	7960.513765
881.643583	8464.944222
881.953631	8120.968651
882.263637	7421.896723
882.573602	6786.950793
882.883526	6207.399583
883.193408	5636.834229
883.503248	5189.729253
883.813048	4875.720821
884.122806	4536.829254
884.432522	4211.521075
884.742197	3969.586020
885.051831	3781.999644
885.361424	3655.025582
885.670975	3579.506577
885.980485	3487.621465
886.289954	3405.611975
886.599382	3362.283257
886.908768	3326.838905
887.218113	3281.639919
887.527417	3222.824777
887.836680	3171.180677
888.145901	3170.064061
888.455082	3151.925990
888.764221	3098.885489
889.073319	3074.080492
889.382376	3069.740058
889.691392	3077.052252
890.000366	3073.455389
890.309300	3057.845456
890.618193	3074.173753
890.927044	3089.793768
891.235855	3086.358222
891.544625	3074.617375
891.853353	3087.492482
892.162041	3108.090636
892.470687	3151.079076
892.779293	3199.388453
893.087858	3250.548603
893.396381	3327.106086
893.704864	3465.591623
894.013306	3720.356415
894.321707	4035.786452
894.630068	4224.933065
894.938387	4209.479408
895.246665	4167.854601
895.554903	4036.265362
895.863100	3830.843384
896.171256	3656.026251
896.479371	3510.225999
896.787446	3386.541290
897.095480	3281.884415
897.403473	3218.771690
897.711425	3183.720547
898.019336	3173.159330
898.327207	3138.924854
898.635038	3101.612754
898.942827	3091.054057
899.250576	3079.940833
899.558284	3048.221893
899.865952	3026.169366
900.173579	3005.051972
900.481165	2995.947648
900.788711	2981.361070
901.096216	2960.730148
901.403681	2950.277315
901.711105	2958.718727
902.018489	2953.722944
902.325832	2952.616411
902.633135	2966.603092
902.940397	3002.622136
903.247619	3095.187803
903.554800	3306.739824
903.861941	3681.804191
904.169041	4134.043582
904.476101	4424.126698
904.783121	4341.464378
905.090100	4073.781629
905.397039	3784.931075
905.703938	3531.867673
906.010796	3348.634333
906.317614	3233.673340
906.624391	3137.583907
906.931129	3065.195458
907.237826	3000.189779
907.544483	2954.794189
907.851099	2924.191865
908.157675	2904.473391
908.464211	2881.969681
908.770707	2865.361599
909.077163	2850.953982
909.383578	2839.671879
909.689954	2829.927329
909.996289	2828.160404
910.302584	2830.098728
910.608839	2827.878100
910.915054	2817.294197
911.221229	2813.397385
911.527363	2817.062304
911.833458	2826.479180
912.139513	2832.420179
912.445527	2835.056703
912.751502	2844.735718
913.057436	2853.784589
913.363331	2868.930736
913.669186	2889.448232
913.975000	2928.378543
914.280775	2992.542349
914.586510	3064.116651
914.892205	3145.115391
915.197859	3289.176444
915.503475	3499.261490
915.809050	3729.891758
916.114585	3875.515569
916.420081	3875.578583
916.725536	3808.947132
917.030952	3682.028522
917.336328	3553.088410
917.641665	3412.551123
917.946961	3313.716781
918.252218	3239.110225
918.557435	3155.106958
918.862612	3092.155549
919.167750	3043.820966
919.472848	3005.170439
919.777906	2976.408136
920.082925	2950.337809
920.387904	2918.921338
920.692843	2900.805952
920.997743	2890.716083
921.302603	2873.213196
921.607423	2864.875128
921.912204	2850.679239
922.216946	2837.496621
922.521647	2826.461536
922.826310	2823.724189
923.130932	2811.007878
923.435516	2805.099646
923.740059	2798.735189
924.044564	2788.521812
924.349028	2781.481840
924.653454	2776.415481
924.957840	2771.071858
925.262186	2769.047834
925.566493	2759.973757
925.870761	2754.471338
926.174989	2753.304311
926.479178	2748.752149
926.783328	2741.329050
927.087438	2739.110942
927.391509	2740.744276
927.695541	2735.183883
927.999533	2733.106928
928.303486	2731.904613
928.607400	2729.547873
928.911275	2730.939232
929.215110	2728.111145
929.518906	2726.109807
929.822663	2726.666854
930.126381	2727.357492
930.430060	2726.508058
930.733699	2729.091649
931.037299	2727.496124
931.340861	2728.940414
931.644383	2730.835888
931.947866	2726.621484
932.251309	2729.005949
932.554714	2730.193141
932.858080	2724.536967
933.161407	2723.201061
933.464694	2721.522357
933.767943	2717.184444
934.071153	2721.650906
934.374323	2721.290463
934.677455	2720.594784
934.980548	2720.274671
935.283602	2717.998590
935.586617	2717.917932
935.889593	2720.239383
936.192530	2716.894577
936.495428	2719.231152
936.798287	2721.731564
937.101108	2724.723489
937.403890	2727.360013
937.706632	2732.862432
938.009336	2740.348546
938.312002	2749.399937
938.614628	2758.032913
938.917216	2765.829058
939.219765	2765.105652
939.522275	2763.396701
939.824747	2759.575506
940.127179	2756.961668
940.429573	2753.561410
940.731929	2753.173241
941.034246	2750.927407
941.336524	2744.920872
941.638763	2745.377097
941.940964	2742.922055
942.243126	2738.717732
942.545250	2739.736045
942.847335	2735.204048
943.149381	2731.017370
943.451389	2727.360013
943.753359	2724.950341
944.055290	2726.671895
944.357182	2723.533777
944.659036	2724.897409
944.960851	2722.883468
945.262628	2718.845504
945.564367	2720.930021
945.866067	2721.156873
946.167729	2721.955896
946.469352	2723.460680
946.770937	2722.800289
947.072484	2720.821636
947.373992	2720.231821
947.675462	2718.144783
947.976893	2713.859803
948.278286	2710.943495
948.579641	2711.132538
948.880958	2711.765203
949.182236	2714.595811
949.483476	2712.725543
949.784678	2711.588763
950.085841	2710.764534
950.386967	2712.730584
950.688054	2713.426263
950.989103	2713.033053
951.290114	2714.512632
951.591087	2716.413147
951.892021	2719.566389
952.192917	2722.278530
952.493776	2725.729199
952.794596	2726.997050
953.095378	2724.305073
953.396122	2725.267934
953.696828	2721.476986
953.997496	2719.397510
954.298126	2715.767879
954.598718	2717.197047
954.899272	2713.539689
955.199788	2710.799822
955.500266	2707.903679
955.800706	2705.574666
956.101108	2703.293544
956.401472	2700.349510
956.701798	2702.003009
957.002087	2695.550332
957.302337	2696.334231
957.602550	2696.109900
957.902724	2693.364992
958.202861	2690.254600
958.502960	2694.733665
958.803022	2690.859538
959.103045	2691.144363
959.403031	2690.665454
959.702979	2691.250228
960.002889	2689.422809
960.302762	2688.094465
960.602596	2689.735361
960.902393	2685.435257
961.202153	2688.134795
961.501875	2683.466686
961.801559	2686.529187
962.101205	2684.366532
962.400814	2685.684794
962.700385	2687.786955
962.999918	2682.723116
963.299414	2681.109947
963.598873	2683.012982
963.898293	2680.525173
964.197677	2684.283353
964.497022	2681.679597
964.796331	2684.409382
965.095601	2683.108764
965.394835	2681.888805
965.694030	2680.378979
965.993189	2683.002900
966.292309	2683.766635
966.591393	2682.808816
966.890439	2683.718744
967.189447	2683.171779
967.488419	2678.264215
967.787353	2682.690348
968.086249	2681.730009
968.385108	2685.175637
968.683930	2680.913342
968.982714	2681.762776
969.281462	2682.763445
969.580172	2682.171110
969.878844	2680.913342
970.177480	2680.401665
970.476078	2682.347550
970.774639	2682.213959
971.073162	2684.769824
971.371649	2682.032478
971.670098	2685.629341
971.968510	2682.012313
972.266885	2681.634227
972.565223	2686.874506
972.863524	2684.048939
973.161788	2685.100020
973.460014	2683.285205
973.758204	2684.681604
974.056356	2683.479289
974.354471	2682.478620
974.652550	2682.337468
974.950591	2685.130267
975.248595	2683.454083
975.546563	2682.768486
975.844493	2684.432067
976.142386	2681.669515
976.440243	2680.615914
976.738062	2680.827642
977.035845	2682.493743
977.333590	2683.738908
977.631299	2682.657581
977.928971	2679.501819
978.226606	2678.453259
978.524204	2677.644153
978.821765	2678.823783
979.119290	2678.284380
979.416777	2680.457117
979.714228	2679.859741
980.011642	2681.062056
980.309020	2682.138342
980.606360	2681.795544
980.903664	2682.186233
981.200931	2681.122550
981.498162	2679.416119
981.795356	2683.932993
982.092513	2684.628672
982.389633	2687.119002
982.686717	2691.814837
982.983764	2694.940352
983.280775	2697.990250
983.577749	2699.192566
983.874686	2698.980837
984.171587	2694.411031
984.468451	2694.564786
984.765279	2692.074456
985.062070	2688.328879
985.358824	2687.708817
985.655543	2686.226718
985.952224	2684.661440
986.248869	2680.121881
986.545478	2682.040040
986.842050	2680.505008
987.138586	2679.882426
987.435086	2678.728002
987.731549	2679.229596
988.027975	2679.211952
988.324366	2678.145748
988.620719	2679.935358
988.917037	2678.516273
989.213318	2678.302024
989.509563	2678.049966
989.805772	2677.520645
990.101944	2674.879081
990.398080	2678.196160
990.694180	2676.701458
990.990244	2678.365038
991.286271	2678.037363
991.582262	2676.981242
991.878217	2680.210101
992.174136	2678.601973
992.470019	2678.574246
992.765865	2673.238185
993.061676	2674.868998
993.357450	2675.862106
993.653188	2674.939574
993.948890	2676.353618
994.244556	2677.387055
994.540186	2677.765141
994.835780	2677.908814
995.131337	2677.523166
995.426859	2678.949812
995.722345	2681.677077
996.017795	2681.157838
996.313208	2680.671366
996.608586	2680.986438
996.903928	2682.024916
997.199234	2684.008610
997.494504	2683.469207
997.789738	2679.658094
998.084936	2681.387210
998.380099	2680.341171
998.675225	2678.244051
998.970316	2679.332940
999.265371	2679.564833
999.560390	2679.053156
999.855373	2675.753721
1000.150320	2677.283711
1000.445232	2677.066941
1000.740108	2673.901097
1001.034948	2677.934020
1001.329752	2675.625171
1001.624521	2676.948474
1001.919254	2675.935202
1002.213951	2676.199863
1002.508613	2675.002589
1002.803239	2677.611386
1003.097829	2676.605676
1003.392384	2674.851354
1003.686903	2674.311951
1003.981386	2675.121056
1004.275834	2673.190294
1004.570246	2676.368742
1004.864623	2674.773216
1005.158964	2672.716426
1005.453270	2673.654080
1005.747540	2674.911848
1006.041775	2676.840089
1006.335974	2673.989317
1006.630138	2674.208607
1006.924266	2675.829338
1007.218359	2675.675583
1007.512416	2672.981086
1007.806438	2671.004954
1008.100425	2672.025787
1008.394376	2671.849347
1008.688292	2674.226251
1008.982172	2675.925120
1009.276017	2674.294307
1009.569827	2673.220541
1009.863602	2674.246416
1010.157341	2675.942764
1010.451045	2674.783299
1010.744714	2672.418997
1011.038347	2675.662980
1011.331945	2674.674914
1011.625508	2676.787157
1011.919036	2674.385047
1012.212528	2676.764472
1012.505986	2672.905469
1012.799408	2676.678772
1013.092795	2675.594924
1013.386147	2674.722805
1013.679464	2673.699451
1013.972745	2675.352949
1014.265992	2673.868329
1014.559204	2672.920592
1014.852380	2674.788340
1015.145521	2672.653411
1015.438628	2674.490912
1015.731699	2673.767506
1016.024736	2672.963442
1016.317737	2671.201559
1016.610703	2672.068637
1016.903635	2672.860098
1017.196531	2673.185253
1017.489393	2675.504184
1017.782219	2672.963442
1018.075011	2672.358504
1018.367768	2673.704492
1018.660490	2674.087619
1018.953177	2674.087619
1019.245829	2674.087619
