Dividing Wavelength (nm)	Counts (n)	Blue Motor Position (mm): 15.900000	Red Motor Position (mm): 0.000000	
326.493990	2173.163285
326.888308	2173.163285
327.282561	2173.163285
327.676750	2132.163581
328.070874	2130.734414
328.464933	2128.942284
328.858929	2133.625516
329.252859	2140.002575
329.646726	2147.350057
330.040528	2161.215751
330.434265	2171.993738
330.827938	2191.434947
331.221547	2209.837679
331.615091	2227.171687
332.008571	2244.203225
332.401986	2263.596544
332.795338	2283.491458
333.188625	2299.673562
333.581847	2317.022693
333.975006	2336.902483
334.368100	2353.790348
334.761129	2375.111908
335.154095	2391.283930
335.546996	2412.849986
335.939833	2438.660694
336.332606	2451.659309
336.725315	2465.038531
337.117960	2480.290542
337.510540	2494.675475
337.903056	2504.528410
338.295508	2512.765655
338.687896	2519.553569
339.080220	2525.426513
339.472480	2534.651825
339.864676	2538.483102
340.256807	2544.111550
340.648875	2548.804864
341.040879	2549.432488
341.432818	2557.578992
341.824694	2556.356513
342.216506	2557.962120
342.608253	2558.950186
342.999937	2560.885989
343.391557	2560.366750
343.783113	2560.933880
344.174605	2560.999415
344.566033	2560.482697
344.957397	2557.047151
345.348697	2553.346944
345.739934	2552.154711
346.131106	2551.418702
346.522215	2550.755791
346.913260	2545.591128
347.304241	2545.757487
347.695159	2544.721529
348.086012	2542.679862
348.476802	2542.379913
348.867528	2535.743234
349.258191	2532.647966
349.648789	2533.210055
350.039324	2529.512368
350.429796	2532.524458
350.820203	2529.277955
351.210548	2529.378778
351.600828	2527.833664
351.991045	2526.989271
352.381198	2525.217305
352.771288	2525.353416
353.161314	2522.512726
353.551276	2526.107069
353.941175	2522.517767
354.331010	2523.173117
354.720782	2524.234280
355.110490	2521.040709
355.500135	2523.001718
355.889717	2524.236801
356.279235	2523.299146
356.668689	2522.273271
357.058080	2524.564476
357.447408	2522.089269
357.836672	2522.996677
358.225873	2524.952645
358.615010	2526.026410
359.004084	2525.242511
359.393095	2527.311905
359.782043	2527.400125
360.170927	2527.551359
360.559748	2529.156967
360.948505	2524.521626
361.337199	2527.311905
361.725830	2527.926925
362.114398	2528.670496
362.502903	2531.130579
362.891344	2530.155115
363.279722	2530.298788
363.668037	2531.496062
364.056289	2531.727955
364.444478	2534.891279
364.832603	2533.820034
365.220665	2534.321629
365.608665	2534.167874
365.996601	2535.907072
366.384474	2536.927906
366.772284	2533.784746
367.160031	2534.994623
367.547715	2538.571322
367.935336	2536.738862
368.322893	2534.341794
368.710388	2531.294416
369.097820	2535.428162
369.485189	2534.067051
369.872495	2534.815662
370.259738	2539.682896
370.646918	2539.330015
371.034035	2539.019984
371.421090	2538.846065
371.808081	2540.645757
372.195010	2539.030067
372.581875	2541.296065
372.968678	2543.126004
373.355418	2540.524769
373.742096	2540.492001
374.128710	2542.765562
374.515262	2541.482588
374.901751	2539.597197
375.288177	2544.381252
375.674540	2541.401930
376.060841	2545.661705
376.447079	2544.784544
376.833254	2546.173382
377.219367	2545.392003
377.605417	2541.764893
377.991404	2544.827394
378.377329	2544.499719
378.763191	2546.438042
379.148991	2543.317568
379.534727	2544.446787
379.920402	2544.361087
380.306013	2545.908721
380.691563	2545.384441
381.077049	2543.816642
381.462474	2545.167672
381.847835	2545.825542
382.233134	2543.269677
382.618371	2543.990562
383.003545	2547.436191
383.388657	2546.037271
383.773706	2543.637681
384.158693	2549.230842
384.543618	2548.449463
384.928480	2545.686910
385.313280	2546.813608
385.698017	2548.714123
386.082692	2548.625903
386.467305	2548.832590
386.851856	2552.084135
387.236344	2547.022816
387.620770	2546.682538
388.005133	2548.779658
388.389435	2545.807898
388.773674	2546.987528
389.157851	2552.472303
389.541965	2549.830739
389.926018	2549.412323
390.310008	2550.423074
390.693936	2549.661860
391.077802	2547.257230
391.461606	2550.599515
391.845348	2551.166645
392.229027	2550.365101
392.612645	2550.753270
392.996200	2551.758980
393.379694	2550.216387
393.763125	2552.893240
394.146494	2551.033054
394.529801	2552.885678
394.913047	2556.371636
395.296230	2551.002807
395.679351	2551.837118
396.062410	2552.187478
396.445408	2552.071532
396.828343	2555.270144
397.211217	2554.017417
397.594028	2554.965154
397.976778	2553.762839
398.359466	2552.663867
398.742092	2552.923487
399.124656	2554.340051
399.507158	2553.140256
399.889598	2552.018600
400.271977	2555.580175
400.654294	2555.726368
401.036549	2555.408776
401.418742	2555.514640
401.800874	2555.912891
402.182944	2557.430278
402.564952	2555.103786
402.946898	2556.679146
403.328783	2558.788869
403.710606	2557.160577
404.092367	2557.846173
404.474067	2558.108313
404.855705	2556.101934
405.237282	2556.646379
405.618797	2559.514795
406.000250	2559.156873
406.381642	2556.389280
406.762972	2556.754764
407.144240	2553.077242
407.525447	2559.209806
407.906593	2552.747046
408.287677	2559.300546
408.668700	2559.212326
409.049661	2560.759960
409.430560	2560.767522
409.811399	2561.374981
410.192176	2559.212326
410.572891	2562.912533
410.953545	2561.256514
411.334138	2562.176525
411.714669	2559.547563
412.095139	2562.413459
412.475547	2559.850032
412.855894	2559.776935
413.236180	2561.667368
413.616405	2562.494117
413.996568	2562.695763
414.376670	2562.751216
414.756711	2560.845660
415.136691	2562.254663
415.516609	2561.163253
415.896466	2562.138716
416.276262	2561.097718
416.655997	2562.194169
417.035670	2562.022769
417.415283	2564.477811
417.794834	2561.753068
418.174324	2562.620146
418.553753	2564.681978
418.933121	2566.332956
419.312428	2565.163408
419.691674	2564.389591
420.070859	2563.877914
420.449983	2563.545198
420.829045	2564.639128
421.208047	2564.200548
421.586988	2562.857080
421.965867	2565.753223
422.344686	2564.853377
422.723444	2563.547718
423.102141	2562.927657
423.480777	2565.077709
423.859352	2569.541650
424.237866	2565.077709
424.616319	2564.850857
424.994712	2567.129458
425.373044	2565.362534
425.751314	2565.203738
426.129524	2560.843139
426.507673	2562.904971
426.885762	2562.078222
427.263789	2565.944787
427.641756	2565.516289
428.019662	2567.994016
428.397508	2566.406053
428.775292	2569.350087
429.153016	2567.300857
429.530679	2566.360682
429.908282	2568.203224
430.285824	2566.532082
430.663305	2567.326063
431.040726	2569.476115
431.418086	2569.755899
431.795385	2568.233471
432.172624	2568.750189
432.549802	2568.465364
432.926920	2569.047617
433.303977	2567.149623
433.680974	2569.423183
434.057910	2569.072823
434.434786	2567.363872
434.811601	2567.482339
435.188355	2569.536609
435.565050	2569.748338
435.941683	2569.047617
436.318257	2569.730694
436.694770	2569.256825
437.071222	2568.142730
437.447614	2570.713719
437.823946	2572.178174
438.200218	2567.885631
438.576429	2572.160530
438.952580	2569.755899
439.328670	2570.925447
439.704700	2571.127093
440.080670	2568.402350
440.456580	2571.966445
440.832429	2570.186918
441.208218	2570.501990
441.583947	2570.955694
441.959616	2572.299162
442.335224	2569.823955
442.710773	2571.212793
443.086261	2568.634243
443.461689	2572.142886
443.837057	2573.735890
444.212365	2573.506518
444.587612	2568.097360
444.962800	2566.680796
445.337927	2571.399316
445.712995	2566.592575
446.088002	2571.021229
446.462949	2570.902762
446.837837	2570.141548
447.212664	2572.352094
447.587431	2576.463155
447.962139	2571.976528
448.336786	2575.275963
448.711374	2574.020716
449.085901	2575.840572
449.460369	2574.292938
449.834776	2572.926785
450.209124	2576.402661
450.583412	2575.457444
450.957640	2573.937537
451.331808	2574.310582
451.705917	2574.088771
452.079965	2573.239337
452.453954	2576.420305
452.827883	2574.696230
453.201752	2575.210428
453.575562	2572.838565
453.949311	2575.089440
454.323001	2578.661098
454.696632	2576.314441
455.070202	2576.745459
455.443713	2577.970460
455.817164	2575.606158
456.190556	2575.953998
456.563888	2576.090109
456.937160	2578.204873
457.310373	2575.175140
457.683526	2575.933833
458.056619	2577.662949
458.429653	2577.136149
458.802628	2577.098340
459.175542	2579.692014
459.548398	2578.237641
459.921194	2579.001376
460.293930	2579.888619
460.666607	2580.155800
461.039224	2579.823084
461.411782	2582.885585
461.784280	2578.870306
462.156719	2580.244020
462.529099	2581.930286
462.901419	2580.468351
463.273680	2578.870306
463.645882	2576.533731
464.018024	2576.899214
464.390106	2576.432908
464.762130	2580.768300
465.134094	2580.428022
465.505999	2584.299628
465.877845	2584.518918
466.249631	2586.739547
466.621358	2585.471697
466.993026	2588.057808
467.364634	2591.397573
467.736184	2584.304669
468.107674	2585.882551
468.479105	2584.579412
468.850477	2588.604774
469.221790	2584.493713
469.593043	2585.388517
469.964238	2583.349371
470.335373	2584.032447
470.706449	2583.982036
471.077467	2584.634865
471.448425	2587.561255
471.819324	2588.604774
472.190164	2591.132912
472.560945	2588.796337
472.931667	2586.147211
473.302330	2588.425813
473.672934	2585.136460
474.043479	2586.333734
474.413965	2587.755339
474.784393	2584.602098
475.154761	2587.780545
475.525070	2587.699887
475.895321	2587.198292
476.265513	2589.355906
476.635645	2588.337592
477.005719	2589.499578
477.375734	2586.321131
477.745691	2591.382449
478.115588	2590.182655
478.485427	2588.393045
478.855207	2589.862542
479.224928	2591.384970
479.594591	2594.964189
479.964194	2595.059971
480.333739	2596.758840
480.703226	2595.664910
481.072653	2593.484611
481.442022	2591.687439
481.811333	2593.038468
482.180584	2590.573344
482.549777	2590.623756
482.918912	2590.689291
483.287988	2597.525095
483.657005	2596.179107
484.025964	2595.463263
484.394864	2595.102821
484.763706	2595.763212
485.132489	2592.879672
485.501213	2596.824375
485.869879	2596.093408
486.238487	2598.959304
486.607036	2595.745568
486.975527	2595.884200
487.343959	2593.681216
487.712333	2596.857142
488.080648	2596.461412
488.448905	2597.197420
488.817104	2596.290013
489.185244	2597.527616
489.553326	2598.850919
489.921350	2597.540219
490.289315	2599.740682
490.657222	2602.495673
491.025070	2603.130858
491.392861	2602.162957
491.760593	2602.561208
492.128267	2602.515838
492.495883	2602.397371
492.863440	2600.345621
493.230939	2599.634818
493.598380	2602.145313
493.965763	2601.898296
494.333088	2599.546598
494.700354	2600.948039
495.067563	2603.158585
495.434713	2600.297730
495.801805	2602.321753
496.168839	2598.878645
496.535815	2601.716815
496.902733	2602.508276
497.269593	2603.153544
497.636395	2603.826538
498.003139	2604.865015
498.369825	2601.457195
498.736453	2605.046497
499.103023	2604.068513
499.469535	2603.682865
499.835989	2604.461723
500.202385	2601.164808
500.568723	2600.537185
500.935003	2600.950559
501.301226	2594.770105
501.667390	2608.434152
502.033497	2608.403905
502.399546	2608.315685
502.765537	2605.941302
503.131470	2608.252671
503.497345	2610.062445
503.863163	2609.757455
504.228923	2609.699482
504.594625	2609.596138
504.960269	2608.600510
505.325856	2612.789709
505.691385	2610.816097
506.056856	2615.030502
506.422270	2612.262909
506.787625	2612.577981
507.152924	2615.506891
507.518164	2616.391614
507.883347	2616.096706
508.248472	2617.896398
508.613540	2617.941768
508.978550	2621.271451
509.343503	2621.977212
509.708398	2619.557458
510.073236	2621.639455
510.438016	2624.888478
510.802738	2622.889661
511.167403	2627.610702
511.532010	2626.700773
511.896561	2631.215127
512.261053	2632.989613
512.625488	2632.094808
512.989866	2631.575569
513.354186	2632.258645
513.718449	2633.186218
514.082655	2640.079996
514.446803	2638.083699
514.810894	2641.113432
515.174927	2642.509832
515.538904	2645.617703
515.902822	2646.651140
516.266684	2646.232724
516.630488	2648.503764
516.994235	2649.890081
517.357925	2651.538538
517.721558	2657.925680
518.085133	2655.770587
518.448651	2657.688746
518.812112	2655.684887
519.175516	2662.835764
519.538863	2661.545229
519.902152	2667.549243
520.265385	2674.508556
520.628560	2674.221210
520.991678	2678.100378
521.354739	2683.149093
521.717743	2684.033816
522.080690	2689.460618
522.443580	2689.689991
522.806413	2699.560570
523.169189	2697.702905
523.531908	2705.584749
523.894569	2702.862526
524.257174	2709.305120
524.619722	2713.030533
524.982213	2719.639486
525.344647	2722.185268
525.707025	2731.962586
526.069345	2737.167577
526.431608	2736.499625
526.793815	2746.851634
527.155964	2751.146697
527.518057	2756.134919
527.880093	2763.351331
528.242072	2768.866353
528.603995	2772.127979
528.965860	2779.788013
529.327669	2786.517953
529.689421	2794.036834
530.051117	2802.072433
530.412755	2809.629123
530.774337	2820.429795
531.135862	2825.435661
531.497331	2838.734225
531.858743	2846.588342
532.220098	2858.351875
532.581396	2864.817155
532.942638	2875.554812
533.303824	2888.974364
533.664953	2905.975655
534.026025	2911.795667
534.387040	2931.166301
534.747999	2946.738425
535.108902	2960.180662
535.469748	2968.251549
535.830537	2983.228817
536.191270	3006.176150
536.551947	3020.056967
536.912567	3025.950076
537.273131	3052.834549
537.633638	3063.761250
537.994089	3095.946497
538.354483	3100.327259
538.714821	3139.335708
539.075103	3166.497445
539.435328	3180.385824
539.795497	3191.529294
540.155609	3226.068760
540.515665	3259.821805
540.875665	3263.012856
541.235609	3295.772794
541.595496	3329.871159
541.955328	3368.282230
542.315102	3399.076119
542.674821	3410.753952
543.034483	3432.632559
543.394090	3468.613795
543.753640	3488.692711
544.113134	3545.156154
544.472571	3572.295206
544.831953	3630.298722
545.191278	3642.523520
545.550548	3680.493491
545.909761	3708.691185
546.268918	3767.158487
546.628019	3804.349600
546.987064	3851.617979
547.346053	3872.695043
547.704986	3918.758586
548.063863	3978.423163
548.422684	3999.200278
548.781449	4040.373902
549.140158	4107.224643
549.498811	4146.976662
549.857408	4156.683404
550.215949	4240.351434
550.574434	4268.483593
550.932864	4341.053523
551.291237	4391.223087
551.649555	4452.107622
552.007817	4511.600799
552.366022	4559.501843
552.724173	4606.510603
553.082267	4667.652237
553.440305	4770.494296
553.798288	4767.945993
554.156215	4877.001274
554.514086	4950.897028
554.871902	4944.237663
555.229661	5029.786044
555.587365	5105.514257
555.945014	5140.005832
556.302606	5255.662504
556.660143	5290.290190
557.017625	5413.322070
557.375050	5434.933497
557.732421	5527.680645
558.089735	5597.198157
558.446994	5657.208052
558.804197	5756.997692
559.161345	5838.155228
559.518437	5835.306976
559.875474	5969.678932
560.232455	6037.522780
560.589381	6127.610720
560.946251	6181.782959
561.303065	6321.717828
561.659825	6416.171407
562.016528	6438.475993
562.373177	6487.803683
562.729770	6603.435149
563.086307	6710.761315
563.442789	6814.788045
563.799216	6870.412137
564.155587	6936.378155
564.511904	7047.646503
564.868164	7094.496466
565.224370	7215.421144
565.580520	7247.951710
565.936615	7394.984523
566.292654	7391.536374
566.648638	7591.871828
567.004567	7615.071218
567.360441	7702.177315
567.716260	7728.638332
568.072023	7921.099503
568.427732	7959.107283
568.783385	7986.334555
569.138982	8130.937532
569.494525	8262.471318
569.850013	8312.426633
570.205445	8408.170747
570.560823	8429.535157
570.916145	8505.265891
571.271412	8606.388916
571.626625	8683.924383
571.981782	8779.028271
572.336884	8802.189852
572.691931	8948.647974
573.046923	8934.220192
573.401860	9038.506542
573.756743	9151.120877
574.111570	9202.240698
574.466342	9261.771684
574.821059	9402.059433
575.175722	9378.597903
575.530330	9515.182926
575.884882	9590.820398
576.239380	9689.720275
576.593823	9734.238704
576.948211	9797.124578
577.302544	9828.941821
577.656823	9891.363908
578.011047	10033.534529
578.365216	10076.908617
578.719330	10127.410896
579.073389	10170.769860
579.427394	10354.401451
579.781344	10314.268825
580.135239	10409.173587
580.489080	10472.182969
580.842866	10437.693915
581.196597	10659.925621
581.550273	10678.393888
581.903895	10793.944696
582.257463	10988.482823
582.610975	10899.493854
582.964434	11111.945721
583.317837	11089.285735
583.671186	11222.168030
584.024481	11309.579117
584.377721	11264.208732
584.730906	11388.374872
585.084037	11507.704025
585.437113	11543.886906
585.790135	11706.149046
586.143103	11561.828373
586.496016	11624.552930
586.848874	11886.395502
587.201679	11911.770149
587.554428	11827.915596
587.907124	12084.782549
588.259765	12052.577138
588.612352	12211.759133
588.964884	12064.610372
589.317362	12236.516239
589.669786	12340.187568
590.022155	12453.288375
590.374470	12651.899754
590.726731	12633.832259
591.078937	12565.151579
591.431090	12703.501005
591.783188	12627.475364
592.135232	12683.255731
592.487222	12876.911656
592.839157	12951.866052
593.191038	12992.308709
593.542866	12971.105616
593.894639	12915.166452
594.246358	13120.870735
594.598022	13127.885500
594.949633	13072.962129
595.301190	13098.916510
595.652692	13297.074185
596.004141	13528.145554
596.355535	13178.065146
596.706876	13252.228081
597.058162	13271.923869
597.409395	13461.080564
597.760573	13620.350778
598.111698	13554.697311
598.462768	13574.332606
598.813785	13613.484727
599.164748	13567.292634
599.515657	13647.199964
599.866511	13595.301285
600.217312	13886.236356
600.568060	13639.716371
600.918753	13927.936780
601.269392	13943.307258
601.619978	13820.353516
601.970510	14070.145210
602.320988	14067.939705
602.671412	14279.847128
603.021783	14274.687507
603.372100	14158.461184
603.722363	14317.892716
604.072572	14335.420807
604.422728	14467.274707
604.772830	14396.542277
605.122878	14377.169123
605.472872	14455.506133
605.822813	14516.289846
606.172701	14526.546073
606.522534	14744.119753
606.872314	14814.184229
607.222041	14720.549838
607.571714	14952.979798
607.921333	14888.246341
608.270899	14995.983361
608.620411	15228.317538
608.969870	15055.300097
609.319276	15118.911897
609.668627	15217.007710
610.017926	15365.396594
610.367171	15503.073026
610.716362	15609.179232
611.065500	15483.609131
611.414585	15637.664272
611.763616	15681.308061
612.112594	15701.523088
612.461518	15695.715679
612.810389	15918.096099
613.159207	15816.778989
613.507971	15793.597243
613.856682	16108.702126
614.205340	16069.623101
614.553945	16251.376862
614.902496	16050.459155
615.250994	16326.144735
615.599439	16309.324925
615.947830	16323.472923
616.296169	16381.052983
616.644454	16419.809373
616.992686	16400.113585
617.340864	16628.263606
617.688990	16466.379553
618.037063	16650.114487
618.385082	16551.771658
618.733048	16815.935681
619.080961	16727.473513
619.428821	16810.508879
619.776628	16767.971623
620.124382	16716.977831
620.472083	16783.886545
620.819731	16848.705702
621.167326	16612.580576
621.514868	16697.143411
621.862357	16516.281935
622.209793	16573.683033
622.557176	16472.421376
622.904506	16339.758371
623.251783	16299.875282
623.599007	16145.373999
623.946179	16126.197450
624.293297	16108.510562
624.640363	15923.028868
624.987376	15947.102898
625.334336	15790.743950
625.681243	15670.371278
626.028097	15692.096131
626.374899	15676.120714
626.721647	15565.613581
627.068343	15422.427167
627.414987	15389.722682
627.761577	15392.306273
628.108115	15466.955679
628.454600	15198.761253
628.801032	15311.612523
629.147412	15259.628145
629.493739	15296.862107
629.840014	15142.522141
630.186236	15247.078193
630.532405	15052.645930
630.878521	15242.389919
631.224585	15151.946578
631.570597	15006.479043
631.916556	15046.722574
632.262462	15033.366037
632.608316	14969.345904
632.954117	14929.868628
633.299866	14945.609631
633.645562	14893.292536
633.991206	14660.262679
634.336797	14545.026943
634.682336	14543.247416
635.027823	14450.775010
635.373257	14362.597668
635.718639	14265.900775
636.063968	14227.091452
636.409245	14016.429195
636.754470	14051.440008
637.099642	13908.266198
637.444762	13709.150703
637.789829	13766.783695
638.134845	13624.461839
638.479808	13640.931289
638.824719	13614.467752
639.169577	13475.246206
639.514383	13523.732024
639.859137	13351.811034
640.203839	13441.031895
640.548489	13280.778655
640.893086	13286.197896
641.237632	13157.842557
641.582125	13317.856342
641.926566	13159.117969
642.270955	13173.691945
642.615292	13149.665806
642.959576	13170.064835
643.303809	13206.187223
643.647990	13145.794199
643.992118	13210.472203
644.336195	12986.763440
644.680219	13179.161597
645.024192	13122.188997
645.368112	13357.351262
645.711981	13428.975976
646.055797	13597.179115
646.399562	13567.784147
646.743274	13829.919106
647.086935	14109.738432
647.430544	14082.380090
647.774101	14100.808028
648.117606	14263.274334
648.461059	14234.663266
648.804460	14241.625099
649.147810	13966.622595
649.491108	13871.019633
649.834354	13897.483170
650.177548	13614.535808
650.520690	13423.874328
650.863781	13352.529398
651.206820	13390.267476
651.549807	13227.213875
651.892742	13037.762272
652.235626	12982.397800
652.578458	12986.771001
652.921238	12666.173781
653.263967	12867.933361
653.606644	12697.988503
653.949269	12667.613031
654.291843	12489.483860
654.634365	12632.884522
654.976836	12498.694048
655.319255	12516.910257
655.661622	12462.939664
656.003938	12388.171791
656.346203	12318.601347
656.688416	12389.548026
657.030577	12350.630318
657.372687	12283.323353
657.714746	12253.515010
658.056753	12430.351125
658.398708	12270.823812
658.740612	12268.451949
659.082465	12356.987213
659.424266	12323.743324
659.766016	12351.532685
660.107715	12257.656318
660.449362	12329.039056
660.790958	12296.150568
661.132503	12251.143147
661.473996	12300.443111
661.815438	12320.852222
662.156829	12334.697751
662.498168	12317.676295
662.839456	12316.156388
663.180693	12334.380159
663.521879	12426.005650
663.863013	12410.085687
664.204097	12384.035524
664.545129	12501.990962
664.886110	12466.319758
665.227040	12549.808827
665.567918	12563.467833
665.908746	12604.646499
666.249522	12571.352198
666.590248	12624.753141
666.930922	12731.108884
667.271545	12718.556411
667.612118	12805.276860
667.952639	12719.736041
668.293109	12723.252246
668.633528	12685.176411
668.973896	12647.077891
669.314213	12744.243610
669.654480	12487.535454
669.994695	12543.048640
670.334859	12560.929612
670.674973	12517.679033
671.015035	12556.006926
671.355047	12497.068276
671.695008	12461.944036
672.034918	12473.826036
672.374777	12507.672343
672.714585	12422.985999
673.054342	12463.607617
673.394049	12415.109196
673.733705	12496.569201
674.073310	12418.847212
674.412864	12447.596912
674.752368	12320.527068
675.091820	12320.393477
675.431223	12314.500368
675.770574	12193.268180
676.109875	12114.159873
676.449125	12078.957496
676.788324	12011.950479
677.127473	11843.457474
677.466571	11833.886843
677.805619	11748.754357
678.144616	11663.468117
678.483562	11631.280349
678.822458	11493.220790
679.161303	11479.866773
679.500098	11466.457304
679.838842	11423.867116
680.177535	11440.470156
680.516179	11499.224804
680.854771	11450.116404
681.193314	11669.295691
681.531805	11803.488685
681.870247	12209.369626
682.208638	12607.986263
682.546978	12931.346035
682.885268	12997.057476
683.223508	12691.876104
683.561697	12519.231708
683.899836	12421.055237
684.237925	12236.228893
684.575963	12150.831747
684.913951	12083.595358
685.251889	12024.268539
685.589776	12120.743620
685.927614	12049.151674
686.265401	12004.744150
686.603137	12050.563197
686.940824	12206.677649
687.278460	12321.767192
687.616046	12384.199362
687.953582	12550.295298
688.291068	12473.115233
688.628504	12695.961959
688.965889	12707.256665
689.303224	12675.376408
689.640510	12578.251017
689.977745	12283.083898
690.314930	12048.541694
690.652065	11965.637399
690.989150	11675.120744
691.326185	11455.785181
691.663170	11246.247101
692.000105	11006.136943
692.336990	10899.952599
692.673825	10648.646039
693.010610	10533.886692
693.347345	10329.467904
693.684030	10123.584660
694.020665	10072.328728
694.357251	9870.241473
694.693786	9827.285802
695.030272	9657.502261
695.366707	9540.920537
695.703093	9474.175660
696.039429	9466.361871
696.375716	9401.988857
696.711952	9274.054455
697.048139	9302.017735
697.384276	9261.411241
697.720363	9272.746276
698.056400	9213.573212
698.392388	9166.803907
698.728326	9124.894274
699.064214	9062.323473
699.400053	9105.722766
699.735842	8921.803830
700.071581	8881.260350
700.407270	8811.856265
700.742910	8735.238288
701.078501	8640.734297
701.414042	8519.363477
701.749533	8447.201881
702.084974	8317.737488
702.420366	8427.382584
702.755709	8309.774986
703.091002	8183.846963
703.426246	8208.813277
703.761440	8156.362592
704.096584	8114.319369
704.431679	8043.939820
704.766725	8035.090074
705.101721	7985.628793
705.436668	8020.891664
705.771565	7918.815861
706.106413	8002.176381
706.441212	8048.111375
706.775961	8000.409456
707.110661	8030.232922
707.445311	8183.829318
707.779913	8080.286539
708.114465	8209.642547
708.448967	8247.148731
708.783421	8374.384934
709.117825	8560.302688
709.452180	8599.185107
709.786485	8682.616203
710.120742	8956.300446
710.454949	8961.923853
710.789107	9059.528153
711.123216	9260.075335
711.457275	9427.330738
711.791286	9596.166542
712.125247	9585.282691
712.459159	9572.732738
712.793023	9838.910702
713.126837	9412.177029
713.460602	9551.774141
713.794318	9383.873471
714.127985	9411.347759
714.461602	9108.414743
714.795171	9052.959530
715.128691	8812.778796
715.462162	8551.692397
715.795584	8502.876384
716.128957	8377.896098
716.462281	8198.244498
716.795556	8244.421467
717.128782	8047.415695
717.461960	7769.164168
717.795088	7837.610434
718.128167	7751.787310
718.461198	7579.279026
718.794180	7521.671240
719.127113	7519.523709
719.459997	7379.112451
719.792833	7139.297200
720.125619	7200.504370
720.458357	7065.033443
720.791046	7047.903602
721.123686	7052.919550
721.456278	6900.994296
721.788821	6916.931904
722.121315	6807.581716
722.453761	6865.479368
722.786158	6815.929866
723.118506	6834.330078
723.450805	6803.538710
723.783056	6869.325768
724.115259	6768.737105
724.447412	6765.931703
724.779518	6815.506409
725.111574	6817.969013
725.443582	6896.656383
725.775542	6874.162755
726.107453	7057.161681
726.439315	6971.852755
726.771129	7026.231681
727.102895	7183.843356
727.434612	7307.752397
727.766281	7329.751993
728.097901	7415.756598
728.429473	7395.292034
728.760996	7374.391410
729.092471	7355.958431
729.423897	7306.824825
729.755276	7326.248391
730.086606	7257.489573
730.417887	7353.173193
730.749120	7524.693412
731.080305	7719.297074
731.411442	7855.007456
731.742530	7853.658947
732.073570	7953.907333
732.404562	8036.693161
732.735506	7885.869400
733.066401	8027.334259
733.397249	7968.446020
733.728048	7728.504741
734.058798	7399.060296
734.389501	7178.691297
734.720156	7004.756366
735.050762	6770.171313
735.381320	6669.310427
735.711831	6624.106401
736.042293	6516.220667
736.372707	6533.980652
736.703073	6404.417957
737.033391	6435.557165
737.363661	6446.602333
737.693883	6468.107895
738.024056	6548.847015
738.354182	6600.944819
738.684260	6640.452342
739.014290	6742.492858
739.344272	6853.292378
739.674207	6881.570731
740.004093	6945.275792
740.333931	6963.439069
740.663722	6972.863506
740.993464	7048.652213
741.323159	7049.423510
741.652806	6797.086033
741.982405	6793.257277
742.311956	6856.367482
742.641460	6714.310287
742.970915	6516.697056
743.300323	6510.587178
743.629683	6448.558300
743.958996	6320.613816
744.288260	6229.953705
744.617477	6173.034037
744.946647	6189.921902
745.275768	6023.755389
745.604842	5980.398946
745.933869	5958.137210
746.262847	5913.843112
746.591778	5909.293471
746.920662	5868.417275
747.249498	5850.311971
747.578286	5900.486575
747.907027	5971.229087
748.235720	6031.380134
748.564365	6005.206464
748.892963	6022.704309
749.221514	6184.840419
749.550017	6033.278129
749.878473	5901.628396
750.206881	5950.731755
750.535242	5894.442231
750.863555	5827.914124
751.191821	5846.576476
751.520039	5850.201065
751.848210	5758.333598
752.176334	5770.956647
752.504411	5831.263971
752.832440	5753.335294
753.160421	5679.986506
753.488356	5727.310337
753.816243	5769.187202
754.144082	5622.114059
754.471875	5584.996044
754.799620	5632.617303
755.127318	5641.366226
755.454969	5588.461837
755.782572	5557.010078
756.110129	5602.561944
756.437638	5593.439976
756.765100	5534.125760
757.092515	5524.204769
757.419882	5566.560544
757.747203	5551.915992
758.074477	5622.935767
758.401703	5615.477380
758.728882	5559.853289
759.056014	5607.015804
759.383099	5743.807513
759.710138	5752.039717
760.037129	5732.454835
760.364073	5739.300722
760.690970	5826.787426
761.017820	5815.064223
761.344623	5755.923927
761.671379	5853.871025
761.998088	5964.920083
762.324751	6194.479105
762.651366	6761.641681
762.977935	8018.247579
763.304456	9625.178382
763.630931	10550.830010
763.957359	10203.328152
764.283740	9286.498543
764.610074	8479.482909
764.936362	7498.423959
765.262602	6905.075110
765.588796	6363.536720
765.914943	6019.306571
766.241044	5867.822418
766.567097	5679.371485
766.893104	5421.067803
767.219064	5237.773970
767.544978	5180.365310
767.870845	5104.881593
768.196665	4998.208257
768.522438	4928.849541
768.848165	4897.765787
769.173846	4833.128112
769.499479	4789.877533
769.825066	4735.589347
770.150607	4673.346220
770.476101	4647.417046
770.801548	4644.420080
771.126949	4580.430193
771.452303	4525.111092
771.777611	4479.702898
772.102872	4498.960106
772.428087	4459.886122
772.753256	4424.497222
773.078378	4381.934761
773.403453	4313.851457
773.728482	4298.228922
774.053465	4249.334770
774.378401	4238.733224
774.703291	4241.548708
775.028135	4173.611598
775.352932	4122.343064
775.677683	4109.112556
776.002388	4131.512923
776.327046	4145.887773
776.651658	4065.627562
776.976224	4005.849560
777.300743	4008.536495
777.625216	4030.858724
777.949643	4027.881923
778.274024	3985.448011
778.598359	3933.841719
778.922647	3956.955409
779.246889	3950.858133
779.571086	3948.849234
779.895236	3935.951442
780.219339	3921.004420
780.543397	3910.143254
780.867409	3959.627221
781.191374	3973.949139
781.515294	3921.150614
781.839167	3908.348604
782.162995	3930.723765
782.486776	3916.109460
782.810511	3920.525511
783.134201	3921.926952
783.457844	3884.529152
783.781441	3829.230215
784.104993	3829.489834
784.428498	3848.931044
784.751958	3844.802339
785.075372	3828.733661
785.398739	3791.487096
785.722061	3798.479176
786.045337	3837.081812
786.368568	3876.054972
786.691752	3791.446767
787.014891	3831.954958
787.337983	3955.007003
787.661030	4107.562401
787.984031	4268.407976
788.306987	4440.875931
788.629897	4522.139331
788.952760	4478.566118
789.275579	4408.723452
789.598351	4354.916697
789.921078	4220.103640
790.243759	4022.508053
790.566395	3993.755832
790.888984	3992.714834
791.211529	3887.432856
791.534027	3827.337261
791.856480	3824.526818
792.178888	3761.774535
792.501249	3706.528530
792.823566	3716.116805
793.145836	3750.114346
793.468062	3700.058209
793.790241	3653.152793
794.112375	3680.506094
794.434464	3740.357193
794.756507	3767.914660
795.078505	3756.572064
795.400457	3779.970580
795.722364	3910.450765
796.044226	4013.864995
796.366042	4088.864761
796.687812	4076.506372
797.009538	4083.039708
797.331218	4036.993809
797.652852	4007.825692
797.974442	3987.993793
798.295986	3994.461594
798.617484	3916.099378
798.938938	3828.630317
799.260346	3863.920915
799.581709	3862.716079
799.903026	3793.342240
800.224299	3757.272785
800.545526	3750.757093
800.866708	3709.260835
801.187845	3649.129952
801.508936	3683.384593
801.829983	3687.483051
802.150984	3606.542285
802.471940	3592.437136
802.792851	3609.458592
803.113717	3605.415587
803.434538	3610.320629
803.755314	3554.250396
804.076045	3525.702342
804.396731	3543.958880
804.717372	3569.716656
805.037967	3560.506468
805.358518	3548.543810
805.679024	3573.676482
805.999485	3583.889860
806.319901	3588.283225
806.640272	3604.246039
806.960598	3620.904532
807.280879	3595.560131
807.601115	3601.894341
807.921306	3616.801033
808.241453	3660.613701
808.561554	3639.655104
808.881611	3572.257397
809.201623	3605.256790
809.521590	3620.334882
809.841513	3595.555090
810.161390	3619.878657
810.481223	3604.286368
810.801011	3547.754869
811.120755	3535.383877
811.440453	3573.038776
811.760107	3578.755445
812.079716	3542.963252
812.399281	3505.021008
812.718801	3526.340047
813.038276	3500.473887
813.357707	3495.737723
813.677093	3516.366125
813.996434	3467.524906
814.315731	3467.998774
814.634983	3473.609578
814.954191	3487.903770
815.273354	3521.082124
815.592473	3517.961650
815.911547	3516.058614
816.230577	3552.339798
816.549562	3605.203858
816.868502	3648.189777
817.187399	3673.123324
817.506250	3669.841533
817.825058	3639.738283
818.143821	3723.607959
818.462539	3829.620904
818.781213	3877.859705
819.099843	3926.607663
819.418429	4152.854648
819.736970	4394.048653
820.055466	4628.704283
820.373919	4982.149661
820.692327	5386.036825
821.010691	5788.429287
821.329011	7074.646923
821.647286	9676.658645
821.965517	14058.621132
822.283704	18080.088187
822.601847	20362.697443
822.919945	18639.399165
823.237999	16146.077240
823.556010	13701.956977
823.873976	11668.539518
824.191897	9597.850287
824.509775	8250.906912
824.827609	7133.174719
825.145398	6581.087714
825.463144	6463.903573
825.780845	6589.017449
826.098502	6743.422951
826.416116	7548.275930
826.733685	8836.784770
827.051210	9957.302200
827.368692	10072.633718
827.686129	8887.181185
828.003522	7384.289716
828.320872	6375.149018
828.638177	5690.595614
828.955439	5147.141585
829.272656	4657.035567
829.589830	4368.968913
829.906960	4193.163714
830.224046	4017.897918
830.541088	3889.290522
830.858086	3846.700333
831.175041	3774.296761
831.491952	3754.243051
831.808819	3763.049947
832.125642	3827.269206
832.442421	3967.408242
832.759157	4223.801326
833.075849	4743.952621
833.392497	5576.907512
833.709101	6340.428071
834.025662	6699.433842
834.342179	6381.460543
834.658653	5729.664556
834.975083	5102.340851
835.291469	4531.573851
835.607811	4124.788023
835.924110	3986.917507
836.240366	3797.498672
836.556578	3588.260540
836.872746	3480.604179
837.188871	3445.961370
837.504952	3383.498953
837.820990	3304.315029
838.136984	3251.511463
838.452935	3276.981893
838.768842	3272.906120
839.084706	3296.954945
839.400526	3441.741924
839.716303	3757.938217
840.032037	4255.172427
840.347727	4544.554822
840.663373	4292.056029
840.978977	3919.933175
841.294537	3620.884367
841.610054	3388.827453
841.925527	3279.356277
842.240957	3216.120043
842.556344	3163.389573
842.871687	3104.476129
843.186987	3057.971485
843.502244	3024.145343
843.817458	2987.685197
844.132629	2954.436267
844.447756	2962.953297
844.762840	2951.182202
845.077881	2920.529466
845.392879	2900.208575
845.707833	2899.654048
846.022745	2895.328738
846.337613	2895.608522
846.652438	2886.662995
846.967221	2886.423540
847.281960	2871.098432
847.596656	2865.696836
847.911309	2864.023173
848.225919	2860.668285
848.540485	2853.555217
848.855009	2856.980681
849.169490	2845.181860
849.483928	2837.184070
849.798323	2837.093329
850.112675	2830.005467
850.426984	2839.886128
850.741251	2842.683969
851.055474	2832.200889
851.369654	2824.187975
851.683792	2829.166115
851.997887	2835.845643
852.311938	2840.284379
852.625947	2830.312977
852.939914	2830.945642
853.253837	2838.666169
853.567718	2824.850887
853.881555	2819.459373
854.195350	2838.315809
854.509103	2833.299861
854.822812	2823.215032
855.136479	2824.225784
855.450103	2822.665547
855.763685	2819.280412
856.077224	2811.854792
856.390720	2824.747543
856.704173	2836.783298
857.017584	2830.197031
857.330953	2825.143274
857.644278	2834.247598
857.957561	2843.934175
858.270802	2842.303362
858.584000	2848.188909
858.897155	2835.613750
859.210268	2830.315498
859.523339	2832.435303
859.836367	2830.406238
860.149352	2826.882472
860.462295	2816.843014
860.775195	2828.024293
861.088054	2828.044458
861.400869	2812.873105
861.713642	2806.354893
862.026373	2822.239569
862.339062	2826.597647
862.651708	2832.037052
862.964312	2835.891014
863.276873	2826.726196
863.589392	2836.596775
863.901869	2847.548682
864.214303	2865.197762
864.526696	2883.847510
864.839045	2879.098743
865.151353	2880.474978
865.463619	2876.081613
865.775842	2879.902808
866.088023	2896.006773
866.400162	2902.444327
866.712258	2880.530431
867.024313	2866.878987
867.336325	2875.937940
867.648296	2892.203223
867.960224	2888.503016
868.272110	2873.702188
868.583954	2880.860627
868.895755	2893.095507
869.207515	2882.010010
869.519233	2883.124105
869.830909	2894.413769
870.142542	2901.957856
870.454134	2903.989441
870.765684	2905.118659
871.077191	2904.695202
871.388657	2912.193918
871.700081	2926.730086
872.011463	2936.812393
872.322803	2937.210644
872.634101	2937.593772
872.945357	2952.124898
873.256571	2975.331850
873.567744	2971.127528
873.878874	2964.712659
874.189963	2985.729230
874.501010	2988.040599
874.812015	2978.195225
875.122979	2976.980307
875.433900	2973.998465
875.744780	2978.938795
876.055618	2986.838283
876.366415	2982.603714
876.677169	2994.266424
876.987882	2993.139726
877.298554	2984.232007
877.609183	3003.441324
877.919771	3023.316073
878.230317	3053.283212
878.540822	3099.588730
878.851285	3138.864360
879.161707	3176.549506
879.472087	3271.023249
879.782425	3478.559991
880.092722	3889.638361
880.402977	4400.060229
880.713191	5000.103730
881.023363	6101.684066
881.333494	7353.586568
881.643583	7932.908406
881.953631	7637.133828
882.263637	7053.479118
882.573602	6498.296845
882.883526	5932.744918
883.193408	5360.248802
883.503248	4901.153442
883.813048	4610.271303
884.122806	4326.368642
884.432522	4023.546531
884.742197	3790.751087
885.051831	3602.058178
885.361424	3465.422744
885.670975	3399.986047
885.980485	3317.472441
886.289954	3246.009044
886.599382	3201.185624
886.908768	3164.017197
887.218113	3120.806947
887.527417	3066.647311
887.836680	3016.260978
888.145901	3011.539937
888.455082	3004.510048
888.764221	2957.095476
889.073319	2926.301588
889.382376	2923.244128
889.691392	2926.198244
890.000366	2929.240580
890.309300	2914.134763
890.618193	2925.510126
890.927044	2943.272632
891.235855	2946.299845
891.544625	2927.513985
891.853353	2937.664348
892.162041	2956.361988
892.470687	2992.786845
892.779293	3042.721994
893.087858	3088.914087
893.396381	3156.334479
893.704864	3268.847991
894.013306	3492.899553
894.321707	3786.219090
894.630068	3989.811129
894.938387	3996.011748
895.246665	3946.477371
895.554903	3834.778004
895.863100	3644.116525
896.171256	3478.746514
896.479371	3346.171730
896.787446	3229.050602
897.095480	3131.201806
897.403473	3067.902558
897.711425	3025.309849
898.019336	3018.423633
898.327207	2994.337000
898.635038	2963.661579
898.942827	2945.062242
899.250576	2933.921292
899.558284	2903.230747
899.865952	2884.795247
900.173579	2865.641383
900.481165	2859.423120
900.788711	2846.782427
901.096216	2821.480876
901.403681	2810.425625
901.711105	2814.849238
902.018489	2816.270843
902.325832	2815.255051
902.633135	2825.241576
902.940397	2851.526152
903.247619	2930.228646
903.554800	3108.211624
903.861941	3429.388577
904.169041	3841.049200
904.476101	4140.609685
904.783121	4120.515646
905.090100	3883.609141
905.397039	3623.001652
905.703938	3376.930330
906.010796	3194.838812
906.317614	3085.642378
906.624391	3000.288082
906.931129	2927.052719
907.237826	2871.647918
907.544483	2823.396514
907.851099	2792.300157
908.157675	2773.166457
908.464211	2752.533014
908.770707	2741.755027
909.077163	2729.129458
909.383578	2714.174875
909.689954	2706.638350
909.996289	2700.752803
910.302584	2701.019984
910.608839	2706.691282
910.915054	2698.307843
911.221229	2692.001360
911.527363	2692.555887
911.833458	2699.656352
912.139513	2704.813452
912.445527	2707.865871
912.751502	2714.588249
913.057436	2725.341031
913.363331	2735.398132
913.669186	2756.507964
913.975000	2785.234979
914.280775	2842.588187
914.586510	2908.355080
914.892205	2985.439363
915.197859	3102.825151
915.503475	3286.194602
915.809050	3490.946106
916.114585	3635.402890
916.420081	3656.263185
916.725536	3607.631174
917.030952	3497.534894
917.336328	3368.899772
917.641665	3243.110380
917.946961	3144.878457
918.252218	3076.757345
918.557435	3004.943588
918.862612	2948.190278
919.167750	2901.143709
919.472848	2861.253059
919.777906	2837.700788
920.082925	2814.604742
920.387904	2782.225411
920.692843	2770.552619
920.997743	2758.655496
921.302603	2742.899369
921.607423	2735.582135
921.912204	2721.923128
922.216946	2711.102292
922.521647	2703.676672
922.826310	2698.569983
923.130932	2692.739889
923.435516	2680.081551
923.740059	2675.216838
924.044564	2668.285251
924.349028	2663.397853
924.653454	2654.744712
924.957840	2650.610966
925.262186	2646.275574
925.566493	2641.854482
925.870761	2638.045890
926.174989	2632.069602
926.479178	2631.252935
926.783328	2625.712707
927.087438	2622.536780
927.391509	2622.554424
927.695541	2621.578961
927.999533	2616.283229
928.303486	2611.398351
928.607400	2610.962291
928.911275	2609.954060
929.215110	2610.042280
929.518906	2608.572784
929.822663	2609.026488
930.126381	2609.157558
930.430060	2612.025974
930.733699	2610.616972
931.037299	2610.735439
931.340861	2613.384565
931.644383	2614.554113
931.947866	2613.442539
932.251309	2608.797115
932.554714	2612.676283
932.858080	2609.296190
933.161407	2608.393823
933.464694	2605.427104
933.767943	2600.847216
934.071153	2603.077926
934.374323	2601.063985
934.677455	2601.636156
934.980548	2602.596496
935.283602	2601.774788
935.586617	2600.955601
935.889593	2605.071703
936.192530	2602.354521
936.495428	2600.605240
936.798287	2602.084819
937.101108	2604.718822
937.403890	2609.943978
937.706632	2616.464710
938.009336	2618.140894
938.312002	2627.681278
938.614628	2637.793832
938.917216	2644.170892
939.219765	2644.632157
939.522275	2642.282980
939.824747	2643.288690
940.127179	2640.551343
940.429573	2636.649490
940.731929	2635.154788
941.034246	2632.856022
941.336524	2630.789149
941.638763	2627.613222
941.940964	2623.986112
942.243126	2622.337655
942.545250	2621.243724
942.847335	2618.264402
943.149381	2613.245934
943.451389	2609.999431
943.753359	2609.518000
944.055290	2608.280397
944.357182	2606.757969
944.659036	2603.839141
944.960851	2603.486260
945.262628	2602.460385
945.564367	2603.158585
945.866067	2604.131527
946.167729	2603.178749
946.469352	2605.101950
946.770937	2604.877618
947.072484	2603.975252
947.373992	2603.526589
947.675462	2600.743872
947.976893	2596.257245
948.278286	2592.569641
948.579641	2595.203644
948.880958	2593.469487
949.182236	2598.540888
949.483476	2593.577872
949.784678	2594.432347
950.085841	2599.281937
950.386967	2593.320773
950.688054	2596.945363
950.989103	2600.615323
951.290114	2599.004674
951.591087	2597.515013
951.892021	2603.163626
952.192917	2605.238061
952.493776	2604.728904
952.794596	2607.579677
953.095378	2607.211672
953.396122	2606.538678
953.696828	2604.980962
953.997496	2604.630602
954.298126	2601.910899
954.598718	2598.987030
954.899272	2599.710436
955.199788	2597.202462
955.500266	2591.475711
955.800706	2588.186358
956.101108	2586.240472
956.401472	2586.293405
956.701798	2586.384145
957.002087	2581.448856
957.302337	2579.767631
957.602550	2580.110429
957.902724	2580.831314
958.202861	2576.679924
958.502960	2574.877712
958.803022	2578.184709
959.103045	2576.352249
959.403031	2578.015830
959.702979	2574.348391
960.002889	2573.322516
960.302762	2573.299831
960.602596	2572.480643
960.902393	2572.894018
961.202153	2571.643812
961.501875	2571.477453
961.801559	2570.590210
962.101205	2574.421487
962.400814	2571.220355
962.700385	2571.560632
962.999918	2567.646177
963.299414	2566.080898
963.598873	2568.581311
963.898293	2566.912689
964.197677	2569.947463
964.497022	2569.791187
964.796331	2568.051989
965.095601	2568.654407
965.394835	2568.780436
965.694030	2570.746486
965.993189	2567.482339
966.292309	2568.644325
966.591393	2572.324367
966.890439	2569.776064
967.189447	2565.949828
967.488419	2568.951835
967.787353	2571.706826
968.086249	2567.520148
968.385108	2570.933009
968.683930	2569.667679
968.982714	2569.178687
969.281462	2568.258677
969.580172	2568.719942
969.878844	2568.646846
970.177480	2568.039387
970.476078	2567.477298
970.774639	2570.504511
971.073162	2569.531568
971.371649	2569.521486
971.670098	2571.157340
971.968510	2570.270097
972.266885	2570.234809
972.565223	2569.619788
972.863524	2571.427042
973.161788	2571.709347
973.460014	2568.664490
973.758204	2569.418142
974.056356	2568.800601
974.354471	2570.040725
974.652550	2570.723801
974.950591	2567.288255
975.248595	2570.960735
975.546563	2569.390416
975.844493	2568.223389
976.142386	2569.697926
976.440243	2568.707339
976.738062	2568.813204
977.035845	2567.280693
977.333590	2567.739438
977.631299	2566.179201
977.928971	2566.711042
978.226606	2566.040569
978.524204	2563.575445
978.821765	2562.662996
979.119290	2565.695250
979.416777	2567.613409
979.714228	2566.524520
980.011642	2565.284396
980.309020	2567.799932
980.606360	2565.760785
980.903664	2565.327246
981.200931	2569.924778
981.498162	2567.484860
981.795356	2570.310426
982.092513	2569.317319
982.389633	2571.782443
982.686717	2576.304358
982.983764	2580.034812
983.280775	2582.320975
983.577749	2583.099834
983.874686	2585.017993
984.171587	2581.274936
984.468451	2577.446180
984.765279	2575.984245
985.062070	2575.638926
985.358824	2574.935685
985.655543	2571.439645
985.952224	2569.370251
986.248869	2570.403688
986.545478	2567.250446
986.842050	2567.762123
987.138586	2565.687688
987.435086	2565.677606
987.731549	2565.803635
988.027975	2562.579817
988.324366	2565.173491
988.620719	2568.430076
988.917037	2564.155177
989.213318	2563.613253
989.509563	2563.593089
989.805772	2563.872873
990.101944	2564.198027
990.398080	2560.480176
990.694180	2564.387071
990.990244	2563.237688
991.286271	2565.498645
991.582262	2562.650393
991.878217	2562.846998
992.174136	2564.029149
992.470019	2563.318346
992.765865	2562.166442
993.061676	2558.385577
993.357450	2564.455126
993.653188	2559.587892
993.948890	2561.213664
994.244556	2563.509910
994.540186	2564.543346
994.835780	2563.088973
995.131337	2564.742472
995.426859	2565.551577
995.722345	2565.390260
996.017795	2567.452092
996.313208	2568.699778
996.608586	2568.573749
996.903928	2570.375961
997.199234	2570.413770
997.494504	2568.661969
997.789738	2568.072154
998.084936	2565.501166
998.380099	2568.551064
998.675225	2565.107956
998.970316	2566.297668
999.265371	2566.033007
999.560390	2564.291289
999.855373	2564.815569
1000.150320	2563.177194
1000.445232	2566.274983
1000.740108	2562.778943
1001.034948	2562.403377
1001.329752	2561.546380
1001.624521	2563.393963
1001.919254	2563.094015
1002.213951	2564.654252
1002.508613	2562.899930
1002.803239	2562.259704
1003.097829	2560.046637
1003.392384	2564.137533
1003.686903	2560.291133
1003.981386	2563.590568
1004.275834	2562.897410
1004.570246	2562.930177
1004.864623	2562.710887
1005.158964	2561.899261
1005.453270	2563.028480
1005.747540	2562.073181
1006.041775	2561.022100
1006.335974	2561.924467
1006.630138	2559.834909
1006.924266	2562.778942
1007.218359	2563.830023
1007.512416	2560.782646
1007.806438	2557.200906
1008.100425	2560.638973
1008.394376	2556.127140
1008.688292	2561.619477
1008.982172	2560.034034
1009.276017	2562.829354
1009.569827	2560.079405
1009.863602	2560.293654
1010.157341	2559.809703
1010.451045	2561.632080
1010.744714	2561.294323
1011.038347	2560.560835
1011.331945	2561.745506
1011.625508	2560.835578
1011.919036	2563.267934
1012.212528	2561.564024
1012.505986	2559.439178
1012.799408	2561.687533
1013.092795	2561.017059
1013.386147	2561.679971
1013.679464	2560.891030
1013.972745	2562.973027
1014.265992	2559.229970
1014.559204	2561.506051
1014.852380	2561.453119
1015.145521	2561.821123
1015.438628	2559.499672
1015.731699	2560.041596
1016.024736	2559.739127
1016.317737	2559.250135
1016.610703	2561.374981
1016.903635	2562.398335
1017.196531	2559.965979
1017.489393	2559.388767
1017.782219	2561.397666
1018.075011	2561.606874
1018.367768	2561.430434
1018.660490	2564.056875
1018.953177	2564.056875
1019.245829	2564.056875
