Dividing Wavelength (nm)	Counts (n)	Blue Motor Position (mm): 32.900000	Red Motor Position (mm): 0.000000	
326.493990	2221.911243
326.888308	2221.911243
327.282561	2221.911243
327.676750	2183.288443
328.070874	2178.804336
328.464933	2180.813236
328.858929	2182.784327
329.252859	2185.403207
329.646726	2196.700433
330.040528	2210.495550
330.434265	2220.023331
330.827938	2239.517473
331.221547	2256.422982
331.615091	2274.210693
332.008571	2290.677623
332.401986	2312.520942
332.795338	2329.471822
333.188625	2345.666529
333.581847	2368.681917
333.975006	2388.352499
334.368100	2406.954357
334.761129	2422.927253
335.154095	2442.726384
335.546996	2468.416104
335.939833	2506.093688
336.332606	2523.498272
336.725315	2535.859181
337.117960	2545.273536
337.510540	2559.429096
337.903056	2570.696075
338.295508	2580.296952
338.687896	2584.639906
339.080220	2595.551484
339.472480	2600.239757
339.864676	2607.756117
340.256807	2612.426746
340.648875	2615.978239
341.040879	2616.348764
341.432818	2622.730865
341.824694	2624.016359
342.216506	2625.753036
342.608253	2624.807820
342.999937	2623.630711
343.391557	2624.649024
343.783113	2627.519961
344.174605	2620.603498
344.566033	2626.438633
344.957397	2622.269599
345.348697	2622.259517
345.739934	2620.961420
346.131106	2618.297170
346.522215	2618.161059
346.913260	2614.717951
347.304241	2616.258023
347.695159	2610.432970
348.086012	2611.932713
348.476802	2605.331322
348.867528	2600.794284
349.258191	2598.417380
349.648789	2599.211361
350.039324	2600.615323
350.429796	2598.843357
350.820203	2595.954776
351.210548	2595.735486
351.600828	2595.122986
351.991045	2595.216247
352.381198	2594.374374
352.771288	2593.051071
353.161314	2592.599888
353.551276	2591.337079
353.941175	2593.303129
354.331010	2589.784404
354.720782	2593.109045
355.110490	2595.236412
355.500135	2589.784404
355.889717	2589.814651
356.279235	2591.823550
356.668689	2591.906729
357.058080	2592.299939
357.447408	2592.090732
357.836672	2591.944538
358.225873	2595.357399
358.615010	2597.557863
359.004084	2593.499734
359.393095	2594.560897
359.782043	2596.239601
360.170927	2597.484766
360.559748	2594.437389
360.948505	2594.964189
361.337199	2598.689602
361.725830	2596.622729
362.114398	2598.293871
362.502903	2598.800507
362.891344	2600.597679
363.279722	2598.989551
363.668037	2602.659511
364.056289	2601.563060
364.444478	2600.300251
364.832603	2603.392998
365.220665	2601.890735
365.608665	2601.588265
365.996601	2598.361927
366.384474	2603.294696
366.772284	2602.306630
367.160031	2604.297886
367.547715	2605.568256
367.935336	2605.903493
368.322893	2604.101281
368.710388	2602.820828
369.097820	2604.267639
369.485189	2602.662031
369.872495	2606.599172
370.259738	2607.357866
370.646918	2608.310644
371.034035	2608.842486
371.421090	2606.546240
371.808081	2608.716457
372.195010	2612.041098
372.581875	2606.788216
372.968678	2609.402054
373.355418	2609.056735
373.742096	2606.684872
374.128710	2610.276694
374.515262	2610.869030
374.901751	2610.463217
375.288177	2611.859616
375.674540	2611.844493
376.060841	2612.966150
376.447079	2609.938937
376.833254	2611.373145
377.219367	2608.398864
377.605417	2614.284411
377.991404	2612.257867
378.377329	2612.096551
378.763191	2615.658126
379.148991	2611.269801
379.534727	2617.387242
379.920402	2614.896912
380.306013	2613.195522
380.691563	2617.031840
381.077049	2613.611417
381.462474	2616.847838
381.847835	2615.365739
382.233134	2617.893878
382.618371	2616.129474
383.003545	2619.118878
383.388657	2616.255502
383.773706	2618.697942
384.158693	2619.179372
384.543618	2617.450256
384.928480	2617.442694
385.313280	2617.883795
385.698017	2620.114506
386.082692	2618.440843
386.467305	2619.849845
386.851856	2621.084928
387.236344	2621.185751
387.620770	2621.016872
388.005133	2618.206429
388.389435	2620.790020
388.773674	2618.597118
389.157851	2623.797069
389.541965	2625.826133
389.926018	2624.281019
390.310008	2625.516102
390.693936	2624.250772
391.077802	2625.833695
391.461606	2623.847480
391.845348	2626.456277
392.229027	2627.204889
392.612645	2630.393418
392.996200	2630.761423
393.379694	2627.580455
393.763125	2629.042389
394.146494	2631.681433
394.529801	2633.206382
394.913047	2632.364510
395.296230	2631.681433
395.679351	2633.697895
396.062410	2634.882566
396.445408	2632.561115
396.828343	2637.141003
397.211217	2636.951960
397.594028	2635.101856
397.976778	2634.517082
398.359466	2637.645118
398.742092	2636.084881
399.124656	2637.514048
399.507158	2639.669142
399.889598	2636.962042
400.271977	2639.152423
400.654294	2640.768113
401.036549	2640.831127
401.418742	2643.747435
401.800874	2644.243989
402.182944	2643.278608
402.564952	2643.931437
402.946898	2643.344143
403.328783	2644.574184
403.710606	2644.916983
404.092367	2646.593166
404.474067	2646.013434
404.855705	2649.683394
405.237282	2646.877992
405.618797	2648.644916
406.000250	2648.355050
406.381642	2649.264978
406.762972	2649.759011
407.144240	2651.702376
407.525447	2652.945020
407.906593	2649.476706
408.287677	2655.377377
408.668700	2655.558858
409.049661	2659.178407
409.430560	2661.242759
409.811399	2661.625887
410.192176	2667.634942
410.572891	2666.868687
410.953545	2676.335974
411.334138	2679.466531
411.714669	2687.413910
412.095139	2692.729806
412.475547	2703.981662
412.855894	2712.218907
413.236180	2727.725496
413.616405	2738.775706
413.996568	2761.100455
414.376670	2779.745163
414.756711	2799.234264
415.136691	2828.445230
415.516609	2863.294726
415.896466	2897.801424
416.276262	2941.493105
416.655997	2987.720485
417.035670	3047.253992
417.415283	3129.681898
417.794834	3188.744057
418.174324	3238.374216
418.553753	3293.121147
418.933121	3400.853125
419.312428	3479.948829
419.691674	3522.924666
420.070859	3684.148328
420.449983	3715.224520
420.829045	3870.340824
421.208047	3915.199532
421.586988	4075.072164
421.965867	4176.681661
422.344686	4296.441833
422.723444	4414.745110
423.102141	4320.248682
423.480777	4648.004340
423.859352	4597.282771
424.237866	4923.490795
424.616319	4975.533147
424.994712	5240.234053
425.373044	5193.747053
425.751314	5492.132949
426.129524	5547.716711
426.507673	5728.787395
426.885762	5914.352268
427.263789	5984.910778
427.641756	6056.570780
428.019662	6237.472586
428.397508	6473.242310
428.775292	6417.529998
429.153016	6761.412308
429.530679	6778.552231
429.908282	6915.197747
430.285824	6842.590008
430.663305	7387.715180
431.040726	7145.533108
431.418086	7228.656693
431.795385	7553.440592
432.172624	7720.121303
432.549802	7759.699401
432.926920	7925.989423
433.303977	7925.407169
433.680974	8169.426742
434.057910	8328.875918
434.434786	8458.347872
434.811601	8437.840458
435.188355	8972.616140
435.565050	8827.272113
435.941683	8852.535856
436.318257	9357.674594
436.694770	9516.191157
437.071222	9666.646914
437.447614	9607.090722
437.823946	9563.575482
438.200218	9780.176219
438.576429	9653.537393
438.952580	9924.080997
439.328670	10040.002329
439.704700	9880.439728
440.080670	9916.713350
440.456580	10491.530917
440.832429	10291.109764
441.208218	9951.038567
441.583947	10307.808586
441.959616	10471.809924
442.335224	10319.017592
442.710773	10483.558333
443.086261	10693.277894
443.461689	10040.551815
443.837057	10664.513071
444.212365	10983.958387
444.587612	10641.250666
444.962800	10898.142825
445.337927	10698.452639
445.712995	10267.655796
446.088002	11369.397448
446.462949	11021.255364
446.837837	11007.563590
447.212664	11030.364729
447.587431	11517.801456
447.962139	12228.054662
448.336786	14459.413027
448.711374	15037.325863
449.085901	12929.790839
449.460369	12532.459696
449.834776	11997.389106
450.209124	12831.511025
450.583412	13245.082245
450.957640	14202.513307
451.331808	13390.181776
451.705917	12362.257739
452.079965	11685.674399
452.453954	12581.290833
452.827883	12214.756098
453.201752	12499.971980
453.575562	12001.873213
453.949311	12424.004312
454.323001	12375.692414
454.696632	12605.160696
455.070202	12898.006364
455.443713	13148.977688
455.817164	13601.302779
456.190556	13604.382924
456.563888	13966.284838
456.937160	14155.668385
457.310373	13478.091937
457.683526	13554.067167
458.056619	13114.037451
458.429653	13248.200199
458.802628	12700.022609
459.175542	13068.231006
459.548398	14009.033822
459.921194	14335.375437
460.293930	14394.382143
460.666607	15284.110509
461.039224	16309.708053
461.411782	17016.681989
461.784280	16916.249601
462.156719	16945.586596
462.529099	16647.321688
462.901419	15563.077880
463.273680	15358.013824
463.645882	15216.967381
464.018024	14957.915087
464.390106	15181.843141
464.762130	15904.124541
465.134094	16654.938871
465.505999	18627.431466
465.877845	21893.476576
466.249631	24721.881476
466.621358	24429.381127
466.993026	22972.737202
467.364634	22416.430752
467.736184	20963.061057
468.107674	20160.353089
468.479105	20288.390835
468.850477	19749.478886
469.221790	19335.466565
469.593043	18664.824224
469.964238	18104.704141
470.335373	17775.287422
470.706449	18190.529785
471.077467	17744.614522
471.448425	19567.533561
471.819324	23563.348705
472.190164	25631.653469
472.560945	22116.708950
472.931667	19729.384847
473.302330	19080.157328
473.672934	18579.051512
474.043479	18942.662377
474.413965	18750.664992
474.784393	18382.844763
475.154761	19063.183763
475.525070	19067.574608
475.895321	18720.050065
476.265513	19297.849475
476.635645	19872.094871
477.005719	19672.180353
477.375734	19856.280771
477.745691	20339.077116
478.115588	20851.727174
478.485427	21364.276409
478.855207	22420.115836
479.224928	24171.198433
479.594591	26393.535653
479.964194	26461.346734
480.333739	26651.342781
480.703226	26215.789610
481.072653	25894.794138
481.442022	26452.171834
481.811333	27365.674281
482.180584	27294.268858
482.549777	26331.612640
482.918912	25982.172458
483.287988	26093.317298
483.657005	25793.383767
484.025964	25517.063001
484.394864	25452.921880
484.763706	25140.337574
485.132489	24560.509100
485.501213	24734.686007
485.869879	24648.147039
486.238487	24453.631598
486.607036	24602.388486
486.975527	24300.690552
487.343959	24632.411077
487.712333	24586.123203
488.080648	24236.602363
488.448905	24713.336720
488.817104	24454.728048
489.185244	25138.164837
489.553326	25104.280722
489.921350	26082.977891
490.289315	28353.979890
490.657222	30157.109880
491.025070	30649.265127
491.392861	30447.790373
491.760593	29585.685009
492.128267	28697.703403
492.495883	27660.385176
492.863440	26777.676617
493.230939	25906.066158
493.598380	25744.056077
493.965763	25352.655851
494.333088	24902.644650
494.700354	24842.753222
495.067563	24714.775970
495.434713	24463.267763
495.801805	24607.845535
496.168839	24431.105202
496.535815	24256.131793
496.902733	24478.590350
497.269593	24150.345700
497.636395	24345.347613
498.003139	24301.146776
498.369825	24056.242481
498.736453	24243.302056
499.103023	24130.702844
499.469535	24145.354958
499.835989	24358.048800
500.202385	24380.265165
500.568723	23885.733014
500.935003	24145.513754
501.301226	23734.304314
501.667390	24584.084056
502.033497	24823.682537
502.399546	24546.391349
502.765537	24111.128043
503.131470	24506.886347
503.497345	24635.211438
503.863163	23859.004816
504.228923	24464.003772
504.594625	24652.053933
504.960269	24188.660990
505.325856	24678.467059
505.691385	24084.704836
506.056856	24681.353120
506.422270	24650.864221
506.787625	24235.203443
507.152924	24629.320850
507.518164	24669.587067
507.883347	24483.765095
508.248472	24162.643595
508.613540	24949.252638
508.978550	24736.962088
509.343503	24719.517175
509.708398	24979.325641
510.073236	25141.870085
510.438016	25350.387332
510.802738	25018.818040
511.167403	25282.944255
511.532010	24968.739218
511.896561	25758.657779
512.261053	25717.801747
512.625488	25559.567490
512.989866	25458.487314
513.354186	25299.320443
513.718449	25391.417283
514.082655	25782.648630
514.446803	25520.218764
514.810894	25976.193650
515.174927	25462.164836
515.538904	25494.697922
515.902822	25988.950289
516.266684	25733.141979
516.630488	25647.170141
516.994235	25626.695495
517.357925	25926.097183
517.721558	26105.587466
518.085133	26210.110750
518.448651	26108.256757
518.812112	25845.859658
519.175516	26044.231583
519.538863	26201.112290
519.902152	25981.501985
520.265385	26268.910768
520.628560	26060.088532
520.991678	26069.757465
521.354739	26136.406560
521.717743	26213.296759
522.080690	26002.155592
522.443580	26336.167322
522.806413	26322.402452
523.169189	26405.329433
523.531908	26474.252088
523.894569	26078.319865
524.257174	26144.527859
524.619722	26334.072723
524.982213	26018.496492
525.344647	26081.185761
525.707025	26212.895987
526.069345	26203.597579
526.431608	26158.504458
526.793815	26337.334349
527.155964	25800.141434
527.518057	25970.792053
527.880093	25895.192390
528.242072	26128.134027
528.603995	25840.019481
528.965860	25637.760827
529.327669	25674.664594
529.689421	25675.516549
530.051117	25506.887432
530.412755	25688.016090
530.774337	25484.136705
531.135862	25353.608629
531.497331	25553.807972
531.858743	25113.556445
532.220098	25592.755926
532.581396	25265.466575
532.942638	25205.083634
533.303824	25298.022346
533.664953	25326.209958
534.026025	24975.514529
534.387040	25219.695418
534.747999	25285.235459
535.108902	25442.579953
535.469748	24932.589104
535.830537	25118.045592
536.191270	25229.109773
536.551947	25102.289466
536.912567	24762.873618
537.273131	25104.560506
537.633638	24811.848428
537.994089	25021.777198
538.354483	24563.251488
538.714821	25061.761109
539.075103	25107.272646
539.435328	24894.672065
539.795497	24447.509116
540.155609	24844.898233
540.515665	25139.929241
540.875665	24373.152097
541.235609	24674.590412
541.595496	24628.725994
541.955328	24992.326777
542.315102	24909.790486
542.674821	24448.562717
543.034483	24336.444935
543.394090	24497.040973
543.753640	24301.829852
544.113134	24933.342756
544.472571	24523.338152
544.831953	24811.583767
545.191278	24439.097951
545.550548	24359.051990
545.909761	24552.894437
546.268918	24786.345231
546.628019	24755.274079
546.987064	24457.649397
547.346053	24208.013979
547.704986	24327.441434
548.063863	24489.973276
548.422684	24492.914789
548.781449	24028.372462
549.140158	24441.069042
549.498811	24016.182952
549.857408	23755.303240
550.215949	24172.015100
550.574434	23862.707544
550.932864	24078.070677
551.291237	24237.247630
551.649555	24100.864254
552.007817	24154.078674
552.366022	24019.729404
552.724173	24057.109559
553.082267	24006.045192
553.440305	24484.420445
553.798288	23742.349996
554.156215	24256.199848
554.514086	24347.207799
554.871902	23723.274269
555.229661	24009.387477
555.587365	23870.644840
555.945014	23730.415064
556.302606	23978.984278
556.660143	23932.366207
557.017625	24177.378887
557.375050	23711.505696
557.732421	24100.738225
558.089735	23905.280088
558.446994	23974.963957
558.804197	24002.287011
559.161345	23940.893319
559.518437	23706.280540
559.875474	23897.310024
560.232455	24071.688576
560.589381	23898.842534
560.946251	23877.899061
561.303065	24194.425549
561.659825	24290.658655
562.016528	23885.982551
562.373177	23627.336071
562.729770	23987.604651
563.086307	23840.566796
563.442789	24013.790924
563.799216	23852.746224
564.155587	23860.365928
564.511904	23834.613193
564.868164	23771.954172
565.224370	23752.616305
565.580520	23665.084231
565.936615	23794.117604
566.292654	23477.548266
566.648638	23777.421303
567.004567	23603.153656
567.360441	23551.307909
567.716260	23282.518627
568.072023	23605.936373
568.427732	23356.386654
568.783385	23150.427793
569.138982	23378.532443
569.494525	23419.156581
569.850013	23155.378206
570.205445	23264.778807
570.560823	23073.865269
570.916145	22826.747908
571.271412	23007.619467
571.626625	22772.784876
571.981782	22885.374006
572.336884	22673.940452
572.691931	22823.695489
573.046923	22554.949057
573.401860	22436.456736
573.756743	22449.525927
574.111570	22345.768899
574.466342	22282.615844
574.821059	22367.609698
575.175722	22067.416548
575.530330	22060.747101
575.884882	22079.422056
576.239380	21985.777582
576.593823	21886.393754
576.948211	21863.199406
577.302544	21702.346269
577.656823	21576.934964
578.011047	21671.537257
578.365216	21544.845499
578.719330	21415.439080
579.073389	21317.799492
579.427394	21464.968416
579.781344	21235.968962
580.135239	21123.659616
580.489080	21087.111250
580.842866	20856.244048
581.196597	21046.771937
581.550273	21022.730675
581.903895	20911.353942
582.257463	21232.241028
582.610975	20760.119327
582.964434	21061.522353
583.317837	20772.535689
583.671186	20862.033813
584.024481	20826.077784
584.377721	20602.500090
584.730906	20680.211997
585.084037	20681.038746
585.437113	20597.325346
585.790135	20806.326543
586.143103	20261.692884
586.496016	20276.879360
586.848874	20522.446567
587.201679	20445.216090
587.554428	20122.940166
587.907124	20457.637493
588.259765	20226.039324
588.612352	20307.506890
588.964884	19871.542865
589.317362	20045.336643
589.669786	20093.116700
590.022155	20131.540374
590.374470	20332.563946
590.726731	20110.753176
591.078937	19902.407329
591.431090	19986.282047
591.783188	19738.322812
592.135232	19708.983297
592.487222	19801.932092
592.839157	19820.133178
593.191038	19705.197391
593.542866	19592.187324
593.894639	19306.003541
594.246358	19533.735145
594.598022	19428.206151
594.949633	19188.335448
595.301190	19147.565117
595.652692	19326.276541
596.004141	19558.030986
596.355535	18881.298932
596.706876	18904.024454
597.058162	18787.712432
597.409395	19024.815541
597.760573	19092.341797
598.111698	18866.107415
598.462768	18813.669333
598.813785	18763.524976
599.164748	18587.913861
599.515657	18628.106980
599.866511	18415.859280
600.217312	18783.450136
600.568060	18295.146331
600.918753	18605.825080
601.269392	18512.188168
601.619978	18296.724212
601.970510	18496.484974
602.320988	18450.207182
602.671412	18657.796856
603.021783	18566.471313
603.372100	18288.229867
603.722363	18440.654195
604.072572	18370.158700
604.422728	18517.796452
604.772830	18273.986087
605.122878	18229.255929
605.472872	18219.985247
605.822813	18204.539152
606.172701	18182.385801
606.522534	18372.286067
606.872314	18392.077637
607.222041	18231.612669
607.571714	18446.270041
607.921333	18277.913146
608.270899	18346.550976
608.620411	18524.904479
608.969870	18294.138100
609.319276	18292.411505
609.668627	18325.231937
610.017926	18464.692937
610.367171	18572.840811
610.716362	18620.857801
611.065500	18434.955171
611.414585	18570.925172
611.763616	18570.713444
612.112594	18492.830138
612.461518	18461.232185
612.810389	18649.620104
613.159207	18514.403755
613.507971	18433.397454
613.856682	18700.686993
614.205340	18628.114542
614.553945	18778.361091
614.902496	18520.750568
615.250994	18754.332432
615.599439	18697.919399
615.947830	18683.141257
616.296169	18739.176202
616.644454	18700.318989
616.992686	18679.645217
617.340864	18894.105984
617.688990	18640.636768
618.037063	18810.848807
618.385082	18667.969904
618.733048	18951.895251
619.080961	18823.476898
619.428821	18856.975365
619.776628	18746.264065
620.124382	18667.884205
620.472083	18708.026913
620.819731	18724.506445
621.167326	18429.271270
621.514868	18465.968349
621.862357	18229.318944
622.209793	18231.642916
622.557176	18066.101506
622.904506	17893.714209
623.251783	17807.215570
623.599007	17567.806133
623.946179	17510.450405
624.293297	17452.197352
624.640363	17206.050412
624.987376	17232.680308
625.334336	17023.926127
625.681243	16858.104933
626.028097	16880.439765
626.374899	16805.500492
626.721647	16666.145356
627.068343	16498.176631
627.414987	16431.986281
627.761577	16414.528765
628.108115	16446.746779
628.454600	16171.855180
628.801032	16276.867456
629.147412	16198.787545
629.493739	16223.148921
629.840014	16032.285795
630.186236	16125.211904
630.532405	15888.360853
630.878521	16090.191009
631.224585	15988.889022
631.570597	15808.090560
631.916556	15837.238512
632.262462	15823.791234
632.608316	15734.088942
632.954117	15677.091136
633.299866	15671.898748
633.645562	15583.965901
633.991206	15336.735114
634.336797	15210.247522
634.682336	15186.044943
635.027823	15071.104115
635.373257	14948.843531
635.718639	14855.529253
636.063968	14798.934739
636.409245	14555.754519
636.754470	14579.218569
637.099642	14425.201237
637.444762	14193.756823
637.789829	14241.607455
638.134845	14077.462445
638.479808	14109.430922
638.824719	14046.035892
639.169577	13901.546340
639.514383	13953.462663
639.859137	13771.293007
640.203839	13861.063354
640.548489	13701.185680
640.893086	13691.025235
641.237632	13556.577662
641.582125	13707.847565
641.926566	13539.856154
642.270955	13554.057085
642.615292	13509.785672
642.959576	13531.268549
643.303809	13549.338565
643.647990	13491.597189
643.992118	13552.738823
644.336195	13315.925580
644.680219	13530.671172
645.024192	13445.541207
645.368112	13685.996684
645.711981	13736.141041
646.055797	13925.832099
646.399562	13900.139858
646.743274	14171.757227
647.086935	14433.125931
647.430544	14406.579215
647.774101	14442.268063
648.117606	14584.781483
648.461059	14547.996183
648.804460	14540.936047
649.147810	14267.007309
649.491108	14170.789326
649.834354	14187.495710
650.177548	13877.187485
650.520690	13684.169266
650.863781	13606.492647
651.206820	13657.236901
651.549807	13484.854645
651.892742	13279.777986
652.235626	13222.886045
652.578458	13222.550808
652.921238	12922.433275
653.263967	13110.435546
653.606644	12939.769803
653.949269	12921.777925
654.291843	12720.837533
654.634365	12877.801420
654.976836	12730.098133
655.319255	12733.140469
655.661622	12683.928725
656.003938	12614.360802
656.346203	12532.744521
656.688416	12617.579579
657.030577	12568.612331
657.372687	12485.128303
657.714746	12461.497894
658.056753	12665.503308
658.398708	12466.496198
658.740612	12473.009369
659.082465	12582.480545
659.424266	12544.621480
659.766016	12561.078327
660.107715	12478.607570
660.449362	12551.321173
660.790958	12505.693690
661.132503	12452.005401
661.473996	12520.481915
661.815438	12535.033205
662.156829	12558.197307
662.498168	12531.864840
662.839456	12530.314685
663.180693	12554.953325
663.521879	12647.753405
663.863013	12612.684618
664.204097	12594.725508
664.545129	12721.205537
664.886110	12691.813090
665.227040	12777.840380
665.567918	12787.128706
665.908746	12810.610401
666.249522	12794.844192
666.590248	12847.698170
666.930922	12964.221920
667.271545	12943.530504
667.612118	13020.735775
667.952639	12931.235130
668.293109	12944.178292
668.633528	12891.752813
668.973896	12879.107079
669.314213	12947.376905
669.654480	12693.559850
669.994695	12752.869025
670.334859	12782.778190
670.674973	12726.879356
671.015035	12762.701795
671.355047	12710.172972
671.695008	12676.850945
672.034918	12683.379239
672.374777	12728.729459
672.714585	12638.782672
673.054342	12675.764577
673.394049	12627.881177
673.733705	12723.690826
674.073310	12635.606745
674.412864	12638.230666
674.752368	12509.696366
675.091820	12532.011033
675.431223	12517.293385
675.770574	12390.982234
676.109875	12311.783187
676.449125	12262.654622
676.788324	12203.668081
677.127473	12041.950386
677.466571	12031.905887
677.805619	11934.619179
678.144616	11854.890811
678.483562	11819.481746
678.822458	11694.072962
679.161303	11675.307267
679.500098	11662.114567
679.838842	11609.923501
680.177535	11638.494241
680.516179	11700.974301
680.854771	11648.402628
681.193314	11866.886236
681.531805	12022.032787
681.870247	12441.381170
682.208638	12859.088657
682.546978	13168.623065
682.885268	13215.001680
683.223508	12914.100248
683.561697	12750.630752
683.899836	12655.121052
684.237925	12449.683950
684.575963	12369.156558
684.913951	12286.532047
685.251889	12237.579922
685.589776	12340.525325
685.927614	12254.485432
686.265401	12229.045249
686.603137	12279.557611
686.940824	12428.039756
687.278460	12556.710167
687.616046	12607.071294
687.953582	12774.498095
688.291068	12697.870036
688.628504	12929.443000
688.965889	12939.631172
689.303224	12900.650450
689.640510	12790.100466
689.977745	12482.698467
690.314930	12256.456523
690.652065	12164.195846
690.989150	11868.388500
691.326185	11644.319294
691.663170	11435.302973
692.000105	11202.517612
692.336990	11084.226937
692.673825	10830.069604
693.010610	10712.036028
693.347345	10507.181180
693.684030	10304.945211
694.020665	10249.356407
694.357251	10054.553620
694.693786	9984.378238
695.030272	9825.460904
695.366707	9712.987720
695.703093	9644.491042
696.039429	9642.003233
696.375716	9557.720182
696.711952	9433.364999
697.048139	9471.148447
697.384276	9428.981716
697.720363	9452.213873
698.056400	9378.411381
698.392388	9329.965892
698.728326	9293.200757
699.064214	9232.316222
699.400053	9276.383468
699.735842	9087.995549
700.071581	9049.458448
700.407270	8970.634967
700.742910	8894.163183
701.078501	8801.176580
701.414042	8678.434566
701.749533	8615.253785
702.084974	8465.423131
702.420366	8587.741688
702.755709	8464.593861
703.091002	8332.505548
703.426246	8360.425979
703.761440	8314.369997
704.096584	8273.695448
704.431679	8210.068524
704.766725	8187.763939
705.101721	8143.933627
705.436668	8191.078498
705.771565	8084.087569
706.106413	8159.525916
706.441212	8204.485446
706.775961	8157.897623
707.110661	8196.406997
707.445311	8343.255809
707.779913	8237.172288
708.114465	8374.838638
708.448967	8405.443483
708.783421	8549.514618
709.117825	8738.852795
709.452180	8769.755068
709.786485	8857.198923
710.120742	9147.178695
710.454949	9144.811873
710.789107	9244.185618
711.123216	9461.083783
711.457275	9628.734916
711.791286	9787.001941
712.125247	9786.026478
712.459159	9775.097256
712.793023	10022.282673
713.126837	9583.404861
713.460602	9744.247915
713.794318	9565.516326
714.127985	9598.747612
714.461602	9269.235112
714.795171	9220.212411
715.128691	8973.614289
715.462162	8719.885454
715.795584	8664.226074
716.128957	8513.286366
716.462281	8348.748146
716.795556	8395.756906
717.128782	8184.749329
717.461960	7925.729803
717.795088	8000.880804
718.128167	7901.824652
718.461198	7740.164930
718.794180	7679.872730
719.127113	7671.396030
719.459997	7512.382914
719.792833	7283.254910
720.125619	7345.838315
720.458357	7204.517128
720.791046	7196.451282
721.123686	7194.021446
721.456278	7029.629419
721.788821	7053.411062
722.121315	6945.863086
722.453761	7014.942017
722.786158	6955.491690
723.118506	6969.664894
723.450805	6932.982938
723.783056	7004.705954
724.115259	6916.818478
724.447412	6906.199288
724.779518	6954.770805
725.111574	6958.755837
725.443582	7040.178033
725.775542	7022.549118
726.107453	7213.434929
726.439315	7121.338090
726.771129	7185.859818
727.102895	7353.657144
727.434612	7461.532795
727.766281	7502.711461
728.097901	7576.733243
728.429473	7572.007161
728.760996	7548.023872
729.092471	7523.526385
729.423897	7468.451779
729.755276	7477.263716
730.086606	7402.868888
730.417887	7505.710947
730.749120	7712.173923
731.080305	7897.227119
731.411442	8018.116509
731.742530	8013.680294
732.073570	8121.961758
732.404562	8202.511835
732.735506	8057.286275
733.066401	8194.541770
733.397249	8117.840615
733.728048	7883.842856
734.058798	7547.260137
734.389501	7321.461815
734.720156	7140.509598
735.050762	6913.181286
735.381320	6815.791235
735.711831	6761.157730
736.042293	6652.989692
736.372707	6674.913670
736.703073	6536.854110
737.033391	6578.552014
737.363661	6587.086688
737.693883	6623.143540
738.024056	6708.538166
738.354182	6745.036120
738.684260	6780.908971
739.014290	6901.153093
739.344272	7004.088413
739.674207	7038.852210
740.004093	7108.213446
740.333931	7122.008563
740.663722	7134.412322
740.993464	7206.513425
741.323159	7194.056734
741.652806	6942.523322
741.982405	6959.736342
742.311956	7015.897316
742.641460	6846.892633
742.970915	6647.814947
743.300323	6645.412838
743.629683	6592.697492
743.958996	6462.756710
744.288260	6370.228852
744.617477	6318.698177
744.946647	6316.974103
745.275768	6150.358927
745.604842	6111.839470
745.933869	6094.313899
746.262847	6048.867897
746.591778	6042.561414
746.920662	5999.368808
747.249498	5993.004351
747.578286	6037.490013
747.907027	6112.000787
748.235720	6170.294170
748.564365	6144.193596
748.892963	6178.067629
749.221514	6327.805022
749.550017	6152.219113
749.878473	6034.382142
750.206881	6089.592858
750.535242	6031.448190
750.863555	5964.637778
751.191821	5981.255942
751.520039	5979.431044
751.848210	5889.290172
752.176334	5914.591723
752.504411	5961.895390
752.832440	5885.733638
753.160421	5816.934491
753.488356	5865.647161
753.816243	5896.831738
754.144082	5742.227112
754.471875	5714.785591
754.799620	5763.536069
755.127318	5775.309684
755.454969	5727.660698
755.782572	5692.770872
756.110129	5738.121092
756.437638	5718.841199
756.765100	5656.749307
757.092515	5659.211911
757.419882	5715.718204
757.747203	5694.245409
758.074477	5755.611375
758.401703	5737.606894
758.728882	5692.332291
759.056014	5751.172639
759.383099	5879.497731
759.710138	5892.193877
760.037129	5875.295929
760.364073	5878.459253
760.690970	5965.119208
761.017820	5939.106854
761.344623	5896.559516
761.671379	6001.503736
761.998088	6125.800946
762.324751	6370.004521
762.651366	6978.862479
762.977935	8303.448338
763.304456	9957.246748
763.630931	10842.455719
763.957359	10425.491802
764.283740	9483.171599
764.610074	8630.588975
764.936362	7631.777602
765.262602	7033.385079
765.588796	6497.578480
765.914943	6166.649416
766.241044	6001.385269
766.567097	5800.006296
766.893104	5542.461308
767.219064	5359.860633
767.544978	5301.393331
767.870845	5222.413574
768.196665	5115.662100
768.522438	5041.710894
768.848165	5010.375081
769.173846	4943.874700
769.499479	4899.915839
769.825066	4847.381975
770.150607	4785.960556
770.476101	4764.366774
770.801548	4756.830249
771.126949	4682.712684
771.452303	4631.212257
771.777611	4589.083334
772.102872	4605.701497
772.428087	4568.679264
772.753256	4526.595711
773.078378	4481.880677
773.403453	4413.182353
773.728482	4397.814395
774.053465	4354.102550
774.378401	4338.943801
774.703291	4338.439685
775.028135	4263.979322
775.352932	4219.254205
775.677683	4208.498904
776.002388	4223.955081
776.327046	4237.432606
776.651658	4159.241789
776.976224	4101.732306
777.300743	4104.825054
777.625216	4125.108137
777.949643	4119.799802
778.274024	4074.603337
778.598359	4030.289074
778.922647	4055.031057
779.246889	4049.521076
779.571086	4039.050599
779.895236	4024.224566
780.219339	4012.208976
780.543397	4007.629087
780.867409	4063.588416
781.191374	4071.649221
781.515294	4010.956249
781.839167	4004.637163
782.162995	4020.872199
782.486776	4008.985158
782.810511	4019.977394
783.134201	4016.027650
783.457844	3971.400835
783.781441	3914.965118
784.104993	3923.242693
784.428498	3938.396401
784.751958	3935.674178
785.075372	3917.042073
785.398739	3878.668810
785.722061	3891.266654
786.045337	3933.128395
786.368568	3964.270123
786.691752	3878.205024
787.014891	3929.372736
787.337983	4057.632292
787.661030	4219.309658
787.984031	4383.749576
788.306987	4554.284249
788.629897	4633.884068
788.952760	4587.248354
789.275579	4522.724105
789.598351	4453.854382
789.921078	4308.154953
790.243759	4112.235550
790.566395	4092.895164
790.888984	4088.390893
791.211529	3981.057166
791.534027	3918.534255
791.856480	3908.083943
792.178888	3843.884849
792.501249	3795.086480
792.823566	3808.899241
793.145836	3839.675485
793.468062	3784.371507
793.790241	3741.942636
794.112375	3769.971451
794.434464	3836.126513
794.756507	3861.594422
795.078505	3838.195907
795.400457	3873.055486
795.722364	4017.149307
796.044226	4123.898260
796.366042	4194.055998
796.687812	4167.602543
797.009538	4176.127134
797.331218	4137.917709
797.652852	4106.894448
797.974442	4086.036674
798.295986	4085.666149
798.617484	4003.122296
798.938938	3920.762445
799.260346	3961.719299
799.581709	3954.402065
799.903026	3881.184346
800.224299	3844.106660
800.545526	3838.044672
800.866708	3797.183600
801.187845	3736.851070
801.508936	3774.495887
801.829983	3770.284003
802.150984	3697.421686
802.471940	3683.603883
802.792851	3689.706200
803.113717	3689.781817
803.434538	3696.153835
803.755314	3636.300216
804.076045	3613.249540
804.396731	3634.722335
804.717372	3660.172600
805.037967	3644.335815
805.358518	3634.999598
805.679024	3666.032941
805.999485	3674.350845
806.319901	3679.386958
806.640272	3689.653267
806.960598	3703.539126
807.280879	3682.590611
807.601115	3693.091334
807.921306	3709.543140
808.241453	3749.635437
808.561554	3722.629975
808.881611	3656.999193
809.201623	3696.418496
809.521590	3706.946946
809.841513	3677.425949
810.161390	3708.169426
810.481223	3684.410468
810.801011	3630.180255
811.120755	3623.220942
811.440453	3659.877692
811.760107	3663.817354
812.079716	3618.653657
812.399281	3587.562340
812.718801	3609.982872
813.038276	3586.468410
813.357707	3581.397009
813.677093	3597.652210
813.996434	3546.683624
814.315731	3555.180489
814.634983	3558.404307
814.954191	3571.229002
815.273354	3601.700256
815.592473	3596.850666
815.911547	3604.540947
816.230577	3647.443686
816.549562	3698.598795
816.868502	3737.148498
817.187399	3761.920728
817.506250	3760.249586
817.825058	3736.745206
818.143821	3829.441943
818.462539	3933.140998
818.781213	3975.768995
819.099843	4035.635218
819.418429	4284.572436
819.736970	4525.499260
820.055466	4771.550418
820.373919	5142.012211
820.692327	5554.837341
821.010691	6006.862483
821.329011	7409.495485
821.647286	10194.203664
821.965517	14809.765658
822.283704	18849.882462
822.601847	20977.115794
822.919945	19115.021948
823.237999	16493.037174
823.556010	14000.698274
823.873976	11883.148998
824.191897	9793.799937
824.509775	8434.311650
824.827609	7315.067112
825.145398	6775.124247
825.463144	6655.417007
825.780845	6772.454956
826.098502	6973.140770
826.416116	7870.236782
826.733685	9209.222696
827.051210	10318.614299
827.368692	10339.890489
827.686129	9058.993791
828.003522	7542.345012
828.320872	6518.103538
828.638177	5813.985416
828.955439	5254.561012
829.272656	4752.676338
829.589830	4474.230726
829.906960	4296.272954
830.224046	4114.201600
830.541088	3989.065038
830.858086	3940.216258
831.175041	3864.057026
831.491952	3851.260057
831.808819	3861.019731
832.125642	3937.829271
832.442421	4085.162034
832.759157	4364.603274
833.075849	4922.278397
833.392497	5797.621831
833.709101	6577.848773
834.025662	6907.250368
834.342179	6531.049221
834.658653	5859.169278
834.975083	5204.683836
835.291469	4631.113954
835.607811	4220.718661
835.924110	4081.895366
836.240366	3882.772310
836.556578	3676.107687
836.872746	3566.964186
837.188871	3524.726878
837.504952	3460.479893
837.820990	3380.139024
838.136984	3334.942559
838.452935	3358.845190
838.768842	3355.392000
839.084706	3376.393447
839.400526	3538.857233
839.716303	3884.876991
840.032037	4415.070265
840.347727	4669.323380
840.663373	4383.976428
840.978977	4003.606247
841.294537	3692.065460
841.610054	3466.758650
841.925527	3359.336703
842.240957	3290.688790
842.556344	3236.103177
842.871687	3178.823066
843.186987	3123.536732
843.502244	3091.356526
843.817458	3051.402861
844.132629	3023.404293
844.447756	3032.115407
844.762840	3016.303828
845.077881	2986.470279
845.392879	2968.528813
845.707833	2963.775005
846.022745	2964.987402
846.337613	2963.394398
846.652438	2951.220011
846.967221	2947.086265
847.281960	2935.380706
847.596656	2932.534974
847.911309	2930.543718
848.225919	2926.692277
848.540485	2918.460073
848.855009	2919.740526
849.169490	2910.565626
849.483928	2898.282854
849.798323	2898.189593
850.112675	2896.528533
850.426984	2908.841551
850.741251	2905.862229
851.055474	2895.053995
851.369654	2888.850856
851.683792	2893.851680
851.997887	2903.339132
852.311938	2903.792836
852.625947	2891.313459
852.939914	2895.384191
853.253837	2899.522978
853.567718	2887.262892
853.881555	2884.593601
854.195350	2903.019018
854.509103	2899.981723
854.822812	2886.713406
855.136479	2884.828015
855.450103	2885.203581
855.763685	2880.031357
856.077224	2876.200080
856.390720	2889.939745
856.704173	2901.168915
857.017584	2891.562996
857.330953	2888.518139
857.644278	2896.752864
857.957561	2911.490678
858.270802	2910.961356
858.584000	2907.346849
858.897155	2897.032648
859.210268	2894.116341
859.523339	2896.679768
859.836367	2892.654406
860.149352	2889.629714
860.462295	2886.521842
860.775195	2890.685836
861.088054	2890.111144
861.400869	2874.884339
861.713642	2870.364944
862.026373	2887.182234
862.339062	2890.756412
862.651708	2894.421331
862.964312	2900.324522
863.276873	2893.851680
863.589392	2903.301323
863.901869	2917.363622
864.214303	2937.414811
864.526696	2954.655557
864.839045	2946.594752
865.151353	2947.119032
865.463619	2943.718774
865.775842	2949.397634
866.088023	2967.134934
866.400162	2971.225830
866.712258	2942.544185
867.024313	2935.206786
867.336325	2941.064607
867.648296	2963.081846
867.960224	2957.092955
868.272110	2945.311779
868.583954	2945.137859
868.895755	2960.684777
869.207515	2947.161882
869.519233	2951.756894
869.830909	2964.758030
870.142542	2972.309678
870.454134	2971.550984
870.765684	2973.670790
871.077191	2974.696664
871.388657	2981.076245
871.700081	2995.693070
872.011463	3005.964421
872.322803	3009.329391
872.634101	3007.335615
872.945357	3023.575692
873.256571	3047.934548
873.567744	3040.559339
873.878874	3034.283103
874.189963	3057.989129
874.501010	3061.225550
874.812015	3049.835062
875.122979	3049.764486
875.433900	3045.771892
875.744780	3050.802964
876.055618	3057.323697
876.366415	3058.352092
876.677169	3065.883576
876.987882	3067.030438
877.298554	3059.962741
877.609183	3079.126687
877.919771	3104.455964
878.230317	3132.136940
878.540822	3181.983869
878.851285	3219.232955
879.161707	3266.987806
879.472087	3371.138044
879.782425	3601.649845
880.092722	4048.979152
880.402977	4580.969597
880.713191	5220.084561
881.023363	6396.152986
881.333494	7690.484359
881.643583	8232.688182
881.953631	7933.110052
882.263637	7283.547297
882.573602	6685.285844
882.883526	6094.379434
883.193408	5524.154358
883.503248	5062.646806
883.813048	4755.438890
884.122806	4446.723670
884.432522	4129.995535
884.742197	3895.087848
885.051831	3696.360523
885.361424	3566.215574
885.670975	3493.615397
885.980485	3406.070720
886.289954	3327.469049
886.599382	3285.370373
886.908768	3245.043663
887.218113	3199.756457
887.527417	3142.163795
887.836680	3096.400201
888.145901	3089.597163
888.455082	3076.550657
888.764221	3028.573996
889.073319	2999.657938
889.382376	2997.863287
889.691392	3000.187259
890.000366	2999.158863
890.309300	2986.906339
890.618193	3000.877897
890.927044	3016.545803
891.235855	3014.743591
891.544625	3003.426200
891.853353	3012.338960
892.162041	3030.713966
892.470687	3073.420101
892.779293	3123.156125
893.087858	3169.078516
893.396381	3245.086513
893.704864	3368.405739
894.013306	3610.126545
894.321707	3915.980911
894.630068	4121.657467
894.938387	4116.253350
895.246665	4075.115014
895.554903	3949.015592
895.863100	3741.418356
896.171256	3572.196903
896.479371	3430.384205
896.787446	3312.527069
897.095480	3209.634598
897.403473	3142.836789
897.711425	3109.877725
898.019336	3096.427927
898.327207	3069.435069
898.635038	3035.770243
898.942827	3018.779034
899.250576	3007.459123
899.558284	2974.348825
899.865952	2955.104220
900.173579	2933.094542
900.481165	2928.933070
900.788711	2913.940678
901.096216	2889.758263
901.403681	2877.165461
901.711105	2885.153169
902.018489	2882.864485
902.325832	2883.068652
902.633135	2892.563665
902.940397	2926.241094
903.247619	3012.187726
903.554800	3206.914896
903.861941	3561.189544
904.169041	3993.788600
904.476101	4293.212973
904.783121	4243.615581
905.090100	3989.344822
905.397039	3709.278479
905.703938	3460.661375
906.010796	3275.585493
906.317614	3162.164573
906.624391	3068.590675
906.931129	2997.013853
907.237826	2934.410283
907.544483	2888.896226
907.851099	2856.194261
908.157675	2836.506035
908.464211	2816.157417
908.770707	2803.146199
909.077163	2790.016514
909.383578	2773.965480
909.689954	2763.537853
909.996289	2761.216402
910.302584	2762.829571
910.608839	2761.675147
910.915054	2755.441760
911.221229	2750.781213
911.527363	2754.395721
911.833458	2760.503079
912.139513	2763.961310
912.445527	2765.660179
912.751502	2777.169133
913.057436	2783.551234
913.363331	2799.821558
913.669186	2821.798468
913.975000	2856.559745
914.280775	2918.926379
914.586510	2983.788385
914.892205	3068.797363
915.197859	3197.462732
915.503475	3397.687281
915.809050	3613.695682
916.114585	3757.749174
916.420081	3778.007050
916.725536	3718.541600
917.030952	3595.557610
917.336328	3466.345276
917.641665	3335.426510
917.946961	3232.448340
918.252218	3159.386897
918.557435	3080.855803
918.862612	3023.167359
919.167750	2970.527630
919.472848	2935.554625
919.777906	2907.198135
920.082925	2879.766696
920.387904	2849.396265
920.692843	2830.706187
920.997743	2819.681184
921.302603	2806.589307
921.607423	2797.230405
921.912204	2782.164917
922.216946	2772.493463
922.521647	2766.827206
922.826310	2756.208016
923.130932	2746.707961
923.435516	2739.085737
923.740059	2731.617267
924.044564	2724.221894
924.349028	2718.999259
924.653454	2713.617827
924.957840	2705.115921
925.262186	2702.534851
925.566493	2698.184335
925.870761	2692.780218
926.174989	2687.827284
926.479178	2683.938034
926.783328	2680.779751
927.087438	2679.675738
927.391509	2675.630212
927.695541	2675.768844
927.999533	2668.754079
928.303486	2671.178874
928.607400	2667.103101
928.911275	2667.629901
929.215110	2666.604027
929.518906	2663.977585
929.822663	2665.177380
930.126381	2666.251146
930.430060	2666.236022
930.733699	2665.184942
931.037299	2666.178049
931.340861	2668.915396
931.644383	2671.498987
931.947866	2666.896413
932.251309	2667.156033
932.554714	2665.888183
932.858080	2662.694612
933.161407	2661.245280
933.464694	2659.654796
933.767943	2657.882830
934.071153	2660.015238
934.374323	2657.832419
934.677455	2658.762512
934.980548	2657.645896
935.283602	2657.383756
935.586617	2655.982315
935.889593	2659.669919
936.192530	2655.901657
936.495428	2658.823006
936.798287	2658.840650
937.101108	2659.934580
937.403890	2665.996567
937.706632	2671.199038
938.009336	2677.455110
938.312002	2687.113961
938.614628	2697.191227
938.917216	2698.948070
939.219765	2702.466795
939.522275	2700.110056
939.824747	2697.004705
940.127179	2694.862214
940.429573	2694.665609
940.731929	2690.952800
941.034246	2686.327541
941.336524	2684.719413
941.638763	2678.591890
941.940964	2679.645492
942.243126	2676.063752
942.545250	2678.241530
942.847335	2672.653411
943.149381	2667.357679
943.451389	2664.448933
943.753359	2661.769560
944.055290	2661.598161
944.357182	2662.825682
944.659036	2660.289981
944.960851	2659.838798
945.262628	2658.155053
945.564367	2659.493479
945.866067	2660.410969
946.167729	2660.640342
946.469352	2660.360557
946.770937	2659.342244
947.072484	2658.729744
947.373992	2656.957779
947.675462	2657.666061
947.976893	2649.212046
948.278286	2648.536531
948.579641	2649.663229
948.880958	2649.655667
949.182236	2652.939979
949.483476	2650.200112
949.784678	2650.522746
950.085841	2649.267498
950.386967	2651.263795
950.688054	2650.863024
950.989103	2651.979639
951.290114	2650.489978
951.591087	2653.381080
951.892021	2657.345947
952.192917	2658.749909
952.493776	2661.867862
952.794596	2664.143943
953.095378	2661.951042
953.396122	2660.030362
953.696828	2661.139416
953.997496	2660.242090
954.298126	2655.163128
954.598718	2655.200937
954.899272	2649.330513
955.199788	2649.653147
955.500266	2647.099802
955.800706	2643.785244
956.101108	2639.026394
956.401472	2640.359780
956.701798	2639.323822
957.002087	2636.730149
957.302337	2634.227216
957.602550	2635.379120
957.902724	2632.120014
958.202861	2629.730507
958.502960	2632.704787
958.803022	2630.577421
959.103045	2626.549539
959.403031	2626.640279
959.702979	2627.368726
960.002889	2626.786473
960.302762	2627.046092
960.602596	2626.058026
960.902393	2625.319497
961.202153	2623.885289
961.501875	2624.800258
961.801559	2621.672222
962.101205	2625.382512
962.400814	2622.408231
962.700385	2623.068622
962.999918	2619.247427
963.299414	2618.955040
963.598873	2621.977212
963.898293	2615.126284
964.197677	2624.497789
964.497022	2621.871348
964.796331	2619.922942
965.095601	2620.827829
965.394835	2620.573251
965.694030	2618.980246
965.993189	2620.694238
966.292309	2621.957047
966.591393	2621.778087
966.890439	2622.284722
967.189447	2623.093828
967.488419	2620.084259
967.787353	2621.042078
968.086249	2620.333796
968.385108	2622.007459
968.683930	2621.500823
968.982714	2622.688015
969.281462	2621.591564
969.580172	2622.514095
969.878844	2623.981071
970.177480	2622.617439
970.476078	2621.654578
970.774639	2623.333282
971.073162	2623.401338
971.371649	2621.221039
971.670098	2623.315638
971.968510	2621.402521
972.266885	2625.387553
972.565223	2623.121554
972.863524	2621.836060
973.161788	2621.899074
973.460014	2623.444188
973.758204	2621.397479
974.056356	2622.735906
974.354471	2621.538632
974.652550	2622.320011
974.950591	2621.503344
975.248595	2621.571399
975.546563	2622.791358
975.844493	2619.557458
976.142386	2622.357819
976.440243	2621.881430
976.738062	2622.314969
977.035845	2622.788838
977.333590	2620.374125
977.631299	2620.474948
977.928971	2617.412447
978.226606	2616.457149
978.524204	2617.167951
978.821765	2614.153341
979.119290	2619.895216
979.416777	2620.704321
979.714228	2618.768518
980.011642	2619.570061
980.309020	2620.674074
980.606360	2617.911522
980.903664	2618.536625
981.200931	2622.161214
981.498162	2622.118364
981.795356	2620.217849
982.092513	2623.287912
982.389633	2625.195989
982.686717	2629.329735
982.983764	2634.338121
983.280775	2634.754017
983.577749	2637.357772
983.874686	2637.319964
984.171587	2636.241157
984.468451	2630.703449
984.765279	2631.941053
985.062070	2627.525002
985.358824	2627.547687
985.655543	2623.396297
985.952224	2622.879579
986.248869	2623.287912
986.545478	2620.127109
986.842050	2618.637448
987.138586	2615.769031
987.435086	2618.345061
987.731549	2616.893208
988.027975	2616.910852
988.324366	2616.502519
988.620719	2616.537807
988.917037	2616.033692
989.213318	2616.068980
989.509563	2615.874895
989.805772	2617.730040
990.101944	2614.672580
990.398080	2619.370936
990.694180	2615.980760
990.990244	2614.957405
991.286271	2616.076542
991.582262	2620.084259
991.878217	2616.394134
992.174136	2617.382200
992.470019	2614.763321
992.765865	2616.000924
993.061676	2614.813732
993.357450	2614.022271
993.653188	2611.350460
993.948890	2614.143259
994.244556	2616.641151
994.540186	2617.712396
994.835780	2615.186778
995.131337	2616.225256
995.426859	2616.903291
995.722345	2616.676439
996.017795	2620.268261
996.313208	2620.721965
996.608586	2619.801954
996.903928	2620.757253
997.199234	2619.766666
997.494504	2620.595936
997.789738	2619.597787
998.084936	2618.531583
998.380099	2618.415637
998.675225	2619.721296
998.970316	2618.362705
999.265371	2617.891357
999.560390	2617.767849
999.855373	2615.537138
1000.150320	2615.907663
1000.445232	2613.868516
1000.740108	2614.934720
1001.034948	2613.697117
1001.329752	2615.471603
1001.624521	2614.581839
1001.919254	2615.443877
1002.213951	2615.121243
1002.508613	2613.561006
1002.803239	2613.170316
1003.097829	2615.733743
1003.392384	2618.869341
1003.686903	2615.171654
1003.981386	2613.830707
1004.275834	2612.956067
1004.570246	2615.900101
1004.864623	2613.190481
1005.158964	2614.833897
1005.453270	2613.603856
1005.747540	2612.819956
1006.041775	2614.037395
1006.335974	2615.040584
1006.630138	2614.481016
1006.924266	2613.755090
1007.218359	2614.460852
1007.512416	2610.160747
1007.806438	2608.706375
1008.100425	2610.022116
1008.394376	2607.246961
1008.688292	2613.245934
1008.982172	2610.427929
1009.276017	2614.554113
1009.569827	2614.264247
1009.863602	2611.801643
1010.157341	2613.308948
1010.451045	2614.319699
1010.744714	2613.313989
1011.038347	2613.003958
1011.331945	2613.717282
1011.625508	2615.418671
1011.919036	2613.392127
1012.212528	2612.409102
1012.505986	2612.532610
1012.799408	2615.325410
1013.092795	2613.311469
1013.386147	2613.182919
1013.679464	2609.714605
1013.972745	2613.429936
1014.265992	2612.605707
1014.559204	2611.491612
1014.852380	2614.281891
1015.145521	2613.432456
1015.438628	2612.540172
1015.731699	2611.300048
1016.024736	2611.862137
1016.317737	2612.278032
1016.610703	2612.245265
1016.903635	2612.925820
1017.196531	2611.947837
1017.489393	2610.710233
1017.782219	2612.792230
1018.075011	2611.446242
1018.367768	2612.391458
1018.660490	2611.385748
1018.953177	2611.385748
1019.245829	2611.385748
