Dividing Wavelength (nm)	Counts (n)	Blue Motor Position (mm): 45.000000	Red Motor Position (mm): 0.000000	
326.493990	2265.134096
326.888308	2265.134096
327.282561	2265.134096
327.676750	2226.508775
328.070874	2222.218753
328.464933	2225.702191
328.858929	2227.257387
329.252859	2235.983624
329.646726	2242.557288
330.040528	2254.164545
330.434265	2266.898500
330.827938	2286.357354
331.221547	2303.887966
331.615091	2319.921356
332.008571	2340.030519
332.401986	2357.566172
332.795338	2379.263298
333.188625	2398.422204
333.581847	2418.601943
333.975006	2434.501742
334.368100	2455.299022
334.761129	2472.602783
335.154095	2488.265647
335.546996	2516.480986
335.939833	2558.428427
336.332606	2570.287741
336.725315	2587.626790
337.117960	2598.742534
337.510540	2610.740480
337.903056	2620.883282
338.295508	2628.238325
338.687896	2636.788122
339.080220	2644.062507
339.472480	2650.888229
339.864676	2656.060453
340.256807	2664.002791
340.648875	2663.266783
341.040879	2666.583862
341.432818	2672.978566
341.824694	2673.727177
342.216506	2673.371776
342.608253	2675.892353
342.999937	2675.368072
343.391557	2673.212979
343.783113	2675.234482
344.174605	2673.225582
344.566033	2675.012671
344.957397	2670.997392
345.348697	2669.870694
345.739934	2669.598472
346.131106	2669.772392
346.522215	2667.793739
346.913260	2665.232833
347.304241	2663.423058
347.695159	2660.867193
348.086012	2660.594971
348.476802	2657.459373
348.867528	2656.277223
349.258191	2648.559216
349.648789	2650.495019
350.039324	2646.502426
350.429796	2649.943013
350.820203	2649.108702
351.210548	2647.271202
351.600828	2645.201808
351.991045	2644.168371
352.381198	2644.516211
352.771288	2646.197436
353.161314	2646.404123
353.551276	2645.479071
353.941175	2645.927734
354.331010	2643.974287
354.720782	2644.231386
355.110490	2642.426653
355.500135	2642.477064
355.889717	2644.793474
356.279235	2639.729635
356.668689	2645.305152
357.058080	2643.888587
357.447408	2643.180305
357.836672	2644.485964
358.225873	2644.919503
358.615010	2645.108547
359.004084	2647.954278
359.393095	2645.804226
359.782043	2648.569299
360.170927	2650.293373
360.559748	2648.113074
360.948505	2651.619197
361.337199	2653.872592
361.725830	2652.042654
362.114398	2654.051553
362.502903	2651.462921
362.891344	2653.260092
363.279722	2652.249341
363.668037	2654.643889
364.056289	2652.907212
364.444478	2656.025165
364.832603	2653.935607
365.220665	2657.444250
365.608665	2658.732265
365.996601	2656.221770
366.384474	2656.927532
366.772284	2658.555824
367.160031	2657.693787
367.547715	2660.857111
367.935336	2661.348624
368.322893	2657.396359
368.710388	2659.954745
369.097820	2660.852070
369.485189	2657.610608
369.872495	2662.641680
370.259738	2661.036072
370.646918	2662.876093
371.034035	2665.368944
371.421090	2666.319201
371.808081	2663.818789
372.195010	2668.262566
372.581875	2666.558656
372.968678	2667.173677
373.355418	2666.934222
373.742096	2668.499500
374.128710	2671.977897
374.515262	2673.296158
374.901751	2675.947805
375.288177	2678.359997
375.674540	2683.164217
376.060841	2691.398942
376.447079	2695.036134
376.833254	2705.698175
377.219367	2719.500854
377.605417	2734.858729
377.991404	2747.955647
378.377329	2770.895417
378.763191	2791.168417
379.148991	2819.166986
379.534727	2850.601101
379.920402	2879.229813
380.306013	2905.348032
380.691563	2955.028603
381.077049	2982.202942
381.462474	3021.791124
381.847835	3070.972621
382.233134	3116.935341
382.618371	3153.589570
383.003545	3215.610886
383.388657	3253.679159
383.773706	3319.307421
384.158693	3359.447608
384.543618	3401.775657
384.928480	3465.979792
385.313280	3529.957075
385.698017	3563.437899
386.082692	3659.975995
386.467305	3678.119107
386.851856	3726.002507
387.236344	3814.494922
387.620770	3851.527238
388.005133	3914.370262
388.389435	3971.070640
388.773674	3990.131242
389.157851	4074.174839
389.541965	4149.386334
389.926018	4131.172645
390.310008	4231.904981
390.693936	4296.638438
391.077802	4336.443388
391.461606	4342.966641
391.845348	4415.357611
392.229027	4478.591324
392.612645	4484.355883
392.996200	4589.514353
393.379694	4654.089013
393.763125	4756.346298
394.146494	4787.631699
394.529801	4845.604968
394.913047	4930.200571
395.296230	4880.036049
395.679351	4990.739787
396.062410	5045.859763
396.445408	5019.673490
396.828343	5080.542902
397.211217	5136.741685
397.594028	5021.967215
397.976778	5139.930215
398.359466	5186.782698
398.742092	5208.139547
399.124656	5121.272904
399.507158	5243.767902
399.889598	5306.621008
400.271977	5431.626500
400.654294	5423.013688
401.036549	5469.414989
401.418742	5386.482967
401.800874	5595.479123
402.182944	5653.931302
402.564952	5760.738228
402.946898	5820.387681
403.328783	5656.421632
403.710606	5677.982647
404.092367	6000.591287
404.474067	6021.123907
404.855705	5920.051293
405.237282	5853.319019
405.618797	6106.934428
406.000250	6084.521458
406.381642	6289.764475
406.762972	6324.009033
407.144240	6366.778182
407.525447	6358.120000
407.906593	6372.678853
408.287677	6538.066507
408.668700	6446.909843
409.049661	6562.531227
409.430560	6589.680361
409.811399	6453.564166
410.192176	6719.588375
410.572891	6730.167237
410.953545	6929.318019
411.334138	6657.178891
411.714669	6828.459654
412.095139	6621.540453
412.475547	6871.342229
412.855894	6933.199708
413.236180	7120.990250
413.616405	6789.985568
413.996568	7011.907243
414.376670	7054.205044
414.756711	6950.609332
415.136691	7048.246400
415.516609	7251.213336
415.896466	7236.513332
416.276262	7432.316788
416.655997	7425.886797
417.035670	7603.975638
417.415283	7947.114378
417.794834	8004.765013
418.174324	7868.767285
418.553753	7789.958927
418.933121	8093.532171
419.312428	8191.930453
419.691674	7968.425856
420.070859	8448.510060
420.449983	8130.967779
420.829045	8489.091348
421.208047	8260.530474
421.586988	8567.952639
421.965867	8593.102955
422.344686	8689.895630
422.723444	8750.036595
423.102141	8097.784384
423.480777	8858.050878
423.859352	8379.521870
424.237866	9002.880707
424.616319	8863.966672
424.994712	9295.940624
425.373044	8842.594700
425.751314	9314.303027
426.129524	9198.348927
426.507673	9287.257237
426.885762	9443.656514
427.263789	9361.722641
427.641756	9293.800655
428.019662	9383.099654
428.397508	9649.469182
428.775292	9311.449734
429.153016	9694.229587
429.530679	9530.573568
429.908282	9544.429180
430.285824	9273.724259
430.663305	9966.043561
431.040726	9411.574611
431.418086	9393.267661
431.795385	9728.814423
432.172624	9818.010078
432.549802	9726.510616
432.926920	9805.944077
433.303977	9674.863994
433.680974	9886.874761
434.057910	9977.890273
434.434786	10049.086488
434.811601	9868.590496
435.188355	10437.373802
435.565050	10184.396099
435.941683	10101.796793
436.318257	10579.766233
436.694770	10745.191697
437.071222	10802.789400
437.447614	10635.271858
437.823946	10552.743128
438.200218	10652.847841
438.576429	10492.806329
438.952580	10742.134237
439.328670	10765.752043
439.704700	10564.531866
440.080670	10554.499970
440.456580	11081.048489
440.832429	10866.118895
441.208218	10465.117792
441.583947	10759.120405
441.959616	10947.359610
442.335224	10752.118242
442.710773	10868.266427
443.086261	11091.113153
443.461689	10359.775321
443.837057	11046.272090
444.212365	11285.774788
444.587612	10923.514952
444.962800	11138.890689
445.337927	10888.826773
445.712995	10540.888855
446.088002	11592.730646
446.462949	11286.147834
446.837837	11248.555949
447.212664	11187.268122
447.587431	11767.129363
447.962139	12518.838498
448.336786	14810.720957
448.711374	15292.866993
449.085901	13116.376546
449.460369	12762.933688
449.834776	12212.790048
450.209124	13134.991007
450.583412	13557.399370
450.957640	14487.605680
451.331808	13541.184498
451.705917	12593.457658
452.079965	11852.773526
452.453954	12775.541614
452.827883	12424.223602
453.201752	12720.693860
453.575562	12255.294537
453.949311	12668.492712
454.323001	12647.831543
454.696632	12885.383315
455.070202	13159.755675
455.443713	13358.369575
455.817164	13859.014125
456.190556	13829.082274
456.563888	14190.391853
456.937160	14343.242158
457.310373	13700.938664
457.683526	13810.558554
458.056619	13322.935304
458.429653	13528.039690
458.802628	12892.987896
459.175542	13305.324033
459.548398	14258.785187
459.921194	14615.275422
460.293930	14693.766188
460.666607	15538.235074
461.039224	16598.586333
461.411782	17322.029718
461.784280	17107.498375
462.156719	17220.697485
462.529099	16874.655041
462.901419	15838.765981
463.273680	15607.828203
463.645882	15498.369629
464.018024	15220.198760
464.390106	15437.477532
464.762130	16172.334090
465.134094	16961.647712
465.505999	19018.088121
465.877845	22284.619703
466.249631	25098.450627
466.621358	24716.089190
466.993026	23294.864413
467.364634	22703.000184
467.736184	21225.052343
468.107674	20442.193918
468.479105	20568.983979
468.850477	20026.185300
469.221790	19625.584968
469.593043	18931.143341
469.964238	18358.891721
470.335373	18007.966919
470.706449	18505.876644
471.077467	18087.176049
471.448425	19957.502099
471.819324	24101.751497
472.190164	25947.491840
472.560945	22275.059154
472.931667	19972.691096
473.302330	19357.977837
473.672934	18988.282299
474.043479	19212.656495
474.413965	19016.389252
474.784393	18624.205127
475.154761	19383.879286
475.525070	19304.907090
475.895321	19028.472898
476.265513	19642.288832
476.635645	20224.716021
477.005719	19983.516974
477.375734	20164.602782
477.745691	20654.383645
478.115588	21203.161133
478.485427	21751.129514
478.855207	22843.716432
479.224928	24642.145546
479.594591	26872.510803
479.964194	26778.052183
480.333739	27016.387855
480.703226	26599.812107
481.072653	26299.470243
481.442022	26911.625116
481.811333	27837.014604
482.180584	27713.481129
482.549777	26778.513449
482.918912	26447.844003
483.287988	26601.735307
483.657005	26220.666926
484.025964	26018.541863
484.394864	25887.202161
484.763706	25535.163264
485.132489	25001.030329
485.501213	25183.184862
485.869879	25103.045639
486.238487	24945.910353
486.607036	25064.677417
486.975527	24816.748430
487.343959	25105.041936
487.712333	25010.401834
488.080648	24667.149669
488.448905	25176.273440
488.817104	24938.227634
489.185244	25644.697455
489.553326	25591.546049
489.921350	26646.155434
490.289315	29005.516257
490.657222	30719.405221
491.025070	31227.835833
491.392861	30979.140591
491.760593	30120.175866
492.128267	29199.378869
492.495883	28139.020049
492.863440	27261.907171
493.230939	26396.761992
493.598380	26242.800112
493.965763	25854.474990
494.333088	25346.447670
494.700354	25325.703322
495.067563	25175.048439
495.434713	24917.019500
495.801805	25107.328099
496.168839	24855.169584
496.535815	24729.889349
496.902733	24942.626041
497.269593	24638.006758
497.636395	24817.154242
498.003139	24738.867644
498.369825	24494.782536
498.736453	24702.226017
499.103023	24565.565378
499.469535	24576.045936
499.835989	24798.965759
500.202385	24824.383257
500.568723	24360.372772
500.935003	24531.192270
501.301226	24227.026691
501.667390	25073.847276
502.033497	25279.705314
502.399546	25016.433575
502.765537	24541.062849
503.131470	24926.958135
503.497345	25086.155253
503.863163	24316.991122
504.228923	24855.643452
504.594625	25104.792399
504.960269	24663.635984
505.325856	25136.382789
505.691385	24529.062382
506.056856	25143.586598
506.422270	25120.593895
506.787625	24645.717203
507.152924	25090.389822
507.518164	25126.552539
507.883347	24942.540342
508.248472	24610.444250
508.613540	25390.222529
508.978550	25192.120307
509.343503	25220.675923
509.708398	25412.552320
510.073236	25581.206643
510.438016	25788.882017
510.802738	25438.766320
511.167403	25707.169954
511.532010	25453.413393
511.896561	26206.027415
512.261053	26159.648800
512.625488	25983.851162
512.989866	25879.746294
513.354186	25709.035181
513.718449	25854.444743
514.082655	26218.045526
514.446803	25941.913803
514.810894	26429.471518
515.174927	25918.742140
515.538904	25957.717821
515.902822	26451.408099
516.266684	26200.154471
516.630488	26117.993746
516.994235	26047.972119
517.357925	26398.264255
517.721558	26544.470320
518.085133	26661.639338
518.448651	26551.190178
518.812112	26327.496538
519.175516	26552.594139
519.538863	26685.811671
519.902152	26475.391389
520.265385	26733.117858
520.628560	26535.618054
520.991678	26525.686981
521.354739	26586.203512
521.717743	26676.329260
522.080690	26458.851363
522.443580	26790.660109
522.806413	26767.082632
523.169189	26865.170883
523.531908	26903.110607
523.894569	26537.967231
524.257174	26630.122044
524.619722	26763.034586
524.982213	26487.953944
525.344647	26503.823496
525.707025	26684.818563
526.069345	26633.391232
526.431608	26601.768074
526.793815	26788.840253
527.155964	26273.268846
527.518057	26455.614942
527.880093	26357.710693
528.242072	26584.731495
528.603995	26304.995347
528.965860	26092.558604
529.327669	26129.782484
529.689421	26123.670085
530.051117	25979.036860
530.412755	26132.250129
530.774337	25914.200060
531.135862	25814.299514
531.497331	26000.645766
531.858743	25597.633243
532.220098	26045.590173
532.581396	25736.615334
532.942638	25622.254238
533.303824	25754.259372
533.664953	25749.082107
534.026025	25421.102117
534.387040	25661.665979
534.747999	25698.267276
535.108902	25877.288732
535.469748	25355.930080
535.830537	25529.769230
536.191270	25678.261457
536.551947	25488.633414
536.912567	25124.730162
537.273131	25553.664299
537.633638	25214.117382
537.994089	25443.474758
538.354483	24944.892040
538.714821	25451.268382
539.075103	25491.983261
539.435328	25262.512458
539.795497	24870.716502
540.155609	25217.361364
540.515665	25518.819843
540.875665	24729.652415
541.235609	25077.544962
541.595496	25018.520612
541.955328	25379.502516
542.315102	25281.424347
542.674821	24785.024448
543.034483	24686.855539
543.394090	24864.926737
543.753640	24667.946171
544.113134	25284.504492
544.472571	24884.108327
544.831953	25178.453739
545.191278	24837.240720
545.550548	24717.992226
545.909761	24911.166721
546.268918	25141.350846
546.628019	25139.125177
546.987064	24810.560413
547.346053	24551.676999
547.704986	24655.514686
548.063863	24823.322094
548.422684	24845.941752
548.781449	24338.920142
549.140158	24757.409008
549.498811	24330.337577
549.857408	24091.825465
550.215949	24472.966943
550.574434	24171.440408
550.932864	24388.348655
551.291237	24561.381220
551.649555	24407.202571
552.007817	24473.894515
552.366022	24312.507016
552.724173	24327.645601
553.082267	24323.358100
553.440305	24799.517766
553.798288	24031.119891
554.156215	24525.069789
554.514086	24655.860005
554.871902	24038.752198
555.229661	24315.995495
555.587365	24155.961545
555.945014	24067.499377
556.302606	24272.341623
556.660143	24260.063893
557.017625	24492.193904
557.375050	24000.978832
557.732421	24393.319233
558.089735	24221.216761
558.446994	24271.744246
558.804197	24315.685464
559.161345	24202.521642
559.518437	24010.468804
559.875474	24185.563201
560.232455	24367.276632
560.589381	24183.032541
560.946251	24181.323590
561.303065	24482.908098
561.659825	24583.222019
562.016528	24178.669423
562.373177	23909.693618
562.729770	24279.215236
563.086307	24127.443738
563.442789	24293.217041
563.799216	24134.662670
564.155587	24132.434480
564.511904	24113.605771
564.868164	24070.428288
565.224370	24026.177039
565.580520	23958.560043
565.936615	24074.070522
566.292654	23795.657677
566.648638	24027.515466
567.004567	23865.495302
567.360441	23820.578621
567.716260	23552.910996
568.072023	23849.784546
568.427732	23634.123984
568.783385	23393.398806
569.138982	23645.459019
569.494525	23680.948742
569.850013	23423.738990
570.205445	23517.280120
570.560823	23342.483152
570.916145	23093.130039
571.271412	23279.728348
571.626625	23042.582389
571.981782	23141.895640
572.336884	22954.253812
572.691931	23094.977622
573.046923	22828.073731
573.401860	22705.971944
573.756743	22734.895564
574.111570	22625.986476
574.466342	22532.402496
574.821059	22622.104788
575.175722	22337.818999
575.530330	22305.139719
575.884882	22313.445020
576.239380	22228.491496
576.593823	22127.560034
576.948211	22099.034665
577.302544	21951.399433
577.656823	21800.139612
578.011047	21921.389444
578.365216	21782.097322
578.719330	21660.784476
579.073389	21547.597969
579.427394	21710.734749
579.781344	21448.811518
580.135239	21339.484015
580.489080	21289.011983
580.842866	21075.718243
581.196597	21301.264507
581.550273	21252.478741
581.903895	21122.497630
582.257463	21434.938263
582.610975	20976.578911
582.964434	21298.819547
583.317837	20965.853856
583.671186	21056.566899
584.024481	21047.679345
584.377721	20816.623100
584.730906	20897.326932
585.084037	20873.341122
585.437113	20807.047428
585.790135	21011.872029
586.143103	20467.598813
586.496016	20487.912143
586.848874	20721.728420
587.201679	20631.239708
587.554428	20346.548106
587.907124	20660.846405
588.259765	20421.628531
588.612352	20495.383133
588.964884	20067.999151
589.317362	20240.298227
589.669786	20310.070317
590.022155	20304.272990
590.374470	20557.338913
590.726731	20289.451998
591.078937	20106.843762
591.431090	20180.469813
591.783188	19948.823753
592.135232	19908.355891
592.487222	20006.509677
592.839157	19998.811835
593.191038	19893.106400
593.542866	19780.202198
593.894639	19489.559514
594.246358	19712.181909
594.598022	19590.780842
594.949633	19345.901753
595.301190	19329.896090
595.652692	19495.679475
596.004141	19717.787672
596.355535	19044.158448
596.706876	19074.745649
597.058162	18969.987952
597.409395	19208.545434
597.760573	19241.877543
598.111698	19025.554070
598.462768	18971.207911
598.813785	18941.225649
599.164748	18740.179392
599.515657	18798.581159
599.866511	18592.821424
600.217312	18936.459238
600.568060	18455.971741
600.918753	18770.333054
601.269392	18672.312858
601.619978	18471.276684
601.970510	18654.903234
602.320988	18605.608311
602.671412	18805.661460
603.021783	18733.159585
603.372100	18427.832020
603.722363	18594.094315
604.072572	18537.658598
604.422728	18684.278037
604.772830	18448.218447
605.122878	18395.175426
605.472872	18379.010966
605.822813	18364.628554
606.172701	18353.354013
606.522534	18527.790539
606.872314	18551.773829
607.222041	18393.584942
607.571714	18610.110061
607.921333	18429.079706
608.270899	18505.508639
608.620411	18658.986568
608.969870	18458.956104
609.319276	18448.067212
609.668627	18486.337131
610.017926	18621.074571
610.367171	18728.950222
610.716362	18791.649573
611.065500	18590.499973
611.414585	18741.548065
611.763616	18726.091888
612.112594	18655.573707
612.461518	18631.393813
612.810389	18807.945103
613.159207	18670.366973
613.507971	18593.607844
613.856682	18844.685032
614.205340	18769.874309
614.553945	18926.374409
614.902496	18666.971756
615.250994	18882.597029
615.599439	18837.680349
615.947830	18828.961673
616.296169	18901.798784
616.644454	18848.463377
616.992686	18831.903186
617.340864	19038.547644
617.688990	18784.286968
618.037063	18963.817580
618.385082	18820.069078
618.733048	19091.998998
619.080961	18977.554724
619.428821	19007.572274
619.776628	18879.930259
620.124382	18814.987595
620.472083	18876.464466
620.819731	18877.006390
621.167326	18573.055060
621.514868	18615.463767
621.862357	18402.152383
622.209793	18401.244975
622.557176	18224.403819
622.904506	18064.261484
623.251783	17986.171491
623.599007	17727.986276
623.946179	17673.831681
624.293297	17594.922500
624.640363	17348.059716
624.987376	17369.020834
625.334336	17170.217891
625.681243	17008.613622
626.028097	17036.392900
626.374899	16944.139785
626.721647	16805.724824
627.068343	16646.930998
627.414987	16593.111640
627.761577	16558.153758
628.108115	16577.867191
628.454600	16316.753065
628.801032	16416.751914
629.147412	16351.209352
629.493739	16357.185640
629.840014	16166.841753
630.186236	16266.414624
630.532405	16026.208684
630.878521	16222.614558
631.224585	16126.212573
631.570597	15947.319667
631.916556	15972.497710
632.262462	15952.338136
632.608316	15866.847729
632.954117	15804.468491
633.299866	15793.572037
633.645562	15712.769902
633.991206	15472.755527
634.336797	15349.726167
634.682336	15318.178626
635.027823	15188.066446
635.373257	15057.608946
635.718639	14982.021885
636.063968	14920.295477
636.409245	14666.468339
636.754470	14697.965469
637.099642	14546.216656
637.444762	14309.572291
637.789829	14356.694477
638.134845	14196.892420
638.479808	14225.034662
638.824719	14140.635664
639.169577	14019.191747
639.514383	14055.175503
639.859137	13883.433474
640.203839	13975.464779
640.548489	13819.907374
640.893086	13810.699707
641.237632	13677.638451
641.582125	13837.493439
641.926566	13648.568637
642.270955	13664.445751
642.615292	13625.492755
642.959576	13633.873674
643.303809	13665.385926
643.647990	13587.769801
643.992118	13659.906192
644.336195	13425.663938
644.680219	13660.790915
645.024192	13563.484042
645.368112	13812.091065
645.711981	13854.403990
646.055797	14036.697154
646.399562	14022.675185
646.743274	14272.212300
647.086935	14553.269230
647.430544	14507.576211
647.774101	14562.895313
648.117606	14690.640672
648.461059	14679.582901
648.804460	14645.731553
649.147810	14371.923802
649.491108	14290.337769
649.834354	14299.968893
650.177548	13973.483605
650.520690	13790.222540
650.863781	13712.591291
651.206820	13756.834978
651.549807	13598.593158
651.892742	13377.619221
652.235626	13320.271055
652.578458	13318.819202
652.921238	13020.682843
653.263967	13219.894120
653.606644	13051.144015
653.949269	13020.781146
654.291843	12820.458295
654.634365	12992.712001
654.976836	12838.843383
655.319255	12836.768948
655.661622	12800.891056
656.003938	12718.248901
656.346203	12641.444401
656.688416	12730.546795
657.030577	12678.312880
657.372687	12577.325965
657.714746	12571.158114
658.056753	12762.570725
658.398708	12569.207187
658.740612	12577.840163
659.082465	12677.660050
659.424266	12649.744661
659.766016	12673.022189
660.107715	12593.624016
660.449362	12663.759069
660.790958	12613.776028
661.132503	12559.621433
661.473996	12633.038277
661.815438	12645.386583
662.156829	12674.398424
662.498168	12646.649392
662.839456	12644.527067
663.180693	12659.632884
663.521879	12766.555757
663.863013	12737.180954
664.204097	12701.015716
664.545129	12834.939009
664.886110	12815.676760
665.227040	12904.131366
665.567918	12901.588104
665.908746	12919.844643
666.249522	12913.709559
666.590248	12963.737969
666.930922	13074.857603
667.271545	13050.075291
667.612118	13134.917910
667.952639	13033.898228
668.293109	13062.942836
668.633528	13011.732275
668.973896	12986.531547
669.314213	13047.607646
669.654480	12789.195579
669.994695	12881.166390
670.334859	12902.190522
670.674973	12851.146319
671.015035	12876.581461
671.355047	12825.418790
671.695008	12803.225110
672.034918	12806.869865
672.374777	12851.978109
672.714585	12763.755396
673.054342	12793.667083
673.394049	12747.437181
673.733705	12845.817819
674.073310	12746.605391
674.412864	12758.658790
674.752368	12604.177671
675.091820	12665.972135
675.431223	12626.946043
675.770574	12499.165396
676.109875	12414.042992
676.449125	12376.239380
676.788324	12322.697285
677.127473	12148.243115
677.466571	12143.393525
677.805619	12029.997810
678.144616	11967.694190
678.483562	11941.916249
678.822458	11806.962040
679.161303	11789.323043
679.500098	11771.273192
679.838842	11728.166285
680.177535	11763.882860
680.516179	11825.659680
680.854771	11773.148501
681.193314	11985.028197
681.531805	12155.872901
681.870247	12594.722987
682.208638	13005.962674
682.546978	13303.741111
682.885268	13331.031398
683.223508	13036.428887
683.561697	12884.859035
683.899836	12792.920992
684.237925	12579.067684
684.575963	12493.365548
684.913951	12402.725602
685.251889	12368.223945
685.589776	12461.646608
685.927614	12382.739948
686.265401	12361.438552
686.603137	12416.427458
686.940824	12558.456927
687.278460	12704.168958
687.616046	12727.595200
687.953582	12888.050086
688.291068	12833.502280
688.628504	13059.451837
688.965889	13067.696644
689.303224	13025.774409
689.640510	12911.347778
689.977745	12597.472937
690.314930	12375.611756
690.652065	12276.089297
690.989150	11978.167187
691.326185	11754.833989
691.663170	11546.689788
692.000105	11313.017184
692.336990	11190.136538
692.673825	10932.742784
693.010610	10816.047635
693.347345	10604.835891
693.684030	10416.148023
694.020665	10354.504794
694.357251	10157.125977
694.693786	10077.511034
695.030272	9933.182800
695.366707	9817.478237
695.703093	9750.173792
696.039429	9740.741793
696.375716	9651.117639
696.711952	9530.429896
697.048139	9575.828007
697.384276	9528.355461
697.720363	9554.725737
698.056400	9479.907452
698.392388	9422.965098
698.728326	9392.874451
699.064214	9327.808278
699.400053	9367.698929
699.735842	9190.444398
700.071581	9145.126945
700.407270	9068.594668
700.742910	9004.405656
701.078501	8894.448009
701.414042	8760.310467
701.749533	8713.014361
702.084974	8571.315088
702.420366	8698.357206
702.755709	8567.904748
703.091002	8428.073222
703.426246	8466.325498
703.761440	8415.845904
704.096584	8373.437197
704.431679	8304.093605
704.766725	8285.806820
705.101721	8246.715192
705.436668	8295.024569
705.771565	8175.345057
706.106413	8270.804346
706.441212	8300.857184
706.775961	8271.600848
707.110661	8313.570974
707.445311	8443.468906
707.779913	8338.857402
708.114465	8474.038463
708.448967	8501.565684
708.783421	8669.173967
709.117825	8845.019495
709.452180	8876.065441
709.786485	8967.428793
710.120742	9255.472762
710.454949	9252.178368
710.789107	9359.373463
711.123216	9588.055325
711.457275	9759.094113
711.791286	9894.018076
712.125247	9905.390919
712.459159	9891.976408
712.793023	10117.116860
713.126837	9696.170431
713.460602	9858.936686
713.794318	9682.851703
714.127985	9717.504594
714.461602	9368.024083
714.795171	9318.948451
715.128691	9072.345287
715.462162	8829.785128
715.795584	8768.696426
716.128957	8605.365562
716.462281	8447.141387
716.795556	8493.383891
717.128782	8284.652395
717.461960	8032.083026
717.795088	8094.099301
718.128167	8006.748707
718.461198	7839.304262
718.794180	7783.065149
719.127113	7770.721884
719.459997	7599.362983
719.792833	7384.415744
720.125619	7453.252700
720.458357	7300.586397
720.791046	7287.960827
721.123686	7284.638707
721.456278	7124.335056
721.788821	7139.771069
722.121315	7038.668208
722.453761	7114.058664
722.786158	7048.657254
723.118506	7059.319295
723.450805	7019.300095
723.783056	7086.470949
724.115259	7004.784092
724.447412	7002.858372
724.779518	7051.954169
725.111574	7050.532563
725.443582	7130.132383
725.775542	7113.057995
726.107453	7306.431615
726.439315	7214.314611
726.771129	7286.405631
727.102895	7464.149154
727.434612	7566.703868
727.766281	7608.963860
728.097901	7679.897936
728.429473	7684.893719
728.760996	7672.240423
729.092471	7635.724825
729.423897	7577.234838
729.755276	7579.044612
730.086606	7502.109043
730.417887	7607.335567
730.749120	7833.801842
731.080305	8012.616610
731.411442	8120.673743
731.742530	8114.158052
732.073570	8224.637459
732.404562	8314.102816
732.735506	8165.277872
733.066401	8304.827093
733.397249	8223.422541
733.728048	7981.300963
734.058798	7638.384034
734.389501	7407.244610
734.720156	7233.493681
735.050762	7007.894484
735.381320	6926.240395
735.711831	6858.172215
736.042293	6753.664055
736.372707	6766.113184
736.703073	6631.869778
737.033391	6674.396952
737.363661	6684.741399
737.693883	6726.663635
738.024056	6809.567930
738.354182	6838.496592
738.684260	6877.673919
739.014290	7006.520770
739.344272	7113.531863
739.674207	7143.935062
740.004093	7209.558282
740.333931	7226.902372
740.663722	7229.508648
740.993464	7307.308776
741.323159	7283.380939
741.652806	7036.528238
741.982405	7072.847231
742.311956	7118.504961
742.641460	6931.876405
742.970915	6741.441777
743.300323	6736.418267
743.629683	6690.831113
743.958996	6556.302882
744.288260	6461.110773
744.617477	6415.747951
744.946647	6408.672691
745.275768	6245.850984
745.604842	6202.096289
745.933869	6181.858577
746.262847	6143.477752
746.591778	6132.331761
746.920662	6089.449186
747.249498	6087.047076
747.578286	6132.508201
747.907027	6210.520057
748.235720	6266.257574
748.564365	6243.269913
748.892963	6288.652900
749.221514	6419.654845
749.550017	6234.112657
749.878473	6129.143231
750.206881	6190.899886
750.535242	6134.144056
750.863555	6060.008847
751.191821	6075.238173
751.520039	6068.878757
751.848210	5977.873328
752.176334	6016.874214
752.504411	6052.593310
752.832440	5973.749664
753.160421	5908.728861
753.488356	5960.088137
753.816243	5980.875335
754.144082	5834.666750
754.471875	5814.320653
754.799620	5855.118711
755.127318	5865.944589
755.454969	5825.489329
755.782572	5791.834586
756.110129	5837.066339
756.437638	5806.320342
756.765100	5751.086939
757.092515	5761.028095
757.419882	5813.466177
757.747203	5786.354852
758.074477	5849.260890
758.401703	5830.565771
758.728882	5786.828720
759.056014	5860.800091
759.383099	5976.774356
759.710138	5985.545964
760.037129	5972.582637
760.364073	5980.827444
760.690970	6059.154372
761.017820	6037.500095
761.344623	6000.366956
761.671379	6105.722030
761.998088	6234.515949
762.324751	6498.034705
762.651366	7137.096737
762.977935	8514.319803
763.304456	10173.252628
763.630931	11031.181396
763.957359	10565.245190
764.283740	9595.390204
764.610074	8718.990649
764.936362	7719.957465
765.262602	7131.198587
765.588796	6594.348470
765.914943	6270.635817
766.241044	6102.891422
766.567097	5886.489811
766.893104	5626.598166
767.219064	5451.024860
767.544978	5387.103029
767.870845	5304.642355
768.196665	5196.922979
768.522438	5131.143483
768.848165	5095.036219
769.173846	5025.685066
769.499479	4977.105987
769.825066	4930.913894
770.150607	4873.190162
770.476101	4849.433724
770.801548	4840.021890
771.126949	4754.425618
771.452303	4704.414852
771.777611	4669.494779
772.102872	4685.076985
772.428087	4648.508455
772.753256	4605.424234
773.078378	4556.341040
773.403453	4484.986028
773.728482	4475.465808
774.053465	4425.195422
774.378401	4416.297786
774.703291	4409.023401
775.028135	4336.710569
775.352932	4289.616110
775.677683	4277.691261
776.002388	4294.932007
776.327046	4302.942400
776.651658	4229.699476
776.976224	4167.332841
777.300743	4177.735262
777.625216	4196.185885
777.949643	4183.099050
778.274024	4147.090088
778.598359	4109.064665
778.922647	4133.468890
779.246889	4118.852065
779.571086	4111.524748
779.895236	4096.665947
780.219339	4081.545006
780.543397	4081.613061
780.867409	4134.444354
781.191374	4144.130931
781.515294	4077.272628
781.839167	4075.404880
782.162995	4095.803909
782.486776	4084.899894
782.810511	4096.108899
783.134201	4084.783947
783.457844	4036.192265
783.781441	3985.173268
784.104993	3993.534021
784.428498	4013.287783
784.751958	4007.389633
785.075372	3982.710664
785.398739	3945.852268
785.722061	3963.798775
786.045337	4010.273173
786.368568	4034.856359
786.691752	3944.612144
787.014891	4004.397708
787.337983	4137.837050
787.661030	4306.877021
787.984031	4464.052636
788.306987	4631.146722
788.629897	4717.531934
788.952760	4670.198020
789.275579	4605.641004
789.598351	4532.415723
789.921078	4377.803535
790.243759	4179.701312
790.566395	4166.654806
790.888984	4159.698014
791.211529	4049.649625
791.534027	3993.055112
791.856480	3976.028615
792.178888	3914.425715
792.501249	3870.996174
792.823566	3885.797002
793.145836	3904.633273
793.468062	3852.003627
793.790241	3810.840085
794.112375	3842.758151
794.434464	3910.826331
794.756507	3929.123199
795.078505	3909.215682
795.400457	3949.348308
795.722364	4095.788786
796.044226	4200.135629
796.366042	4270.016104
796.687812	4244.959049
797.009538	4247.335953
797.331218	4213.368658
797.652852	4186.148948
797.974442	4162.395031
798.295986	4157.837828
798.617484	4073.360692
798.938938	3991.928414
799.260346	4038.125548
799.581709	4023.559134
799.903026	3949.885191
800.224299	3914.619799
800.545526	3905.732245
800.866708	3864.987119
801.187845	3813.058193
801.508936	3844.603213
801.829983	3831.970082
802.150984	3758.255810
802.471940	3753.842279
802.792851	3757.983587
803.113717	3759.737909
803.434538	3759.127929
803.755314	3703.566852
804.076045	3680.435518
804.396731	3703.544167
804.717372	3728.628948
805.037967	3707.458623
805.358518	3698.802962
805.679024	3728.258424
805.999485	3744.044797
806.319901	3749.685848
806.640272	3758.649020
806.960598	3770.611678
807.280879	3749.204418
807.601115	3762.838218
807.921306	3781.167854
808.241453	3819.205880
808.561554	3791.235038
808.881611	3724.069225
809.201623	3768.817027
809.521590	3774.730300
809.841513	3744.798449
810.161390	3774.049745
810.481223	3751.341867
810.801011	3699.841439
811.120755	3696.163918
811.440453	3728.271027
811.760107	3726.005028
812.079716	3681.295034
812.399281	3656.991632
812.718801	3680.644726
813.038276	3655.287722
813.357707	3648.467041
813.677093	3665.173424
813.996434	3608.311730
814.315731	3623.573823
814.634983	3630.442395
814.954191	3648.131804
815.273354	3669.138292
815.592473	3663.225018
815.911547	3674.796987
816.230577	3720.994121
816.549562	3773.964045
816.868502	3815.180519
817.187399	3837.069209
817.506250	3830.160308
817.825058	3813.426197
818.143821	3909.828182
818.462539	4006.630939
818.781213	4051.051066
819.099843	4119.240234
819.418429	4387.051532
819.736970	4625.914004
820.055466	4887.489395
820.373919	5262.596611
820.692327	5676.702194
821.010691	6173.384397
821.329011	7675.857451
821.647286	10586.113046
821.965517	15352.597104
822.283704	19381.378873
822.601847	21370.903006
822.919945	19430.958621
823.237999	16741.150164
823.556010	14205.386765
823.873976	12043.772763
824.191897	9926.200802
824.509775	8578.599556
824.827609	7448.214067
825.145398	6920.440547
825.463144	6804.670449
825.780845	6917.083139
826.098502	7143.090669
826.416116	8101.789581
826.733685	9476.562646
827.051210	10570.525798
827.368692	10507.425676
827.686129	9174.078292
828.003522	7656.310377
828.320872	6626.611854
828.638177	5906.369601
828.955439	5332.847611
829.272656	4830.516794
829.589830	4557.563519
829.906960	4378.652969
830.224046	4189.531562
830.541088	4063.235535
830.858086	4014.991693
831.175041	3936.445475
831.491952	3928.200667
831.808819	3940.042338
832.125642	4022.077034
832.442421	4178.136034
832.759157	4472.970437
833.075849	5060.816867
833.392497	5959.384896
833.709101	6754.364775
834.025662	7049.882255
834.342179	6630.375076
834.658653	5951.450120
834.975083	5287.716681
835.291469	4701.443091
835.607811	4300.595743
835.924110	4156.335564
836.240366	3950.124646
836.556578	3744.604365
836.872746	3639.350114
837.188871	3594.788834
837.504952	3525.387269
837.820990	3439.264197
838.136984	3398.882034
838.452935	3425.854728
838.768842	3417.516659
839.084706	3443.503808
839.400526	3617.532000
839.716303	3983.728977
840.032037	4534.033934
840.347727	4769.019759
840.663373	4454.056028
840.978977	4063.313673
841.294537	3752.420674
841.610054	3525.248638
841.925527	3421.012700
842.240957	3350.088706
842.556344	3297.194399
842.871687	3230.870459
843.186987	3182.263653
843.502244	3146.746204
843.817458	3109.897890
844.132629	3082.156420
844.447756	3091.293512
844.762840	3072.227868
845.077881	3039.092364
845.392879	3024.616690
845.707833	3020.619055
846.022745	3020.319107
846.337613	3020.384642
846.652438	3005.349400
846.967221	3003.763958
847.281960	2989.991525
847.596656	2984.254692
847.911309	2985.116729
848.225919	2979.049701
848.540485	2974.734473
848.855009	2973.229689
849.169490	2962.542442
849.483928	2953.584312
849.798323	2954.705969
850.112675	2949.604321
850.426984	2965.352886
850.741251	2957.987760
851.055474	2948.656584
851.369654	2942.919751
851.683792	2947.928138
851.997887	2959.860549
852.311938	2960.581434
852.625947	2944.570729
852.939914	2951.030968
853.253837	2954.763942
853.567718	2939.985800
853.881555	2938.796087
854.195350	2958.174283
854.509103	2946.682973
854.822812	2943.383537
855.136479	2935.365582
855.450103	2940.804987
855.763685	2937.485387
856.077224	2932.502207
856.390720	2947.071141
856.704173	2951.053653
857.017584	2947.242541
857.330953	2943.784309
857.644278	2953.238993
857.957561	2964.208544
858.270802	2964.016980
858.584000	2962.204685
858.897155	2947.948302
859.210268	2952.087089
859.523339	2947.547530
859.836367	2947.812191
860.149352	2942.733228
860.462295	2936.792229
860.775195	2948.102057
861.088054	2944.111984
861.400869	2929.018769
861.713642	2927.927360
862.026373	2942.115687
862.339062	2943.121397
862.651708	2948.011317
862.964312	2953.813685
863.276873	2946.332612
863.589392	2961.428348
863.901869	2971.346818
864.214303	2993.255672
864.526696	3007.570029
864.839045	3000.240191
865.151353	3003.143896
865.463619	3002.488546
865.775842	3004.005933
866.088023	3022.587626
866.400162	3025.990405
866.712258	2998.049810
867.024313	2986.422388
867.336325	2996.524861
867.648296	3018.574868
867.960224	3008.139679
868.272110	2994.389932
868.583954	3003.015346
868.895755	3015.219980
869.207515	3001.807990
869.519233	3008.419463
869.830909	3020.717358
870.142542	3027.157432
870.454134	3027.926208
870.765684	3032.667413
871.077191	3031.765047
871.388657	3040.234185
871.700081	3053.142059
872.011463	3063.667989
872.322803	3065.586148
872.634101	3065.167732
872.945357	3085.085331
873.256571	3109.025770
873.567744	3102.963783
873.878874	3095.570931
874.189963	3119.758387
874.501010	3118.757718
874.812015	3106.752210
875.122979	3107.833538
875.433900	3106.784978
875.744780	3115.249075
876.055618	3121.051443
876.366415	3117.010958
876.677169	3124.625621
876.987882	3123.229221
877.298554	3120.668315
877.609183	3144.598672
877.919771	3166.953669
878.230317	3199.885007
878.540822	3250.407451
878.851285	3288.538738
879.161707	3337.087570
879.472087	3451.882205
879.782425	3702.150288
880.092722	4162.354702
880.402977	4710.481880
880.713191	5379.042224
881.023363	6615.289423
881.333494	7924.028414
881.643583	8443.176519
881.953631	8113.089327
882.263637	7435.671676
882.573602	6806.215563
882.883526	6221.217385
883.193408	5641.593078
883.503248	5183.153068
883.813048	4867.228997
884.122806	4533.335734
884.432522	4210.210375
884.742197	3967.244404
885.051831	3773.540588
885.361424	3646.992503
885.670975	3565.908064
885.980485	3476.931699
886.289954	3394.022362
886.599382	3349.393027
886.908768	3311.559167
887.218113	3267.968310
887.527417	3204.653938
887.836680	3153.302225
888.145901	3151.908346
888.455082	3137.251191
888.764221	3085.355032
889.073319	3057.590878
889.382376	3054.422512
889.691392	3061.676733
890.000366	3058.132802
890.309300	3047.415309
890.618193	3060.509706
890.927044	3075.376068
891.235855	3075.058476
891.544625	3064.928277
891.853353	3073.266346
892.162041	3095.328955
892.470687	3138.324957
892.779293	3190.458049
893.087858	3238.079309
893.396381	3313.986483
893.704864	3449.275929
894.013306	3705.762275
894.321707	4019.138042
894.630068	4215.680027
894.938387	4204.803738
895.246665	4165.331503
895.554903	4029.608518
895.863100	3821.560099
896.171256	3649.893687
896.479371	3502.780215
896.787446	3375.044938
897.095480	3270.932508
897.403473	3205.873897
897.711425	3171.352076
898.019336	3160.916887
898.327207	3128.623256
898.635038	3090.335693
898.942827	3077.851275
899.250576	3065.220664
899.558284	3034.003319
899.865952	3011.928106
900.173579	2994.125271
900.481165	2982.931389
900.788711	2967.213072
901.096216	2945.026953
901.403681	2937.014039
901.711105	2940.346242
902.018489	2940.126952
902.325832	2938.107970
902.633135	2949.377469
902.940397	2987.912049
903.247619	3078.408323
903.554800	3287.986732
903.861941	3661.901716
904.169041	4111.330663
904.476101	4403.765477
904.783121	4327.933921
905.090100	4068.932039
905.397039	3785.029378
905.703938	3521.626569
906.010796	3339.749300
906.317614	3223.291084
906.624391	3127.204171
906.931129	3051.924621
907.237826	2986.984477
907.544483	2942.450924
907.851099	2911.732653
908.157675	2888.659292
908.464211	2867.597351
908.770707	2854.195443
909.077163	2839.424863
909.383578	2822.912563
909.689954	2814.773620
909.996289	2810.196253
910.302584	2813.735143
910.608839	2813.188177
910.915054	2804.096457
911.221229	2800.582772
911.527363	2802.226188
911.833458	2811.806901
912.139513	2816.311172
912.445527	2816.427119
912.751502	2828.788028
913.057436	2841.080882
913.363331	2853.819877
913.669186	2875.897611
913.975000	2915.488313
914.280775	2979.362252
914.586510	3049.366235
914.892205	3135.383443
915.197859	3274.302520
915.503475	3483.102071
915.809050	3706.984754
916.114585	3854.965305
916.420081	3867.497613
916.725536	3797.975061
917.030952	3673.819003
917.336328	3538.902603
917.641665	3404.276069
917.946961	3299.561221
918.252218	3225.645303
918.557435	3142.763693
918.862612	3081.249013
919.167750	3030.731610
919.472848	2988.292656
919.777906	2962.834829
920.082925	2933.243256
920.387904	2901.960376
920.692843	2887.754405
920.997743	2875.073382
921.302603	2861.840353
921.607423	2850.016327
921.912204	2834.935715
922.216946	2825.309632
922.521647	2815.383600
922.826310	2806.806077
923.130932	2800.449182
923.435516	2790.215639
923.740059	2783.682304
924.044564	2774.235182
924.349028	2767.664038
924.653454	2760.674478
924.957840	2755.706421
925.262186	2749.190729
925.566493	2747.418764
925.870761	2744.154617
926.174989	2736.660942
926.479178	2733.059037
926.783328	2727.196175
927.087438	2727.070146
927.391509	2727.685167
927.695541	2723.019579
927.999533	2718.495144
928.303486	2716.047663
928.607400	2713.723692
928.911275	2715.026830
929.215110	2712.544062
929.518906	2712.579350
929.822663	2713.242261
930.126381	2712.692776
930.430060	2713.285111
930.733699	2713.864844
931.037299	2714.109340
931.340861	2713.683362
931.644383	2715.132694
931.947866	2715.394834
932.251309	2714.275698
932.554714	2711.044318
932.858080	2710.031046
933.161407	2712.067672
933.464694	2708.642208
933.767943	2701.531661
934.071153	2705.254553
934.374323	2706.114070
934.677455	2705.315047
934.980548	2704.899152
935.283602	2702.113914
935.586617	2703.359079
935.889593	2703.318750
936.192530	2702.623071
936.495428	2704.815973
936.798287	2704.263966
937.101108	2712.165975
937.403890	2713.983311
937.706632	2715.220914
938.009336	2724.910012
938.312002	2735.020046
938.614628	2743.612693
938.917216	2748.116964
939.219765	2750.579567
939.522275	2750.720720
939.824747	2747.317941
940.127179	2748.071593
940.429573	2741.197980
940.731929	2737.727146
941.034246	2732.474263
941.336524	2732.181876
941.638763	2728.395970
941.940964	2726.601319
942.243126	2725.575444
942.545250	2723.334651
942.847335	2721.114023
943.149381	2717.413816
943.451389	2714.189998
943.753359	2710.618341
944.055290	2710.908207
944.357182	2708.448124
944.659036	2707.850747
944.960851	2709.448793
945.262628	2705.405788
945.564367	2707.777651
945.866067	2707.167671
946.167729	2707.386961
946.469352	2708.271684
946.770937	2705.700695
947.072484	2705.869574
947.373992	2704.914275
947.675462	2702.466795
947.976893	2697.760878
948.278286	2697.536547
948.579641	2700.339428
948.880958	2694.458922
949.182236	2698.116279
949.483476	2697.009746
949.784678	2695.499920
950.085841	2697.173583
950.386967	2696.452698
950.688054	2698.244829
950.989103	2698.620395
951.290114	2698.711135
951.591087	2703.477546
951.892021	2701.884542
952.192917	2708.765717
952.493776	2708.942157
952.794596	2710.956098
953.095378	2710.366283
953.396122	2707.961653
953.696828	2707.235727
953.997496	2704.140458
954.298126	2703.956456
954.598718	2703.623740
954.899272	2697.584437
955.199788	2694.673171
955.500266	2691.789631
955.800706	2690.710824
956.101108	2689.488344
956.401472	2688.152439
956.701798	2684.313600
957.002087	2681.785461
957.302337	2683.620441
957.602550	2680.386541
957.902724	2680.472241
958.202861	2678.249092
958.502960	2676.431756
958.803022	2676.971159
959.103045	2673.757424
959.403031	2673.114677
959.702979	2674.349759
960.002889	2673.094512
960.302762	2671.927485
960.602596	2671.872032
960.902393	2673.028977
961.202153	2672.691220
961.501875	2673.260870
961.801559	2669.621157
962.101205	2670.417659
962.400814	2670.331960
962.700385	2667.660148
962.999918	2668.794408
963.299414	2665.651248
963.598873	2667.884480
963.898293	2663.977585
964.197677	2670.984789
964.497022	2668.496980
964.796331	2668.930519
965.095601	2668.144099
965.394835	2670.019408
965.694030	2668.781805
965.993189	2667.950015
966.292309	2668.610406
966.591393	2667.271979
966.890439	2669.500169
967.189447	2667.478667
967.488419	2669.386743
967.787353	2664.690909
968.086249	2668.320539
968.385108	2666.271310
968.683930	2667.087977
968.982714	2667.980262
969.281462	2667.687875
969.580172	2671.090653
969.878844	2666.944304
970.177480	2668.275169
970.476078	2668.179387
970.774639	2667.934891
971.073162	2667.614778
971.371649	2667.760971
971.670098	2668.330622
971.968510	2667.047648
972.266885	2670.881446
972.565223	2670.649553
972.863524	2669.434634
973.161788	2668.199552
973.460014	2670.105108
973.758204	2668.391116
974.056356	2669.409429
974.354471	2668.403718
974.652550	2668.489418
974.950591	2667.274500
975.248595	2669.797597
975.546563	2668.607885
975.844493	2667.158553
976.142386	2667.798780
976.440243	2667.609737
976.738062	2667.609737
977.035845	2666.929181
977.333590	2668.643173
977.631299	2663.644869
977.928971	2663.342400
978.226606	2663.017246
978.524204	2662.019097
978.821765	2660.862152
979.119290	2663.952380
979.416777	2665.663851
979.714228	2664.627894
980.011642	2667.521517
980.309020	2666.336845
980.606360	2665.227792
980.903664	2665.099242
981.200931	2665.956238
981.498162	2667.977741
981.795356	2667.100580
982.092513	2669.076712
982.389633	2671.357835
982.686717	2678.281859
982.983764	2680.462158
983.280775	2683.716223
983.577749	2683.509536
983.874686	2681.430060
984.171587	2678.770851
984.468451	2677.243382
984.765279	2675.042918
985.062070	2673.699451
985.358824	2672.658452
985.655543	2672.822290
985.952224	2668.751558
986.248869	2666.281393
986.545478	2666.795590
986.842050	2665.724345
987.138586	2664.345590
987.435086	2666.092349
987.731549	2663.365085
988.027975	2661.661175
988.324366	2661.502379
988.620719	2662.843326
988.917037	2663.551608
989.213318	2662.994560
989.509563	2661.832574
989.805772	2663.591937
990.101944	2664.073367
990.398080	2663.377688
990.694180	2662.404745
990.990244	2663.171001
991.286271	2660.952893
991.582262	2660.030362
991.878217	2660.269817
992.174136	2663.002122
992.470019	2663.193686
992.765865	2658.391987
993.061676	2659.175886
993.357450	2660.390804
993.653188	2656.017603
993.948890	2663.294509
994.244556	2662.576145
994.540186	2660.622697
994.835780	2662.976916
995.131337	2665.789880
995.426859	2661.915753
995.722345	2664.814417
996.017795	2663.849036
996.313208	2667.249294
996.608586	2667.440858
996.903928	2668.446568
997.199234	2668.159222
997.494504	2669.124603
997.789738	2667.123265
998.084936	2666.397339
998.380099	2664.217040
998.675225	2666.515806
998.970316	2662.835764
999.265371	2661.414159
999.560390	2662.949190
999.855373	2662.026659
1000.150320	2662.873573
1000.445232	2661.709066
1000.740108	2661.388953
1001.034948	2662.019097
1001.329752	2663.004643
1001.624521	2659.942142
1001.919254	2660.930208
1002.213951	2661.535146
1002.508613	2661.613284
1002.803239	2659.919457
1003.097829	2660.247132
1003.392384	2662.233346
1003.686903	2657.955927
1003.981386	2657.963489
1004.275834	2661.474652
1004.570246	2660.466422
1004.864623	2661.368788
1005.158964	2660.602533
1005.453270	2660.859632
1005.747540	2659.506082
1006.041775	2660.814261
1006.335974	2659.236380
1006.630138	2659.574137
1006.924266	2660.710918
1007.218359	2661.797286
1007.512416	2657.598005
1007.806438	2657.161945
1008.100425	2656.854435
1008.394376	2657.343427
1008.688292	2659.569096
1008.982172	2658.404590
1009.276017	2658.475166
1009.569827	2657.537511
1009.863602	2660.277378
1010.157341	2658.344096
1010.451045	2659.722852
1010.744714	2660.869714
1011.038347	2659.465753
1011.331945	2660.935249
1011.625508	2659.127995
1011.919036	2659.803510
1012.212528	2658.480207
1012.505986	2659.773263
1012.799408	2658.054230
1013.092795	2658.702018
1013.386147	2661.353665
1013.679464	2658.447440
1013.972745	2659.148160
1014.265992	2660.791576
1014.559204	2659.458191
1014.852380	2657.658499
1015.145521	2658.439878
1015.438628	2658.999446
1015.731699	2657.724034
1016.024736	2657.293015
1016.317737	2657.724034
1016.610703	2656.562048
1016.903635	2660.864673
1017.196531	2656.841832
1017.489393	2660.037924
1017.782219	2659.266627
1018.075011	2660.652944
1018.367768	2659.022131
1018.660490	2658.397028
1018.953177	2658.397028
1019.245829	2658.397028
