Dividing Wavelength (nm)	Counts (n)	Blue Motor Position (mm): 49.300000	Red Motor Position (mm): 0.000000	
326.493990	2282.654626
326.888308	2282.654626
327.282561	2282.654626
327.676750	2245.488719
328.070874	2241.206259
328.464933	2243.799933
328.858929	2244.546024
329.252859	2250.781931
329.646726	2262.079157
330.040528	2271.231372
330.434265	2285.134874
330.827938	2303.827472
331.221547	2320.937148
331.615091	2339.082782
332.008571	2357.377129
332.401986	2378.980994
332.795338	2396.337687
333.188625	2417.271078
333.581847	2432.772626
333.975006	2458.674074
334.368100	2475.277115
334.761129	2490.851759
335.154095	2511.855727
335.546996	2538.160468
335.939833	2575.525500
336.332606	2591.054774
336.725315	2604.363421
337.117960	2616.968826
337.510540	2627.409055
337.903056	2637.866929
338.295508	2646.535193
338.687896	2654.719506
339.080220	2660.224446
339.472480	2669.636281
339.864676	2672.708864
340.256807	2679.068279
340.648875	2681.271264
341.040879	2684.656398
341.432818	2687.663447
341.824694	2689.566482
342.216506	2692.563448
342.608253	2692.306349
342.999937	2692.286185
343.391557	2693.614529
343.783113	2692.523119
344.174605	2693.422965
344.566033	2691.141843
344.957397	2688.142356
345.348697	2687.925587
345.739934	2686.244362
346.131106	2688.081862
346.522215	2682.014834
346.913260	2679.973167
347.304241	2679.769000
347.695159	2680.366377
348.086012	2678.730522
348.476802	2678.004596
348.867528	2673.132321
349.258191	2668.761640
349.648789	2667.813903
350.039324	2666.170487
350.429796	2669.086795
350.820203	2668.053358
351.210548	2664.824499
351.600828	2663.748213
351.991045	2662.578665
352.381198	2664.355672
352.771288	2663.435661
353.161314	2662.603871
353.551276	2662.823161
353.941175	2661.237718
354.331010	2662.452636
354.720782	2659.168325
355.110490	2665.285765
355.500135	2661.154539
355.889717	2664.385919
356.279235	2662.500527
356.668689	2663.607061
357.058080	2662.661844
357.447408	2661.572955
357.836672	2662.044303
358.225873	2662.392142
358.615010	2662.253511
359.004084	2665.719304
359.393095	2667.161074
359.782043	2667.652587
360.170927	2667.183759
360.559748	2665.404232
360.948505	2668.217196
361.337199	2669.109480
361.725830	2669.532937
362.114398	2670.193328
362.502903	2671.725839
362.891344	2672.361024
363.279722	2667.773574
363.668037	2669.986641
364.056289	2669.490087
364.444478	2674.982424
364.832603	2674.934533
365.220665	2677.621468
365.608665	2675.471416
365.996601	2675.219358
366.384474	2677.906293
366.772284	2675.433607
367.160031	2677.361849
367.547715	2680.336130
367.935336	2679.489216
368.322893	2676.676252
368.710388	2678.201201
369.097820	2678.891839
369.485189	2678.556602
369.872495	2684.056501
370.259738	2683.628003
370.646918	2691.819878
371.034035	2695.585620
371.421090	2701.529140
371.808081	2706.645912
372.195010	2714.177395
372.581875	2721.953375
372.968678	2732.360837
373.355418	2742.395254
373.742096	2757.249014
374.128710	2770.411467
374.515262	2785.285391
374.901751	2802.722742
375.288177	2818.652788
375.674540	2840.009637
376.060841	2861.182483
376.447079	2885.488406
376.833254	2908.826428
377.219367	2927.914757
377.605417	2966.711477
377.991404	2985.885505
378.377329	3022.839684
378.763191	3043.513456
379.148991	3086.885023
379.534727	3127.279788
379.920402	3163.182886
380.306013	3184.214580
380.691563	3249.336205
381.077049	3268.303547
381.462474	3309.356183
381.847835	3368.289792
382.233134	3407.010895
382.618371	3433.867642
383.003545	3503.128055
383.388657	3524.434491
383.773706	3585.860951
384.158693	3616.032257
384.543618	3647.398316
384.928480	3704.360834
385.313280	3761.961058
385.698017	3781.271197
386.082692	3870.502141
386.467305	3874.651011
386.851856	3906.329622
387.236344	3988.157631
387.620770	4016.574615
388.005133	4066.958427
388.389435	4112.288483
388.773674	4119.005820
389.157851	4198.540104
389.541965	4265.559724
389.926018	4231.297522
390.310008	4330.973736
390.693936	4385.456007
391.077802	4415.808794
391.461606	4417.691665
391.845348	4481.943691
392.229027	4544.285120
392.612645	4538.563411
392.996200	4642.015449
393.379694	4702.698339
393.763125	4811.355369
394.146494	4840.904092
394.529801	4890.201535
394.913047	4975.719669
395.296230	4924.700672
395.679351	5029.508781
396.062410	5087.718984
396.445408	5058.397113
396.828343	5117.907934
397.211217	5174.845246
397.594028	5052.372934
397.976778	5169.375594
398.359466	5223.079006
398.742092	5244.728241
399.124656	5164.261344
399.507158	5281.687461
399.889598	5349.904355
400.271977	5463.405933
400.654294	5466.110512
401.036549	5514.513151
401.418742	5434.837715
401.800874	5637.950844
402.182944	5700.582140
402.564952	5806.143901
402.946898	5868.278643
403.328783	5695.235996
403.710606	5723.506787
404.092367	6044.444285
404.474067	6067.316000
404.855705	5958.996727
405.237282	5897.507253
405.618797	6165.074055
406.000250	6133.476103
406.381642	6347.510892
406.762972	6367.678028
407.144240	6418.966727
407.525447	6404.193626
407.906593	6413.078660
408.287677	6583.663744
408.668700	6501.114850
409.049661	6608.637620
409.430560	6634.264326
409.811399	6500.451938
410.192176	6758.405260
410.572891	6785.776205
410.953545	6970.539534
411.334138	6696.308327
411.714669	6873.918259
412.095139	6673.910480
412.475547	6914.499548
412.855894	6991.835889
413.236180	7174.093765
413.616405	6822.558984
413.996568	7043.404372
414.376670	7110.229907
414.756711	6996.335118
415.136691	7099.421673
415.516609	7302.116387
415.896466	7278.019672
416.276262	7492.147723
416.655997	7481.422668
417.035670	7647.117833
417.415283	7992.363775
417.794834	8071.207421
418.174324	7925.190400
418.553753	7851.768515
418.933121	8140.974470
419.312428	8236.665652
419.691674	8012.540993
420.070859	8489.769384
420.449983	8177.313627
420.829045	8550.532932
421.208047	8309.717012
421.586988	8626.936659
421.965867	8652.817943
422.344686	8738.010922
422.723444	8833.374430
423.102141	8147.711972
423.480777	8920.357019
423.859352	8448.600801
424.237866	9059.069408
424.616319	8924.339530
424.994712	9366.446202
425.373044	8893.149912
425.751314	9391.596519
426.129524	9269.865256
426.507673	9339.622223
426.885762	9497.924536
427.263789	9424.157331
427.641756	9363.512251
428.019662	9446.638357
428.397508	9717.149193
428.775292	9373.629846
429.153016	9764.588971
429.530679	9593.469524
429.908282	9601.797511
430.285824	9328.055295
430.663305	10013.619451
431.040726	9470.520823
431.418086	9442.280279
431.795385	9783.586559
432.172624	9892.631758
432.549802	9788.204256
432.926920	9859.332417
433.303977	9721.776972
433.680974	9932.897975
434.057910	10041.396208
434.434786	10118.142734
434.811601	9918.573536
435.188355	10486.744342
435.565050	10252.948229
435.941683	10152.006685
436.318257	10628.544438
436.694770	10824.002575
437.071222	10864.311642
437.447614	10677.647797
437.823946	10624.337595
438.200218	10687.735146
438.576429	10550.696420
438.952580	10806.368619
439.328670	10803.535491
439.704700	10617.574887
440.080670	10607.172466
440.456580	11113.989909
440.832429	10912.132027
441.208218	10511.498928
441.583947	10787.212235
441.959616	10994.486837
442.335224	10807.550770
442.710773	10901.485110
443.086261	11144.935032
443.461689	10401.813502
443.837057	11105.394742
444.212365	11323.986734
444.587612	10949.479415
444.962800	11160.628144
445.337927	10890.041691
445.712995	10610.038362
446.088002	11630.738425
446.462949	11333.380925
446.837837	11290.747887
447.212664	11196.821108
447.587431	11816.520068
447.962139	12592.270466
448.336786	14900.960131
448.711374	15361.968609
449.085901	13158.487825
449.460369	12816.939569
449.834776	12267.547062
450.209124	13218.296074
450.583412	13650.128874
450.957640	14566.035952
451.331808	13570.508890
451.705917	12675.028568
452.079965	11890.060420
452.453954	12811.638796
452.827883	12475.610604
453.201752	12759.510745
453.575562	12333.568533
453.949311	12746.517171
454.323001	12741.947365
454.696632	12974.946975
455.070202	13241.601328
455.443713	13416.073142
455.817164	13936.547071
456.190556	13887.151325
456.563888	14248.518877
456.937160	14376.135687
457.310373	13753.588475
457.683526	13872.325292
458.056619	13375.970763
458.429653	13616.484213
458.802628	12943.301132
459.175542	13374.408006
459.548398	14324.541998
459.921194	14692.488255
460.293930	14784.166679
460.666607	15605.375682
461.039224	16668.257600
461.411782	17411.119510
461.784280	17142.173952
462.156719	17285.889687
462.529099	16925.331240
462.901419	15912.928916
463.273680	15651.313196
463.645882	15576.880559
464.018024	15293.802127
464.390106	15529.017324
464.762130	16230.614870
465.134094	17048.264818
465.505999	19135.521800
465.877845	22414.716760
466.249631	25191.124679
466.621358	24781.661999
466.993026	23372.513305
467.364634	22769.833281
467.736184	21293.841408
468.107674	20516.369456
468.479105	20648.571195
468.850477	20078.530121
469.221790	19715.080573
469.593043	18999.889556
469.964238	18428.706661
470.335373	18066.512360
470.706449	18594.127083
471.077467	18199.195529
471.448425	20087.866338
471.819324	24257.792853
472.190164	26011.741346
472.560945	22287.225979
472.931667	20020.657675
473.302330	19432.675134
473.672934	19115.513461
474.043479	19285.047464
474.413965	19109.728737
474.784393	18684.988840
475.154761	19491.548249
475.525070	19363.439927
475.895321	19101.983004
476.265513	19725.170442
476.635645	20319.464507
477.005719	20055.907943
477.375734	20245.689741
477.745691	20744.305227
478.115588	21287.865120
478.485427	21860.076411
478.855207	22976.026555
479.224928	24765.840338
479.594591	27002.045772
479.964194	26857.195778
480.333739	27115.542310
480.703226	26705.462088
481.072653	26430.628463
481.442022	27086.888391
481.811333	28018.677624
482.180584	27861.615435
482.549777	26931.507427
482.918912	26605.954753
483.287988	26758.237928
483.657005	26356.599119
484.025964	26163.457392
484.394864	26016.850555
484.763706	25652.148280
485.132489	25140.171216
485.501213	25316.871220
485.869879	25229.782767
486.238487	25084.741209
486.607036	25206.815270
486.975527	24979.121474
487.343959	25255.865697
487.712333	25156.363402
488.080648	24813.345651
488.448905	25334.812687
488.817104	25101.258550
489.185244	25818.768497
489.553326	25752.431954
489.921350	26838.316657
490.289315	29228.483971
490.657222	30885.392773
491.025070	31419.233322
491.392861	31146.859779
491.760593	30271.478537
492.128267	29344.112917
492.495883	28273.583568
492.863440	27411.868895
493.230939	26556.543883
493.598380	26383.221452
493.965763	26011.514494
494.333088	25490.556614
494.700354	25486.311963
495.067563	25312.611445
495.434713	25061.614916
495.801805	25260.722849
496.168839	25007.412430
496.535815	24903.675566
496.902733	25118.597598
497.269593	24836.035884
497.636395	24980.752288
498.003139	24891.052517
498.369825	24632.670697
498.736453	24876.523911
499.103023	24723.981117
499.469535	24712.598191
499.835989	24949.555107
500.202385	24972.227697
500.568723	24525.894017
500.935003	24682.920918
501.301226	24410.287757
501.667390	25246.098462
502.033497	25427.169146
502.399546	25165.152654
502.765537	24680.770866
503.131470	25054.925305
503.497345	25221.023762
503.863163	24469.773372
504.228923	25000.768189
504.594625	25267.205773
504.960269	24841.697100
505.325856	25312.054398
505.691385	24700.254926
506.056856	25290.397601
506.422270	25310.030375
506.787625	24807.641585
507.152924	25245.420426
507.518164	25294.569156
507.883347	25093.774957
508.248472	24778.743171
508.613540	25543.874378
508.978550	25347.624779
509.343503	25380.130139
509.708398	25560.979013
510.073236	25726.376750
510.438016	25956.051719
510.802738	25593.381029
511.167403	25862.092173
511.532010	25627.678520
511.896561	26346.894898
512.261053	26327.995612
512.625488	26162.605437
512.989866	26039.180346
513.354186	25867.919747
513.718449	26007.027867
514.082655	26374.855658
514.446803	26080.220380
514.810894	26596.880676
515.174927	26080.616110
515.538904	26114.139783
515.902822	26614.219724
516.266684	26360.029624
516.630488	26268.303309
516.994235	26199.952825
517.357925	26562.094194
517.721558	26697.139143
518.085133	26846.992483
518.448651	26717.137401
518.812112	26507.140576
519.175516	26729.531077
519.538863	26868.314043
519.902152	26674.738776
520.265385	26922.529132
520.628560	26736.717242
520.991678	26694.011107
521.354739	26740.961894
521.717743	26868.087191
522.080690	26635.329556
522.443580	26965.220143
522.806413	26897.199854
523.169189	27045.147637
523.531908	27077.910096
523.894569	26714.916772
524.257174	26820.745715
524.619722	26930.831912
524.982213	26662.450964
525.344647	26663.136561
525.707025	26843.070465
526.069345	26785.518132
526.431608	26766.800328
526.793815	26924.719513
527.155964	26436.171212
527.518057	26593.556035
527.880093	26521.404520
528.242072	26761.910409
528.603995	26472.734701
528.965860	26256.658244
529.327669	26287.111854
529.689421	26284.442563
530.051117	26133.515458
530.412755	26310.500288
530.774337	26068.305613
531.135862	25982.190102
531.497331	26157.528995
531.858743	25769.980210
532.220098	26190.866145
532.581396	25899.888224
532.942638	25786.981502
533.303824	25915.606542
533.664953	25903.394347
534.026025	25567.933285
534.387040	25801.711753
534.747999	25835.114439
535.108902	26008.996438
535.469748	25522.666244
535.830537	25665.172101
536.191270	25808.671066
536.551947	25619.733661
536.912567	25236.858027
537.273131	25711.253289
537.633638	25358.143147
537.994089	25589.045637
538.354483	25061.549381
538.714821	25577.516518
539.075103	25634.030373
539.435328	25381.430757
539.795497	25004.087789
540.155609	25319.419524
540.515665	25639.961291
540.875665	24853.626991
541.235609	25220.910336
541.595496	25129.388188
541.955328	25504.472720
542.315102	25425.513127
542.674821	24922.070736
543.034483	24809.597553
543.394090	24981.279088
543.753640	24792.182887
544.113134	25419.388125
544.472571	25002.187274
544.831953	25319.797610
545.191278	24984.823019
545.550548	24855.913154
545.909761	25050.428596
546.268918	25293.767612
546.628019	25280.668174
546.987064	24952.973009
547.346053	24665.544061
547.704986	24770.962150
548.063863	24935.374341
548.422684	24965.291069
548.781449	24453.248470
549.140158	24865.204000
549.498811	24444.232366
549.857408	24222.161977
550.215949	24589.762916
550.574434	24296.939933
550.932864	24485.894982
551.291237	24687.057185
551.649555	24511.372974
552.007817	24589.304171
552.366022	24431.132928
552.724173	24430.487660
553.082267	24424.695374
553.440305	24905.750001
553.798288	24124.754282
554.156215	24612.367450
554.514086	24761.973773
554.871902	24161.514376
555.229661	24424.879377
555.587365	24265.024388
555.945014	24191.272307
556.302606	24375.158476
556.660143	24377.779876
557.017625	24607.109526
557.375050	24131.060766
557.732421	24506.737633
558.089735	24334.352856
558.446994	24377.326172
558.804197	24435.274236
559.161345	24301.179543
559.518437	24124.590445
559.875474	24268.159986
560.232455	24450.206133
560.589381	24264.994141
560.946251	24282.194558
561.303065	24572.154166
561.659825	24665.894421
562.016528	24271.230048
562.373177	23990.712522
562.729770	24370.061870
563.086307	24198.881929
563.442789	24371.314596
563.799216	24227.130035
564.155587	24218.292892
564.511904	24196.953688
564.868164	24155.931298
565.224370	24114.712304
565.580520	24069.447783
565.936615	24182.566235
566.292654	23886.257294
566.648638	24098.162196
567.004567	23942.831643
567.360441	23869.997052
567.716260	23598.205763
568.072023	23907.359564
568.427732	23690.819321
568.783385	23452.828968
569.138982	23711.770356
569.494525	23736.724068
569.850013	23508.861393
570.205445	23599.970167
570.560823	23435.787348
570.916145	23191.850954
571.271412	23391.957036
571.626625	23148.665910
571.981782	23248.437906
572.336884	23054.711405
572.691931	23182.071116
573.046923	22921.491353
573.401860	22812.284837
573.756743	22844.631401
574.111570	22730.764338
574.466342	22643.617912
574.821059	22720.417370
575.175722	22442.312036
575.530330	22392.467627
575.884882	22387.600393
576.239380	22318.150937
576.593823	22207.416952
576.948211	22185.303931
577.302544	22032.892206
577.656823	21886.577757
578.011047	22009.382785
578.365216	21872.351620
578.719330	21744.490315
579.073389	21613.639605
579.427394	21787.022530
579.781344	21526.150380
580.135239	21416.129718
580.489080	21359.658712
580.842866	21146.700209
581.196597	21365.808920
581.550273	21315.465437
581.903895	21185.655726
582.257463	21505.915188
582.610975	21053.164120
582.964434	21381.053369
583.317837	21024.918535
583.671186	21107.452306
584.024481	21114.240220
584.377721	20864.388032
584.730906	20975.863067
585.084037	20932.625091
585.437113	20880.176926
585.790135	21090.130902
586.143103	20536.355110
586.496016	20571.076058
586.848874	20796.899585
587.201679	20703.310564
587.554428	20420.607698
587.907124	20744.416132
588.259765	20489.028758
588.612352	20566.740665
588.964884	20132.457864
589.317362	20299.352824
589.669786	20356.746361
590.022155	20350.772593
590.374470	20611.866554
590.726731	20346.215390
591.078937	20163.657565
591.431090	20235.756148
591.783188	20007.674183
592.135232	19961.613160
592.487222	20065.400436
592.839157	20056.994312
593.191038	19937.980231
593.542866	19831.707667
593.894639	19526.732983
594.246358	19761.930536
594.598022	19632.967738
594.949633	19398.140710
595.301190	19394.236336
595.652692	19563.089784
596.004141	19756.596995
596.355535	19100.483260
596.706876	19123.463360
597.058162	19016.802627
597.409395	19261.664072
597.760573	19296.450554
598.111698	19072.830011
598.462768	19022.436117
598.813785	19007.975567
599.164748	18782.351165
599.515657	18856.751034
599.866511	18655.404828
600.217312	18997.361417
600.568060	18502.942692
600.918753	18811.831832
601.269392	18718.172235
601.619978	18519.316360
601.970510	18700.439976
602.320988	18651.969282
602.671412	18845.620166
603.021783	18790.429614
603.372100	18481.618611
603.722363	18648.387542
604.072572	18582.892872
604.422728	18742.684846
604.772830	18482.957038
605.122878	18444.689639
605.472872	18427.363193
605.822813	18414.760308
606.172701	18408.312673
606.522534	18568.959122
606.872314	18600.771324
607.222041	18449.783725
607.571714	18661.819697
607.921333	18485.462491
608.270899	18560.888235
608.620411	18706.920380
608.969870	18520.145630
609.319276	18499.144183
609.668627	18533.739101
610.017926	18660.488832
610.367171	18775.762377
610.716362	18840.657150
611.065500	18641.697931
611.414585	18788.272000
611.763616	18777.322614
612.112594	18703.880564
612.461518	18683.166463
612.810389	18871.811481
613.159207	18736.065811
613.507971	18649.925094
613.856682	18881.112410
614.205340	18802.309093
614.553945	18956.313822
614.902496	18711.207881
615.250994	18902.131501
615.599439	18869.812663
615.947830	18856.226754
616.296169	18934.959494
616.644454	18887.187000
616.992686	18861.386375
617.340864	19093.649976
617.688990	18822.950097
618.037063	19008.945989
618.385082	18866.319144
618.733048	19121.885479
619.080961	19025.211272
619.428821	19055.130520
619.776628	18920.428368
620.124382	18857.169449
620.472083	18918.641279
620.819731	18915.505682
621.167326	18605.159648
621.514868	18649.667995
621.862357	18438.673022
622.209793	18438.269729
622.557176	18258.799611
622.904506	18088.161595
623.251783	18047.517292
623.599007	17780.668854
623.946179	17729.057521
624.293297	17655.252508
624.640363	17374.682050
624.987376	17400.268426
625.334336	17204.462449
625.681243	17055.125828
626.028097	17076.863283
626.374899	16986.162843
626.721647	16850.538161
627.068343	16697.607197
627.414987	16626.826877
627.761577	16578.867860
628.108115	16612.678878
628.454600	16341.134606
628.801032	16441.801407
629.147412	16384.302006
629.493739	16384.365021
629.840014	16203.168307
630.186236	16303.159594
630.532405	16059.326544
630.878521	16243.835296
631.224585	16163.479303
631.570597	15988.339536
631.916556	16017.603434
632.262462	15987.049001
632.608316	15903.126392
632.954117	15846.993144
633.299866	15833.838253
633.645562	15752.305152
633.991206	15530.270051
634.336797	15400.883796
634.682336	15364.771491
635.027823	15217.103492
635.373257	15090.308390
635.718639	15006.179094
636.063968	14937.266521
636.409245	14695.434809
636.754470	14732.517537
637.099642	14591.345065
637.444762	14372.737949
637.789829	14406.206169
638.134845	14230.617740
638.479808	14263.954890
638.824719	14168.984593
639.169577	14044.500860
639.514383	14076.232403
639.859137	13905.211259
640.203839	14006.112474
640.548489	13857.287530
640.893086	13844.460314
641.237632	13725.448754
641.582125	13889.273651
641.926566	13697.389692
642.270955	13713.874265
642.615292	13662.388960
642.959576	13664.914578
643.303809	13690.150595
643.647990	13628.640956
643.992118	13696.648642
644.336195	13467.293786
644.680219	13705.044684
645.024192	13601.907717
645.368112	13847.946272
645.711981	13880.461714
646.055797	14064.990630
646.399562	14045.214183
646.743274	14306.615654
647.086935	14576.057766
647.430544	14535.768864
647.774101	14589.774745
648.117606	14714.213108
648.461059	14711.090113
648.804460	14679.706409
649.147810	14405.883535
649.491108	14321.030834
649.834354	14341.008927
650.177548	14008.481816
650.520690	13816.466787
650.863781	13750.226025
651.206820	13798.180001
651.549807	13622.276499
651.892742	13398.577818
652.235626	13342.749560
652.578458	13352.380684
652.921238	13054.304819
653.263967	13257.498607
653.606644	13081.005290
653.949269	13073.534300
654.291843	12857.014222
654.634365	13029.981252
654.976836	12878.106410
655.319255	12855.509438
655.661622	12827.425169
656.003938	12759.961928
656.346203	12675.772138
656.688416	12769.214966
657.030577	12709.368908
657.372687	12603.860079
657.714746	12602.660284
658.056753	12796.127166
658.398708	12595.373296
658.740612	12601.795726
659.082465	12715.483828
659.424266	12688.672451
659.766016	12719.675547
660.107715	12638.311324
660.449362	12709.265564
660.790958	12656.522492
661.132503	12603.459307
661.473996	12685.708253
661.815438	12682.751616
662.156829	12714.710011
662.498168	12683.903519
662.839456	12695.664531
663.180693	12693.446424
663.521879	12799.419039
663.863013	12771.052467
664.204097	12735.093916
664.545129	12875.842932
664.886110	12850.758150
665.227040	12947.029065
665.567918	12936.800564
665.908746	12953.333028
666.249522	12956.740848
666.590248	13008.284125
666.930922	13123.608081
667.271545	13085.103748
667.612118	13176.046164
667.952639	13073.501533
668.293109	13104.471861
668.633528	13049.059498
668.973896	13025.953370
669.314213	13088.836723
669.654480	12834.891118
669.994695	12919.327925
670.334859	12943.386831
670.674973	12877.279660
671.015035	12908.174372
671.355047	12859.834747
671.695008	12830.974142
672.034918	12858.158564
672.374777	12885.617729
672.714585	12798.289821
673.054342	12844.179444
673.394049	12798.146148
673.733705	12893.660890
674.073310	12780.262655
674.412864	12797.639512
674.752368	12643.808702
675.091820	12701.144266
675.431223	12670.655367
675.770574	12529.540868
676.109875	12446.487858
676.449125	12398.178481
676.788324	12368.594470
677.127473	12186.893641
677.466571	12184.660410
677.805619	12065.570712
678.144616	12005.631393
678.483562	11985.945687
678.822458	11853.481808
679.161303	11827.396357
679.500098	11814.304481
679.838842	11766.836976
680.177535	11807.902216
680.516179	11884.086653
680.854771	11822.410656
681.193314	12030.307841
681.531805	12209.452805
681.870247	12653.878407
682.208638	13054.887072
682.546978	13351.775746
682.885268	13360.446530
683.223508	13076.022110
683.561697	12925.329418
683.899836	12832.481447
684.237925	12630.432001
684.575963	12540.591077
684.913951	12452.244856
685.251889	12423.958942
685.589776	12512.716017
685.927614	12430.424222
686.265401	12407.804564
686.603137	12466.833955
686.940824	12610.481634
687.278460	12754.988830
687.616046	12777.500102
687.953582	12928.979214
688.291068	12870.746325
688.628504	13104.650822
688.965889	13113.861010
689.303224	13053.432699
689.640510	12934.012806
689.977745	12616.967079
690.314930	12407.146694
690.652065	12308.629945
690.989150	12004.797082
691.326185	11784.564194
691.663170	11576.261196
692.000105	11348.653100
692.336990	11220.355735
692.673825	10951.954622
693.010610	10846.024856
693.347345	10645.376851
693.684030	10452.603127
694.020665	10394.448377
694.357251	10194.743067
694.693786	10106.908523
695.030272	9965.751174
695.366707	9855.196150
695.703093	9792.595101
696.039429	9777.171691
696.375716	9679.269963
696.711952	9558.274709
697.048139	9617.452814
697.384276	9568.223426
697.720363	9587.951982
698.056400	9514.610755
698.392388	9461.209812
698.728326	9429.503475
699.064214	9372.694712
699.400053	9406.135206
699.735842	9223.227021
700.071581	9194.525212
700.407270	9108.996996
700.742910	9034.241725
701.078501	8932.410418
701.414042	8807.294020
701.749533	8751.377542
702.084974	8604.838761
702.420366	8731.457422
702.755709	8608.032332
703.091002	8472.901683
703.426246	8503.957711
703.761440	8459.943397
704.096584	8416.249196
704.431679	8347.893670
704.766725	8328.954055
705.101721	8288.886965
705.436668	8338.438986
705.771565	8225.464208
706.106413	8317.566089
706.441212	8348.385183
706.775961	8313.039133
707.110661	8357.867593
707.445311	8477.728588
707.779913	8379.443732
708.114465	8507.897373
708.448967	8542.996407
708.783421	8713.941933
709.117825	8879.064928
709.452180	8914.698324
709.786485	8995.261003
710.120742	9284.338409
710.454949	9295.433988
710.789107	9406.331811
711.123216	9630.272468
711.457275	9799.186410
711.791286	9940.852915
712.125247	9951.610738
712.459159	9939.993399
712.793023	10153.894597
713.126837	9732.592768
713.460602	9898.068643
713.794318	9725.126819
714.127985	9746.682793
714.461602	9400.237056
714.795171	9360.391776
715.128691	9111.298283
715.462162	8872.476140
715.795584	8811.740318
716.128957	8631.864387
716.462281	8476.304462
716.795556	8516.376594
717.128782	8306.226013
717.461960	8059.736275
717.795088	8124.442006
718.128167	8026.404166
718.461198	7865.944239
718.794180	7818.537228
719.127113	7813.382649
719.459997	7628.289123
719.792833	7416.810199
720.125619	7488.213102
720.458357	7337.631316
720.791046	7334.094947
721.123686	7317.907802
721.456278	7160.515417
721.788821	7175.832963
722.121315	7080.661019
722.453761	7150.823799
722.786158	7087.249807
723.118506	7091.333142
723.450805	7056.733183
723.783056	7111.931297
724.115259	7039.842797
724.447412	7036.266098
724.779518	7091.499500
725.111574	7096.316323
725.443582	7163.351066
725.775542	7137.250492
726.107453	7333.832807
726.439315	7240.203456
726.771129	7328.950449
727.102895	7504.430494
727.434612	7606.082841
727.766281	7653.182341
728.097901	7724.439051
728.429473	7737.863643
728.760996	7725.981644
729.092471	7699.364352
729.423897	7636.435628
729.755276	7628.100080
730.086606	7535.350411
730.417887	7649.507340
730.749120	7871.744087
731.080305	8056.368785
731.411442	8155.543404
731.742530	8134.783933
732.073570	8248.774503
732.404562	8333.861619
732.735506	8200.906227
733.066401	8330.322729
733.397249	8238.765293
733.728048	7992.124320
734.058798	7663.486460
734.389501	7427.363855
734.720156	7263.654904
735.050762	7043.439660
735.381320	6955.302647
735.711831	6893.132617
736.042293	6785.458612
736.372707	6800.713143
736.703073	6668.937382
737.033391	6714.280040
737.363661	6722.257666
737.693883	6760.943481
738.024056	6842.040523
738.354182	6869.711416
738.684260	6905.392703
739.014290	7038.491767
739.344272	7138.359546
739.674207	7171.910945
740.004093	7255.039572
740.333931	7263.483505
740.663722	7274.405165
740.993464	7342.559044
741.323159	7313.915208
741.652806	7078.105154
741.982405	7125.683564
742.311956	7145.754918
742.641460	6962.793801
742.970915	6772.132322
743.300323	6769.054697
743.629683	6730.356280
743.958996	6588.268838
744.288260	6499.032853
744.617477	6446.914884
744.946647	6435.426095
745.275768	6281.885151
745.604842	6233.301031
745.933869	6215.939297
746.262847	6173.868348
746.591778	6161.333519
746.920662	6117.901458
747.249498	6121.004288
747.578286	6169.850548
747.907027	6242.589357
748.235720	6297.036339
748.564365	6271.447442
748.892963	6325.430638
749.221514	6453.896882
749.550017	6259.275576
749.878473	6158.031563
750.206881	6222.311316
750.535242	6170.967164
750.863555	6099.791113
751.191821	6107.733451
751.520039	6094.621409
751.848210	6007.434654
752.176334	6041.071753
752.504411	6082.686478
752.832440	6000.641699
753.160421	5941.413182
753.488356	5991.008054
753.816243	6014.726683
754.144082	5864.689341
754.471875	5843.052709
754.799620	5884.072578
755.127318	5897.862654
755.454969	5851.126117
755.782572	5821.385830
756.110129	5863.839907
756.437638	5832.700700
756.765100	5783.516682
757.092515	5796.956398
757.419882	5851.756261
757.747203	5821.985727
758.074477	5879.008739
758.401703	5857.546026
758.728882	5822.857847
759.056014	5900.673098
759.383099	6002.630434
759.710138	6016.780953
760.037129	6005.221587
760.364073	6010.623183
760.690970	6085.590182
761.017820	6061.972377
761.344623	6030.870978
761.671379	6141.680581
761.998088	6262.199446
762.324751	6539.523401
762.651366	7192.352824
762.977935	8585.049712
763.304456	10251.635009
763.630931	11074.421893
763.957359	10597.669891
764.283740	9636.616760
764.610074	8741.764062
764.936362	7741.100064
765.262602	7157.342011
765.588796	6630.667463
765.914943	6312.921015
766.241044	6131.079034
766.567097	5908.247431
766.893104	5653.291075
767.219064	5483.505014
767.544978	5413.682512
767.870845	5336.507488
768.196665	5230.401282
768.522438	5157.798584
768.848165	5123.649808
769.173846	5051.037028
769.499479	5002.720089
769.825066	4960.596208
770.150607	4900.427516
770.476101	4877.414649
770.801548	4863.385117
771.126949	4781.312612
771.452303	4726.714396
771.777611	4694.655178
772.102872	4715.707036
772.428087	4676.678423
772.753256	4632.636382
773.078378	4579.590841
773.403453	4510.506869
773.728482	4497.709900
774.053465	4453.839258
774.378401	4446.164102
774.703291	4433.495682
775.028135	4357.439794
775.352932	4318.043177
775.677683	4301.460301
776.002388	4314.693330
776.327046	4324.155576
776.651658	4250.718567
776.976224	4191.026264
777.300743	4197.088252
777.625216	4216.983166
777.949643	4203.452709
778.274024	4169.021628
778.598359	4130.751708
778.922647	4159.811440
779.246889	4142.149757
779.571086	4132.790855
779.895236	4118.589925
780.219339	4111.892752
780.543397	4112.709419
780.867409	4160.181965
781.191374	4172.915919
781.515294	4105.341772
781.839167	4100.973613
782.162995	4127.573261
782.486776	4114.337712
782.810511	4124.694762
783.134201	4107.650621
783.457844	4058.509453
783.781441	4011.142772
784.104993	4017.313144
784.428498	4031.314949
784.751958	4023.778424
785.075372	4004.153212
785.398739	3970.314467
785.722061	3983.083709
786.045337	4031.345196
786.368568	4055.227662
786.691752	3965.127119
787.014891	4029.454763
787.337983	4163.554497
787.661030	4327.873427
787.984031	4487.098271
788.306987	4646.925533
788.629897	4736.665633
788.952760	4694.393038
789.275579	4625.447697
789.598351	4552.900452
789.921078	4398.333634
790.243759	4200.153273
790.566395	4191.580791
790.888984	4182.050490
791.211529	4075.233481
791.534027	4015.488246
791.856480	3997.677850
792.178888	3937.854477
792.501249	3891.501067
792.823566	3905.893562
793.145836	3925.944751
793.468062	3870.476935
793.790241	3834.205833
794.112375	3866.045761
794.434464	3936.392542
794.756507	3954.870892
795.078505	3924.883588
795.400457	3973.099704
795.722364	4123.215183
796.044226	4225.432139
796.366042	4297.172800
796.687812	4264.680043
797.009538	4268.750774
797.331218	4231.365578
797.652852	4208.466136
797.974442	4188.480482
798.295986	4178.466230
798.617484	4092.796861
798.938938	4017.792054
799.260346	4063.359043
799.581709	4047.940674
799.903026	3972.071309
800.224299	3934.628139
800.545526	3927.741922
800.866708	3887.251375
801.187845	3832.869928
801.508936	3868.089949
801.829983	3853.997403
802.150984	3781.306486
802.471940	3778.296917
802.792851	3781.460241
803.113717	3784.278246
803.434538	3781.982000
803.755314	3718.425653
804.076045	3705.873180
804.396731	3726.481417
804.717372	3747.306423
805.037967	3730.635328
805.358518	3718.619738
805.679024	3752.035026
805.999485	3764.174124
806.319901	3771.168725
806.640272	3780.144500
806.960598	3791.812250
807.280879	3767.733179
807.601115	3787.174389
807.921306	3804.147954
808.241453	3840.313191
808.561554	3806.413952
808.881611	3744.501021
809.201623	3789.679842
809.521590	3795.318373
809.841513	3769.033797
810.161390	3797.150832
810.481223	3769.210237
810.801011	3725.251375
811.120755	3719.817012
811.440453	3752.980242
811.760107	3747.084613
812.079716	3701.532747
812.399281	3680.105322
812.718801	3705.459805
813.038276	3674.078623
813.357707	3671.497552
813.677093	3683.797967
813.996434	3629.855101
814.315731	3649.757576
814.634983	3650.861589
814.954191	3667.273065
815.273354	3692.602343
815.592473	3680.861495
815.911547	3699.722972
816.230577	3744.367431
816.549562	3793.548928
816.868502	3836.078622
817.187399	3856.901108
817.506250	3854.859441
817.825058	3837.527954
818.143821	3936.871452
818.462539	4034.800907
818.781213	4072.002102
819.099843	4143.057165
819.418429	4417.427004
819.736970	4658.348788
820.055466	4917.827058
820.373919	5291.207680
820.692327	5709.535229
821.010691	6219.460543
821.329011	7748.392093
821.647286	10695.445591
821.965517	15488.292363
822.283704	19467.852306
822.601847	21364.399918
822.919945	19406.909797
823.237999	16738.448105
823.556010	14213.908835
823.873976	12033.962677
824.191897	9917.441797
824.509775	8593.660003
824.827609	7470.715257
825.145398	6954.576721
825.463144	6834.183884
825.780845	6941.068949
826.098502	7188.844181
826.416116	8160.950042
826.733685	9540.000526
827.051210	10625.749118
827.368692	10514.316933
827.686129	9168.437241
828.003522	7670.496184
828.320872	6640.117105
828.638177	5921.503145
828.955439	5350.524417
829.272656	4843.845605
829.589830	4583.384309
829.906960	4402.164911
830.224046	4207.541084
830.541088	4084.547013
830.858086	4037.361813
831.175041	3957.852734
831.491952	3954.878454
831.808819	3958.540852
832.125642	4043.633008
832.442421	4204.481104
832.759157	4506.809182
833.075849	5106.784628
833.392497	6006.958265
833.709101	6796.821373
834.025662	7085.873572
834.342179	6646.085832
834.658653	5967.138190
834.975083	5300.095234
835.291469	4716.974886
835.607811	4323.054084
835.924110	4180.787681
836.240366	3969.936380
836.556578	3767.213940
836.872746	3658.075480
837.188871	3612.324488
837.504952	3546.708830
837.820990	3461.231025
838.136984	3424.662495
838.452935	3446.823407
838.768842	3441.058848
839.084706	3469.311995
839.400526	3641.553098
839.716303	4015.841127
840.032037	4575.812496
840.347727	4794.018841
840.663373	4466.716886
840.978977	4074.852874
841.294537	3769.195113
841.610054	3545.836710
841.925527	3436.776388
842.240957	3364.145964
842.556344	3312.232161
842.871687	3248.524580
843.186987	3198.602033
843.502244	3164.027279
843.817458	3128.973616
844.132629	3101.017898
844.447756	3105.431428
844.762840	3088.183120
845.077881	3056.018038
845.392879	3039.568753
845.707833	3037.650594
846.022745	3036.115562
846.337613	3036.418032
846.652438	3021.027389
846.967221	3019.567975
847.281960	3005.805625
847.596656	3003.196828
847.911309	3004.134482
848.225919	3000.174656
848.540485	2992.743995
848.855009	2993.626197
849.169490	2981.461893
849.483928	2972.725573
849.798323	2971.346818
850.112675	2967.845736
850.426984	2985.083962
850.741251	2976.332519
851.055474	2965.007567
851.369654	2960.142853
851.683792	2970.331025
851.997887	2976.884525
852.311938	2976.836634
852.625947	2965.085705
852.939914	2970.741879
853.253837	2973.872436
853.567718	2958.746454
853.881555	2960.420117
854.195350	2974.116932
854.509103	2968.730459
854.822812	2959.941207
855.136479	2956.525825
855.450103	2961.569500
855.763685	2953.725464
856.077224	2949.649692
856.390720	2964.284161
856.704173	2971.188021
857.017584	2961.536732
857.330953	2964.906744
857.644278	2973.272538
857.957561	2982.790237
858.270802	2982.928869
858.584000	2982.187819
858.897155	2968.090232
859.210268	2968.380099
859.523339	2968.274234
859.836367	2967.150057
860.149352	2961.889613
860.462295	2959.946248
860.775195	2962.804583
861.088054	2961.942545
861.400869	2944.661470
861.713642	2944.215328
862.026373	2960.883903
862.339062	2960.742751
862.651708	2967.132413
862.964312	2970.515027
863.276873	2963.243163
863.589392	2975.021819
863.901869	2988.275012
864.214303	3012.933816
864.526696	3026.731454
864.839045	3020.966895
865.151353	3019.898170
865.463619	3021.382790
865.775842	3022.822040
866.088023	3042.583363
866.400162	3043.258877
866.712258	3013.498426
867.024313	3006.284534
867.336325	3017.982532
867.648296	3039.548588
867.960224	3029.841846
868.272110	3013.616893
868.583954	3020.203160
868.895755	3033.912578
869.207515	3019.716689
869.519233	3030.908050
869.830909	3038.789894
870.142542	3047.120401
870.454134	3046.066800
870.765684	3050.291287
871.077191	3052.408572
871.388657	3061.671692
871.700081	3072.910944
872.011463	3083.847727
872.322803	3083.930907
872.634101	3083.245310
872.945357	3102.381530
873.256571	3127.907412
873.567744	3119.740743
873.878874	3113.530041
874.189963	3136.424442
874.501010	3133.472846
874.812015	3126.841208
875.122979	3125.157463
875.433900	3122.901546
875.744780	3133.992085
876.055618	3139.575163
876.366415	3137.173053
876.677169	3145.077582
876.987882	3144.066831
877.298554	3143.058600
877.609183	3165.443844
877.919771	3190.258923
878.230317	3219.555589
878.540822	3266.955038
878.851285	3309.368786
879.161707	3358.560365
879.472087	3477.095536
879.782425	3734.146491
880.092722	4198.577913
880.402977	4747.625102
880.713191	5417.165950
881.023363	6661.947822
881.333494	7978.205694
881.643583	8483.014238
881.953631	8136.346690
882.263637	7436.009433
882.573602	6808.534494
882.883526	6228.335495
883.193408	5657.823073
883.503248	5205.818095
883.813048	4890.967791
884.122806	4547.425759
884.432522	4224.189495
884.742197	3980.212772
885.051831	3790.375521
885.361424	3663.464473
885.670975	3590.639965
885.980485	3492.289574
886.289954	3415.109508
886.599382	3368.972868
886.908768	3333.341993
887.218113	3291.729789
887.527417	3225.153790
887.836680	3179.092768
888.145901	3176.252077
888.455082	3160.874038
888.764221	3104.955039
889.073319	3077.281625
889.382376	3076.485122
889.691392	3081.561564
890.000366	3079.882860
890.309300	3064.459450
890.618193	3079.565267
890.927044	3091.853080
891.235855	3092.652103
891.544625	3082.756318
891.853353	3094.572782
892.162041	3111.513580
892.470687	3158.214829
892.779293	3205.163095
893.087858	3254.228645
893.396381	3337.483301
893.704864	3472.261070
894.013306	3730.945359
894.321707	4046.690468
894.630068	4236.550404
894.938387	4217.363773
895.246665	4181.168288
895.554903	4045.059655
895.863100	3838.911751
896.171256	3664.419772
896.479371	3517.754963
896.787446	3391.456415
897.095480	3287.772483
897.403473	3223.802761
897.711425	3191.804037
898.019336	3179.428004
898.327207	3145.044815
898.635038	3109.739094
898.942827	3095.896085
899.250576	3082.688262
899.558284	3051.130639
899.865952	3031.850746
900.173579	3010.178826
900.481165	3000.830006
900.788711	2986.818119
901.096216	2961.645117
901.403681	2952.830660
901.711105	2960.541104
902.018489	2959.772328
902.325832	2954.970629
902.633135	2972.654997
902.940397	3006.987775
903.247619	3102.346242
903.554800	3314.273829
903.861941	3691.311807
904.169041	4145.408863
904.476101	4434.645065
904.783121	4349.784802
905.090100	4080.854368
905.397039	3793.564051
905.703938	3540.674568
906.010796	3356.861496
906.317614	3238.517889
906.624391	3143.605565
906.931129	3070.337435
907.237826	3006.085409
907.544483	2959.278295
907.851099	2927.607246
908.157675	2907.528331
908.464211	2885.115361
908.770707	2870.652290
909.077163	2855.866586
909.383578	2844.707992
909.689954	2830.905313
909.996289	2831.921105
910.302584	2833.032680
910.608839	2833.927484
910.915054	2825.468428
911.221229	2821.241421
911.527363	2822.645382
911.833458	2830.071002
912.139513	2836.528720
912.445527	2837.368072
912.751502	2845.325533
913.057436	2856.615197
913.363331	2871.282434
913.669186	2895.164901
913.975000	2934.480860
914.280775	2998.143071
914.586510	3069.523289
914.892205	3155.109478
915.197859	3296.513844
915.503475	3510.588962
915.809050	3739.260742
916.114585	3881.156620
916.420081	3883.107546
916.725536	3814.651198
917.030952	3687.392310
917.336328	3556.430695
917.641665	3424.420520
917.946961	3319.171310
918.252218	3241.199783
918.557435	3159.971671
918.862612	3099.475304
919.167750	3048.504198
919.472848	3009.800739
919.777906	2978.134731
920.082925	2951.290587
920.387904	2918.633993
920.692843	2903.785274
920.997743	2892.896382
921.302603	2879.930534
921.607423	2867.289841
921.912204	2854.558407
922.216946	2840.291941
922.521647	2833.816579
922.826310	2824.729899
923.130932	2817.755463
923.435516	2808.411684
923.740059	2799.451033
924.044564	2791.639765
924.349028	2786.245731
924.653454	2778.583177
924.957840	2774.613268
925.262186	2768.909203
925.566493	2762.146495
925.870761	2758.244642
926.174989	2754.909918
926.479178	2749.904053
926.783328	2744.560430
927.087438	2745.903897
927.391509	2742.385172
927.695541	2739.002557
927.999533	2734.899058
928.303486	2732.025601
928.607400	2731.503841
928.911275	2733.943760
929.215110	2730.021742
929.518906	2727.123078
929.822663	2728.688357
930.126381	2729.752040
930.430060	2730.946794
930.733699	2729.010991
931.037299	2733.172463
931.340861	2733.648852
931.644383	2733.507700
931.947866	2733.011146
932.251309	2731.536609
932.554714	2730.354458
932.858080	2729.174828
933.161407	2727.181052
933.464694	2726.172821
933.767943	2722.190309
934.071153	2725.129302
934.374323	2724.675598
934.677455	2722.560834
934.980548	2721.204764
935.283602	2723.299363
935.586617	2721.434136
935.889593	2721.126626
936.192530	2722.092007
936.495428	2720.562017
936.798287	2722.079404
937.101108	2731.294633
937.403890	2728.927812
937.706632	2738.357290
938.009336	2743.985738
938.312002	2755.121647
938.614628	2762.375867
938.917216	2766.701177
939.219765	2769.103287
939.522275	2767.296033
939.824747	2765.183790
940.127179	2762.307812
940.429573	2757.175917
940.731929	2756.296236
941.034246	2752.596029
941.336524	2750.713158
941.638763	2745.863568
941.940964	2745.624113
942.243126	2743.121180
942.545250	2742.828793
942.847335	2740.721591
943.149381	2733.994171
943.451389	2730.858573
943.753359	2728.940414
944.055290	2728.421176
944.357182	2725.388922
944.659036	2725.179714
944.960851	2720.791389
945.262628	2724.337841
945.564367	2723.851370
945.866067	2725.472101
946.167729	2722.802810
946.469352	2725.545197
946.770937	2727.042420
947.072484	2722.759960
947.373992	2722.938921
947.675462	2720.032696
947.976893	2716.657643
948.278286	2717.255020
948.579641	2714.253013
948.880958	2712.503732
949.182236	2716.128322
949.483476	2712.849051
949.784678	2713.630430
950.085841	2712.360059
950.386967	2714.454659
950.688054	2715.052036
950.989103	2716.425750
951.290114	2717.484392
951.591087	2720.123436
951.892021	2723.198540
952.192917	2726.087121
952.493776	2729.061402
952.794596	2727.624673
953.095378	2727.279354
953.396122	2726.198027
953.696828	2724.584857
953.997496	2720.998077
954.298126	2723.707697
954.598718	2718.288456
954.899272	2716.206460
955.199788	2712.985162
955.500266	2710.305789
955.800706	2708.589276
956.101108	2705.695654
956.401472	2706.406457
956.701798	2702.197093
957.002087	2702.418904
957.302337	2701.927392
957.602550	2700.064685
957.902724	2694.915147
958.202861	2693.816175
958.502960	2693.798531
958.803022	2694.111082
959.103045	2693.211237
959.403031	2690.418437
959.702979	2691.605629
960.002889	2688.870803
960.302762	2691.829960
960.602596	2690.231915
960.902393	2691.265351
961.202153	2691.477080
961.501875	2689.332069
961.801559	2686.390555
962.101205	2685.525997
962.400814	2685.568847
962.700385	2689.561441
962.999918	2683.625482
963.299414	2686.844259
963.598873	2682.922242
963.898293	2683.297807
964.197677	2689.591688
964.497022	2685.793179
964.796331	2687.852490
965.095601	2687.524815
965.394835	2687.239990
965.694030	2684.510205
965.993189	2686.947603
966.292309	2685.372242
966.591393	2685.261337
966.890439	2685.548683
967.189447	2685.082376
967.488419	2687.368539
967.787353	2687.166893
968.086249	2685.712520
968.385108	2683.960719
968.683930	2681.941737
968.982714	2688.349044
969.281462	2683.915349
969.580172	2684.923580
969.878844	2686.143539
970.177480	2687.106399
970.476078	2683.653209
970.774639	2684.706810
971.073162	2685.137829
971.371649	2685.334434
971.670098	2685.846111
971.968510	2685.941893
972.266885	2688.457428
972.565223	2688.928776
972.863524	2686.675381
973.161788	2685.246213
973.460014	2686.357788
973.758204	2685.425174
974.056356	2686.380473
974.354471	2685.710000
974.652550	2685.825946
974.950591	2684.661440
975.248595	2685.707479
975.546563	2686.375432
975.844493	2684.243024
976.142386	2683.111285
976.440243	2685.551203
976.738062	2683.759073
977.035845	2684.026254
977.333590	2686.708148
977.631299	2681.593897
977.928971	2679.552230
978.226606	2680.426870
978.524204	2680.953671
978.821765	2679.521983
979.119290	2683.499454
979.416777	2682.692869
979.714228	2683.824608
980.011642	2683.335616
980.309020	2682.841583
980.606360	2682.740760
980.903664	2682.990297
981.200931	2685.601615
981.498162	2685.578930
981.795356	2686.574557
982.092513	2686.617407
982.389633	2689.929445
982.686717	2694.496731
982.983764	2696.556042
983.280775	2699.800025
983.577749	2700.866229
983.874686	2702.055941
984.171587	2697.705425
984.468451	2696.868594
984.765279	2691.976154
985.062070	2692.792821
985.358824	2689.773170
985.655543	2689.402645
985.952224	2688.840556
986.248869	2685.601615
986.545478	2686.342664
986.842050	2684.870647
987.138586	2682.745801
987.435086	2683.706141
987.731549	2681.346881
988.027975	2683.446522
988.324366	2680.472241
988.620719	2679.703465
988.917037	2680.593228
989.213318	2680.101716
989.509563	2679.330419
989.805772	2680.381500
990.101944	2680.353774
990.398080	2680.184895
990.694180	2679.491736
990.990244	2679.479133
991.286271	2681.130111
991.582262	2681.417457
991.878217	2678.922086
992.174136	2681.472910
992.470019	2682.372756
992.765865	2678.937209
993.061676	2675.047959
993.357450	2677.616427
993.653188	2675.620130
993.948890	2679.211952
994.244556	2683.890143
994.540186	2682.483661
994.835780	2682.153466
995.131337	2684.258147
995.426859	2682.150945
995.722345	2683.832170
996.017795	2684.827798
996.313208	2683.360822
996.608586	2686.551872
996.903928	2684.658919
997.199234	2684.699248
997.494504	2682.844104
997.789738	2685.309228
998.084936	2685.331913
998.380099	2682.622293
998.675225	2680.744463
998.970316	2680.867971
999.265371	2681.606500
999.560390	2679.648012
999.855373	2680.137004
1000.150320	2678.491067
1000.445232	2679.912673
1000.740108	2680.948630
1001.034948	2680.459638
1001.329752	2677.253464
1001.624521	2679.065759
1001.919254	2678.486026
1002.213951	2679.332940
1002.508613	2677.951664
1002.803239	2677.523166
1003.097829	2680.489885
1003.392384	2677.187929
1003.686903	2678.428053
1003.981386	2675.468896
1004.275834	2677.376972
1004.570246	2678.433094
1004.864623	2679.499298
1005.158964	2678.266736
1005.453270	2677.142559
1005.747540	2677.414781
1006.041775	2677.813032
1006.335974	2678.854030
1006.630138	2676.918227
1006.924266	2676.043587
1007.218359	2678.213804
1007.512416	2673.160047
1007.806438	2673.795232
1008.100425	2675.373114
1008.394376	2672.948319
1008.688292	2675.221879
1008.982172	2680.200018
1009.276017	2678.213804
1009.569827	2678.483506
1009.863602	2677.006447
1010.157341	2675.478978
1010.451045	2678.909483
1010.744714	2675.090809
1011.038347	2675.733556
1011.331945	2678.891839
1011.625508	2678.533917
1011.919036	2674.972342
1012.212528	2679.532066
1012.505986	2676.696417
1012.799408	2678.387724
1013.092795	2674.914369
1013.386147	2677.840758
1013.679464	2677.654236
1013.972745	2676.462003
1014.265992	2676.792198
1014.559204	2677.954184
1014.852380	2677.583660
1015.145521	2676.893022
1015.438628	2675.277332
1015.731699	2677.515604
1016.024736	2677.679442
1016.317737	2675.504184
1016.610703	2677.334122
1016.903635	2677.424863
1017.196531	2675.476457
1017.489393	2676.759431
1017.782219	2676.593073
1018.075011	2677.901252
1018.367768	2674.679955
1018.660490	2675.466375
1018.953177	2675.466375
1019.245829	2675.466375
