Dividing Wavelength (nm)	Counts (n)	Blue Motor Position (mm): 20.200000	Red Motor Position (mm): 0.000000	
326.493990	2185.312466
326.888308	2185.312466
327.282561	2185.312466
327.676750	2144.587505
328.070874	2140.007616
328.464933	2142.250930
328.858929	2143.231434
329.252859	2150.278967
329.646726	2159.098466
330.040528	2169.256391
330.434265	2184.163083
330.827938	2202.991793
331.221547	2219.680532
331.615091	2236.276011
332.008571	2253.723444
332.401986	2272.773965
332.795338	2291.259876
333.188625	2310.113791
333.581847	2328.985351
333.975006	2348.575274
334.368100	2365.904241
334.761129	2382.197250
335.154095	2401.199879
335.546996	2422.133271
335.939833	2456.410596
336.332606	2470.354428
336.725315	2484.779690
337.117960	2496.727224
337.510540	2506.476816
337.903056	2521.733868
338.295508	2526.727131
338.687896	2537.260622
339.080220	2542.145500
339.472480	2552.018600
339.864676	2557.369784
340.256807	2563.706515
340.648875	2566.736248
341.040879	2568.130127
341.432818	2570.091136
341.824694	2573.246898
342.216506	2575.729667
342.608253	2577.927610
342.999937	2577.884760
343.391557	2576.445511
343.783113	2575.792681
344.174605	2572.964594
344.566033	2575.497774
344.957397	2574.038360
345.348697	2572.929306
345.739934	2572.049624
346.131106	2568.465364
346.522215	2565.788511
346.913260	2566.758933
347.304241	2561.886658
347.695159	2562.035372
348.086012	2560.790207
348.476802	2556.837943
348.867528	2551.479196
349.258191	2553.210832
349.648789	2550.312169
350.039324	2547.201777
350.429796	2548.421736
350.820203	2548.325954
351.210548	2546.334699
351.600828	2543.816642
351.991045	2545.994421
352.381198	2542.952084
352.771288	2544.890408
353.161314	2542.072403
353.551276	2543.010058
353.941175	2540.761703
354.331010	2542.747918
354.720782	2543.703216
355.110490	2541.480067
355.500135	2542.039636
355.889717	2542.415202
356.279235	2541.540561
356.668689	2541.170037
357.058080	2540.587783
357.447408	2540.998637
357.836672	2540.310520
358.225873	2542.770603
358.615010	2542.498381
359.004084	2546.518701
359.393095	2541.890922
359.782043	2541.830428
360.170927	2547.201777
360.559748	2541.006199
360.948505	2545.777651
361.337199	2547.053063
361.725830	2543.690613
362.114398	2545.961653
362.502903	2545.475182
362.891344	2548.953578
363.279722	2546.581715
363.668037	2548.194884
364.056289	2551.854762
364.444478	2549.616490
364.832603	2551.811912
365.220665	2553.674619
365.608665	2553.195709
365.996601	2551.476676
366.384474	2553.498178
366.772284	2552.678991
367.160031	2553.110009
367.547715	2553.871224
367.935336	2553.669578
368.322893	2552.071532
368.710388	2549.752601
369.097820	2550.281922
369.485189	2551.983312
369.872495	2555.151677
370.259738	2554.924825
370.646918	2556.079249
371.034035	2556.676626
371.421090	2556.343910
371.808081	2556.938766
372.195010	2556.598488
372.581875	2558.922460
372.968678	2560.573438
373.355418	2557.475649
373.742096	2557.493293
374.128710	2560.250804
374.515262	2558.851884
374.901751	2557.861297
375.288177	2559.103941
375.674540	2560.205433
376.060841	2558.723334
376.447079	2559.028324
376.833254	2559.489590
377.219367	2559.408931
377.605417	2558.819116
377.991404	2560.414641
378.377329	2561.228788
378.763191	2560.608726
379.148991	2558.897254
379.534727	2562.179045
379.920402	2560.954045
380.306013	2560.727193
380.691563	2561.700136
381.077049	2563.898079
381.462474	2565.690209
381.847835	2563.895558
382.233134	2562.597461
382.618371	2563.845147
383.003545	2564.530743
383.388657	2561.702656
383.773706	2564.215671
384.158693	2566.030487
384.543618	2565.392781
384.928480	2562.751216
385.313280	2561.995043
385.698017	2563.381360
386.082692	2566.469067
386.467305	2564.694581
386.851856	2566.617781
387.236344	2564.908830
387.620770	2564.313974
388.005133	2561.942111
388.389435	2565.153326
388.773674	2561.238870
389.157851	2563.875393
389.541965	2568.508214
389.926018	2569.120714
390.310008	2567.663821
390.693936	2569.798749
391.077802	2570.438976
391.461606	2570.111301
391.845348	2568.707339
392.229027	2571.570715
392.612645	2568.167936
392.996200	2572.934347
393.379694	2569.201372
393.763125	2569.352607
394.146494	2571.628688
394.529801	2572.392423
394.913047	2572.836044
395.296230	2570.847309
395.679351	2570.824624
396.062410	2569.644994
396.445408	2571.545509
396.828343	2570.648184
397.211217	2573.221693
397.594028	2570.678431
397.976778	2573.572053
398.359466	2575.094481
398.742092	2573.632547
399.124656	2570.751527
399.507158	2575.124728
399.889598	2572.972156
400.271977	2572.957032
400.654294	2575.880901
401.036549	2576.158165
401.418742	2574.524831
401.800874	2572.324367
402.182944	2572.989800
402.564952	2576.034657
402.946898	2576.730336
403.328783	2575.036508
403.710606	2576.271591
404.092367	2577.088258
404.474067	2576.886612
404.855705	2578.406519
405.237282	2578.373752
405.618797	2576.374934
406.000250	2579.230748
406.381642	2580.112950
406.762972	2572.795715
407.144240	2573.821590
407.525447	2576.475758
407.906593	2574.860068
408.287677	2578.172106
408.668700	2576.001889
409.049661	2579.820563
409.430560	2581.847107
409.811399	2579.215625
410.192176	2579.263516
410.572891	2579.616396
410.953545	2579.066911
411.334138	2576.957188
411.714669	2579.356777
412.095139	2578.499781
412.475547	2579.185378
412.855894	2581.111098
413.236180	2580.357446
413.616405	2582.820050
413.996568	2580.851479
414.376670	2578.078844
414.756711	2580.838876
415.136691	2583.223342
415.516609	2581.927765
415.896466	2584.062694
416.276262	2581.950451
416.655997	2582.835173
417.035670	2582.532704
417.415283	2584.276943
417.794834	2585.265009
418.174324	2582.343661
418.553753	2583.256109
418.933121	2583.694690
419.312428	2580.624627
419.691674	2582.419278
420.070859	2582.515060
420.449983	2584.798703
420.829045	2581.322827
421.208047	2584.009762
421.586988	2583.311562
421.965867	2586.142170
422.344686	2583.760225
422.723444	2585.980853
423.102141	2583.228383
423.480777	2585.534711
423.859352	2584.410534
424.237866	2585.075966
424.616319	2586.613518
424.994712	2588.395566
425.373044	2583.689649
425.751314	2580.695203
426.129524	2583.475400
426.507673	2583.881212
426.885762	2582.913311
427.263789	2586.946234
427.641756	2584.735688
428.019662	2586.661409
428.397508	2589.429002
428.775292	2587.251224
429.153016	2588.670309
429.530679	2588.735844
429.908282	2587.155442
430.285824	2588.511512
430.663305	2586.381625
431.040726	2587.349526
431.418086	2588.370360
431.795385	2589.010587
432.172624	2588.997984
432.549802	2588.781214
432.926920	2587.876327
433.303977	2589.708786
433.680974	2590.437233
434.057910	2588.224167
434.434786	2588.425813
434.811601	2588.597212
435.188355	2591.672316
435.565050	2589.431523
435.941683	2589.965885
436.318257	2592.103334
436.694770	2590.686770
437.071222	2594.777667
437.447614	2590.631318
437.823946	2592.572162
438.200218	2589.711307
438.576429	2591.815989
438.952580	2591.647110
439.328670	2590.414548
439.704700	2592.373036
440.080670	2594.180290
440.456580	2591.964703
440.832429	2593.877821
441.208218	2593.219950
441.583947	2594.243304
441.959616	2595.238932
442.335224	2595.906885
442.710773	2595.395208
443.086261	2593.048551
443.461689	2596.310177
443.837057	2595.218767
444.212365	2594.951586
444.587612	2592.829261
444.962800	2590.719538
445.337927	2593.771956
445.712995	2591.626945
446.088002	2598.669437
446.462949	2596.058120
446.837837	2596.718511
447.212664	2597.890579
447.587431	2596.216916
447.962139	2599.972576
448.336786	2600.643049
448.711374	2600.133892
449.085901	2598.661876
449.460369	2600.048193
449.834776	2599.556680
450.209124	2601.063985
450.583412	2598.523244
450.957640	2601.399222
451.331808	2601.847885
451.705917	2599.783532
452.079965	2602.853595
452.453954	2601.918461
452.827883	2600.179263
453.201752	2599.710436
453.575562	2602.354521
453.949311	2602.442741
454.323001	2603.549274
454.696632	2600.476691
455.070202	2603.176229
455.443713	2601.520210
455.817164	2603.884511
456.190556	2603.047679
456.563888	2603.650097
456.937160	2603.493822
457.310373	2605.323760
457.683526	2604.587752
458.056619	2604.383585
458.429653	2603.612289
458.802628	2603.420725
459.175542	2606.127824
459.548398	2608.582866
459.921194	2605.913575
460.293930	2609.303751
460.666607	2608.958432
461.039224	2609.112187
461.411782	2608.315685
461.784280	2609.076899
462.156719	2610.848865
462.529099	2611.703341
462.901419	2608.577825
463.273680	2607.604883
463.645882	2607.226796
464.018024	2608.121601
464.390106	2603.158585
464.762130	2610.019595
465.134094	2611.189143
465.505999	2613.346757
465.877845	2617.281377
466.249631	2623.509723
466.621358	2623.847480
466.993026	2623.842439
467.364634	2625.261524
467.736184	2618.612242
468.107674	2618.307252
468.479105	2616.731892
468.850477	2619.270113
469.221790	2620.696759
469.593043	2617.508229
469.964238	2618.317334
470.335373	2617.435132
470.706449	2619.852366
471.077467	2619.474279
471.448425	2621.387397
471.819324	2628.140023
472.190164	2634.101187
472.560945	2627.570372
472.931667	2625.654734
473.302330	2625.072481
473.672934	2624.893520
474.043479	2625.400156
474.413965	2623.335803
474.784393	2625.367388
475.154761	2630.814355
475.525070	2629.483490
475.895321	2629.422996
476.265513	2631.280662
476.635645	2635.459778
477.005719	2635.235447
477.375734	2636.851137
477.745691	2637.405663
478.115588	2642.451858
478.485427	2645.960502
478.855207	2649.423774
479.224928	2656.025165
479.594591	2662.631597
479.964194	2667.808862
480.333739	2667.554284
480.703226	2669.989161
481.072653	2674.619461
481.442022	2673.964111
481.811333	2683.562468
482.180584	2683.600277
482.549777	2690.113447
482.918912	2685.901563
483.287988	2695.928418
483.657005	2699.464788
484.025964	2706.325798
484.394864	2709.093392
484.763706	2713.711089
485.132489	2714.167313
485.501213	2723.750547
485.869879	2731.276989
486.238487	2738.745459
486.607036	2745.598907
486.975527	2750.483785
487.343959	2762.932915
487.712333	2773.279883
488.080648	2784.854372
488.448905	2794.830816
488.817104	2806.170891
489.185244	2828.651917
489.553326	2842.860409
489.921350	2873.747559
490.289315	2927.254366
490.657222	2973.658187
491.025070	3007.103722
491.392861	3030.345962
491.760593	3042.225441
492.128267	3050.697100
492.495883	3055.763459
492.863440	3071.423804
493.230939	3083.202460
493.598380	3122.437760
493.965763	3143.691265
494.333088	3163.175324
494.700354	3199.045655
495.067563	3238.049062
495.434713	3273.296810
495.801805	3315.360197
496.168839	3357.398379
496.535815	3401.077457
496.902733	3455.950416
497.269593	3490.520129
497.636395	3552.115467
498.003139	3609.173767
498.369825	3668.419927
498.736453	3727.015779
499.103023	3781.256074
499.469535	3848.885673
499.835989	3928.457766
500.202385	4003.122296
500.568723	4038.312070
500.935003	4122.786685
501.301226	4180.054193
501.667390	4312.475222
502.033497	4434.498872
502.399546	4469.935663
502.765537	4537.585427
503.131470	4646.988548
503.497345	4750.911934
503.863163	4768.689563
504.228923	4922.132204
504.594625	5044.871697
504.960269	5076.268003
505.325856	5236.085183
505.691385	5288.538389
506.056856	5441.242501
506.422270	5571.183282
506.787625	5605.911791
507.152924	5805.697759
507.518164	5896.100771
507.883347	5979.017669
508.248472	6038.828439
508.613540	6288.153826
508.978550	6405.463997
509.343503	6519.923395
509.708398	6695.877308
510.073236	6835.655901
510.438016	7000.090778
510.802738	7093.314316
511.167403	7271.733353
511.532010	7344.988880
511.896561	7650.724779
512.261053	7822.759195
512.625488	7909.625837
512.989866	8027.238477
513.354186	8118.848845
513.718449	8330.317688
514.082655	8544.483547
514.446803	8661.763471
514.810894	8923.308614
515.174927	8941.303013
515.538904	9109.838868
515.902822	9388.589470
516.266684	9509.004992
516.630488	9620.979101
516.994235	9792.113671
517.357925	10034.736844
517.721558	10280.692220
518.085133	10479.474998
518.448651	10603.590726
518.812112	10710.034690
519.175516	10905.066850
519.538863	11173.503251
519.902152	11253.710529
520.265385	11553.898638
520.628560	11648.596713
520.991678	11837.410610
521.354739	12034.078624
521.717743	12260.507090
522.080690	12325.800115
522.443580	12696.627392
522.806413	12844.280267
523.169189	13112.041154
523.531908	13283.175724
523.894569	13316.205364
524.257174	13528.730328
524.619722	13794.081543
524.982213	13810.926558
525.344647	14053.395976
525.707025	14266.024284
526.069345	14470.833762
526.431608	14630.139264
526.793815	14926.349903
527.155964	14766.409214
527.518057	15058.052567
527.880093	15207.484970
528.242072	15446.604541
528.603995	15461.733044
528.965860	15538.640887
529.327669	15788.551048
529.689421	15909.518575
530.051117	15988.717623
530.412755	16302.496682
530.774337	16303.688915
531.135862	16405.111889
531.497331	16686.652770
531.858743	16567.119451
532.220098	17068.179896
532.581396	16961.718288
532.942638	17167.939289
533.303824	17346.335642
533.664953	17517.878545
534.026025	17470.305177
534.387040	17752.942508
534.747999	18004.793513
535.108902	18237.984687
535.469748	18049.624494
535.830537	18349.477366
536.191270	18533.189615
536.551947	18663.395057
536.912567	18521.080764
537.273131	18886.007370
537.633638	18803.418147
537.994089	19143.315424
538.354483	18912.100382
538.714821	19418.814482
539.075103	19608.671897
539.435328	19579.534028
539.795497	19342.322534
540.155609	19792.921029
540.515665	20141.824328
540.875665	19670.622637
541.235609	19983.582509
541.595496	20126.065681
541.955328	20500.736838
542.315102	20548.158972
542.674821	20337.385809
543.034483	20341.411171
543.394090	20558.808410
543.753640	20482.056842
544.113134	21121.280191
544.472571	20903.724156
544.831953	21272.668562
545.191278	21006.727532
545.550548	21090.846745
545.909761	21327.191161
546.268918	21623.001028
546.628019	21668.323521
546.987064	21540.570601
547.346053	21415.597876
547.704986	21596.325762
548.063863	21818.391110
548.422684	21867.794417
548.781449	21581.955953
549.140158	22004.631497
549.498811	21718.480482
549.857408	21532.731606
550.215949	22012.180625
550.574434	21770.238008
550.932864	22052.386348
551.291237	22229.464438
551.649555	22194.753573
552.007817	22295.760652
552.366022	22254.516452
552.724173	22328.452535
553.082267	22315.058189
553.440305	22818.278769
553.798288	22205.019883
554.156215	22753.381475
554.514086	22863.248382
554.871902	22314.276811
555.229661	22638.803610
555.587365	22564.194533
555.945014	22428.388369
556.302606	22747.294282
556.660143	22706.004711
557.017625	23001.867510
557.375050	22599.785079
557.732421	23001.895236
558.089735	22863.394576
558.446994	22949.192493
558.804197	22996.980111
559.161345	23009.913192
559.518437	22772.147170
559.875474	23011.443182
560.232455	23200.178941
560.589381	23082.377258
560.946251	23060.380183
561.303065	23414.642228
561.659825	23516.967569
562.016528	23153.928875
562.373177	22928.122991
562.729770	23288.986427
563.086307	23197.098796
563.442789	23380.062433
563.799216	23228.089289
564.155587	23258.936109
564.511904	23253.852106
564.868164	23194.991593
565.224370	23209.275703
565.580520	23111.396660
565.936615	23271.344909
566.292654	22952.680972
566.648638	23284.877887
567.004567	23116.455457
567.360441	23077.389036
567.716260	22809.683602
568.072023	23158.745697
568.427732	22920.278956
568.783385	22724.283935
569.138982	22949.134520
569.494525	23009.033510
569.850013	22761.646447
570.205445	22866.041181
570.560823	22675.220905
570.916145	22457.990024
571.271412	22632.058546
571.626625	22397.140777
571.981782	22516.285927
572.336884	22319.622954
572.691931	22467.290953
573.046923	22207.527857
573.401860	22104.312753
573.756743	22092.937389
574.111570	22019.023992
574.466342	21959.109878
574.821059	22048.171943
575.175722	21753.340060
575.530330	21745.309502
575.884882	21775.652207
576.239380	21688.190709
576.593823	21585.411664
576.948211	21562.179507
577.302544	21412.064027
577.656823	21290.408382
578.011047	21389.051160
578.365216	21267.319897
578.719330	21138.069754
579.073389	21052.304604
579.427394	21190.056653
579.781344	20979.941361
580.135239	20875.448324
580.489080	20851.364211
580.842866	20610.145000
581.196597	20783.863161
581.550273	20775.701533
581.903895	20680.491781
582.257463	20994.306129
582.610975	20517.309631
582.964434	20808.123714
583.317837	20533.436282
583.671186	20624.318204
584.024481	20592.768143
584.377721	20378.977849
584.730906	20415.564023
585.084037	20452.765218
585.437113	20351.768221
585.790135	20551.801206
586.143103	20029.988851
586.496016	20039.080572
586.848874	20282.570823
587.201679	20238.622044
587.554428	19878.552589
587.907124	20226.871114
588.259765	20006.693679
588.612352	20078.232693
588.964884	19659.020421
589.317362	19834.253450
589.669786	19873.017402
590.022155	19942.784451
590.374470	20086.969012
590.726731	19926.798952
591.078937	19657.886162
591.431090	19773.381517
591.783188	19507.170785
592.135232	19490.968517
592.487222	19587.609957
592.839157	19624.420462
593.191038	19498.394136
593.542866	19388.998577
593.894639	19113.655795
594.246358	19336.716771
594.598022	19245.766794
594.949633	18991.725407
595.301190	18959.020922
595.652692	19113.983470
596.004141	19370.376555
596.355535	18695.890335
596.706876	18706.043219
597.058162	18595.175643
597.409395	18818.783583
597.760573	18901.294669
598.111698	18688.658800
598.462768	18614.644579
598.813785	18578.786852
599.164748	18412.201923
599.515657	18441.480944
599.866511	18227.360455
600.217312	18591.563656
600.568060	18116.250904
600.918753	18439.209905
601.269392	18336.849276
601.619978	18105.520808
601.970510	18325.211772
602.320988	18260.841279
602.671412	18480.224732
603.021783	18375.900574
603.372100	18124.483108
603.722363	18255.232995
604.072572	18183.147016
604.422728	18312.203075
604.772830	18084.259742
605.122878	18026.646915
605.472872	18031.413326
605.822813	18021.308333
606.172701	17970.158266
606.522534	18180.538218
606.872314	18204.821457
607.222041	18031.884674
607.571714	18251.852901
607.921333	18083.584227
608.270899	18151.687695
608.620411	18343.483434
608.969870	18093.598479
609.319276	18103.965612
609.668627	18136.516342
610.017926	18272.340151
610.367171	18399.520900
610.716362	18435.151776
611.065500	18251.487418
611.414585	18372.338999
611.763616	18367.348257
612.112594	18317.191296
612.461518	18285.810114
612.810389	18480.746492
613.159207	18331.382144
613.507971	18228.996310
613.856682	18516.352161
614.205340	18447.984033
614.553945	18592.244212
614.902496	18335.778031
615.250994	18584.271627
615.599439	18512.430144
615.947830	18510.627931
616.296169	18542.062046
616.644454	18510.247324
616.992686	18489.477770
617.340864	18696.170119
617.688990	18461.746383
618.037063	18632.137383
618.385082	18484.033324
618.733048	18768.480430
619.080961	18618.826216
619.428821	18666.162651
619.776628	18561.767916
620.124382	18484.245053
620.472083	18505.004524
620.819731	18532.526703
621.167326	18243.093897
621.514868	18281.956152
621.862357	18032.696300
622.209793	18052.485349
622.557176	17887.117859
622.904506	17716.777270
623.251783	17612.720293
623.599007	17390.929689
623.946179	17341.186103
624.293297	17281.892052
624.640363	17045.842543
624.987376	17054.979635
625.334336	16849.799632
625.681243	16693.060077
626.028097	16695.116867
626.374899	16633.312321
626.721647	16498.443812
627.068343	16332.080694
627.414987	16263.457987
627.761577	16230.672843
628.108115	16292.053932
628.454600	16003.059706
628.801032	16106.292454
629.147412	16023.083169
629.493739	16057.305042
629.840014	15859.427150
630.186236	15965.561083
630.532405	15725.818929
630.878521	15923.774958
631.224585	15816.179091
631.570597	15643.794315
631.916556	15682.094481
632.262462	15653.085162
632.608316	15578.773513
632.954117	15523.915677
633.299866	15513.165416
633.645562	15437.107007
633.991206	15192.832857
634.336797	15062.002311
634.682336	15026.396642
635.027823	14927.506847
635.373257	14808.349094
635.718639	14692.795765
636.063968	14658.508357
636.409245	14399.652669
636.754470	14433.015025
637.099642	14284.505154
637.444762	14058.301019
637.789829	14092.906019
638.134845	13943.544193
638.479808	13958.493734
638.824719	13912.951951
639.169577	13767.754117
639.514383	13810.929079
639.859137	13629.160195
640.203839	13711.479717
640.548489	13556.053382
640.893086	13545.693811
641.237632	13412.977874
641.582125	13553.429461
641.926566	13391.326118
642.270955	13403.316502
642.615292	13370.733005
642.959576	13381.221125
643.303809	13400.992531
643.647990	13350.197864
643.992118	13401.347932
644.336195	13181.629242
644.680219	13365.439793
645.024192	13299.133497
645.368112	13540.571998
645.711981	13596.715329
646.055797	13772.949026
646.399562	13738.197832
646.743274	14009.689172
647.086935	14275.852013
647.430544	14243.069390
647.774101	14277.485347
648.117606	14429.556794
648.461059	14401.759872
648.804460	14393.356268
649.147810	14130.704591
649.491108	14023.504454
649.834354	14042.388617
650.177548	13747.897012
650.520690	13556.260069
650.863781	13481.199809
651.206820	13517.034851
651.549807	13343.926669
651.892742	13153.693687
652.235626	13096.229575
652.578458	13096.932816
652.921238	12787.922688
653.263967	12979.279847
653.606644	12808.919094
653.949269	12776.338116
654.291843	12588.812234
654.634365	12740.218249
654.976836	12585.512799
655.319255	12608.772683
655.661622	12551.883262
656.003938	12479.260400
656.346203	12404.737022
656.688416	12477.574134
657.030577	12439.876385
657.372687	12351.212571
657.714746	12330.584170
658.056753	12519.801359
658.398708	12339.723782
658.740612	12343.292919
659.082465	12437.665839
659.424266	12399.653019
659.766016	12421.771081
660.107715	12333.170282
660.449362	12406.456056
660.790958	12365.108512
661.132503	12312.204123
661.473996	12369.201929
661.815438	12395.975497
662.156829	12407.176941
662.498168	12388.108776
662.839456	12378.233156
663.180693	12403.282649
663.521879	12489.534271
663.863013	12464.192391
664.204097	12450.387191
664.545129	12569.020664
664.886110	12532.638657
665.227040	12619.041513
665.567918	12630.724387
665.908746	12666.710664
666.249522	12637.371149
666.590248	12694.305940
666.930922	12807.626038
667.271545	12790.518882
667.612118	12871.913352
667.952639	12775.440791
668.293109	12783.075618
668.633528	12749.299888
668.973896	12711.324876
669.314213	12801.042291
669.654480	12543.698949
669.994695	12604.812857
670.334859	12631.082309
670.674973	12576.315214
671.015035	12613.715534
671.355047	12552.919219
671.695008	12524.827389
672.034918	12530.415508
672.374777	12569.514698
672.714585	12491.553253
673.054342	12517.850432
673.394049	12472.608597
673.733705	12558.703943
674.073310	12477.826191
674.412864	12494.267915
674.752368	12369.648071
675.091820	12369.799306
675.431223	12373.232331
675.770574	12236.249058
676.109875	12159.880618
676.449125	12123.014660
676.788324	12068.240003
677.127473	11901.763459
677.466571	11893.143086
677.805619	11792.985441
678.144616	11702.892460
678.483562	11684.421673
678.822458	11545.376567
679.161303	11531.707479
679.500098	11526.205059
679.838842	11475.995167
680.177535	11494.387817
680.516179	11552.729090
680.854771	11500.212870
681.193314	11713.325128
681.531805	11860.642767
681.870247	12259.529106
682.208638	12672.777693
682.546978	12985.971978
682.885268	13054.927401
683.223508	12745.055236
683.561697	12580.995925
683.899836	12477.778300
684.237925	12288.898869
684.575963	12205.611445
684.913951	12139.310190
685.251889	12082.997981
685.589776	12168.163234
685.927614	12099.447266
686.265401	12068.323182
686.603137	12104.231321
686.940824	12260.181936
687.278460	12368.299562
687.616046	12425.375506
687.953582	12592.860281
688.291068	12523.395702
688.628504	12751.689395
688.965889	12760.561825
689.303224	12724.535219
689.640510	12629.275056
689.977745	12333.422339
690.314930	12103.432298
690.652065	12006.498471
690.989150	11726.757283
691.326185	11496.595842
691.663170	11297.535800
692.000105	11057.105529
692.336990	10947.021853
692.673825	10699.223935
693.010610	10583.123642
693.347345	10373.265448
693.684030	10177.535088
694.020665	10114.324060
694.357251	9912.972814
694.693786	9875.799346
695.030272	9699.232932
695.366707	9584.440818
695.703093	9518.212659
696.039429	9514.391465
696.375716	9440.389847
696.711952	9310.968304
697.048139	9344.585238
697.384276	9301.188466
697.720363	9319.387031
698.056400	9255.429912
698.392388	9210.422491
698.728326	9165.682250
699.064214	9106.678065
699.400053	9154.226228
699.735842	8966.965007
700.071581	8924.392462
700.407270	8852.384621
700.742910	8772.855378
701.078501	8684.103344
701.414042	8561.041217
701.749533	8497.525199
702.084974	8354.812654
702.420366	8469.786250
702.755709	8349.809309
703.091002	8220.707879
703.426246	8247.657888
703.761440	8202.698357
704.096584	8154.169690
704.431679	8089.474042
704.766725	8070.201711
705.101721	8027.946759
705.436668	8062.960093
705.771565	7962.326060
706.106413	8039.198615
706.441212	8085.075635
706.775961	8039.407822
707.110661	8068.926299
707.445311	8222.240390
707.779913	8108.779141
708.114465	8236.388388
708.448967	8285.567365
708.783421	8412.843897
709.117825	8597.972710
709.452180	8635.952763
709.786485	8724.004077
710.120742	9002.069082
710.454949	9001.136468
710.789107	9105.498435
711.123216	9314.066093
711.457275	9472.297830
711.791286	9640.644642
712.125247	9631.048806
712.459159	9619.456673
712.793023	9879.802022
713.126837	9460.632600
713.460602	9601.028735
713.794318	9430.123537
714.127985	9457.272671
714.461602	9153.434767
714.795171	9093.203061
715.128691	8850.814302
715.462162	8600.339532
715.795584	8542.678814
716.128957	8403.081702
716.462281	8230.457471
716.795556	8283.477807
717.128782	8074.819408
717.461960	7811.819891
717.795088	7878.000159
718.128167	7791.002446
718.461198	7628.803321
718.794180	7563.197745
719.127113	7556.596354
719.459997	7415.713748
719.792833	7178.288005
720.125619	7235.976449
720.458357	7099.451920
720.791046	7088.832730
721.123686	7089.982113
721.456278	6930.721981
721.788821	6949.724610
722.121315	6840.936510
722.453761	6906.852117
722.786158	6849.793817
723.118506	6867.503391
723.450805	6832.379151
723.783056	6897.445324
724.115259	6800.420757
724.447412	6801.139121
724.779518	6852.637028
725.111574	6846.519588
725.443582	6925.834582
725.775542	6904.150059
726.107453	7098.506704
726.439315	7012.484455
726.771129	7065.721560
727.102895	7231.068886
727.434612	7345.492996
727.766281	7378.782255
728.097901	7461.633618
728.429473	7449.658358
728.760996	7430.426356
729.092471	7403.284783
729.423897	7355.035900
729.755276	7365.367745
730.086606	7288.691795
730.417887	7383.248717
730.749120	7566.414001
731.080305	7762.971110
731.411442	7887.364102
731.742530	7884.878813
732.073570	7993.361923
732.404562	8078.920386
732.735506	7921.051612
733.066401	8062.234167
733.397249	8000.714446
733.728048	7770.235413
734.058798	7435.941378
734.389501	7217.087245
734.720156	7043.878240
735.050762	6805.845038
735.381320	6699.670776
735.711831	6663.240878
736.042293	6557.948818
736.372707	6572.674029
736.703073	6437.114881
737.033391	6470.378935
737.363661	6481.736654
737.693883	6507.461662
738.024056	6596.007009
738.354182	6637.220963
738.684260	6673.570202
739.014290	6782.181862
739.344272	6893.172946
739.674207	6920.538850
740.004093	6987.681978
740.333931	6998.608679
740.663722	7016.144333
740.993464	7088.159736
741.323159	7085.896258
741.652806	6830.340005
741.982405	6830.997875
742.311956	6901.931951
742.641460	6750.747747
742.970915	6547.390122
743.300323	6541.560027
743.629683	6490.026832
743.958996	6355.473395
744.288260	6263.971411
744.617477	6214.673968
744.946647	6224.632767
745.275768	6058.400719
745.604842	6014.066292
745.933869	5994.428477
746.262847	5953.456499
746.591778	5945.887206
746.920662	5903.672584
747.249498	5889.774123
747.578286	5934.723571
747.907027	6013.426065
748.235720	6071.003604
748.564365	6040.577720
748.892963	6063.683848
749.221514	6221.446758
749.550017	6067.056380
749.878473	5938.890085
750.206881	5987.068392
750.535242	5930.529331
750.863555	5861.185739
751.191821	5882.073760
751.520039	5884.838833
751.848210	5796.248116
752.176334	5806.030475
752.504411	5862.889649
752.832440	5787.572290
753.160421	5713.895827
753.488356	5760.478609
753.816243	5800.510412
754.144082	5648.607843
754.471875	5624.669924
754.799620	5660.779709
755.127318	5670.851935
755.454969	5630.247961
755.782572	5591.622640
756.110129	5641.431761
756.437638	5627.682014
756.765100	5565.017951
757.092515	5562.782199
757.419882	5610.683243
757.747203	5589.013843
758.074477	5656.865253
758.401703	5648.716228
758.728882	5598.481130
759.056014	5642.303881
759.383099	5774.089724
759.710138	5787.194204
760.037129	5771.062512
760.364073	5775.299601
760.690970	5863.240010
761.017820	5842.004149
761.344623	5792.104288
761.671379	5893.123970
761.998088	6008.198388
762.324751	6233.364046
762.651366	6817.169990
762.977935	8086.633352
763.304456	9698.625473
763.630931	10622.084199
763.957359	10260.913252
764.283740	9334.208023
764.610074	8524.117285
764.936362	7538.879219
765.262602	6943.655061
765.588796	6402.141876
765.914943	6064.765176
766.241044	5902.029168
766.567097	5708.108582
766.893104	5456.718843
767.219064	5272.036172
767.544978	5209.689702
767.870845	5136.477024
768.196665	5028.860993
768.522438	4957.810970
768.848165	4923.211011
769.173846	4856.443449
769.499479	4818.216379
769.825066	4766.650416
770.150607	4705.576837
770.476101	4676.096170
770.801548	4677.936191
771.126949	4603.798462
771.452303	4549.981624
771.777611	4508.934029
772.102872	4524.417933
772.428087	4486.256398
772.753256	4451.759783
773.078378	4402.454777
773.403453	4338.071681
773.728482	4321.516532
774.053465	4276.458699
774.378401	4264.715331
774.703291	4268.445785
775.028135	4197.620094
775.352932	4148.965397
775.677683	4133.330259
776.002388	4152.151407
776.327046	4163.534332
776.651658	4093.220318
776.976224	4028.393600
777.300743	4032.025752
777.625216	4056.006520
777.949643	4052.996952
778.274024	4009.701002
778.598359	3957.925831
778.922647	3982.186384
779.246889	3978.395436
779.571086	3973.306392
779.895236	3957.066314
780.219339	3940.717852
780.543397	3935.926236
780.867409	3986.579750
781.191374	4000.687419
781.515294	3943.989561
781.839167	3937.889765
782.162995	3952.829225
782.486776	3938.552677
782.810511	3950.401909
783.134201	3945.602731
783.457844	3906.969848
783.781441	3849.029346
784.104993	3853.415150
784.428498	3870.965927
784.751958	3868.031976
785.075372	3848.913400
785.398739	3813.640446
785.722061	3818.653874
786.045337	3865.831512
786.368568	3900.567583
786.691752	3812.317143
787.014891	3857.556458
787.337983	3978.226558
787.661030	4135.999550
787.984031	4293.785144
788.306987	4465.993480
788.629897	4549.043969
788.952760	4507.514944
789.275579	4438.970375
789.598351	4373.979820
789.921078	4244.722115
790.243759	4045.024367
790.566395	4016.670397
790.888984	4017.784492
791.211529	3912.686517
791.534027	3851.179398
791.856480	3846.236547
792.178888	3781.278759
792.501249	3731.429309
792.823566	3741.267121
793.145836	3774.997482
793.468062	3723.499574
793.790241	3674.713808
794.112375	3704.822099
794.434464	3765.867952
794.756507	3789.677322
795.078505	3775.680558
795.400457	3802.839774
795.722364	3937.476391
796.044226	4044.200138
796.366042	4111.325622
796.687812	4097.641410
797.009538	4103.547122
797.331218	4061.481213
797.652852	4034.584137
797.974442	4015.969677
798.295986	4018.870861
798.617484	3934.529836
798.938938	3846.957432
799.260346	3888.836818
799.581709	3887.110222
799.903026	3818.812670
800.224299	3778.309520
800.545526	3769.437089
800.866708	3734.149012
801.187845	3671.585772
801.508936	3709.732183
801.829983	3711.040363
802.150984	3630.770070
802.471940	3618.585601
802.792851	3628.645224
803.113717	3627.329482
803.434538	3630.712097
803.755314	3579.403233
804.076045	3546.439128
804.396731	3568.589958
804.717372	3597.329576
805.037967	3582.876588
805.358518	3571.226481
805.679024	3596.517950
805.999485	3609.564456
806.319901	3610.234930
806.640272	3625.681025
806.960598	3641.119559
807.280879	3618.394037
807.601115	3626.860655
807.921306	3642.765496
808.241453	3685.857279
808.561554	3664.019000
808.881611	3593.914194
809.201623	3627.284112
809.521590	3645.099550
809.841513	3616.067545
810.161390	3645.008809
810.481223	3627.001807
810.801011	3569.923343
811.120755	3558.953792
811.440453	3595.033330
811.760107	3600.659258
812.079716	3559.664595
812.399281	3522.617155
812.718801	3549.506670
813.038276	3524.290818
813.357707	3520.862834
813.677093	3539.101728
813.996434	3488.032319
814.315731	3493.607836
814.634983	3496.750995
814.954191	3506.825741
815.273354	3539.910834
815.592473	3536.046789
815.911547	3539.895710
816.230577	3579.244437
816.549562	3628.471304
816.868502	3668.440092
817.187399	3695.947148
817.506250	3695.498485
817.825058	3665.047396
818.143821	3746.850199
818.462539	3856.822970
818.781213	3901.258221
819.099843	3956.579843
819.418429	4184.177857
819.736970	4426.894291
820.055466	4663.430271
820.373919	5020.767420
820.692327	5422.985962
821.010691	5840.280074
821.329011	7150.788511
821.647286	9790.152662
821.965517	14223.555083
822.283704	18246.854597
822.601847	20468.158381
822.919945	18727.246312
823.237999	16211.289606
823.556010	13768.903500
823.873976	11713.947711
824.191897	9649.514552
824.509775	8296.494066
824.827609	7181.602563
825.145398	6625.444827
825.463144	6514.342837
825.780845	6626.987420
826.098502	6794.489839
826.416116	7628.347097
826.733685	8918.885002
827.051210	10037.995950
827.368692	10132.280650
827.686129	8923.764839
828.003522	7419.809686
828.320872	6414.795172
828.638177	5723.070727
828.955439	5174.782232
829.272656	4683.370555
829.589830	4397.509405
829.906960	4223.060277
830.224046	4043.975807
830.541088	3916.144748
830.858086	3869.519116
831.175041	3794.534473
831.491952	3774.957152
831.808819	3787.126498
832.125642	3853.067311
832.442421	3996.296574
832.759157	4259.611163
833.075849	4786.590700
833.392497	5635.077387
833.709101	6392.982100
834.025662	6745.600729
834.342179	6416.035296
834.658653	5767.911790
834.975083	5128.277588
835.291469	4561.178027
835.607811	4151.692662
835.924110	4013.247453
836.240366	3818.608503
836.556578	3615.142493
836.872746	3503.251563
837.188871	3466.534319
837.504952	3402.889752
837.820990	3326.617094
838.136984	3274.456275
838.452935	3297.176755
838.768842	3295.392187
839.084706	3315.657625
839.400526	3466.753609
839.716303	3785.450314
840.032037	4295.836894
840.347727	4573.221343
840.663373	4313.473371
840.978977	3940.420424
841.294537	3639.614774
841.610054	3409.113056
841.925527	3302.016263
842.240957	3232.836509
842.556344	3180.640402
842.871687	3122.513378
843.186987	3072.207703
843.502244	3039.346942
843.817458	3005.241016
844.132629	2969.194245
844.447756	2982.785196
844.762840	2968.178453
845.077881	2935.237033
845.392879	2917.406472
845.707833	2915.339598
846.022745	2912.990421
846.337613	2912.014958
846.652438	2901.872156
846.967221	2899.270921
847.281960	2887.890516
847.596656	2882.251985
847.911309	2881.745349
848.225919	2877.218393
848.540485	2869.704553
848.855009	2871.872249
849.169490	2865.893441
849.483928	2853.915659
849.798323	2849.625637
850.112675	2849.116481
850.426984	2861.863038
850.741251	2856.680732
851.055474	2847.130266
851.369654	2839.807990
851.683792	2844.506346
851.997887	2855.551514
852.311938	2858.545959
852.625947	2845.527179
852.939914	2846.230420
853.253837	2855.443129
853.567718	2836.493432
853.881555	2836.735407
854.195350	2851.279136
854.509103	2849.638240
854.822812	2842.663804
855.136479	2838.411591
855.450103	2840.806139
855.763685	2836.029646
856.077224	2826.743840
856.390720	2844.385358
856.704173	2853.005731
857.017584	2844.975173
857.330953	2842.421829
857.644278	2852.060515
857.957561	2861.263141
858.270802	2862.311701
858.584000	2864.348327
858.897155	2851.057325
859.210268	2848.110771
859.523339	2849.182016
859.836367	2847.546162
860.149352	2841.176664
860.462295	2836.823627
860.775195	2845.335616
861.088054	2842.802436
861.400869	2828.225939
861.713642	2823.504899
862.026373	2838.862774
862.339062	2844.728157
862.651708	2847.359639
862.964312	2853.023375
863.276873	2843.326716
863.589392	2851.989939
863.901869	2866.785725
864.214303	2887.046122
864.526696	2902.945922
864.839045	2899.893503
865.151353	2897.209089
865.463619	2897.647669
865.775842	2896.130282
866.088023	2913.812129
866.400162	2921.769590
866.712258	2891.810013
867.024313	2883.829866
867.336325	2890.378325
867.648296	2909.907755
867.960224	2905.038001
868.272110	2891.210116
868.583954	2894.133985
868.895755	2912.650143
869.207515	2897.728328
869.519233	2900.367372
869.830909	2911.281470
870.142542	2919.821184
870.454134	2921.547779
870.765684	2922.825712
871.077191	2923.130702
871.388657	2927.292174
871.700081	2944.802622
872.011463	2952.800413
872.322803	2952.669343
872.634101	2953.100361
872.945357	2970.305819
873.256571	2995.589727
873.567744	2991.980260
873.878874	2979.072386
874.189963	3006.413084
874.501010	3011.252592
874.812015	2996.361023
875.122979	2996.124089
875.433900	2992.121413
875.744780	2998.296826
876.055618	3006.463495
876.366415	2999.983092
876.677169	3013.836183
876.987882	3015.489681
877.298554	3000.981241
877.609183	3021.576875
877.919771	3047.959753
878.230317	3071.985893
878.540822	3121.041361
878.851285	3160.059891
879.161707	3198.939790
879.472087	3294.262968
879.782425	3509.704240
880.092722	3929.155966
880.402977	4444.828196
880.713191	5049.406215
881.023363	6156.892262
881.333494	7411.973212
881.643583	7992.908219
881.953631	7706.210238
882.263637	7105.042560
882.573602	6537.227155
882.883526	5968.947965
883.193408	5401.286315
883.503248	4939.304894
883.813048	4647.830420
884.122806	4356.066080
884.432522	4048.255746
884.742197	3818.371569
885.051831	3628.884678
885.361424	3492.327383
885.670975	3422.419182
885.980485	3341.727953
886.289954	3267.078546
886.599382	3221.640106
886.908768	3185.016123
887.218113	3140.051552
887.527417	3085.113057
887.836680	3038.721839
888.145901	3028.838657
888.455082	3023.641227
888.764221	2975.939309
889.073319	2943.791871
889.382376	2940.734411
889.691392	2948.313786
890.000366	2942.554268
890.309300	2933.681837
890.618193	2945.276491
890.927044	2960.480611
891.235855	2963.558235
891.544625	2945.084927
891.853353	2958.834674
892.162041	2976.403095
892.470687	3014.196625
892.779293	3065.901220
893.087858	3108.103239
893.396381	3177.414063
893.704864	3291.296249
894.013306	3518.821167
894.321707	3811.356804
894.630068	4021.414123
894.938387	4019.604348
895.246665	3971.789004
895.554903	3860.303887
895.863100	3667.139474
896.171256	3505.462109
896.479371	3370.001264
896.787446	3247.266812
897.095480	3148.976915
897.403473	3085.959971
897.711425	3047.548899
898.019336	3040.408105
898.327207	3013.722757
898.635038	2979.551296
898.942827	2964.117803
899.250576	2953.191102
899.558284	2921.870413
899.865952	2899.938873
900.173579	2885.783313
900.481165	2875.060779
900.788711	2862.886393
901.096216	2841.469051
901.403681	2826.900116
901.711105	2833.980417
902.018489	2832.889007
902.325832	2832.125272
902.633135	2842.205059
902.940397	2872.343597
903.247619	2950.945268
903.554800	3127.365488
903.861941	3457.929069
904.169041	3872.410218
904.476101	4173.956918
904.783121	4143.594048
905.090100	3904.834919
905.397039	3638.465391
905.703938	3396.520254
906.010796	3214.736246
906.317614	3106.636263
906.624391	3013.178312
906.931129	2944.137190
907.237826	2882.619989
907.544483	2838.240192
907.851099	2808.489822
908.157675	2787.760597
908.464211	2768.636980
908.770707	2757.329672
909.077163	2742.763258
909.383578	2727.261710
909.689954	2720.118395
909.996289	2718.895915
910.302584	2718.520349
910.608839	2719.364743
910.915054	2714.452138
911.221229	2706.487115
911.527363	2707.878474
911.833458	2716.965153
912.139513	2717.030688
912.445527	2722.737275
912.751502	2728.917729
913.057436	2739.985582
913.363331	2752.734661
913.669186	2770.361055
913.975000	2802.924388
914.280775	2862.452853
914.586510	2927.710590
914.892205	3007.975842
915.197859	3128.151908
915.503475	3309.575473
915.809050	3514.153058
916.114585	3663.892971
916.420081	3685.690921
916.725536	3629.698825
917.030952	3517.525590
917.336328	3394.791138
917.641665	3262.223915
917.946961	3164.483504
918.252218	3100.463371
918.557435	3024.765404
918.862612	2969.332877
919.167750	2918.215577
919.472848	2878.932385
919.777906	2855.342306
920.082925	2831.028821
920.387904	2800.124027
920.692843	2783.629372
920.997743	2771.402053
921.302603	2761.095414
921.607423	2751.539907
921.912204	2739.413412
922.216946	2727.866649
922.521647	2720.307438
922.826310	2711.356870
923.130932	2704.362269
923.435516	2696.263655
923.740059	2689.790814
924.044564	2682.634896
924.349028	2677.079544
924.653454	2671.957732
924.957840	2662.636638
925.262186	2661.497338
925.566493	2658.379384
925.870761	2651.682211
926.174989	2647.929072
926.479178	2645.274905
926.783328	2636.513379
927.087438	2635.116980
927.391509	2636.974645
927.695541	2633.765950
927.999533	2630.242184
928.303486	2629.060033
928.607400	2627.618263
928.911275	2626.347892
929.215110	2625.042234
929.518906	2624.825464
929.822663	2624.245731
930.126381	2622.345216
930.430060	2624.323869
930.733699	2623.502161
931.037299	2626.504168
931.340861	2628.293778
931.644383	2628.573562
931.947866	2627.111627
932.251309	2626.569703
932.554714	2624.046606
932.858080	2622.072994
933.161407	2619.355812
933.464694	2618.647530
933.767943	2617.016717
934.071153	2619.950668
934.374323	2617.815740
934.677455	2616.101747
934.980548	2616.837756
935.283602	2613.472786
935.586617	2614.481016
935.889593	2618.713065
936.192530	2615.360698
936.495428	2619.877572
936.798287	2617.634258
937.101108	2621.568879
937.403890	2625.289250
937.706632	2629.783439
938.009336	2634.509521
938.312002	2643.208032
938.614628	2651.931748
938.917216	2657.993736
939.219765	2662.288799
939.522275	2660.355516
939.824747	2655.659682
940.127179	2653.648261
940.429573	2650.900832
940.731929	2647.291366
941.034246	2645.355563
941.336524	2643.402116
941.638763	2640.725263
941.940964	2637.463637
942.243126	2636.349542
942.545250	2636.936836
942.847335	2630.602626
943.149381	2632.467853
943.451389	2627.076339
943.753359	2623.313118
944.055290	2620.696759
944.357182	2620.759773
944.659036	2621.329424
944.960851	2620.318672
945.262628	2617.767849
945.564367	2618.695421
945.866067	2619.650720
946.167729	2619.081069
946.469352	2619.660802
946.770937	2620.401852
947.072484	2619.265071
947.373992	2616.868003
947.675462	2614.191150
947.976893	2611.088320
948.278286	2610.211159
948.579641	2608.542537
948.880958	2605.832917
949.182236	2610.720316
949.483476	2608.862650
949.784678	2606.977259
950.085841	2608.318206
950.386967	2609.815428
950.688054	2609.316354
950.989103	2612.678804
951.290114	2611.415995
951.591087	2612.194853
951.892021	2616.371449
952.192917	2618.549227
952.493776	2621.473097
952.794596	2622.062912
953.095378	2621.568879
953.396122	2619.817078
953.696828	2621.679784
953.997496	2618.027468
954.298126	2616.948661
954.598718	2614.226438
954.899272	2609.969184
955.199788	2608.048504
955.500266	2607.292331
955.800706	2604.517176
956.101108	2599.609612
956.401472	2597.520054
956.701798	2599.362596
957.002087	2594.187852
957.302337	2598.180445
957.602550	2593.068715
957.902724	2591.886565
958.202861	2592.100814
958.502960	2591.090063
958.803022	2589.605443
959.103045	2586.628641
959.403031	2588.425813
959.702979	2586.590833
960.002889	2587.546131
960.302762	2587.341965
960.602596	2585.317941
960.902393	2585.385997
961.202153	2587.420103
961.501875	2587.122674
961.801559	2584.234093
962.101205	2583.805595
962.400814	2588.836667
962.700385	2584.962540
962.999918	2580.851479
963.299414	2581.456417
963.598873	2584.239134
963.898293	2578.298135
964.197677	2584.496233
964.497022	2583.608990
964.796331	2583.959350
965.095601	2581.511870
965.394835	2582.898187
965.694030	2585.847262
965.993189	2582.041191
966.292309	2580.909452
966.591393	2581.811819
966.890439	2580.964905
967.189447	2581.269895
967.488419	2584.728126
967.787353	2583.104875
968.086249	2580.465831
968.385108	2580.513722
968.683930	2580.269226
968.982714	2583.606470
969.281462	2583.477920
969.580172	2581.171592
969.878844	2580.375090
970.177480	2581.849627
970.476078	2584.859196
970.774639	2582.573033
971.073162	2581.090934
971.371649	2582.174782
971.670098	2584.670153
971.968510	2582.991449
972.266885	2580.498598
972.565223	2583.747622
972.863524	2582.812488
973.161788	2585.796851
973.460014	2583.528332
973.758204	2580.735533
974.056356	2580.639751
974.354471	2579.495409
974.652550	2580.619586
974.950591	2584.176120
975.248595	2583.553537
975.546563	2583.288877
975.844493	2582.230235
976.142386	2583.238465
976.440243	2581.801737
976.738062	2580.964905
977.035845	2580.100347
977.333590	2580.939699
977.631299	2582.878023
977.928971	2576.722774
978.226606	2578.303176
978.524204	2578.847620
978.821765	2574.877712
979.119290	2579.623958
979.416777	2577.846951
979.714228	2582.295770
980.011642	2581.153948
980.309020	2580.969946
980.606360	2579.936510
980.903664	2580.480954
981.200931	2581.222004
981.498162	2581.632858
981.795356	2581.569843
982.092513	2583.498085
982.389633	2584.660071
982.686717	2589.023189
982.983764	2592.534353
983.280775	2596.995774
983.577749	2598.167842
983.874686	2595.296905
984.171587	2596.226998
984.468451	2593.235073
984.765279	2588.254413
985.062070	2589.764239
985.358824	2587.498240
985.655543	2582.709144
985.952224	2583.205698
986.248869	2584.037488
986.545478	2581.441294
986.842050	2580.629668
987.138586	2581.181675
987.435086	2578.250244
987.731549	2580.319637
988.027975	2578.416602
988.324366	2578.651015
988.620719	2577.851993
988.917037	2579.122363
989.213318	2577.660429
989.509563	2577.731005
989.805772	2576.790830
990.101944	2576.725295
990.398080	2577.219328
990.694180	2578.477096
990.990244	2578.492219
991.286271	2577.783937
991.582262	2575.918710
991.878217	2575.424677
992.174136	2576.397620
992.470019	2577.037846
992.765865	2575.472568
993.061676	2573.662794
993.357450	2574.880232
993.653188	2572.946950
993.948890	2578.151941
994.244556	2574.585325
994.540186	2579.127404
994.835780	2580.322158
995.131337	2578.346026
995.426859	2577.693196
995.722345	2579.984401
996.017795	2580.496078
996.313208	2582.071438
996.608586	2580.705286
996.903928	2584.491192
997.199234	2582.353743
997.494504	2582.762076
997.789738	2579.891139
998.084936	2581.300142
998.380099	2579.868454
998.675225	2579.956674
998.970316	2576.710171
999.265371	2579.485326
999.560390	2577.191601
999.855373	2578.424163
1000.150320	2576.604307
1000.445232	2578.104050
1000.740108	2576.208576
1001.034948	2574.597928
1001.329752	2575.200346
1001.624521	2576.024574
1001.919254	2575.734708
1002.213951	2577.405850
1002.508613	2574.887794
1002.803239	2576.410223
1003.097829	2575.076837
1003.392384	2574.600448
1003.686903	2578.010789
1003.981386	2575.591035
1004.275834	2575.023905
1004.570246	2575.959039
1004.864623	2577.219328
1005.158964	2573.065417
1005.453270	2575.074317
1005.747540	2573.342680
1006.041775	2573.955181
1006.335974	2574.703792
1006.630138	2573.587176
1006.924266	2574.875191
1007.218359	2574.504666
1007.512416	2572.455437
1007.806438	2570.186918
1008.100425	2572.599110
1008.394376	2569.206414
1008.688292	2573.733370
1008.982172	2573.693041
1009.276017	2575.454924
1009.569827	2571.316137
1009.863602	2573.690520
1010.157341	2574.918041
1010.451045	2575.117167
1010.744714	2573.327557
1011.038347	2574.628175
1011.331945	2575.591035
1011.625508	2570.693554
1011.919036	2573.274625
1012.212528	2574.345870
1012.505986	2575.175140
1012.799408	2574.166909
1013.092795	2575.775037
1013.386147	2573.773699
1013.679464	2573.693041
1013.972745	2574.262691
1014.265992	2570.776733
1014.559204	2574.179512
1014.852380	2574.030798
1015.145521	2575.180181
1015.438628	2573.730849
1015.731699	2572.987279
1016.024736	2573.541806
1016.317737	2571.106929
1016.610703	2574.025757
1016.903635	2573.352763
1017.196531	2572.636919
1017.489393	2574.731518
1017.782219	2573.771178
1018.075011	2577.741087
1018.367768	2573.440983
1018.660490	2574.602969
1018.953177	2574.602969
1019.245829	2574.602969
