Dividing Wavelength (nm)	Counts (n)	Blue Motor Position (mm): 2.500000	Red Motor Position (mm): 0.000000	
326.493990	2162.261790
326.888308	2162.261790
327.282561	2162.261790
327.676750	2122.285440
328.070874	2118.668412
328.464933	2118.991046
328.858929	2122.005656
329.252859	2127.132509
329.646726	2134.573253
330.040528	2148.660757
330.434265	2160.615853
330.827938	2180.704851
331.221547	2196.541636
331.615091	2212.446477
332.008571	2231.101266
332.401986	2251.044071
332.795338	2270.092071
333.188625	2288.751902
333.581847	2306.476599
333.975006	2322.464618
334.368100	2343.687876
334.761129	2360.452233
335.154095	2377.445962
335.546996	2396.546894
335.939833	2410.652043
336.332606	2424.386667
336.725315	2439.069027
337.117960	2451.588733
337.510540	2464.143726
337.903056	2473.684110
338.295508	2482.223825
338.687896	2491.194558
339.080220	2497.135558
339.472480	2507.611075
339.864676	2510.645850
340.256807	2517.307735
340.648875	2521.620442
341.040879	2521.784279
341.432818	2527.069929
341.824694	2529.353572
342.216506	2529.963552
342.608253	2528.073119
342.999937	2531.478418
343.391557	2530.795342
343.783113	2530.520599
344.174605	2527.722759
344.566033	2527.513551
344.957397	2527.309384
345.348697	2525.310567
345.739934	2524.446009
346.131106	2524.138498
346.522215	2524.350227
346.913260	2519.175482
347.304241	2516.231448
347.695159	2515.989473
348.086012	2513.327744
348.476802	2512.347239
348.867528	2508.551251
349.258191	2505.478667
349.648789	2504.745179
350.039324	2500.707215
350.429796	2502.257370
350.820203	2502.184273
351.210548	2502.186794
351.600828	2501.407936
351.991045	2500.326608
352.381198	2497.974910
352.771288	2499.182266
353.161314	2496.127327
353.551276	2497.362410
353.941175	2497.385095
354.331010	2497.732934
354.720782	2497.483397
355.110490	2497.722852
355.500135	2497.864004
355.889717	2498.242091
356.279235	2495.590444
356.668689	2498.118583
357.058080	2495.156905
357.447408	2498.957935
357.836672	2494.977944
358.225873	2494.211688
358.615010	2494.443582
359.004084	2496.308808
359.393095	2497.301916
359.782043	2500.772750
360.170927	2500.434993
360.559748	2498.564725
360.948505	2500.737462
361.337199	2503.868019
361.725830	2497.906854
362.114398	2501.211331
362.502903	2504.296517
362.891344	2502.945488
363.279722	2503.119407
363.668037	2507.359018
364.056289	2504.566218
364.444478	2509.090654
364.832603	2505.095540
365.220665	2505.955056
365.608665	2507.873215
365.996601	2504.057062
366.384474	2507.469923
366.772284	2506.600324
367.160031	2505.445900
367.547715	2506.754079
367.935336	2506.900273
368.322893	2507.190139
368.710388	2501.715446
369.097820	2506.358349
369.485189	2502.811897
369.872495	2508.841117
370.259738	2512.206087
370.646918	2510.741632
371.034035	2509.546878
371.421090	2512.654750
371.808081	2510.955881
372.195010	2510.361025
372.581875	2511.601149
372.968678	2513.662981
373.355418	2510.736591
373.742096	2513.022754
374.128710	2509.695593
374.515262	2512.158196
374.901751	2514.182219
375.288177	2515.291273
375.674540	2514.842611
376.060841	2513.544513
376.447079	2515.316479
376.833254	2514.582991
377.219367	2515.538290
377.605417	2515.649195
377.991404	2513.476458
378.377329	2513.289935
378.763191	2516.483506
379.148991	2514.814884
379.534727	2518.666326
379.920402	2516.377642
380.306013	2513.617610
380.691563	2517.211953
381.077049	2518.540297
381.462474	2519.785462
381.847835	2517.232118
382.233134	2515.253465
382.618371	2516.544000
383.003545	2516.332272
383.388657	2518.298322
383.773706	2519.094824
384.158693	2519.919052
384.543618	2517.872344
384.928480	2522.376615
385.313280	2515.548372
385.698017	2518.784793
386.082692	2520.445853
386.467305	2517.958044
386.851856	2518.600791
387.236344	2520.569361
387.620770	2516.798578
388.005133	2516.163393
388.389435	2514.285563
388.773674	2512.397651
389.157851	2521.925432
389.541965	2519.462828
389.926018	2523.140350
390.310008	2523.208405
390.693936	2519.820750
391.077802	2520.874351
391.461606	2523.094979
391.845348	2521.771677
392.229027	2522.089269
392.612645	2522.162366
392.996200	2524.380474
393.379694	2524.413241
393.763125	2522.180010
394.146494	2523.042047
394.529801	2523.742768
394.913047	2523.536080
395.296230	2521.764115
395.679351	2525.489528
396.062410	2523.087418
396.445408	2524.229239
396.828343	2526.885927
397.211217	2524.851822
397.594028	2524.917357
397.976778	2526.051616
398.359466	2525.960875
398.742092	2524.693025
399.124656	2525.164373
399.507158	2525.731503
399.889598	2525.343334
400.271977	2526.283509
400.654294	2527.649662
401.036549	2526.832995
401.418742	2524.788807
401.800874	2526.444826
402.182944	2527.601771
402.564952	2528.166380
402.946898	2529.782070
403.328783	2528.057995
403.710606	2527.334590
404.092367	2529.411545
404.474067	2527.291740
404.855705	2527.165711
405.237282	2526.459950
405.618797	2529.706453
406.000250	2529.038500
406.381642	2528.988088
406.762972	2525.436595
407.144240	2524.869466
407.525447	2529.827440
407.906593	2526.568334
408.287677	2528.743592
408.668700	2528.189065
409.049661	2530.742410
409.430560	2528.226874
409.811399	2529.683767
410.192176	2530.820548
410.572891	2532.285003
410.953545	2530.865918
411.334138	2533.063861
411.714669	2531.170908
412.095139	2530.225692
412.475547	2530.313912
412.855894	2532.186700
413.236180	2530.974303
413.616405	2529.900537
413.996568	2532.095960
414.376670	2530.011443
414.756711	2531.342307
415.136691	2531.264169
415.516609	2531.440610
415.896466	2533.751979
416.276262	2531.927081
416.655997	2533.837678
417.035670	2533.295754
417.415283	2529.978675
417.794834	2533.268028
418.174324	2531.695188
418.553753	2534.644263
418.933121	2533.215096
419.312428	2533.257946
419.691674	2532.000178
420.070859	2535.120652
420.449983	2533.941022
420.829045	2532.915147
421.208047	2535.037473
421.586988	2535.491177
421.965867	2539.445962
422.344686	2534.314067
422.723444	2534.430014
423.102141	2537.021167
423.480777	2535.019829
423.859352	2534.785415
424.237866	2537.212731
424.616319	2534.966897
424.994712	2536.635519
425.373044	2536.751465
425.751314	2532.950435
426.129524	2532.121165
426.507673	2530.838192
426.885762	2533.515044
427.263789	2534.679551
427.641756	2536.133924
428.019662	2537.235416
428.397508	2537.187525
428.775292	2540.612989
429.153016	2539.680376
429.530679	2536.428831
429.908282	2537.779861
430.285824	2538.072248
430.663305	2536.030580
431.040726	2538.258770
431.418086	2540.403781
431.795385	2539.698020
432.172624	2537.739531
432.549802	2539.486291
432.926920	2537.673996
433.303977	2535.801208
433.680974	2538.198276
434.057910	2539.808925
434.434786	2535.879346
434.811601	2538.447813
435.188355	2537.505118
435.565050	2538.147865
435.941683	2540.739018
436.318257	2541.553164
436.694770	2537.699202
437.071222	2539.206507
437.447614	2537.585776
437.823946	2537.673996
438.200218	2539.914789
438.576429	2538.115097
438.952580	2540.852444
439.328670	2540.575180
439.704700	2540.607948
440.080670	2541.853113
440.456580	2541.911086
440.832429	2541.180119
441.208218	2538.783050
441.583947	2539.645088
441.959616	2539.841693
442.335224	2540.134079
442.710773	2541.737166
443.086261	2540.013092
443.461689	2539.652649
443.837057	2540.872608
444.212365	2540.018133
444.587612	2540.181970
444.962800	2537.172402
445.337927	2541.618699
445.712995	2537.273225
446.088002	2540.363452
446.462949	2541.036446
446.837837	2543.836807
447.212664	2543.264636
447.587431	2542.858823
447.962139	2540.759183
448.336786	2543.042825
448.711374	2541.643905
449.085901	2542.619368
449.460369	2541.462423
449.834776	2542.417722
450.209124	2542.241282
450.583412	2542.440407
450.957640	2542.934440
451.331808	2542.142979
451.705917	2542.725233
452.079965	2542.931920
452.453954	2544.905532
452.827883	2542.253885
453.201752	2541.044008
453.575562	2542.422763
453.949311	2543.781354
454.323001	2543.252033
454.696632	2542.629451
455.070202	2544.839997
455.443713	2543.940151
455.817164	2542.654656
456.190556	2542.740356
456.563888	2544.522404
456.937160	2542.924358
457.310373	2542.954605
457.683526	2544.635830
458.056619	2545.901159
458.429653	2542.389996
458.802628	2545.823022
459.175542	2544.146838
459.548398	2545.276056
459.921194	2547.927703
460.293930	2544.363608
460.666607	2545.278577
461.039224	2545.618855
461.411782	2545.447456
461.784280	2544.746735
462.156719	2543.761190
462.529099	2545.041643
462.901419	2546.140614
463.273680	2543.065510
463.645882	2542.548792
464.018024	2541.139790
464.390106	2540.527289
464.762130	2543.894780
465.134094	2545.523073
465.505999	2545.185316
465.877845	2543.325130
466.249631	2546.410316
466.621358	2545.898639
466.993026	2542.170706
467.364634	2549.649257
467.736184	2546.168341
468.107674	2545.155069
468.479105	2549.543393
468.850477	2544.514842
469.221790	2547.899977
469.593043	2544.719009
469.964238	2547.181613
470.335373	2546.203629
470.706449	2549.157745
471.077467	2544.020809
471.448425	2547.441232
471.819324	2541.893442
472.190164	2547.743701
472.560945	2546.304452
472.931667	2542.521066
473.302330	2545.215563
473.672934	2548.394010
474.043479	2546.034750
474.413965	2547.511808
474.784393	2545.180274
475.154761	2546.191026
475.525070	2545.911242
475.895321	2546.853938
476.265513	2545.404606
476.635645	2547.441232
477.005719	2545.651622
477.375734	2547.257230
477.745691	2547.763866
478.115588	2548.716644
478.485427	2546.617003
478.855207	2548.139432
479.224928	2547.012734
479.594591	2548.240255
479.964194	2547.789072
480.333739	2547.882333
480.703226	2546.445604
481.072653	2548.144473
481.442022	2549.314021
481.811333	2544.131714
482.180584	2544.688762
482.549777	2546.843855
482.918912	2541.843031
483.287988	2551.242262
483.657005	2549.132539
484.025964	2550.324772
484.394864	2548.509957
484.763706	2546.128011
485.132489	2547.181612
485.501213	2548.572971
485.869879	2548.000800
486.238487	2549.044319
486.607036	2548.394010
486.975527	2546.823691
487.343959	2551.922818
487.712333	2547.249668
488.080648	2548.451983
488.448905	2547.312683
488.817104	2548.610780
489.185244	2548.754452
489.553326	2551.312838
489.921350	2549.518187
490.289315	2550.710420
490.657222	2549.578681
491.025070	2548.741850
491.392861	2549.049360
491.760593	2549.760163
492.128267	2546.727909
492.495883	2547.789072
492.863440	2551.343085
493.230939	2550.549103
493.598380	2549.389638
493.965763	2548.648588
494.333088	2548.114226
494.700354	2549.465255
495.067563	2549.989535
495.434713	2547.864689
495.801805	2551.151521
496.168839	2552.583209
496.535815	2552.449618
496.902733	2549.659340
497.269593	2550.415513
497.636395	2549.682025
498.003139	2549.240924
498.369825	2550.314690
498.736453	2548.605738
499.103023	2550.571788
499.469535	2551.093548
499.835989	2549.845862
500.202385	2548.784699
500.568723	2546.332178
500.935003	2547.002652
501.301226	2546.801005
501.667390	2550.932231
502.033497	2550.362581
502.399546	2552.124464
502.765537	2549.387117
503.131470	2548.394010
503.497345	2553.165462
503.863163	2549.198074
504.228923	2548.608259
504.594625	2551.159083
504.960269	2550.097920
505.325856	2549.800492
505.691385	2550.294525
506.056856	2550.203784
506.422270	2551.529608
506.787625	2547.600028
507.152924	2550.697817
507.518164	2551.804351
507.883347	2549.548434
508.248472	2549.288815
508.613540	2550.796120
508.978550	2553.062118
509.343503	2551.653116
509.708398	2548.512477
510.073236	2551.305276
510.438016	2551.524567
510.802738	2550.155893
511.167403	2551.708569
511.532010	2549.253527
511.896561	2552.091696
512.261053	2549.263609
512.625488	2549.452652
512.989866	2549.616490
513.354186	2551.390976
513.718449	2550.584391
514.082655	2550.097920
514.446803	2551.569937
514.810894	2551.895091
515.174927	2550.425595
515.538904	2550.811243
515.902822	2550.367622
516.266684	2552.283260
516.630488	2553.258723
516.994235	2552.195040
517.357925	2550.733105
517.721558	2551.655637
518.085133	2553.341902
518.448651	2547.126160
518.812112	2548.368804
519.175516	2549.739998
519.538863	2547.710934
519.902152	2551.292673
520.265385	2553.561193
520.628560	2550.196223
520.991678	2549.371994
521.354739	2551.277550
521.717743	2550.639844
522.080690	2552.212684
522.443580	2550.412992
522.806413	2552.583209
523.169189	2553.757798
523.531908	2550.569268
523.894569	2553.848538
524.257174	2555.207129
524.619722	2549.525749
524.982213	2552.989022
525.344647	2553.210833
525.707025	2549.896274
526.069345	2551.380894
526.431608	2554.455997
526.793815	2551.927859
527.155964	2553.069680
527.518057	2550.334854
527.880093	2551.111192
528.242072	2552.613456
528.603995	2552.633620
528.965860	2552.537838
529.327669	2550.874258
529.689421	2553.636810
530.051117	2553.810730
530.412755	2549.727395
530.774337	2553.558672
531.135862	2553.760318
531.497331	2552.230328
531.858743	2550.309648
532.220098	2551.738816
532.581396	2547.945347
532.942638	2551.063301
533.303824	2550.818805
533.664953	2552.444577
534.026025	2552.850390
534.387040	2551.892571
534.747999	2552.678991
535.108902	2552.573127
535.469748	2553.679660
535.830537	2551.277550
536.191270	2553.871224
536.551947	2550.334854
536.912567	2549.039278
537.273131	2550.158414
537.633638	2549.518187
537.994089	2551.244783
538.354483	2554.087993
538.714821	2555.857438
539.075103	2552.008517
539.435328	2552.530277
539.795497	2554.345092
540.155609	2553.374670
540.515665	2552.522715
540.875665	2551.159083
541.235609	2551.335523
541.595496	2555.207129
541.955328	2550.901984
542.315102	2552.442057
542.674821	2552.434495
543.034483	2552.931048
543.394090	2550.841490
543.753640	2553.808209
544.113134	2554.395504
544.472571	2551.784186
544.831953	2552.542880
545.191278	2554.329969
545.550548	2551.842159
545.909761	2553.351985
546.268918	2552.545400
546.628019	2553.730071
546.987064	2552.394166
547.346053	2553.233518
547.704986	2554.493806
548.063863	2552.825184
548.422684	2551.133877
548.781449	2552.260575
549.140158	2554.340051
549.498811	2551.794268
549.857408	2552.754608
550.215949	2552.353836
550.574434	2554.478683
550.932864	2552.590771
551.291237	2555.192006
551.649555	2553.735113
552.007817	2556.175031
552.366022	2552.986501
552.724173	2551.564896
553.082267	2552.512633
553.440305	2553.437684
553.798288	2553.664536
554.156215	2552.588250
554.514086	2549.999617
554.871902	2546.690100
555.229661	2548.648588
555.587365	2548.663712
555.945014	2553.236038
556.302606	2552.247972
556.660143	2550.964998
557.017625	2553.104968
557.375050	2553.687222
557.732421	2556.263251
558.089735	2553.500699
558.446994	2553.891388
558.804197	2552.444577
559.161345	2553.480534
559.518437	2555.373487
559.875474	2553.783003
560.232455	2554.526574
560.589381	2554.113199
560.946251	2553.508261
561.303065	2552.923487
561.659825	2553.977088
562.016528	2555.738971
562.373177	2553.863662
562.729770	2553.230997
563.086307	2551.819474
563.442789	2553.687222
563.799216	2554.400545
564.155587	2553.813250
564.511904	2555.373488
564.868164	2551.096068
565.224370	2554.002294
565.580520	2553.702345
565.936615	2555.761656
566.292654	2553.452808
566.648638	2553.573796
567.004567	2553.717468
567.360441	2552.028682
567.716260	2554.934907
568.072023	2555.348282
568.427732	2554.392983
568.783385	2553.367108
569.138982	2556.868190
569.494525	2553.203271
569.850013	2550.871737
570.205445	2555.812068
570.560823	2553.626728
570.916145	2552.978939
571.271412	2554.307283
571.626625	2552.890719
571.981782	2553.714948
572.336884	2551.380894
572.691931	2551.844680
573.046923	2549.520708
573.401860	2549.878630
573.756743	2554.072870
574.111570	2551.711089
574.466342	2553.351985
574.821059	2553.483055
575.175722	2555.000442
575.530330	2552.442057
575.884882	2555.766697
576.239380	2554.050185
576.593823	2558.733417
576.948211	2551.007848
577.302544	2553.052036
577.656823	2556.606050
578.011047	2555.560010
578.365216	2555.703683
578.719330	2554.519012
579.073389	2553.674619
579.427394	2553.984650
579.781344	2553.409958
580.135239	2554.188816
580.489080	2552.772252
580.842866	2554.357695
581.196597	2553.909032
581.550273	2556.666543
581.903895	2555.403734
582.257463	2553.102448
582.610975	2554.549259
582.964434	2554.113199
583.317837	2554.486244
583.671186	2554.075390
584.024481	2553.765359
584.377721	2555.643189
584.730906	2557.891544
585.084037	2553.717468
585.437113	2556.485062
585.790135	2554.544218
586.143103	2554.806358
586.496016	2557.856256
586.848874	2555.885165
587.201679	2557.422717
587.554428	2555.678477
587.907124	2553.989691
588.259765	2552.116902
588.612352	2551.746377
588.964884	2552.318548
589.317362	2556.114537
589.669786	2555.101265
590.022155	2552.794937
590.374470	2549.724875
590.726731	2552.971378
591.078937	2547.206818
591.431090	2553.732592
591.783188	2557.205947
592.135232	2553.659495
592.487222	2553.979608
592.839157	2554.219063
593.191038	2555.260062
593.542866	2555.814588
593.894639	2552.452139
594.246358	2553.248641
594.598022	2556.001111
594.949633	2552.678991
595.301190	2552.396686
595.652692	2553.359547
596.004141	2553.417520
596.355535	2555.249979
596.706876	2552.525236
597.058162	2556.253169
597.409395	2551.128836
597.760573	2555.454146
598.111698	2552.555482
598.462768	2555.459187
598.813785	2552.404248
599.164748	2555.512119
599.515657	2552.865513
599.866511	2553.606563
600.217312	2555.628066
600.568060	2551.728733
600.918753	2555.554969
601.269392	2556.958930
601.619978	2557.410114
601.970510	2554.024979
602.320988	2553.737633
602.671412	2553.848538
603.021783	2555.960782
603.372100	2555.275185
603.722363	2553.639331
604.072572	2554.987839
604.422728	2555.025648
604.772830	2554.743343
605.122878	2554.027499
605.472872	2553.838456
605.822813	2553.815771
606.172701	2555.249979
606.522534	2553.530946
606.872314	2555.307952
607.222041	2552.379042
607.571714	2552.474824
607.921333	2550.929710
608.270899	2554.622356
608.620411	2552.656306
608.969870	2555.996070
609.319276	2557.044630
609.668627	2563.257852
610.017926	2567.308419
610.367171	2568.661969
610.716362	2567.832699
611.065500	2565.075188
611.414585	2565.349931
611.763616	2559.565207
612.112594	2560.066802
612.461518	2560.921277
612.810389	2557.384908
613.159207	2561.190979
613.507971	2556.222922
613.856682	2557.440361
614.205340	2555.280226
614.553945	2555.713765
614.902496	2555.146636
615.250994	2553.770401
615.599439	2555.973385
615.947830	2556.147305
616.296169	2553.253682
616.644454	2556.520350
616.992686	2552.918446
617.340864	2555.270144
617.688990	2557.407593
618.037063	2553.160421
618.385082	2554.239228
618.733048	2557.584033
619.080961	2559.328273
619.428821	2556.268292
619.776628	2554.067829
620.124382	2555.817109
620.472083	2554.420709
620.819731	2557.210988
621.167326	2556.061605
621.514868	2554.145967
621.862357	2555.126471
622.209793	2554.796275
622.557176	2557.140412
622.904506	2555.620504
623.251783	2556.175031
623.599007	2555.832233
623.946179	2553.276368
624.293297	2555.383570
624.640363	2556.588406
624.987376	2551.680842
625.334336	2550.899463
625.681243	2553.102448
626.028097	2550.886861
626.374899	2552.936090
626.721647	2554.884496
627.068343	2557.077398
627.414987	2552.404248
627.761577	2555.857438
628.108115	2555.469269
628.454600	2553.896429
628.801032	2554.627397
629.147412	2558.176369
629.493739	2556.114537
629.840014	2554.771070
630.186236	2555.093703
630.532405	2556.369115
630.878521	2556.653941
631.224585	2554.652603
631.570597	2555.164280
631.916556	2555.905329
632.262462	2554.488765
632.608316	2552.736964
632.954117	2554.884496
633.299866	2555.479352
633.645562	2553.604043
633.991206	2555.486913
634.336797	2553.982129
634.682336	2552.910884
635.027823	2552.641182
635.373257	2553.757798
635.718639	2552.805020
636.063968	2554.997922
636.409245	2553.873744
636.754470	2553.546069
637.099642	2555.159238
637.444762	2556.200237
637.789829	2553.871224
638.134845	2555.428940
638.479808	2551.864844
638.824719	2557.823488
639.169577	2552.825184
639.514383	2554.934907
639.859137	2552.873075
640.203839	2552.873075
640.548489	2552.989022
640.893086	2555.529763
641.237632	2555.149156
641.582125	2553.704866
641.926566	2554.735782
642.270955	2550.256716
642.615292	2548.502395
642.959576	2551.582540
643.303809	2546.342260
643.647990	2554.143446
643.992118	2553.369629
644.336195	2553.858621
644.680219	2552.507592
645.024192	2555.413817
645.368112	2555.247459
645.711981	2553.503219
646.055797	2552.976419
646.399562	2555.159238
646.743274	2555.504558
647.086935	2556.923642
647.430544	2554.282078
647.774101	2553.513302
648.117606	2554.680329
648.461059	2553.525905
648.804460	2557.460525
649.147810	2553.173024
649.491108	2555.338199
649.834354	2552.716799
650.177548	2554.438353
650.520690	2552.187478
650.863781	2554.027499
651.206820	2552.855431
651.549807	2553.538507
651.892742	2553.460370
652.235626	2556.049002
652.578458	2554.324927
652.921238	2553.301573
653.263967	2553.442726
653.606644	2553.548590
653.949269	2549.959288
654.291843	2554.297201
654.634365	2552.784855
654.976836	2551.711089
655.319255	2553.046995
655.661622	2552.265616
656.003938	2552.880637
656.346203	2552.885678
656.688416	2552.714279
657.030577	2555.857438
657.372687	2551.559855
657.714746	2551.428785
658.056753	2552.860472
658.398708	2552.653785
658.740612	2551.191850
659.082465	2554.453477
659.424266	2549.525749
659.766016	2545.190357
660.107715	2553.626728
660.449362	2551.461552
660.790958	2554.619835
661.132503	2552.931048
661.473996	2555.270144
661.815438	2553.392314
662.156829	2555.181924
662.498168	2553.069680
662.839456	2554.766028
663.180693	2552.971378
663.521879	2554.609753
663.863013	2554.730740
664.204097	2553.485575
664.545129	2552.913404
664.886110	2553.964485
665.227040	2553.929197
665.567918	2552.691594
665.908746	2553.636810
666.249522	2553.903991
666.590248	2554.297201
666.930922	2554.335010
667.271545	2551.254865
667.612118	2555.260062
667.952639	2553.283929
668.293109	2552.298384
668.633528	2553.268806
668.973896	2555.287788
669.314213	2552.742005
669.654480	2551.411141
669.994695	2554.239228
670.334859	2553.740154
670.674973	2550.992725
671.015035	2551.022972
671.355047	2552.159752
671.695008	2553.641851
672.034918	2552.590771
672.374777	2554.014897
672.714585	2550.783517
673.054342	2554.594629
673.394049	2554.186296
673.733705	2553.273847
674.073310	2553.185627
674.412864	2552.656306
674.752368	2554.753426
675.091820	2553.052036
675.431223	2555.141594
675.770574	2552.104299
676.109875	2550.627241
676.449125	2551.068342
676.788324	2548.303269
677.127473	2550.332334
677.466571	2549.044319
677.805619	2553.485575
678.144616	2552.860472
678.483562	2552.321069
678.822458	2554.329969
679.161303	2552.459701
679.500098	2551.948023
679.838842	2553.077242
680.177535	2551.247303
680.516179	2553.427602
680.854771	2552.643703
681.193314	2552.295863
681.531805	2554.017417
681.870247	2555.353323
682.208638	2552.575647
682.546978	2553.039433
682.885268	2552.230328
683.223508	2553.543549
683.561697	2550.995245
683.899836	2554.251831
684.237925	2552.593291
684.575963	2551.380894
684.913951	2553.674619
685.251889	2556.081770
685.589776	2551.355688
685.927614	2552.346275
686.265401	2551.396017
686.603137	2553.750236
686.940824	2553.858621
687.278460	2554.793755
687.616046	2553.513302
687.953582	2553.498178
688.291068	2551.428785
688.628504	2551.519525
688.965889	2551.716130
689.303224	2553.215874
689.640510	2551.128836
689.977745	2553.374670
690.314930	2554.914743
690.652065	2551.091027
690.989150	2552.429454
691.326185	2553.485575
691.663170	2552.615976
692.000105	2552.439536
692.336990	2550.836449
692.673825	2552.895760
693.010610	2551.161603
693.347345	2549.848383
693.684030	2548.613300
694.020665	2549.523228
694.357251	2549.019113
694.693786	2554.922304
695.030272	2553.677139
695.366707	2551.799309
695.703093	2553.699824
696.039429	2552.429454
696.375716	2551.511964
696.711952	2553.296532
697.048139	2552.268137
697.384276	2553.389793
697.720363	2551.736295
698.056400	2552.268137
698.392388	2552.767211
698.728326	2553.120092
699.064214	2553.513302
699.400053	2551.348126
699.735842	2551.985832
700.071581	2551.360729
700.407270	2549.858465
700.742910	2550.380225
701.078501	2551.562375
701.414042	2552.210163
701.749533	2553.548590
702.084974	2549.777807
702.420366	2550.954916
702.755709	2553.528425
703.091002	2550.412992
703.426246	2553.009186
703.761440	2553.455328
704.096584	2554.599670
704.431679	2552.305945
704.766725	2553.825853
705.101721	2556.462377
705.436668	2553.203271
705.771565	2553.276367
706.106413	2552.994063
706.441212	2553.334341
706.775961	2555.655792
707.110661	2551.781665
707.445311	2554.403065
707.779913	2554.173693
708.114465	2553.876265
708.448967	2553.490617
708.783421	2550.796120
709.117825	2550.922149
709.452180	2555.260062
709.786485	2549.119936
710.120742	2551.963147
710.454949	2546.115408
710.789107	2548.139432
711.123216	2550.947354
711.457275	2553.054557
711.791286	2553.457849
712.125247	2554.743343
712.459159	2551.179247
712.793023	2554.312325
713.126837	2554.327448
713.460602	2551.469114
713.794318	2554.105637
714.127985	2552.789896
714.461602	2553.422561
714.795171	2551.539690
715.128691	2549.790410
715.462162	2550.594474
715.795584	2552.794937
716.128957	2553.026830
716.462281	2548.081458
716.795556	2550.143290
717.128782	2552.041285
717.461960	2554.319886
717.795088	2551.333003
718.128167	2551.557334
718.461198	2549.137580
718.794180	2550.206305
719.127113	2550.304607
719.459997	2552.774773
719.792833	2551.065822
720.125619	2554.894578
720.458357	2553.442726
720.791046	2550.896943
721.123686	2551.070863
721.456278	2549.543393
721.788821	2550.523897
722.121315	2551.983312
722.453761	2554.367777
722.786158	2553.339382
723.118506	2550.097920
723.450805	2551.464073
723.783056	2552.061449
724.115259	2551.242262
724.447412	2551.002807
724.779518	2553.503219
725.111574	2551.650595
725.443582	2553.425082
725.775542	2550.027344
726.107453	2553.286450
726.439315	2553.014227
726.771129	2551.794268
727.102895	2548.668753
727.434612	2549.324103
727.766281	2546.682538
728.097901	2550.438198
728.429473	2552.116902
728.760996	2551.038095
729.092471	2552.789896
729.423897	2549.644216
729.755276	2552.568085
730.086606	2550.695297
730.417887	2550.753270
730.749120	2553.067160
731.080305	2551.955585
731.411442	2552.714279
731.742530	2549.535831
732.073570	2550.370142
732.404562	2556.071687
732.735506	2551.506922
733.066401	2551.547252
733.397249	2552.676470
733.728048	2551.632951
734.058798	2551.451470
734.389501	2549.729916
734.720156	2552.779814
735.050762	2550.455842
735.381320	2549.341747
735.711831	2551.453990
736.042293	2548.217570
736.372707	2549.843342
736.703073	2548.567930
737.033391	2550.503733
737.363661	2551.224618
737.693883	2552.411810
738.024056	2550.909546
738.354182	2551.564896
738.684260	2550.813764
739.014290	2551.038095
739.344272	2549.878630
739.674207	2553.263765
740.004093	2550.758311
740.333931	2550.387786
740.663722	2553.931717
740.993464	2551.433826
741.323159	2549.860986
741.652806	2551.184289
741.982405	2551.648075
742.311956	2551.088507
742.641460	2551.479196
742.970915	2549.850903
743.300323	2549.608928
743.629683	2547.922662
743.958996	2548.930893
744.288260	2545.487785
744.617477	2550.360060
744.946647	2551.269988
745.275768	2549.757642
745.604842	2551.839639
745.933869	2550.491130
746.262847	2551.814433
746.591778	2550.407951
746.920662	2553.026830
747.249498	2553.346944
747.578286	2550.536500
747.907027	2551.128836
748.235720	2547.491643
748.564365	2550.463404
748.892963	2549.064483
749.221514	2553.039433
749.550017	2550.952396
749.878473	2550.034906
750.206881	2553.619166
750.535242	2552.454659
750.863555	2552.328631
751.191821	2552.459701
751.520039	2554.874413
751.848210	2552.121943
752.176334	2549.124977
752.504411	2550.728064
752.832440	2550.977601
753.160421	2548.799823
753.488356	2553.495658
753.816243	2551.504402
754.144082	2547.869730
754.471875	2551.660678
754.799620	2547.453835
755.127318	2548.905687
755.454969	2547.771427
755.782572	2551.002807
756.110129	2549.107333
756.437638	2549.056922
756.765100	2550.460883
757.092515	2550.286963
757.419882	2550.415513
757.747203	2551.695966
758.074477	2550.622200
758.401703	2549.528270
758.728882	2550.496171
759.056014	2554.428271
759.383099	2550.090358
759.710138	2549.193033
760.037129	2548.162117
760.364073	2550.070194
760.690970	2544.613145
761.017820	2551.456511
761.344623	2551.910215
761.671379	2550.193702
761.998088	2551.068342
762.324751	2551.078424
762.651366	2549.298897
762.977935	2551.665719
763.304456	2551.418702
763.630931	2549.588763
763.957359	2547.453835
764.283740	2549.573640
764.610074	2549.470296
764.936362	2552.366439
765.262602	2551.733774
765.588796	2550.687735
765.914943	2550.632282
766.241044	2548.540203
766.567097	2549.369473
766.893104	2549.480379
767.219064	2552.986501
767.544978	2550.289484
767.870845	2548.562889
768.196665	2548.809905
768.522438	2549.462735
768.848165	2550.405430
769.173846	2550.470965
769.499479	2551.610266
769.825066	2548.623382
770.150607	2548.154555
770.476101	2550.211346
770.801548	2550.786038
771.126949	2550.302087
771.452303	2549.659340
771.777611	2549.132539
772.102872	2552.197561
772.428087	2549.379556
772.753256	2549.424926
773.078378	2550.889381
773.403453	2551.234700
773.728482	2551.038095
774.053465	2551.219577
774.378401	2549.407282
774.703291	2549.535831
775.028135	2548.580533
775.352932	2549.394679
775.677683	2549.397200
776.002388	2548.532642
776.327046	2546.188505
776.651658	2547.345450
776.976224	2547.484082
777.300743	2550.554144
777.625216	2550.710420
777.949643	2552.512633
778.274024	2550.586912
778.598359	2552.439536
778.922647	2549.215718
779.246889	2549.709751
779.571086	2549.364432
779.895236	2551.736295
780.219339	2550.730585
780.543397	2548.434339
780.867409	2551.267468
781.191374	2549.858465
781.515294	2550.574309
781.839167	2548.671273
782.162995	2550.861655
782.486776	2549.848383
782.810511	2549.813095
783.134201	2549.697148
783.457844	2550.178578
783.781441	2548.872920
784.104993	2550.657488
784.428498	2551.942982
784.751958	2550.584391
785.075372	2551.219577
785.398739	2549.364432
785.722061	2547.854607
786.045337	2550.289484
786.368568	2549.321582
786.691752	2551.227138
787.014891	2550.717982
787.337983	2549.596325
787.661030	2546.944678
787.984031	2553.425082
788.306987	2551.267468
788.629897	2547.166489
788.952760	2550.183620
789.275579	2551.620348
789.598351	2549.130018
789.921078	2550.791079
790.243759	2549.377035
790.566395	2551.441387
790.888984	2549.193033
791.211529	2547.781510
791.534027	2552.452139
791.856480	2551.779145
792.178888	2548.497354
792.501249	2548.683876
792.823566	2548.719164
793.145836	2546.990049
793.468062	2547.635316
793.790241	2550.415513
794.112375	2546.392672
794.434464	2552.913404
794.756507	2550.044988
795.078505	2549.901315
795.400457	2549.026675
795.722364	2551.650595
796.044226	2549.190512
796.366042	2548.202446
796.687812	2549.732436
797.009538	2549.742519
797.331218	2550.365101
797.652852	2550.468445
797.974442	2548.373845
798.295986	2548.210008
798.617484	2550.171017
798.938938	2549.810574
799.260346	2550.430636
799.581709	2550.896943
799.903026	2548.227652
800.224299	2550.108002
800.545526	2548.020965
800.866708	2547.962991
801.187845	2548.199926
801.508936	2550.113043
801.829983	2549.258568
802.150984	2551.015410
802.471940	2549.896274
802.792851	2547.171530
803.113717	2547.879812
803.434538	2546.853938
803.755314	2550.377704
804.076045	2548.774617
804.396731	2547.910059
804.717372	2549.180430
805.037967	2549.984494
805.358518	2552.434495
805.679024	2548.953578
805.999485	2550.929710
806.319901	2551.123795
806.640272	2551.171686
806.960598	2547.234545
807.280879	2550.612118
807.601115	2550.614638
807.921306	2549.137580
808.241453	2546.072559
808.561554	2547.501726
808.881611	2548.383928
809.201623	2544.398896
809.521590	2548.782179
809.841513	2548.152035
810.161390	2548.353681
810.481223	2547.418547
810.801011	2549.931562
811.120755	2548.658671
811.440453	2550.130687
811.760107	2546.218752
812.079716	2549.840821
812.399281	2550.599515
812.718801	2548.585574
813.038276	2547.993238
813.357707	2551.201933
813.677093	2550.244113
813.996434	2553.535987
814.315731	2546.581715
814.634983	2551.385935
814.954191	2546.959802
815.273354	2548.547765
815.592473	2548.472148
815.911547	2547.232024
816.230577	2549.639175
816.549562	2550.682694
816.868502	2549.624052
817.187399	2550.660009
817.506250	2550.665050
817.825058	2549.407282
818.143821	2545.623896
818.462539	2550.324772
818.781213	2551.199412
819.099843	2546.879143
819.418429	2548.721685
819.736970	2546.768238
820.055466	2549.651778
820.373919	2549.334185
820.692327	2547.738660
821.010691	2546.838814
821.329011	2549.621531
821.647286	2546.566592
821.965517	2548.210008
822.283704	2549.124977
822.601847	2548.031047
822.919945	2545.843186
823.237999	2548.467107
823.556010	2550.856614
823.873976	2548.557847
824.191897	2546.496016
824.509775	2543.012578
824.827609	2546.130532
825.145398	2543.574667
825.463144	2547.978115
825.780845	2549.404761
826.098502	2547.476520
826.416116	2549.926521
826.733685	2549.538352
827.051210	2550.082797
827.368692	2547.186654
827.686129	2547.640358
828.003522	2548.938455
828.320872	2548.570450
828.638177	2551.678322
828.955439	2548.535162
829.272656	2550.221428
829.589830	2547.393341
829.906960	2549.198074
830.224046	2547.564740
830.541088	2544.787064
830.858086	2549.409802
831.175041	2549.840821
831.491952	2549.886192
831.808819	2547.025337
832.125642	2548.104144
832.442421	2549.598846
832.759157	2546.788402
833.075849	2550.188661
833.392497	2551.259906
833.709101	2547.479041
834.025662	2551.055739
834.342179	2549.339226
834.658653	2547.947868
834.975083	2550.808723
835.291469	2554.445915
835.607811	2551.348126
835.924110	2548.641027
836.240366	2548.023485
836.556578	2547.864689
836.872746	2549.651778
837.188871	2549.200595
837.504952	2549.906356
837.820990	2548.489792
838.136984	2546.501057
838.452935	2545.714637
838.768842	2545.888557
839.084706	2547.055584
839.400526	2551.469114
839.716303	2548.908208
840.032037	2544.091385
840.347727	2544.867723
840.663373	2543.640202
840.978977	2541.890922
841.294537	2549.669422
841.610054	2549.679504
841.925527	2550.985163
842.240957	2548.469627
842.556344	2547.751263
842.871687	2546.629606
843.186987	2547.289997
843.502244	2546.266643
843.817458	2546.490974
844.132629	2547.635316
844.447756	2549.724875
844.762840	2546.692621
845.077881	2546.803526
845.392879	2550.786037
845.707833	2549.069525
846.022745	2547.300080
846.337613	2548.492313
846.652438	2549.593805
846.967221	2549.513146
847.281960	2545.739842
847.596656	2548.605738
847.911309	2545.533155
848.225919	2549.918959
848.540485	2547.229503
848.855009	2549.714792
849.169490	2549.321582
849.483928	2548.094061
849.798323	2548.202446
850.112675	2549.467776
850.426984	2547.998279
850.741251	2546.203629
851.055474	2546.188505
851.369654	2549.291335
851.683792	2548.146993
851.997887	2550.344937
852.311938	2547.680687
852.625947	2546.133052
852.939914	2548.426778
853.253837	2546.095244
853.567718	2549.059442
853.881555	2545.989380
854.195350	2550.027344
854.509103	2549.392158
854.822812	2548.129349
855.136479	2547.768907
855.450103	2547.849565
855.763685	2547.549617
856.077224	2544.141797
856.390720	2544.373690
856.704173	2543.423432
857.017584	2547.163968
857.330953	2549.230842
857.644278	2550.418033
857.957561	2550.201264
858.270802	2548.633465
858.584000	2547.368135
858.897155	2547.630275
859.210268	2547.842004
859.523339	2548.149514
859.836367	2547.458876
860.149352	2549.838301
860.462295	2545.523073
860.775195	2545.603731
861.088054	2545.409647
861.400869	2547.133722
861.713642	2547.247147
862.026373	2549.724875
862.339062	2550.536500
862.651708	2546.790923
862.964312	2547.100954
863.276873	2547.393341
863.589392	2547.055584
863.901869	2546.586756
864.214303	2548.825029
864.526696	2550.150852
864.839045	2545.361756
865.151353	2546.894267
865.463619	2546.609442
865.775842	2548.383928
866.088023	2546.422919
866.400162	2548.641027
866.712258	2548.741850
867.024313	2548.409133
867.336325	2547.002652
867.648296	2547.048022
867.960224	2548.930893
868.272110	2546.274205
868.583954	2548.378887
868.895755	2547.355532
869.207515	2547.123639
869.519233	2546.163299
869.830909	2549.646737
870.142542	2547.368135
870.454134	2546.279246
870.765684	2550.692776
871.077191	2548.106664
871.388657	2546.846376
871.700081	2542.672300
872.011463	2545.712116
872.322803	2544.837476
872.634101	2546.299411
872.945357	2546.879143
873.256571	2546.473330
873.567744	2547.678166
873.878874	2546.397713
874.189963	2544.633309
874.501010	2549.382076
874.812015	2548.295707
875.122979	2547.398382
875.433900	2549.311500
875.744780	2547.519370
876.055618	2548.053732
876.366415	2546.909390
876.677169	2545.099616
876.987882	2547.287477
877.298554	2550.032385
877.609183	2548.537683
877.919771	2548.875440
878.230317	2547.650440
878.540822	2548.872920
878.851285	2549.119936
879.161707	2547.902498
879.472087	2544.529966
879.782425	2545.392003
880.092722	2548.184802
880.402977	2547.610111
880.713191	2548.688917
881.023363	2545.918803
881.333494	2547.819318
881.643583	2547.332847
881.953631	2544.948381
882.263637	2545.681869
882.573602	2547.209339
882.883526	2547.249668
883.193408	2547.937786
883.503248	2545.036602
883.813048	2547.577343
884.122806	2548.930893
884.432522	2545.475182
884.742197	2546.301931
885.051831	2546.823691
885.361424	2547.080789
885.670975	2547.438711
885.980485	2548.197405
886.289954	2548.280584
886.599382	2548.204967
886.908768	2545.424770
887.218113	2542.752959
887.527417	2541.744728
887.836680	2540.769265
888.145901	2544.973587
888.455082	2547.738660
888.764221	2548.467107
889.073319	2544.729091
889.382376	2548.956099
889.691392	2546.934596
890.000366	2548.210008
890.309300	2547.668084
890.618193	2544.739173
890.927044	2547.481561
891.235855	2546.856458
891.544625	2544.940820
891.853353	2547.209339
892.162041	2547.161448
892.470687	2547.564740
892.779293	2545.185316
893.087858	2545.560882
893.396381	2547.310162
893.704864	2546.977446
894.013306	2544.509801
894.321707	2546.269164
894.630068	2546.561551
894.938387	2546.304452
895.246665	2546.518701
895.554903	2546.317055
895.863100	2548.225131
896.171256	2544.741694
896.479371	2549.533311
896.787446	2548.588094
897.095480	2545.034081
897.403473	2546.395193
897.711425	2546.541386
898.019336	2547.360573
898.327207	2544.129194
898.635038	2547.738660
898.942827	2547.347971
899.250576	2547.882333
899.558284	2548.300749
899.865952	2546.107847
900.173579	2545.442414
900.481165	2547.554658
900.788711	2546.314534
901.096216	2550.327293
901.403681	2544.630789
901.711105	2548.696479
902.018489	2545.679349
902.325832	2543.551982
902.633135	2544.507280
902.940397	2545.880995
903.247619	2540.469316
903.554800	2547.199257
903.861941	2543.685572
904.169041	2544.247661
904.476101	2545.949050
904.783121	2545.911242
905.090100	2547.685728
905.397039	2548.603218
905.703938	2548.416695
906.010796	2545.956612
906.317614	2547.141283
906.624391	2547.078269
906.931129	2547.859648
907.237826	2544.598021
907.544483	2545.011396
907.851099	2547.733619
908.157675	2548.817467
908.464211	2545.210521
908.770707	2546.281767
909.077163	2546.468289
909.383578	2546.906870
909.689954	2547.295038
909.996289	2549.485420
910.302584	2544.734132
910.608839	2548.008362
910.915054	2545.089534
911.221229	2545.248330
911.527363	2547.726057
911.833458	2545.515511
912.139513	2547.353012
912.445527	2545.283618
912.751502	2546.468289
913.057436	2545.621375
913.363331	2548.189843
913.669186	2544.605583
913.975000	2546.511139
914.280775	2543.413350
914.586510	2545.202960
914.892205	2544.698844
915.197859	2546.279246
915.503475	2548.530121
915.809050	2547.405944
916.114585	2546.556509
916.420081	2546.140614
916.725536	2547.322765
917.030952	2547.632796
917.336328	2545.477703
917.641665	2541.825387
917.946961	2543.877136
918.252218	2545.202960
918.557435	2543.098278
918.862612	2546.299411
919.167750	2546.496016
919.472848	2544.315717
919.777906	2544.393854
920.082925	2544.615665
920.387904	2545.901159
920.692843	2544.782023
920.997743	2544.943340
921.302603	2545.245809
921.607423	2546.637168
921.912204	2543.577187
922.216946	2545.661705
922.521647	2548.807385
922.826310	2546.559030
923.130932	2546.075079
923.435516	2544.469472
923.740059	2545.971736
924.044564	2546.037271
924.349028	2547.877292
924.653454	2544.083823
924.957840	2544.161961
925.262186	2545.104657
925.566493	2546.949719
925.870761	2545.286139
926.174989	2546.773279
926.479178	2550.460883
926.783328	2547.279915
927.087438	2542.841179
927.391509	2546.271684
927.695541	2544.436704
927.999533	2545.515511
928.303486	2545.984338
928.607400	2546.609442
928.911275	2546.712785
929.215110	2544.282949
929.518906	2548.462066
929.822663	2544.779503
930.126381	2545.386962
930.430060	2546.485933
930.733699	2544.867723
931.037299	2545.505429
931.340861	2543.350336
931.644383	2544.749256
931.947866	2546.841335
932.251309	2544.978628
932.554714	2545.419729
932.858080	2544.386293
933.161407	2543.315047
933.464694	2541.812784
933.767943	2542.863864
934.071153	2543.509132
934.374323	2546.185985
934.677455	2544.782023
934.980548	2545.702034
935.283602	2546.715306
935.586617	2546.259081
935.889593	2545.558361
936.192530	2545.744884
936.495428	2544.706406
936.798287	2545.439894
937.101108	2545.061807
937.403890	2544.807229
937.706632	2547.206818
938.009336	2545.016437
938.312002	2547.297559
938.614628	2546.044832
938.917216	2548.111705
939.219765	2545.606252
939.522275	2545.439894
939.824747	2546.322096
940.127179	2545.215562
940.429573	2545.671787
940.731929	2545.003834
941.034246	2541.772454
941.336524	2543.935109
941.638763	2544.421581
941.940964	2544.088865
942.243126	2544.436704
942.545250	2545.946530
942.847335	2542.810932
943.149381	2543.998124
943.451389	2544.953422
943.753359	2543.592311
944.055290	2542.833617
944.357182	2545.134904
944.659036	2543.181457
944.960851	2545.510470
945.262628	2544.368649
945.564367	2547.098433
945.866067	2543.698175
946.167729	2545.732281
946.469352	2545.712116
946.770937	2544.948381
947.072484	2546.291849
947.373992	2545.265974
947.675462	2544.764379
947.976893	2543.400747
948.278286	2538.646939
948.579641	2543.798998
948.880958	2542.851261
949.182236	2544.323278
949.483476	2542.735315
949.784678	2544.164482
950.085841	2545.913762
950.386967	2544.769420
950.688054	2543.388144
950.989103	2546.140614
951.290114	2547.373176
951.591087	2547.254709
951.892021	2547.189174
952.192917	2546.281767
952.493776	2544.877805
952.794596	2544.267826
953.095378	2546.110367
953.396122	2548.000800
953.696828	2546.372507
953.997496	2546.390151
954.298126	2545.699513
954.598718	2544.429142
954.899272	2543.977959
955.199788	2546.193546
955.500266	2543.050387
955.800706	2544.567774
956.101108	2543.826725
956.401472	2545.533155
956.701798	2544.857641
957.002087	2544.262784
957.302337	2543.035263
957.602550	2547.194215
957.902724	2544.414019
958.202861	2542.833617
958.502960	2545.444935
958.803022	2546.385110
959.103045	2544.555171
959.403031	2545.956612
959.702979	2542.611807
960.002889	2545.265974
960.302762	2545.155069
960.602596	2545.548279
960.902393	2543.738504
961.202153	2543.899821
961.501875	2544.061138
961.801559	2544.577857
962.101205	2543.365459
962.400814	2543.413350
962.700385	2544.761859
962.999918	2544.419060
963.299414	2541.464944
963.598873	2540.854964
963.898293	2539.055273
964.197677	2544.630789
964.497022	2541.099460
964.796331	2543.892260
965.095601	2543.977959
965.394835	2545.177754
965.694030	2544.227496
965.993189	2546.153217
966.292309	2544.862682
966.591393	2545.712116
966.890439	2545.041643
967.189447	2544.590459
967.488419	2543.584749
967.787353	2542.798329
968.086249	2544.739173
968.385108	2545.039122
968.683930	2544.058618
968.982714	2543.844369
969.281462	2543.713299
969.580172	2541.996786
969.878844	2544.136756
970.177480	2545.243289
970.476078	2546.599359
970.774639	2544.169523
971.073162	2545.250851
971.371649	2543.945192
971.670098	2547.428629
971.968510	2543.357897
972.266885	2544.605583
972.565223	2549.223280
972.863524	2543.839328
973.161788	2543.632640
973.460014	2543.360418
973.758204	2542.183308
974.056356	2541.578370
974.354471	2544.683721
974.652550	2543.274718
974.950591	2543.672969
975.248595	2546.372507
975.546563	2542.936961
975.844493	2546.609442
976.142386	2545.918803
976.440243	2546.291849
976.738062	2545.563402
977.035845	2546.145655
977.333590	2544.529966
977.631299	2543.446117
977.928971	2541.475026
978.226606	2543.304965
978.524204	2543.229348
978.821765	2538.568801
979.119290	2541.719522
979.416777	2543.935109
979.714228	2544.396375
980.011642	2543.272198
980.309020	2545.397044
980.606360	2545.588608
980.903664	2545.981818
981.200931	2543.471323
981.498162	2545.855789
981.795356	2542.778165
982.092513	2546.851417
982.389633	2542.110212
982.686717	2543.146169
982.983764	2544.348484
983.280775	2544.857641
983.577749	2544.003165
983.874686	2542.720191
984.171587	2545.565923
984.468451	2547.751263
984.765279	2543.756148
985.062070	2545.565923
985.358824	2542.891591
985.655543	2544.615665
985.952224	2544.083823
986.248869	2544.638350
986.545478	2545.263453
986.842050	2542.647095
987.138586	2542.347146
987.435086	2544.529966
987.731549	2545.197918
988.027975	2544.482075
988.324366	2542.437887
988.620719	2544.439225
988.917037	2544.910573
989.213318	2545.092054
989.509563	2544.822352
989.805772	2544.845038
990.101944	2544.396375
990.398080	2543.947712
990.694180	2542.765562
990.990244	2543.330171
991.286271	2545.593649
991.582262	2542.480737
991.878217	2543.186498
992.174136	2542.140459
992.470019	2541.875798
992.765865	2539.947557
993.061676	2537.915972
993.357450	2543.065510
993.653188	2537.482433
993.948890	2541.742207
994.244556	2542.521066
994.540186	2541.711961
994.835780	2545.807898
995.131337	2542.634492
995.426859	2543.962836
995.722345	2543.249513
996.017795	2543.781354
996.313208	2544.078782
996.608586	2543.882177
996.903928	2546.712785
997.199234	2546.652291
997.494504	2544.383772
997.789738	2545.104657
998.084936	2542.705068
998.380099	2545.311344
998.675225	2543.100798
998.970316	2543.514173
999.265371	2543.123484
999.560390	2542.223638
999.855373	2543.771272
1000.150320	2545.999462
1000.445232	2543.680531
1000.740108	2544.204811
1001.034948	2541.669111
1001.329752	2543.970397
1001.624521	2545.049204
1001.919254	2545.593649
1002.213951	2544.655994
1002.508613	2541.152393
1002.803239	2544.492157
1003.097829	2542.548792
1003.392384	2544.177085
1003.686903	2543.436035
1003.981386	2544.298072
1004.275834	2544.603062
1004.570246	2544.668597
1004.864623	2543.378062
1005.158964	2542.639533
1005.453270	2543.330171
1005.747540	2541.044008
1006.041775	2545.807898
1006.335974	2543.665408
1006.630138	2546.138094
1006.924266	2545.202960
1007.218359	2540.650798
1007.512416	2541.124666
1007.806438	2540.396219
1008.100425	2541.626261
1008.394376	2540.925541
1008.688292	2542.959646
1008.982172	2543.977959
1009.276017	2542.095088
1009.569827	2543.413350
1009.863602	2541.361600
1010.157341	2542.135418
1010.451045	2545.666746
1010.744714	2543.960315
1011.038347	2543.410829
1011.331945	2543.728422
1011.625508	2543.970398
1011.919036	2541.076775
1012.212528	2541.981662
1012.505986	2543.173895
1012.799408	2543.289842
1013.092795	2543.703216
1013.386147	2543.730943
1013.679464	2546.261602
1013.972745	2543.930068
1014.265992	2543.703216
1014.559204	2543.960315
1014.852380	2543.662887
1015.145521	2540.900335
1015.438628	2544.802188
1015.731699	2542.989893
1016.024736	2543.488967
1016.317737	2543.569626
1016.610703	2542.788247
1016.903635	2545.349153
1017.196531	2544.424101
1017.489393	2541.941333
1017.782219	2542.785726
1018.075011	2541.674152
1018.367768	2541.653987
1018.660490	2543.304965
1018.953177	2543.304965
1019.245829	2543.304965
