Dividing Wavelength (nm)	Counts (n)	Blue Motor Position (mm): 26.700000	Red Motor Position (mm): 0.000000	
326.493990	2204.178984
326.888308	2204.178984
327.282561	2204.178984
327.676750	2164.414363
328.070874	2160.814979
328.464933	2161.593837
328.858929	2163.796821
329.252859	2171.219920
329.646726	2178.496826
330.040528	2189.234484
330.434265	2200.226720
330.827938	2223.108517
331.221547	2239.701475
331.615091	2255.986922
332.008571	2273.522576
332.401986	2292.734413
332.795338	2312.203349
333.188625	2330.543067
333.581847	2350.364884
333.975006	2367.298120
334.368100	2387.470297
334.761129	2406.011661
335.154095	2425.107552
335.546996	2451.263578
335.939833	2481.432363
336.332606	2497.770743
336.725315	2514.507374
337.117960	2524.466173
337.510540	2538.258770
337.903056	2546.569112
338.295508	2558.521688
338.687896	2564.460167
339.080220	2572.037022
339.472480	2580.997672
339.864676	2583.324165
340.256807	2591.611822
340.648875	2594.432347
341.040879	2597.872935
341.432818	2602.654469
341.824694	2603.589603
342.216506	2606.100098
342.608253	2605.031373
342.999937	2603.894593
343.391557	2606.218565
343.783113	2603.113214
344.174605	2601.857967
344.566033	2602.530961
344.957397	2602.001640
345.348697	2600.940477
345.739934	2597.522575
346.131106	2598.198089
346.522215	2594.611308
346.913260	2594.502924
347.304241	2592.012594
347.695159	2590.149887
348.086012	2588.660226
348.476802	2587.861203
348.867528	2580.445666
349.258191	2579.936510
349.648789	2577.002558
350.039324	2573.319995
350.429796	2578.386355
350.820203	2576.059862
351.210548	2574.635736
351.600828	2575.175140
351.991045	2572.997361
352.381198	2572.669686
352.771288	2570.600293
353.161314	2571.878225
353.551276	2571.585838
353.941175	2570.317988
354.331010	2568.107442
354.720782	2569.629871
355.110490	2572.105077
355.500135	2567.968810
355.889717	2570.539799
356.279235	2567.106773
356.668689	2569.662638
357.058080	2568.072154
357.447408	2569.052658
357.836672	2570.446537
358.225873	2568.992165
358.615010	2571.807649
359.004084	2572.760427
359.393095	2574.043401
359.782043	2571.250602
360.170927	2573.559450
360.559748	2573.612382
360.948505	2574.396282
361.337199	2575.870819
361.725830	2573.256981
362.114398	2576.745459
362.502903	2574.234965
362.891344	2577.365521
363.279722	2576.891653
363.668037	2577.327712
364.056289	2578.366190
364.444478	2578.925758
364.832603	2578.885429
365.220665	2578.167065
365.608665	2581.194277
365.996601	2577.410892
366.384474	2579.485326
366.772284	2581.224524
367.160031	2581.577405
367.547715	2583.545976
367.935336	2579.271077
368.322893	2580.644792
368.710388	2579.379462
369.097820	2577.625141
369.485189	2580.884247
369.872495	2582.263002
370.259738	2583.412385
370.646918	2587.493199
371.034035	2584.380287
371.421090	2584.735688
371.808081	2585.900195
372.195010	2585.081007
372.581875	2581.627817
372.968678	2586.477407
373.355418	2584.564289
373.742096	2588.650144
374.128710	2586.580750
374.515262	2589.058478
374.901751	2589.315576
375.288177	2587.220977
375.674540	2587.571337
376.060841	2588.529156
376.447079	2588.458580
376.833254	2588.274578
377.219367	2587.702407
377.605417	2590.827922
377.991404	2588.730802
378.377329	2593.441761
378.763191	2591.551328
379.148991	2590.764908
379.534727	2589.953282
379.920402	2591.735330
380.306013	2589.222315
380.691563	2591.697522
381.077049	2591.125351
381.462474	2591.599219
381.847835	2592.052923
382.233134	2591.379929
382.618371	2592.002511
383.003545	2593.454364
383.388657	2593.824888
383.773706	2593.083839
384.158693	2595.392687
384.543618	2596.854622
384.928480	2594.351689
385.313280	2594.674323
385.698017	2596.335383
386.082692	2595.216247
386.467305	2595.339755
386.851856	2595.858994
387.236344	2596.010229
387.620770	2595.470825
388.005133	2592.725917
388.389435	2593.751792
388.773674	2595.322111
389.157851	2596.048037
389.541965	2595.332193
389.926018	2597.603233
390.310008	2596.504262
390.693936	2598.903851
391.077802	2599.667586
391.461606	2602.309150
391.845348	2596.854622
392.229027	2599.276896
392.612645	2599.791094
392.996200	2600.206989
393.379694	2598.918974
393.763125	2600.058275
394.146494	2600.065837
394.529801	2602.805704
394.913047	2602.863677
395.296230	2599.947370
395.679351	2600.441403
396.062410	2602.223451
396.445408	2604.297886
396.828343	2603.181270
397.211217	2602.064654
397.594028	2603.382916
397.976778	2604.025663
398.359466	2604.756631
398.742092	2604.595314
399.124656	2603.450972
399.507158	2605.704367
399.889598	2606.510952
400.271977	2603.088009
400.654294	2606.263936
401.036549	2607.025150
401.418742	2605.379213
401.800874	2610.148145
402.182944	2607.486415
402.564952	2609.487753
402.946898	2609.578494
403.328783	2609.959101
403.710606	2606.924327
404.092367	2610.329626
404.474067	2610.647219
404.855705	2610.581684
405.237282	2606.636981
405.618797	2609.908690
406.000250	2610.140583
406.381642	2609.127311
406.762972	2608.661004
407.144240	2609.117229
407.525447	2611.705861
407.906593	2607.315016
408.287677	2614.806171
408.668700	2612.769545
409.049661	2611.292487
409.430560	2611.650408
409.811399	2611.642847
410.192176	2611.436159
410.572891	2614.899432
410.953545	2614.861623
411.334138	2614.100409
411.714669	2612.227621
412.095139	2614.228959
412.475547	2616.061418
412.855894	2614.743156
413.236180	2612.837600
413.616405	2617.062087
413.996568	2615.751387
414.376670	2617.304062
414.756711	2616.777262
415.136691	2616.361367
415.516609	2619.519650
415.896466	2618.655092
416.276262	2620.583333
416.655997	2616.845317
417.035670	2617.750205
417.415283	2619.282715
417.794834	2620.477469
418.174324	2617.374639
418.553753	2619.950668
418.933121	2621.271451
419.312428	2618.871861
419.691674	2623.106431
420.070859	2621.072325
420.449983	2622.002418
420.829045	2623.572737
421.208047	2620.290946
421.586988	2624.212964
421.965867	2624.089456
422.344686	2624.172635
422.723444	2626.557100
423.102141	2624.865793
423.480777	2625.069960
423.859352	2624.649024
424.237866	2627.935856
424.616319	2628.515589
424.994712	2627.658592
425.373044	2628.152626
425.751314	2626.340331
426.129524	2624.704476
426.507673	2627.320835
426.885762	2625.914353
427.263789	2632.079684
427.641756	2632.349386
428.019662	2631.840230
428.397508	2630.935342
428.775292	2629.748151
429.153016	2633.395426
429.530679	2631.482308
429.908282	2635.855509
430.285824	2631.686474
430.663305	2635.802577
431.040726	2633.569345
431.418086	2635.510190
431.795385	2637.874491
432.172624	2638.048411
432.549802	2635.918523
432.926920	2640.024543
433.303977	2638.736528
433.680974	2642.391365
434.057910	2641.804070
434.434786	2641.821714
434.811601	2642.335912
435.188355	2646.280615
435.565050	2645.163999
435.941683	2646.966212
436.318257	2649.033085
436.694770	2649.348157
437.071222	2649.877478
437.447614	2655.823519
437.823946	2654.603560
438.200218	2658.313849
438.576429	2658.946514
438.952580	2664.753923
439.328670	2666.420024
439.704700	2670.972186
440.080670	2673.384378
440.456580	2681.296469
440.832429	2685.442818
441.208218	2690.965402
441.583947	2698.335569
441.959616	2704.170705
442.335224	2712.977601
442.710773	2727.798593
443.086261	2738.914337
443.461689	2741.147568
443.837057	2764.639345
444.212365	2785.270267
444.587612	2792.895013
444.962800	2816.321255
445.337927	2833.166270
445.712995	2841.965604
446.088002	2897.027607
446.462949	2918.578540
446.837837	2950.867130
447.212664	2979.042139
447.587431	3037.280069
447.962139	3110.122221
448.336786	3283.510187
448.711374	3387.947772
449.085901	3305.310657
449.460369	3326.775890
449.834776	3349.443438
450.209124	3479.031339
450.583412	3597.052312
450.957640	3764.746295
451.331808	3762.349227
451.705917	3729.198599
452.079965	3729.506109
452.453954	3919.882764
452.827883	3958.203095
453.201752	4082.018874
453.575562	4107.829582
453.949311	4253.554216
454.323001	4343.546374
454.696632	4483.002333
455.070202	4641.362620
455.443713	4789.554899
455.817164	5006.085059
456.190556	5113.610350
456.563888	5323.707999
456.937160	5491.570860
457.310373	5439.415082
457.683526	5562.250357
458.056619	5573.721503
458.429653	5727.136418
458.802628	5712.771650
459.175542	5934.569816
459.548398	6350.588517
459.921194	6609.484534
460.293930	6771.870182
460.666607	7237.662715
461.039224	7768.811287
461.411782	8231.412770
461.784280	8359.884055
462.156719	8560.216988
462.529099	8573.326509
462.901419	8310.790778
463.273680	8382.791058
463.645882	8470.492011
464.018024	8504.197166
464.390106	8764.451774
464.762130	9302.796594
465.134094	9790.997056
465.505999	10912.121945
465.877845	12777.031275
466.249631	14536.948494
466.621358	14688.180589
466.993026	14191.087532
467.364634	14134.127534
467.736184	13577.316969
468.107674	13293.404225
468.479105	13553.953741
468.850477	13448.107154
469.221790	13378.876989
469.593043	13126.723514
469.964238	12987.005415
470.335373	12936.639247
470.706449	13376.628634
471.077467	13204.558930
471.448425	14585.648561
471.819324	17555.510759
472.190164	19358.734010
472.560945	17077.004436
472.931667	15464.041892
473.302330	15146.953315
473.672934	14875.807294
474.043479	15340.228633
474.413965	15342.174519
474.784393	15206.259970
475.154761	15858.096286
475.525070	16016.449010
475.895321	15852.835842
476.265513	16455.954447
476.635645	17055.390489
477.005719	17028.468207
477.375734	17316.887742
477.745691	17872.133029
478.115588	18425.697092
478.485427	19009.780300
478.855207	20024.032727
479.224928	21618.148917
479.594591	23698.008006
479.964194	23940.300984
480.333739	24338.105995
480.703226	24077.778290
481.072653	23904.662547
481.442022	24484.291895
481.811333	25392.743106
482.180584	25474.379552
482.549777	24697.477250
482.918912	24449.908705
483.287988	24638.664629
483.657005	24434.523104
484.025964	24236.922476
484.394864	24286.643376
484.763706	24078.083280
485.132489	23599.778603
485.501213	23798.339571
485.869879	23793.762203
486.238487	23635.719509
486.607036	23852.146326
486.975527	23567.800044
487.343959	23944.820378
487.712333	23967.752587
488.080648	23661.938551
488.448905	24146.907633
488.817104	23924.403705
489.185244	24606.010555
489.553326	24616.551607
489.921350	25573.788585
490.289315	27793.446432
490.657222	29628.494488
491.025070	30154.138120
491.392861	29970.695572
491.760593	29188.822693
492.128267	28321.855137
492.495883	27318.484040
492.863440	26465.780429
493.230939	25614.206036
493.598380	25463.525948
493.965763	25074.976494
494.333088	24658.680530
494.700354	24586.476084
495.067563	24478.721420
495.434713	24233.454162
495.801805	24377.958837
496.168839	24232.957608
496.535815	24044.541963
496.902733	24262.206383
497.269593	23938.382825
497.636395	24129.634119
498.003139	24134.443380
498.369825	23866.203584
498.736453	24065.684562
499.103023	23961.680517
499.469535	23972.602177
499.835989	24176.957951
500.202385	24209.314597
500.568723	23720.398291
500.935003	23995.622606
501.301226	23571.785076
501.667390	24396.532968
502.033497	24646.675022
502.399546	24378.016810
502.765537	23973.428926
503.131470	24351.709549
503.497345	24487.445137
503.863163	23685.372354
504.228923	24323.161495
504.594625	24503.324772
504.960269	24015.242777
505.325856	24523.529716
505.691385	23932.986269
506.056856	24540.074783
506.422270	24501.545244
506.787625	24107.662250
507.152924	24496.551981
507.518164	24529.311920
507.883347	24329.581404
508.248472	24034.404203
508.613540	24803.661594
508.978550	24581.613891
509.343503	24571.758435
509.708398	24860.803073
510.073236	25009.449056
510.438016	25213.507402
510.802738	24887.415324
511.167403	25139.909076
511.532010	24834.836090
511.896561	25625.682223
512.261053	25587.278713
512.625488	25423.839464
512.989866	25326.643497
513.354186	25186.116293
513.718449	25258.915595
514.082655	25653.829505
514.446803	25394.726800
514.810894	25854.021286
515.174927	25327.717263
515.538904	25364.268149
515.902822	25856.030186
516.266684	25613.260820
516.630488	25508.424984
516.994235	25508.001527
517.357925	25802.649408
517.721558	25997.674006
518.085133	26073.112353
518.448651	25987.364847
518.812112	25715.565996
519.175516	25889.485803
519.538863	26073.558495
519.902152	25847.911408
520.265385	26144.117005
520.628560	25934.135303
520.991678	25945.248527
521.354739	26026.436309
521.717743	26071.776447
522.080690	25862.016556
522.443580	26203.158999
522.806413	26211.905401
523.169189	26287.706710
523.531908	26355.076690
523.894569	25966.703678
524.257174	26019.045978
524.619722	26227.495169
524.982213	25910.000779
525.344647	25987.241338
525.707025	26095.306033
526.069345	26087.585506
526.431608	26032.556270
526.793815	26232.914409
527.155964	25676.368504
527.518057	25857.045978
527.880093	25776.064883
528.242072	26018.249476
528.603995	25726.802728
528.965860	25512.994790
529.327669	25568.283645
529.689421	25555.985750
530.051117	25387.167590
530.412755	25564.739714
530.774337	25379.850355
531.135862	25241.652164
531.497331	25444.359481
531.858743	24979.860003
532.220098	25470.578522
532.581396	25153.119420
532.942638	25108.575785
533.303824	25189.592168
533.664953	25209.413985
534.026025	24876.339909
534.387040	25112.906136
534.747999	25177.508522
535.108902	25332.846637
535.469748	24816.539222
535.830537	25022.165367
536.191270	25125.352745
536.551947	25022.261148
536.912567	24679.450084
537.273131	24992.717466
537.633638	24718.624891
537.994089	24920.384470
538.354483	24476.899043
538.714821	24964.814680
539.075103	25008.995352
539.435328	24800.825945
539.795497	24352.468243
540.155609	24764.070893
540.515665	25045.775611
540.875665	24289.443737
541.235609	24564.491612
541.595496	24541.340113
541.955328	24901.565843
542.315102	24817.978471
542.674821	24367.077507
543.034483	24250.440330
543.394090	24410.539814
543.753640	24207.832498
544.113134	24835.476316
544.472571	24438.699700
544.831953	24718.589603
545.191278	24347.676626
545.550548	24265.359625
545.909761	24473.685307
546.268918	24701.056469
546.628019	24658.738503
546.987064	24373.820050
547.346053	24138.292301
547.704986	24264.900880
548.063863	24413.133488
548.422684	24412.619290
548.781449	23967.878616
549.140158	24359.485529
549.498811	23937.568678
549.857408	23672.008255
550.215949	24106.754842
550.574434	23794.740187
550.932864	24002.586960
551.291237	24151.116996
551.649555	24028.483367
552.007817	24072.734616
552.366022	23952.941677
552.724173	23991.917358
553.082267	23933.203039
553.440305	24395.328133
553.798288	23664.673377
554.156215	24200.840417
554.514086	24277.856645
554.871902	23655.659793
555.229661	23938.796199
555.587365	23797.258243
555.945014	23646.643690
556.302606	23923.135855
556.660143	23841.635521
557.017625	24111.662406
557.375050	23628.903869
557.732421	24030.595611
558.089735	23833.680580
558.446994	23901.786568
558.804197	23924.302882
559.161345	23872.399162
559.518437	23617.427683
559.875474	23826.534744
560.232455	24008.830429
560.589381	23830.202184
560.946251	23795.902173
561.303065	24133.011692
561.659825	24216.228539
562.016528	23818.501666
562.373177	23555.469381
562.729770	23922.649383
563.086307	23785.298106
563.442789	23961.935095
563.799216	23782.664103
564.155587	23787.483446
564.511904	23770.149438
564.868164	23702.540004
565.224370	23690.307644
565.580520	23587.420214
565.936615	23719.861408
566.292654	23407.972782
566.648638	23708.415468
567.004567	23535.304766
567.360441	23482.130675
567.716260	23206.724879
568.072023	23549.223392
568.427732	23294.428353
568.783385	23080.098656
569.138982	23306.728768
569.494525	23351.002702
569.850013	23098.748405
570.205445	23193.005379
570.560823	23002.565710
570.916145	22769.780349
571.271412	22938.936266
571.626625	22704.820040
571.981782	22795.515439
572.336884	22606.474690
572.691931	22744.103232
573.046923	22471.172642
573.401860	22362.071990
573.756743	22365.321014
574.111570	22274.156788
574.466342	22212.591696
574.821059	22301.494965
575.175722	21996.452225
575.530330	21989.140032
575.884882	22016.780678
576.239380	21923.700813
576.593823	21810.670582
576.948211	21796.416720
577.302544	21626.607973
577.656823	21504.843943
578.011047	21610.640118
578.365216	21485.324596
578.719330	21361.861697
579.073389	21260.572313
579.427394	21403.786453
579.781344	21177.579797
580.135239	21066.192982
580.489080	21044.037111
580.842866	20800.103238
581.196597	20990.333699
581.550273	20964.560800
581.903895	20859.727486
582.257463	21169.529075
582.610975	20700.182528
582.964434	21006.399857
583.317837	20720.178265
583.671186	20809.061369
584.024481	20771.764392
584.377721	20554.546114
584.730906	20598.925912
585.084037	20637.155502
585.437113	20530.093997
585.790135	20738.328939
586.143103	20202.968483
586.496016	20219.715196
586.848874	20462.078750
587.201679	20399.036600
587.554428	20059.151926
587.907124	20395.951414
588.259765	20178.037457
588.612352	20258.209447
588.964884	19814.839966
589.317362	19993.017028
589.669786	20034.651918
590.022155	20089.847511
590.374470	20276.029926
590.726731	20081.743857
591.078937	19838.162864
591.431090	19932.303892
591.783188	19672.064407
592.135232	19648.396190
592.487222	19741.702906
592.839157	19775.287073
593.191038	19659.882459
593.542866	19542.889881
593.894639	19272.893243
594.246358	19481.503750
594.598022	19391.009998
594.949633	19152.712135
595.301190	19101.761193
595.652692	19267.574825
596.004141	19513.963740
596.355535	18845.408437
596.706876	18848.574282
597.058162	18743.746008
597.409395	18969.662798
597.760573	19052.604902
598.111698	18826.514193
598.462768	18761.201004
598.813785	18727.669769
599.164748	18549.606133
599.515657	18579.031348
599.866511	18371.978556
600.217312	18747.778932
600.568060	18257.829189
600.918753	18575.247962
601.269392	18474.422364
601.619978	18257.468747
601.970510	18472.665522
602.320988	18404.783865
602.671412	18615.342779
603.021783	18511.089197
603.372100	18254.161750
603.722363	18394.956136
604.072572	18324.911823
604.422728	18462.313513
604.772830	18233.777844
605.122878	18178.662909
605.472872	18166.135642
605.822813	18161.812852
606.172701	18125.740876
606.522534	18330.711671
606.872314	18352.796966
607.222041	18179.794648
607.571714	18397.370848
607.921333	18223.171257
608.270899	18303.330644
608.620411	18488.633377
608.969870	18245.216222
609.319276	18255.608561
609.668627	18286.488149
610.017926	18413.565555
610.367171	18528.682824
610.716362	18575.734433
611.065500	18401.207166
611.414585	18518.212347
611.763616	18511.290843
612.112594	18455.409653
612.461518	18425.258511
612.810389	18615.166338
613.159207	18472.542014
613.507971	18385.393067
613.856682	18658.500097
614.205340	18588.914530
614.553945	18736.189319
614.902496	18473.346078
615.250994	18722.058965
615.599439	18648.334610
615.947830	18645.864445
616.296169	18690.861784
616.644454	18645.786307
616.992686	18629.667217
617.340864	18826.138627
617.688990	18606.787941
618.037063	18774.124002
618.385082	18617.379405
618.733048	18908.669877
619.080961	18763.618237
619.428821	18804.040729
619.776628	18694.398153
620.124382	18617.273541
620.472083	18651.132451
620.819731	18688.361372
621.167326	18368.427063
621.514868	18412.814423
621.862357	18165.881064
622.209793	18181.992591
622.557176	18022.787912
622.904506	17845.717383
623.251783	17756.181449
623.599007	17514.833688
623.946179	17473.150908
624.293297	17410.746464
624.640363	17160.269174
624.987376	17183.975200
625.334336	16974.109445
625.681243	16820.815518
626.028097	16827.976477
626.374899	16755.436794
626.721647	16621.717667
627.068343	16456.778675
627.414987	16385.658077
627.761577	16357.515835
628.108115	16409.207827
628.454600	16126.628469
628.801032	16223.905094
629.147412	16165.278995
629.493739	16175.247877
629.840014	15977.581714
630.186236	16081.545430
630.532405	15846.247053
630.878521	16051.608538
631.224585	15937.650734
631.570597	15756.388486
631.916556	15791.691687
632.262462	15774.269459
632.608316	15690.682087
632.954117	15631.274609
633.299866	15633.850639
633.645562	15548.322423
633.991206	15295.911850
634.336797	15173.043807
634.682336	15135.507376
635.027823	15032.191448
635.373257	14918.664663
635.718639	14810.302541
636.063968	14767.167908
636.409245	14513.436553
636.754470	14540.510069
637.099642	14391.639755
637.444762	14163.709025
637.789829	14202.241085
638.134845	14037.077761
638.479808	14065.567842
638.824719	14017.679401
639.169577	13866.696843
639.514383	13917.602415
639.859137	13734.999220
640.203839	13820.298063
640.548489	13656.750430
640.893086	13648.482938
641.237632	13513.364891
641.582125	13663.326615
641.926566	13496.802180
642.270955	13514.128626
642.615292	13477.270229
642.959576	13483.173421
643.303809	13517.012166
643.647990	13447.983646
643.992118	13505.306607
644.336195	13278.948717
644.680219	13480.884737
645.024192	13409.834714
645.368112	13646.809274
645.711981	13706.062997
646.055797	13877.192526
646.399562	13852.102703
646.743274	14121.638076
647.086935	14394.130085
647.430544	14357.959806
647.774101	14384.186409
648.117606	14537.031673
648.461059	14515.735319
648.804460	14504.687630
649.147810	14227.323346
649.491108	14128.864570
649.834354	14143.362928
650.177548	13842.859748
650.520690	13652.667095
650.863781	13570.760948
651.206820	13617.268113
651.549807	13454.801807
651.892742	13257.009615
652.235626	13193.841437
652.578458	13195.701622
652.921238	12881.153787
653.263967	13081.169128
653.606644	12903.985173
653.949269	12879.187737
654.291843	12682.744054
654.634365	12834.150069
654.976836	12688.480887
655.319255	12706.117364
655.661622	12657.298830
656.003938	12574.157600
656.346203	12503.364677
656.688416	12573.474524
657.030577	12536.444728
657.372687	12448.030452
657.714746	12425.249477
658.056753	12605.011982
658.398708	12437.456631
658.740612	12431.515632
659.082465	12535.887681
659.424266	12502.459790
659.766016	12523.935105
660.107715	12429.433635
660.449362	12512.206861
660.790958	12469.498205
661.132503	12409.682394
661.473996	12475.509781
661.815438	12491.764982
662.156829	12507.495902
662.498168	12486.852377
662.839456	12485.030000
663.180693	12507.004390
663.521879	12594.057555
663.863013	12570.124677
664.204097	12552.412583
664.545129	12665.838545
664.886110	12642.520687
665.227040	12737.115419
665.567918	12731.839851
665.908746	12767.042229
666.249522	12750.333324
666.590248	12800.215542
666.930922	12909.590936
667.271545	12891.546126
667.612118	12976.056029
667.952639	12884.954817
668.293109	12890.737021
668.633528	12852.789735
668.973896	12825.222185
669.314213	12913.752408
669.654480	12635.929379
669.994695	12714.500803
670.334859	12736.056777
670.674973	12687.744879
671.015035	12724.058830
671.355047	12660.373934
671.695008	12630.679017
672.034918	12633.771765
672.374777	12677.534022
672.714585	12595.706012
673.054342	12620.964714
673.394049	12581.893251
673.733705	12672.830625
674.073310	12584.063468
674.412864	12599.900252
674.752368	12466.365128
675.091820	12483.116882
675.431223	12470.070376
675.770574	12339.859893
676.109875	12260.076072
676.449125	12220.397150
676.788324	12165.309941
677.127473	12002.170641
677.466571	11986.096922
677.805619	11887.812066
678.144616	11818.317239
678.483562	11782.512444
678.822458	11651.528144
679.161303	11627.900256
679.500098	11618.387598
679.838842	11569.024620
680.177535	11588.959863
680.516179	11655.417394
680.854771	11601.116605
681.193314	11815.421097
681.531805	11968.258799
681.870247	12376.093186
682.208638	12790.047534
682.546978	13108.504784
682.885268	13166.077282
683.223508	12854.218902
683.561697	12691.790405
683.899836	12598.952515
684.237925	12395.189077
684.575963	12312.579689
684.913951	12238.134449
685.251889	12180.433402
685.589776	12277.279009
685.927614	12201.606249
686.265401	12168.352277
686.603137	12211.386087
686.940824	12369.509439
687.278460	12492.503511
687.616046	12530.168492
687.953582	12706.301366
688.291068	12633.010551
688.628504	12868.596273
688.965889	12876.747819
689.303224	12839.990245
689.640510	12737.120460
689.977745	12429.234509
690.314930	12198.226155
690.652065	12117.973506
690.989150	11827.683703
691.326185	11596.579567
691.663170	11397.844679
692.000105	11146.122224
692.336990	11042.675226
692.673825	10788.101998
693.010610	10669.584471
693.347345	10459.370877
693.684030	10258.876626
694.020665	10202.957627
694.357251	10007.055868
694.693786	9954.373290
695.030272	9784.269636
695.366707	9665.401749
695.703093	9599.526471
696.039429	9600.867418
696.375716	9521.197022
696.711952	9384.249037
697.048139	9431.114124
697.384276	9381.436073
697.720363	9402.750072
698.056400	9332.862035
698.392388	9285.780179
698.728326	9250.814736
699.064214	9185.955250
699.400053	9236.051717
699.735842	9050.859889
700.071581	9006.328857
700.407270	8939.581459
700.742910	8850.973098
701.078501	8760.219726
701.414042	8633.674161
701.749533	8571.410870
702.084974	8432.098584
702.420366	8544.796098
702.755709	8428.723531
703.091002	8289.875031
703.426246	8322.561872
703.761440	8278.832383
704.096584	8230.933860
704.431679	8158.439547
704.766725	8146.328175
705.101721	8099.405115
705.436668	8146.807085
705.771565	8039.642236
706.106413	8116.227445
706.441212	8163.082450
706.775961	8118.977395
707.110661	8151.255903
707.445311	8296.655383
707.779913	8190.342489
708.114465	8325.541194
708.448967	8362.180300
708.783421	8498.730035
709.117825	8686.709620
709.452180	8719.852686
709.786485	8814.500350
710.120742	9088.693749
710.454949	9091.189120
710.789107	9192.226446
711.123216	9397.378722
711.457275	9568.457840
711.791286	9728.764011
712.125247	9724.544566
712.459159	9711.031753
712.793023	9964.130443
713.126837	9541.739724
713.460602	9689.097692
713.794318	9517.020426
714.127985	9545.931444
714.461602	9227.738854
714.795171	9174.307664
715.128691	8930.290612
715.462162	8675.006582
715.795584	8622.318962
716.128957	8484.221594
716.462281	8306.168040
716.795556	8355.508333
717.128782	8152.611973
717.461960	7881.115592
717.795088	7957.042930
718.128167	7859.489042
718.461198	7692.523506
718.794180	7638.010989
719.127113	7635.485371
719.459997	7480.084242
719.792833	7245.993222
720.125619	7313.842111
720.458357	7167.192425
720.791046	7158.534243
721.123686	7157.858729
721.456278	7000.284863
721.788821	7013.694332
722.121315	6911.326141
722.453761	6974.199412
722.786158	6918.590444
723.118506	6934.301200
723.450805	6895.252422
723.783056	6967.734132
724.115259	6871.337188
724.447412	6867.626899
724.779518	6914.192037
725.111574	6914.897799
725.443582	6996.849316
725.775542	6977.201419
726.107453	7166.572363
726.439315	7083.436175
726.771129	7134.245964
727.102895	7306.741646
727.434612	7420.893534
727.766281	7449.663399
728.097901	7529.784977
728.429473	7521.013370
728.760996	7500.989907
729.092471	7474.304559
729.423897	7424.339162
729.755276	7435.573374
730.086606	7358.529419
730.417887	7455.536343
730.749120	7648.184037
731.080305	7847.702824
731.411442	7967.175650
731.742530	7962.865463
732.073570	8067.625681
732.404562	8155.175400
732.735506	8003.943305
733.066401	8146.867578
733.397249	8078.625479
733.728048	7845.693924
734.058798	7510.414344
734.389501	7280.988912
734.720156	7104.389731
735.050762	6869.613114
735.381320	6773.216170
735.711831	6728.012143
736.042293	6618.498117
736.372707	6637.563761
736.703073	6500.532597
737.033391	6536.312186
737.363661	6549.416665
737.693883	6571.055818
738.024056	6661.567215
738.354182	6702.410643
738.684260	6733.355766
739.014290	6849.967737
739.344272	6960.868081
739.674207	6986.363716
740.004093	7055.752678
740.333931	7070.722385
740.663722	7080.819816
740.993464	7159.928122
741.323159	7149.699621
741.652806	6900.195273
741.982405	6910.406131
742.311956	6970.418547
742.641460	6810.273692
742.970915	6612.375636
743.300323	6603.331806
743.629683	6554.029321
743.958996	6422.921512
744.288260	6333.529252
744.617477	6276.556652
744.946647	6285.207272
745.275768	6115.063288
745.604842	6070.033182
745.933869	6054.990378
746.262847	6015.243401
746.591778	6004.294015
746.920662	5963.380010
747.249498	5948.879131
747.578286	5996.046687
747.907027	6074.146763
748.235720	6132.750177
748.564365	6103.156083
748.892963	6134.524663
749.221514	6286.938908
749.550017	6123.804649
749.878473	5996.016440
750.206881	6051.716149
750.535242	5991.466799
750.863555	5920.792343
751.191821	5941.410662
751.520039	5944.120282
751.848210	5854.349935
752.176334	5869.566658
752.504411	5919.108597
752.832440	5848.834913
753.160421	5770.218118
753.488356	5822.159647
753.816243	5858.065265
754.144082	5710.041865
754.471875	5674.093397
754.799620	5720.958483
755.127318	5736.538169
755.454969	5688.443041
755.782572	5652.978524
756.110129	5695.954360
756.437638	5680.225960
756.765100	5618.169357
757.092515	5618.010560
757.419882	5668.744732
757.747203	5648.252442
758.074477	5717.590993
758.401703	5700.138518
758.728882	5649.157329
759.056014	5705.411565
759.383099	5835.364949
759.710138	5848.920612
760.037129	5831.823539
760.364073	5834.129867
760.690970	5915.826806
761.017820	5901.290639
761.344623	5855.421180
761.671379	5957.915399
761.998088	6078.091466
762.324751	6315.275234
762.651366	6906.005203
762.977935	8206.670787
763.304456	9838.146968
763.630931	10750.603375
763.957359	10361.108706
764.283740	9424.550541
764.610074	8599.883307
764.936362	7602.334743
765.262602	6999.432907
765.588796	6463.805270
765.914943	6123.355986
766.241044	5968.751360
766.567097	5765.272746
766.893104	5503.374722
767.219064	5329.175130
767.544978	5262.551241
767.870845	5185.688768
768.196665	5080.036266
768.522438	5010.591851
768.848165	4970.552487
769.173846	4910.177107
769.499479	4863.911918
769.825066	4817.009023
770.150607	4749.031584
770.476101	4726.326227
770.801548	4726.008634
771.126949	4651.623888
771.452303	4596.186320
771.777611	4553.293662
772.102872	4570.857042
772.428087	4538.081980
772.753256	4497.651927
773.078378	4451.772385
773.403453	4379.762023
773.728482	4368.048902
774.053465	4321.675328
774.378401	4305.619253
774.703291	4313.818690
775.028135	4240.439654
775.352932	4189.309752
775.677683	4174.082946
776.002388	4198.242676
776.327046	4208.866908
776.651658	4131.888489
776.976224	4068.876586
777.300743	4074.517637
777.625216	4096.333231
777.949643	4093.868106
778.274024	4046.345149
778.598359	4001.312522
778.922647	4026.571223
779.246889	4020.594935
779.571086	4010.510107
779.895236	3997.975278
780.219339	3984.767455
780.543397	3976.081547
780.867409	4024.917725
781.191374	4043.025549
781.515294	3983.234944
781.839167	3975.027946
782.162995	3991.986387
782.486776	3975.640446
782.810511	3991.424298
783.134201	3989.692662
783.457844	3941.836989
783.781441	3884.768607
784.104993	3894.790420
784.428498	3909.195517
784.751958	3908.467071
785.075372	3889.000655
785.398739	3848.278214
785.722061	3860.692056
786.045337	3903.362902
786.368568	3934.912964
786.691752	3850.632433
787.014891	3898.437695
787.337983	4023.738095
787.661030	4182.990665
787.984031	4341.151826
788.306987	4513.282024
788.629897	4595.263788
788.952760	4553.666707
789.275579	4484.396213
789.598351	4418.629319
789.921078	4283.985141
790.243759	4079.977207
790.566395	4062.940627
790.888984	4062.096234
791.211529	3950.900983
791.534027	3889.804719
791.856480	3882.802557
792.178888	3821.993638
792.501249	3769.704270
792.823566	3780.865385
793.145836	3812.488543
793.468062	3756.357815
793.790241	3712.968604
794.112375	3742.965990
794.434464	3804.836071
794.756507	3828.816840
795.078505	3812.423008
795.400457	3843.010209
795.722364	3980.699244
796.044226	4086.122373
796.366042	4158.432684
796.687812	4139.974499
797.009538	4144.322495
797.331218	4106.138275
797.652852	4076.186259
797.974442	4054.335378
798.295986	4057.813774
798.617484	3973.671875
798.938938	3890.228176
799.260346	3930.970782
799.581709	3924.326541
799.903026	3851.900283
800.224299	3817.023061
800.545526	3809.920075
800.866708	3772.817183
801.187845	3711.615054
801.508936	3745.806680
801.829983	3745.983121
802.150984	3666.133764
802.471940	3656.643792
802.792851	3665.884227
803.113717	3663.346006
803.434538	3668.268693
803.755314	3613.378089
804.076045	3583.927668
804.396731	3603.142026
804.717372	3629.477014
805.037967	3616.662401
805.358518	3603.149588
805.679024	3633.686377
805.999485	3648.386382
806.319901	3651.113646
806.640272	3661.080007
806.960598	3678.681196
807.280879	3651.300169
807.601115	3666.529495
807.921306	3679.767565
808.241453	3721.437743
808.561554	3695.725337
808.881611	3631.027169
809.201623	3667.817510
809.521590	3679.286135
809.841513	3653.258657
810.161390	3682.351156
810.481223	3662.393228
810.801011	3606.680916
811.120755	3596.570882
811.440453	3631.652272
811.760107	3636.413642
812.079716	3591.411261
812.399281	3560.539235
812.718801	3587.431270
813.038276	3558.772311
813.357707	3557.020510
813.677093	3572.665731
813.996434	3520.855272
814.315731	3525.843494
814.634983	3532.724669
814.954191	3547.981721
815.273354	3578.221082
815.592473	3570.193045
815.911547	3577.623706
816.230577	3619.182978
816.549562	3670.474198
816.868502	3708.444168
817.187399	3733.927201
817.506250	3731.643558
817.825058	3702.074671
818.143821	3795.378867
818.462539	3899.488776
818.781213	3941.128707
819.099843	3998.035772
819.418429	4239.754058
819.736970	4481.860512
820.055466	4726.134663
820.373919	5089.432977
820.692327	5495.336602
821.010691	5932.906235
821.329011	7294.375696
821.647286	10007.779274
821.965517	14545.190781
822.283704	18578.370957
822.601847	20767.081160
822.919945	18973.894846
823.237999	16405.999133
823.556010	13925.262448
823.873976	11840.079901
824.191897	9747.012988
824.509775	8394.035352
824.827609	7272.668487
825.145398	6721.138530
825.463144	6600.039932
825.780845	6717.375309
826.098502	6902.451190
826.416116	7766.641070
826.733685	9080.068334
827.051210	10196.782214
827.368692	10254.919321
827.686129	9010.999486
828.003522	7500.405133
828.320872	6481.076263
828.638177	5783.110869
828.955439	5223.293255
829.272656	4727.440322
829.589830	4442.968010
829.906960	4268.718007
830.224046	4083.957198
830.541088	3960.184268
830.858086	3910.400353
831.175041	3838.677337
831.491952	3818.661436
831.808819	3828.015297
832.125642	3900.670926
832.442421	4047.250036
832.759157	4319.658867
833.075849	4865.699007
833.392497	5722.634667
833.709101	6498.712740
834.025662	6841.801068
834.342179	6486.195555
834.658653	5823.515717
834.975083	5180.703067
835.291469	4605.013380
835.607811	4193.456101
835.924110	4052.656674
836.240366	3858.539483
836.556578	3651.400992
836.872746	3543.152296
837.188871	3501.625791
837.504952	3438.134979
837.820990	3356.271681
838.136984	3308.728559
838.452935	3331.252435
838.768842	3331.812003
839.084706	3355.676825
839.400526	3507.652490
839.716303	3844.464582
840.032037	4357.729660
840.347727	4629.324344
840.663373	4357.346533
840.978977	3977.435097
841.294537	3669.362623
841.610054	3441.499949
841.925527	3333.299143
842.240957	3266.440840
842.556344	3208.525544
842.871687	3153.950013
843.186987	3100.980089
843.502244	3065.339131
843.817458	3035.223278
844.132629	3000.484687
844.447756	3010.178826
844.762840	2995.625015
845.077881	2965.330201
845.392879	2945.223558
845.707833	2941.508228
846.022745	2942.032508
846.337613	2942.587035
846.652438	2927.173707
846.967221	2930.203441
847.281960	2916.166348
847.596656	2910.807601
847.911309	2908.770975
848.225919	2903.598751
848.540485	2899.656569
848.855009	2899.497773
849.169490	2887.101575
849.483928	2879.973384
849.798323	2877.541027
850.112675	2875.912734
850.426984	2886.360526
850.741251	2881.687376
851.055474	2874.017260
851.369654	2869.555839
851.683792	2873.765203
851.997887	2879.907849
852.311938	2882.446070
852.625947	2873.119935
852.939914	2874.710419
853.253837	2881.105123
853.567718	2864.476877
853.881555	2863.987885
854.195350	2879.708723
854.509103	2874.856613
854.822812	2868.398894
855.136479	2865.568287
855.450103	2864.711290
855.763685	2861.300950
856.077224	2855.937162
856.390720	2868.892927
856.704173	2878.133363
857.017584	2868.272866
857.330953	2870.014584
857.644278	2875.214534
857.957561	2884.316338
858.270802	2889.980074
858.584000	2888.185423
858.897155	2874.508773
859.210268	2873.830738
859.523339	2873.719832
859.836367	2875.201932
860.149352	2867.105838
860.462295	2860.988398
860.775195	2869.681868
861.088054	2872.358721
861.400869	2853.131760
861.713642	2849.744105
862.026373	2866.803369
862.339062	2868.655993
862.651708	2873.997096
862.964312	2878.914741
863.276873	2871.640356
863.589392	2878.806357
863.901869	2892.684653
864.214303	2913.224834
864.526696	2930.987340
864.839045	2924.028027
865.151353	2925.661361
865.463619	2922.498037
865.775842	2925.217739
866.088023	2943.562498
866.400162	2951.547686
866.712258	2920.020310
867.024313	2908.160995
867.336325	2919.128026
867.648296	2939.864812
867.960224	2932.605550
868.272110	2917.792120
868.583954	2925.613470
868.895755	2937.480346
869.207515	2923.468459
869.519233	2928.154212
869.830909	2939.716098
870.142542	2949.195988
870.454134	2945.490740
870.765684	2952.475258
871.077191	2949.468210
871.388657	2957.594550
871.700081	2972.312199
872.011463	2985.638489
872.322803	2985.683859
872.634101	2983.465752
872.945357	2998.004439
873.256571	3023.585774
873.567744	3018.249713
873.878874	3011.713857
874.189963	3037.733773
874.501010	3036.032383
874.812015	3029.244470
875.122979	3025.246835
875.433900	3023.744571
875.744780	3027.843029
876.055618	3035.843340
876.366415	3034.058772
876.677169	3044.360369
876.987882	3040.902138
877.298554	3033.902496
877.609183	3054.767832
877.919771	3078.330185
878.230317	3106.515276
878.540822	3153.639982
878.851285	3194.019624
879.161707	3239.142992
879.472087	3338.244515
879.782425	3563.218608
880.092722	3994.522087
880.402977	4526.250392
880.713191	5141.485411
881.023363	6293.167254
881.333494	7575.309117
881.643583	8138.910117
881.953631	7839.881474
882.263637	7218.647482
882.573602	6630.599407
882.883526	6053.130193
883.193408	5479.603161
883.503248	5020.210373
883.813048	4715.724680
884.122806	4415.037497
884.432522	4100.456894
884.742197	3867.671533
885.051831	3670.398580
885.361424	3538.612737
885.670975	3466.035245
885.980485	3378.813201
886.289954	3301.665903
886.599382	3257.880961
886.908768	3218.633058
887.218113	3174.951460
887.527417	3117.809981
887.836680	3070.889442
888.145901	3062.488359
888.455082	3054.480486
888.764221	3004.328567
889.073319	2973.716160
889.382376	2972.549133
889.691392	2978.086840
890.000366	2974.676500
890.309300	2960.052113
890.618193	2974.338743
890.927044	2991.138388
891.235855	2990.997235
891.544625	2978.394351
891.853353	2991.224087
892.162041	3008.784947
892.470687	3047.455638
892.779293	3096.503544
893.087858	3144.512973
893.396381	3214.960577
893.704864	3336.076819
894.013306	3570.588775
894.321707	3870.383674
894.630068	4078.608534
894.938387	4077.814552
895.246665	4034.710166
895.554903	3913.092329
895.863100	3715.181671
896.171256	3544.044580
896.479371	3406.627767
896.787446	3283.784930
897.095480	3184.244827
897.403473	3118.349384
897.711425	3082.204311
898.019336	3072.731983
898.327207	3046.336502
898.635038	3008.853002
898.942827	2994.846156
899.250576	2984.355515
899.558284	2953.143211
899.865952	2933.936415
900.173579	2912.337591
900.481165	2905.249729
900.788711	2894.819582
901.096216	2868.519882
901.403681	2854.765094
901.711105	2862.820858
902.018489	2858.843387
902.325832	2859.110568
902.633135	2869.351672
902.940397	2903.901220
903.247619	2984.569764
903.554800	3174.888445
903.861941	3516.540044
904.169041	3939.833130
904.476101	4241.737752
904.783121	4203.760219
905.090100	3958.757622
905.397039	3684.919624
905.703938	3433.615584
906.010796	3253.747215
906.317614	3143.280411
906.624391	3045.590411
906.931129	2974.789926
907.237826	2911.283990
907.544483	2866.856301
907.851099	2836.939574
908.157675	2814.347643
908.464211	2797.041362
908.770707	2782.139711
909.077163	2768.460540
909.383578	2754.705752
909.689954	2743.370717
909.996289	2740.729153
910.302584	2742.944740
910.608839	2744.930954
910.915054	2738.778226
911.221229	2731.191290
911.527363	2732.759088
911.833458	2741.182857
912.139513	2743.605131
912.445527	2748.641244
912.751502	2755.484610
913.057436	2764.515837
913.363331	2780.476130
913.669186	2799.367854
913.975000	2833.504027
914.280775	2895.033831
914.586510	2963.210395
914.892205	3042.406922
915.197859	3170.689164
915.503475	3357.930221
915.809050	3571.367634
916.114585	3718.954974
916.420081	3740.160588
916.725536	3681.655477
917.030952	3565.028383
917.336328	3437.550205
917.641665	3307.556491
917.946961	3202.743341
918.252218	3132.998978
918.557435	3057.666495
918.862612	2999.045438
919.167750	2950.005093
919.472848	2911.523445
919.777906	2881.079917
920.082925	2855.617049
920.387904	2825.864159
920.692843	2810.226500
920.997743	2798.276444
921.302603	2786.331430
921.607423	2776.659977
921.912204	2765.032555
922.216946	2753.102665
922.521647	2743.312744
922.826310	2736.237485
923.130932	2728.973182
923.435516	2721.051009
923.740059	2713.890050
924.044564	2705.632640
924.349028	2702.093750
924.653454	2693.198634
924.957840	2688.936338
925.262186	2681.243537
925.566493	2677.739935
925.870761	2675.461334
926.174989	2669.023780
926.479178	2665.431958
926.783328	2660.884837
927.087438	2659.289312
927.391509	2659.092707
927.695541	2655.788231
927.999533	2651.404948
928.303486	2649.915287
928.607400	2650.288332
928.911275	2649.980822
929.215110	2645.708444
929.518906	2645.824390
929.822663	2646.784730
930.126381	2647.432518
930.430060	2646.968732
930.733699	2646.237765
931.037299	2648.554175
931.340861	2652.546769
931.644383	2651.465442
931.947866	2649.443939
932.251309	2645.514359
932.554714	2649.141470
932.858080	2644.246509
933.161407	2643.815491
933.464694	2641.824235
933.767943	2640.173257
934.071153	2640.679893
934.374323	2638.892804
934.677455	2636.392392
934.980548	2637.277114
935.283602	2638.600417
935.586617	2635.749644
935.889593	2634.499438
936.192530	2637.786271
936.495428	2638.393730
936.798287	2637.153606
937.101108	2643.429842
937.403890	2646.406644
937.706632	2651.377221
938.009336	2656.942655
938.312002	2667.294665
938.614628	2674.087619
938.917216	2682.337468
939.219765	2679.650533
939.522275	2682.297138
939.824747	2678.138187
940.127179	2674.193484
940.429573	2674.443021
940.731929	2669.537978
941.034246	2668.365910
941.336524	2665.968841
941.638763	2661.083963
941.940964	2660.962975
942.243126	2659.211174
942.545250	2656.889723
942.847335	2654.321255
943.149381	2652.808909
943.451389	2645.050573
943.753359	2645.504277
944.055290	2643.109729
944.357182	2640.805922
944.659036	2641.370531
944.960851	2639.737197
945.262628	2639.790129
945.564367	2637.529172
945.866067	2638.716363
946.167729	2640.442959
946.469352	2638.615540
946.770937	2642.852630
947.072484	2638.665952
947.373992	2640.067393
947.675462	2636.951960
947.976893	2631.447020
948.278286	2632.268728
948.579641	2629.871659
948.880958	2630.758902
949.182236	2633.902062
949.483476	2630.093470
949.784678	2631.547843
950.085841	2632.598923
950.386967	2631.179838
950.688054	2633.539098
950.989103	2635.651342
951.290114	2631.936012
951.591087	2636.155457
951.892021	2639.248205
952.192917	2639.326343
952.493776	2642.555202
952.794596	2645.146355
953.095378	2642.363638
953.396122	2642.197280
953.696828	2640.100160
953.997496	2641.720891
954.298126	2636.349542
954.598718	2635.842906
954.899272	2634.098667
955.199788	2630.582462
955.500266	2627.628346
955.800706	2626.027779
956.101108	2624.349075
956.401472	2624.013838
956.701798	2619.965792
957.002087	2617.571244
957.302337	2613.394648
957.602550	2613.215687
957.902724	2613.092178
958.202861	2609.875922
958.502960	2612.056221
958.803022	2612.285594
959.103045	2609.117229
959.403031	2609.865840
959.702979	2608.466920
960.002889	2606.568925
960.302762	2607.481374
960.602596	2608.275356
960.902393	2607.521703
961.202153	2608.623196
961.501875	2604.466764
961.801559	2606.135386
962.101205	2608.093874
962.400814	2605.611106
962.700385	2604.560026
962.999918	2601.487442
963.299414	2602.175560
963.598873	2602.956939
963.898293	2597.729262
964.197677	2604.249995
964.497022	2604.887701
964.796331	2604.799480
965.095601	2603.791250
965.394835	2606.488267
965.694030	2606.495829
965.993189	2602.271342
966.292309	2602.261259
966.591393	2602.352000
966.890439	2601.552977
967.189447	2603.715632
967.488419	2602.021805
967.787353	2601.389140
968.086249	2602.498194
968.385108	2600.443923
968.683930	2600.832092
968.982714	2602.888883
969.281462	2601.782350
969.580172	2604.101281
969.878844	2602.533482
970.177480	2605.051538
970.476078	2604.817124
970.774639	2601.994078
971.073162	2604.396188
971.371649	2603.536671
971.670098	2605.827876
971.968510	2600.854777
972.266885	2603.405601
972.565223	2607.962804
972.863524	2603.329984
973.161788	2606.397526
973.460014	2601.807556
973.758204	2606.082454
974.056356	2600.758996
974.354471	2603.803852
974.652550	2602.659511
974.950591	2604.285283
975.248595	2602.825869
975.546563	2603.214037
975.844493	2602.236054
976.142386	2601.091712
976.440243	2602.341918
976.738062	2598.288830
977.035845	2603.145982
977.333590	2604.986003
977.631299	2599.813779
977.928971	2600.459047
978.226606	2594.497882
978.524204	2598.858481
978.821765	2598.109869
979.119290	2601.555498
979.416777	2599.632298
979.714228	2600.859819
980.011642	2601.316043
980.309020	2603.191352
980.606360	2600.824531
980.903664	2600.766557
981.200931	2601.250508
981.498162	2605.916096
981.795356	2602.188163
982.092513	2603.438369
982.389633	2607.025150
982.686717	2607.410798
982.983764	2613.268619
983.280775	2616.101747
983.577749	2617.505709
983.874686	2619.527211
984.171587	2615.272477
984.468451	2612.809874
984.765279	2610.579163
985.062070	2611.063114
985.358824	2607.904831
985.655543	2606.115222
985.952224	2604.096239
986.248869	2605.427104
986.545478	2603.128338
986.842050	2600.650611
987.138586	2600.887545
987.435086	2600.559870
987.731549	2600.322936
988.027975	2598.639190
988.324366	2596.763881
988.620719	2600.988368
988.917037	2599.082812
989.213318	2598.785384
989.509563	2598.845878
989.805772	2598.530806
990.101944	2595.899323
990.398080	2598.263624
990.694180	2597.220106
990.990244	2596.947883
991.286271	2596.814293
991.582262	2596.133737
991.878217	2599.062647
992.174136	2597.336052
992.470019	2596.698346
992.765865	2595.163315
993.061676	2593.776998
993.357450	2593.363623
993.653188	2595.380084
993.948890	2598.843357
994.244556	2596.632811
994.540186	2600.060796
994.835780	2599.965014
995.131337	2597.777153
995.426859	2599.385281
995.722345	2598.805548
996.017795	2602.389809
996.313208	2603.022474
996.608586	2600.975765
996.903928	2601.459716
997.199234	2603.982813
997.494504	2601.926023
997.789738	2601.898296
998.084936	2600.542226
998.380099	2602.901486
998.675225	2600.033069
998.970316	2599.712956
999.265371	2600.234716
999.560390	2598.775302
999.855373	2597.073912
1000.150320	2599.904520
1000.445232	2596.884869
1000.740108	2597.910744
1001.034948	2599.644901
1001.329752	2595.753130
1001.624521	2595.851432
1001.919254	2596.844540
1002.213951	2597.484766
1002.508613	2594.122317
1002.803239	2595.012080
1003.097829	2596.458891
1003.392384	2598.339242
1003.686903	2595.611977
1003.981386	2594.886051
1004.275834	2595.508634
1004.570246	2596.433686
1004.864623	2595.586772
1005.158964	2594.364292
1005.453270	2596.010229
1005.747540	2594.994436
1006.041775	2597.260435
1006.335974	2592.602409
1006.630138	2593.419076
1006.924266	2599.092894
1007.218359	2596.335383
1007.512416	2591.090062
1007.806438	2592.335228
1008.100425	2593.540063
1008.394376	2590.570824
1008.688292	2593.993767
1008.982172	2592.473859
1009.276017	2595.531319
1009.569827	2594.271031
1009.863602	2597.174735
1010.157341	2594.596185
1010.451045	2596.965527
1010.744714	2595.223809
1011.038347	2593.809765
1011.331945	2597.454519
1011.625508	2594.535691
1011.919036	2593.053592
1012.212528	2592.914960
1012.505986	2596.201792
1012.799408	2593.587954
1013.092795	2592.904878
1013.386147	2594.472677
1013.679464	2593.681216
1013.972745	2594.172728
1014.265992	2594.502924
1014.559204	2593.020824
1014.852380	2593.784559
1015.145521	2595.730445
1015.438628	2593.424117
1015.731699	2594.903695
1016.024736	2593.482090
1016.317737	2590.197778
1016.610703	2592.224322
1016.903635	2592.945207
1017.196531	2593.497213
1017.489393	2596.436206
1017.782219	2594.192893
1018.075011	2592.642738
1018.367768	2591.853797
1018.660490	2596.106011
1018.953177	2596.106011
1019.245829	2596.106011
