Dividing Wavelength (nm)	Counts (n)	Blue Motor Position (mm): 22.000000	Red Motor Position (mm): 0.000000	
326.493990	2188.732889
326.888308	2188.732889
327.282561	2188.732889
327.676750	2150.538587
328.070874	2147.085396
328.464933	2146.311579
328.858929	2150.888947
329.252859	2153.626293
329.646726	2163.590134
330.040528	2175.013389
330.434265	2188.863959
330.827938	2207.881712
331.221547	2222.657334
331.615091	2239.895559
332.008571	2257.874834
332.401986	2278.999790
332.795338	2298.393108
333.188625	2315.530511
333.581847	2331.687409
333.975006	2350.758094
334.368100	2373.352546
334.761129	2388.780997
335.154095	2408.328071
335.546996	2428.792635
335.939833	2465.414097
336.332606	2475.642598
336.725315	2492.482573
337.117960	2503.550426
337.510540	2517.781603
337.903056	2527.077491
338.295508	2536.665766
338.687896	2545.165151
339.080220	2552.865513
339.472480	2559.645865
339.864676	2565.972513
340.256807	2571.321178
340.648875	2573.317475
341.040879	2577.352918
341.432818	2581.776531
341.824694	2582.144535
342.216506	2582.268043
342.608253	2582.948599
342.999937	2585.648137
343.391557	2585.943044
343.783113	2583.707293
344.174605	2584.768456
344.566033	2580.246541
344.957397	2581.665625
345.348697	2582.779720
345.739934	2577.042887
346.131106	2577.577250
346.522215	2574.913000
346.913260	2572.127762
347.304241	2569.284552
347.695159	2569.493759
348.086012	2568.026784
348.476802	2564.155177
348.867528	2561.158212
349.258191	2554.821481
349.648789	2557.062274
350.039324	2553.319217
350.429796	2558.496482
350.820203	2555.391132
351.210548	2556.795093
351.600828	2554.206460
351.991045	2555.199568
352.381198	2550.982643
352.771288	2550.705379
353.161314	2550.365101
353.551276	2549.593805
353.941175	2549.480379
354.331010	2547.882333
354.720782	2546.755635
355.110490	2550.624721
355.500135	2549.563558
355.889717	2545.611293
356.279235	2548.857796
356.668689	2548.104144
357.058080	2548.764535
357.447408	2548.401572
357.836672	2550.211346
358.225873	2547.884853
358.615010	2549.271171
359.004084	2551.574978
359.393095	2554.546738
359.782043	2549.601366
360.170927	2553.510781
360.559748	2550.697817
360.948505	2555.602860
361.337199	2555.227294
361.725830	2553.288970
362.114398	2555.146636
362.502903	2556.177552
362.891344	2556.391801
363.279722	2556.343910
363.668037	2559.091338
364.056289	2556.442212
364.444478	2556.883313
364.832603	2558.357851
365.220665	2558.196534
365.608665	2559.870197
365.996601	2558.882131
366.384474	2560.497820
366.772284	2559.073694
367.160031	2560.908674
367.547715	2563.646021
367.935336	2560.454971
368.322893	2557.964641
368.710388	2557.301729
369.097820	2559.048489
369.485189	2558.221739
369.872495	2560.152501
370.259738	2561.465722
370.646918	2561.745506
371.034035	2564.674416
371.421090	2562.834395
371.808081	2564.442523
372.195010	2563.663665
372.581875	2565.886814
372.968678	2564.989488
373.355418	2564.366906
373.742096	2565.397822
374.128710	2565.032338
374.515262	2567.540312
374.901751	2565.536454
375.288177	2564.495455
375.674540	2564.969324
376.060841	2566.484191
376.447079	2566.648028
376.833254	2566.703481
377.219367	2568.404870
377.605417	2570.091136
377.991404	2568.205745
378.377329	2570.315468
378.763191	2569.508883
379.148991	2568.704819
379.534727	2568.694737
379.920402	2569.367731
380.306013	2570.696075
380.691563	2569.443348
381.077049	2570.512072
381.462474	2570.093657
381.847835	2569.952504
382.233134	2572.092474
382.618371	2571.555591
383.003545	2569.196331
383.388657	2568.041907
383.773706	2573.531724
384.158693	2572.354614
384.543618	2574.880232
384.928480	2572.858730
385.313280	2573.962742
385.698017	2574.476940
386.082692	2573.211610
386.467305	2574.058524
386.851856	2578.832497
387.236344	2571.721949
387.620770	2569.007288
388.005133	2570.169274
388.389435	2574.184553
388.773674	2569.173646
389.157851	2574.297979
389.541965	2573.806467
389.926018	2577.292424
390.310008	2577.869637
390.693936	2577.015161
391.077802	2574.396282
391.461606	2577.269739
391.845348	2577.161354
392.229027	2578.540110
392.612645	2579.485326
392.996200	2577.564647
393.379694	2579.283680
393.763125	2579.644123
394.146494	2577.925089
394.529801	2579.744946
394.913047	2579.870975
395.296230	2576.327043
395.679351	2582.978846
396.062410	2582.144535
396.445408	2579.510532
396.828343	2579.913824
397.211217	2579.916345
397.594028	2580.299473
397.976778	2581.085893
398.359466	2582.232755
398.742092	2579.661767
399.124656	2581.960533
399.507158	2582.252920
399.889598	2584.276943
400.271977	2581.620255
400.654294	2583.077148
401.036549	2582.610842
401.418742	2583.243507
401.800874	2583.210739
402.182944	2584.365163
402.564952	2582.091603
402.946898	2583.619072
403.328783	2584.448342
403.710606	2583.218301
404.092367	2582.086562
404.474067	2585.254927
404.855705	2586.800041
405.237282	2583.813157
405.618797	2583.596387
406.000250	2585.701069
406.381642	2587.369691
406.762972	2584.586974
407.144240	2583.704772
407.525447	2584.208887
407.906593	2582.573033
408.287677	2588.261975
408.668700	2587.737695
409.049661	2588.438416
409.430560	2589.063519
409.811399	2588.259455
410.192176	2588.468663
410.572891	2586.071594
410.953545	2587.399938
411.334138	2588.642582
411.714669	2587.304156
412.095139	2587.551172
412.475547	2586.298446
412.855894	2588.577047
413.236180	2588.498909
413.616405	2588.282140
413.996568	2588.309866
414.376670	2589.358426
414.756711	2591.604260
415.136691	2590.752305
415.516609	2592.010073
415.896466	2590.104517
416.276262	2592.133581
416.655997	2592.494024
417.035670	2588.395566
417.415283	2592.118458
417.794834	2592.564600
418.174324	2591.644589
418.553753	2592.942687
418.933121	2592.809096
419.312428	2593.852615
419.691674	2593.671133
420.070859	2595.652307
420.449983	2592.040320
420.829045	2592.277254
421.208047	2592.889754
421.586988	2593.003180
421.965867	2592.405804
422.344686	2595.412852
422.723444	2594.457553
423.102141	2593.708942
423.480777	2597.794797
423.859352	2593.804724
424.237866	2595.380084
424.616319	2595.932091
424.994712	2592.897316
425.373044	2596.416042
425.751314	2593.829930
426.129524	2591.087542
426.507673	2593.227512
426.885762	2594.684405
427.263789	2597.159612
427.641756	2598.931577
428.019662	2596.453850
428.397508	2598.729931
428.775292	2599.317226
429.153016	2599.327308
429.530679	2596.078284
429.908282	2596.728593
430.285824	2598.828234
430.663305	2600.718666
431.040726	2598.530806
431.418086	2597.915785
431.795385	2599.770929
432.172624	2601.303440
432.549802	2599.372678
432.926920	2600.522061
433.303977	2601.285796
433.680974	2600.910230
434.057910	2601.467278
434.434786	2602.304109
434.811601	2602.130189
435.188355	2600.693461
435.565050	2598.828234
435.941683	2601.676486
436.318257	2599.607092
436.694770	2601.510127
437.071222	2602.175560
437.447614	2602.697319
437.823946	2604.930550
438.200218	2603.123297
438.576429	2603.887032
438.952580	2604.252515
439.328670	2603.501383
439.704700	2601.285796
440.080670	2603.171188
440.456580	2603.972731
440.832429	2605.278390
441.208218	2606.337032
441.583947	2603.592124
441.959616	2606.236209
442.335224	2604.781836
442.710773	2605.167485
443.086261	2609.008844
443.461689	2602.921651
443.837057	2606.435335
444.212365	2607.269646
444.587612	2605.895931
444.962800	2603.614809
445.337927	2604.209665
445.712995	2602.057093
446.088002	2608.713936
446.462949	2609.149996
446.837837	2609.472630
447.212664	2608.618154
447.587431	2609.245778
447.962139	2612.547734
448.336786	2613.951695
448.711374	2613.114864
449.085901	2614.327261
449.460369	2610.616972
449.834776	2610.180912
450.209124	2611.801643
450.583412	2615.232148
450.957640	2614.501181
451.331808	2613.308948
451.705917	2615.350615
452.079965	2612.807353
452.453954	2613.898763
452.827883	2612.310800
453.201752	2614.838938
453.575562	2613.868516
453.949311	2615.232148
454.323001	2615.136366
454.696632	2618.385390
455.070202	2615.849690
455.443713	2619.600308
455.817164	2619.403703
456.190556	2619.186933
456.563888	2621.077366
456.937160	2619.602829
457.310373	2621.682305
457.683526	2619.612911
458.056619	2620.764815
458.429653	2618.118209
458.802628	2620.661471
459.175542	2622.136008
459.548398	2624.091976
459.921194	2623.771863
460.293930	2626.305043
460.666607	2630.020373
461.039224	2628.825620
461.411782	2630.731176
461.784280	2633.841568
462.156719	2633.854171
462.529099	2636.266363
462.901419	2630.176649
463.273680	2630.859725
463.645882	2629.337297
464.018024	2630.746299
464.390106	2628.407204
464.762130	2639.533030
465.134094	2639.873308
465.505999	2647.412354
465.877845	2658.056750
466.249631	2664.832061
466.621358	2668.807011
466.993026	2667.425735
467.364634	2670.480674
467.736184	2667.224088
468.107674	2668.302895
468.479105	2670.979748
468.850477	2674.417815
469.221790	2679.224555
469.593043	2676.429235
469.964238	2680.900739
470.335373	2684.311079
470.706449	2690.811647
471.077467	2695.121834
471.448425	2713.401058
471.819324	2744.008423
472.190164	2770.305602
472.560945	2754.120978
472.931667	2747.970770
473.302330	2753.576533
473.672934	2761.604571
474.043479	2775.873557
474.413965	2790.253448
474.784393	2800.340797
475.154761	2822.111020
475.525070	2841.393433
475.895321	2855.279292
476.265513	2885.158210
476.635645	2917.643406
477.005719	2938.065120
477.375734	2967.124851
477.745691	3006.176150
478.115588	3051.667522
478.485427	3094.905498
478.855207	3166.318484
479.224928	3271.340842
479.594591	3407.565422
479.964194	3456.867906
480.333739	3503.203672
480.703226	3535.867828
481.072653	3591.801951
481.442022	3691.684852
481.811333	3814.552895
482.180584	3888.201632
482.549777	3907.083274
482.918912	3976.351248
483.287988	4074.578131
483.657005	4144.259480
484.025964	4211.601734
484.394864	4293.124753
484.763706	4357.470041
485.132489	4428.895629
485.501213	4521.357952
485.869879	4631.267709
486.238487	4689.941699
486.607036	4836.898895
486.975527	4904.039503
487.343959	5041.355492
487.712333	5164.130274
488.080648	5221.382658
488.448905	5416.664355
488.817104	5500.009752
489.185244	5712.118820
489.553326	5861.457962
489.921350	6122.577128
490.289315	6654.081102
490.657222	7138.737632
491.025070	7379.314097
491.392861	7516.975405
491.760593	7529.094339
492.128267	7561.705563
492.495883	7489.231415
492.863440	7500.914289
493.230939	7470.732901
493.598380	7616.775128
493.965763	7682.287443
494.333088	7744.104592
494.700354	7896.186121
495.067563	8051.826705
495.434713	8165.696288
495.801805	8317.566089
496.168839	8492.602512
496.535815	8620.443653
496.902733	8846.834311
497.269593	8885.724292
497.636395	9147.231627
498.003139	9314.308068
498.369825	9453.910221
498.736453	9662.745061
499.103023	9792.766501
499.469535	9992.560030
499.835989	10249.129555
500.202385	10464.228028
500.568723	10469.092742
500.935003	10693.406444
501.301226	10766.225911
501.667390	11215.017153
502.033497	11564.122098
502.399546	11594.764752
502.765537	11683.171467
503.131470	11988.884680
503.497345	12238.530180
503.863163	12087.724063
504.228923	12567.422619
504.594625	12863.361035
504.960269	12797.778144
505.325856	13264.115121
505.691385	13197.647508
506.056856	13639.393737
506.422270	13870.253378
506.787625	13815.705572
507.152924	14279.398465
507.518164	14428.999746
507.883347	14510.545451
508.248472	14521.477193
508.613540	15144.631864
508.978550	15255.615387
509.343503	15442.231340
509.708398	15790.083558
510.073236	16044.618978
510.438016	16357.415012
510.802738	16386.444497
511.167403	16710.623457
511.532010	16708.606995
511.896561	17395.882622
512.261053	17611.230632
512.625488	17671.255651
512.989866	17787.366027
513.354186	17848.845419
513.718449	18146.054206
514.082655	18552.333397
514.446803	18587.313963
514.810894	19060.237209
515.174927	18870.067242
515.538904	19070.190967
515.902822	19591.080791
516.266684	19598.743345
516.630488	19668.122225
516.994235	19840.925417
517.357925	20214.263188
517.721558	20535.067096
518.085133	20757.644120
518.448651	20847.346412
518.812112	20795.155346
519.175516	21060.834236
519.538863	21380.960108
519.902152	21319.768062
520.265385	21736.255590
520.628560	21679.456910
520.991678	21847.148372
521.354739	22043.987785
521.717743	22225.083676
522.080690	22159.891474
522.443580	22588.744952
522.806413	22705.679557
523.169189	22928.513680
523.531908	23069.938210
523.894569	22842.360361
524.257174	23016.358307
524.619722	23323.467920
524.982213	23127.029278
525.344647	23326.714423
525.707025	23505.834181
526.069345	23622.352890
526.431608	23670.243852
526.793815	23949.196100
527.155964	23496.092151
527.518057	23752.649073
527.880093	23783.790801
528.242072	24054.609147
528.603995	23857.220248
528.965860	23737.467638
529.327669	23891.142172
529.689421	23919.017232
530.051117	23834.141845
530.412755	24091.003757
530.774337	23954.375885
531.135862	23891.190063
531.497331	24139.771880
531.858743	23756.820628
532.220098	24271.424133
532.581396	23996.819880
532.942638	24028.422873
533.303824	24140.061746
533.664953	24213.627304
534.026025	23939.229738
534.387040	24195.486712
534.747999	24311.627335
535.108902	24499.266643
535.469748	24032.750704
535.830537	24254.654735
536.191270	24384.814806
536.551947	24343.769732
536.912567	24038.696745
537.273131	24338.204298
537.633638	24107.813485
537.994089	24330.040149
538.354483	23925.956380
538.714821	24433.696355
539.075103	24512.492110
539.435328	24312.416275
539.795497	23888.195618
540.155609	24305.086438
540.515665	24611.901143
540.875665	23892.881370
541.235609	24167.669625
541.595496	24164.884388
541.955328	24523.776733
542.315102	24462.388082
542.674821	24056.895310
543.034483	23933.931486
543.394090	24106.250727
543.753640	23895.480085
544.113134	24552.322266
544.472571	24158.272914
544.831953	24442.891419
545.191278	24061.271032
545.550548	24016.808055
545.909761	24228.869233
546.268918	24470.796726
546.628019	24425.501959
546.987064	24148.979547
547.346053	23913.252673
547.704986	24052.592686
548.063863	24218.098808
548.422684	24197.624161
548.781449	23784.085708
549.140158	24176.531973
549.498811	23751.267797
549.857408	23485.349452
550.215949	23942.156128
550.574434	23619.784422
550.932864	23846.951417
551.291237	23974.190140
551.649555	23861.079251
552.007817	23906.101796
552.366022	23792.872439
552.724173	23840.869265
553.082267	23765.191464
553.440305	24236.188988
553.798288	23506.507175
554.156215	24053.434558
554.514086	24124.172029
554.871902	23500.384693
555.229661	23789.081492
555.587365	23657.242716
555.945014	23481.608916
556.302606	23769.685652
556.660143	23692.918962
557.017625	23959.724549
557.375050	23500.838397
557.732421	23889.234095
558.089735	23695.996586
558.446994	23756.659311
558.804197	23769.312607
559.161345	23741.533329
559.518437	23474.536177
559.875474	23694.937944
560.232455	23866.322051
560.589381	23695.016082
560.946251	23673.933976
561.303065	23994.518593
561.659825	24076.296191
562.016528	23680.134595
562.373177	23431.724178
562.729770	23782.764926
563.086307	23655.826152
563.442789	23840.879347
563.799216	23640.700169
564.155587	23670.155631
564.511904	23645.814420
564.868164	23577.479059
565.224370	23557.334608
565.580520	23461.719043
565.936615	23607.466363
566.292654	23266.354167
566.648638	23585.842333
567.004567	23411.970417
567.360441	23361.432849
567.716260	23075.052461
568.072023	23413.906220
568.427732	23165.856245
568.783385	22968.679074
569.138982	23190.411705
569.494525	23231.832346
569.850013	22976.268531
570.205445	23073.915681
570.560823	22871.019321
570.916145	22646.713180
571.271412	22813.580414
571.626625	22578.375299
571.981782	22689.888142
572.336884	22506.168332
572.691931	22624.043112
573.046923	22363.975026
573.401860	22250.465885
573.756743	22241.774936
574.111570	22158.144714
574.466342	22097.862597
574.821059	22191.048325
575.175722	21887.548179
575.530330	21865.379705
575.884882	21897.789283
576.239380	21805.147998
576.593823	21694.968540
576.948211	21682.869771
577.302544	21528.486955
577.656823	21394.644320
578.011047	21496.694918
578.365216	21366.318077
578.719330	21252.778689
579.073389	21153.331847
579.427394	21291.656068
579.781344	21081.245868
580.135239	20962.854370
580.489080	20943.957605
580.842866	20691.257165
581.196597	20871.566635
581.550273	20864.012466
581.903895	20751.289746
582.257463	21077.187739
582.610975	20594.986250
582.964434	20902.279865
583.317837	20614.911411
583.671186	20717.302287
584.024481	20669.933084
584.377721	20458.071032
584.730906	20492.416413
585.084037	20543.753004
585.437113	20437.243505
585.790135	20632.575614
586.143103	20111.501788
586.496016	20120.296081
586.848874	20366.387567
587.201679	20307.857251
587.554428	19964.680702
587.907124	20283.392531
588.259765	20080.876778
588.612352	20152.819085
588.964884	19724.449557
589.317362	19897.562780
589.669786	19948.478434
590.022155	20000.825776
590.374470	20168.723925
590.726731	19983.640482
591.078937	19734.869622
591.431090	19828.367902
591.783188	19582.226004
592.135232	19555.845646
592.487222	19649.913577
592.839157	19685.630152
593.191038	19567.462985
593.542866	19441.986145
593.894639	19180.055353
594.246358	19395.158867
594.598022	19315.251538
594.949633	19069.956553
595.301190	19010.407923
595.652692	19175.256175
596.004141	19420.825902
596.355535	18760.913658
596.706876	18766.229555
597.058162	18662.031425
597.409395	18876.895484
597.760573	18964.840934
598.111698	18744.983612
598.462768	18681.921298
598.813785	18643.739598
599.164748	18472.176530
599.515657	18492.351228
599.866511	18284.474208
600.217312	18649.791504
600.568060	18179.464453
600.918753	18488.388881
601.269392	18388.662255
601.619978	18174.995470
601.970510	18382.469197
602.320988	18328.158327
602.671412	18539.654895
603.021783	18430.024922
603.372100	18178.216767
603.722363	18306.299883
604.072572	18241.377384
604.422728	18376.571048
604.772830	18138.736971
605.122878	18087.755782
605.472872	18080.970389
605.822813	18079.029545
606.172701	18030.420219
606.522534	18235.960664
606.872314	18264.528883
607.222041	18089.694106
607.571714	18313.526378
607.921333	18135.913925
608.270899	18196.919448
608.620411	18398.542917
608.969870	18154.513262
609.319276	18165.765117
609.668627	18193.045321
610.017926	18333.058328
610.367171	18447.358930
610.716362	18479.672726
611.065500	18304.568247
611.414585	18438.851983
611.763616	18419.889683
612.112594	18379.295791
612.461518	18338.250717
612.810389	18529.393626
613.159207	18382.277634
613.507971	18284.370864
613.856682	18576.170493
614.205340	18505.682559
614.553945	18636.253485
614.902496	18373.498464
615.250994	18635.172157
615.599439	18564.326302
615.947830	18551.930105
616.296169	18586.756916
616.644454	18564.716991
616.992686	18531.624337
617.340864	18744.804651
617.688990	18506.214401
618.037063	18672.978291
618.385082	18521.100928
618.733048	18809.686821
619.080961	18668.080810
619.428821	18719.246001
619.776628	18599.122866
620.124382	18526.401702
620.472083	18562.239264
620.819731	18588.279344
621.167326	18287.778684
621.514868	18337.005552
621.862357	18084.002643
622.209793	18095.312472
622.557176	17922.257222
622.904506	17761.525072
623.251783	17664.530752
623.599007	17438.319055
623.946179	17383.315026
624.293297	17317.243143
624.640363	17081.239005
624.987376	17092.458093
625.334336	16893.818987
625.681243	16745.790546
626.028097	16747.451606
626.374899	16678.097932
626.721647	16543.652879
627.068343	16367.978750
627.414987	16303.787218
627.761577	16283.922551
628.108115	16327.969633
628.454600	16054.053497
628.801032	16147.062786
629.147412	16070.175107
629.493739	16093.782831
629.840014	15898.216308
630.186236	15998.643655
630.532405	15768.512461
630.878521	15966.039992
631.224585	15858.590319
631.570597	15675.646846
631.916556	15711.348297
632.262462	15690.969433
632.608316	15599.142295
632.954117	15559.115533
633.299866	15551.778134
633.645562	15473.463809
633.991206	15228.514143
634.336797	15099.251397
634.682336	15069.329628
635.027823	14952.727740
635.373257	14845.875443
635.718639	14734.564246
636.063968	14689.448439
636.409245	14447.268888
636.754470	14475.375841
637.099642	14319.271471
637.444762	14091.597840
637.789829	14136.320436
638.134845	13973.760869
638.479808	13992.912212
638.824719	13950.440491
639.169577	13798.769816
639.514383	13850.144215
639.859137	13667.982121
640.203839	13751.380449
640.548489	13588.677209
640.893086	13571.486874
641.237632	13457.876911
641.582125	13598.424280
641.926566	13440.459724
642.270955	13437.442593
642.615292	13399.291141
642.959576	13411.856217
643.303809	13442.007358
643.647990	13387.635993
643.992118	13441.074745
644.336195	13206.479609
644.680219	13405.118715
645.024192	13335.185308
645.368112	13574.680445
645.711981	13627.332777
646.055797	13809.197443
646.399562	13777.249130
646.743274	14041.758472
647.086935	14319.702490
647.430544	14283.275112
647.774101	14305.627588
648.117606	14463.879490
648.461059	14440.186067
648.804460	14424.644189
649.147810	14160.447399
649.491108	14058.026276
649.834354	14087.234721
650.177548	13772.515487
650.520690	13589.025048
650.863781	13505.903983
651.206820	13553.046333
651.549807	13385.685067
651.892742	13196.914020
652.235626	13129.191159
652.578458	13128.162764
652.921238	12818.252790
653.263967	13010.547603
653.606644	12838.112416
653.949269	12811.689208
654.291843	12618.791976
654.634365	12766.966611
654.976836	12623.765075
655.319255	12642.583702
655.661622	12586.843664
656.003938	12508.211746
656.346203	12440.947630
656.688416	12511.755677
657.030577	12467.176754
657.372687	12394.508521
657.714746	12363.515507
658.056753	12544.198023
658.398708	12367.220755
658.740612	12370.000952
659.082465	12470.473668
659.424266	12434.875561
659.766016	12458.011936
660.107715	12365.375693
660.449362	12438.018720
660.790958	12397.855847
661.132503	12354.373375
661.473996	12409.662230
661.815438	12428.135538
662.156829	12435.876230
662.498168	12422.209662
662.839456	12418.990885
663.180693	12436.609717
663.521879	12521.091894
663.863013	12502.091785
664.204097	12482.799290
664.545129	12597.782968
664.886110	12568.650140
665.227040	12660.560457
665.567918	12666.783761
665.908746	12697.194522
666.249522	12678.554855
666.590248	12719.468860
666.930922	12836.968074
667.271545	12822.545332
667.612118	12909.810226
667.952639	12813.133498
668.293109	12815.107110
668.633528	12778.026903
668.973896	12756.110487
669.314213	12834.008916
669.654480	12572.710789
669.994695	12644.423723
670.334859	12661.830827
670.674973	12608.311418
671.015035	12645.371460
671.355047	12592.653594
671.695008	12561.741238
672.034918	12571.226169
672.374777	12612.669495
672.714585	12525.664221
673.054342	12556.105228
673.394049	12506.870799
673.733705	12595.703492
674.073310	12512.184175
674.412864	12531.040611
674.752368	12405.044533
675.091820	12408.404462
675.431223	12400.759552
675.770574	12283.595575
676.109875	12201.490302
676.449125	12160.273828
676.788324	12096.397368
677.127473	11934.553644
677.466571	11927.617017
677.805619	11827.905514
678.144616	11741.537946
678.483562	11716.145654
678.822458	11582.829820
679.161303	11561.301572
679.500098	11553.961652
679.838842	11503.925680
680.177535	11531.374763
680.516179	11586.222516
680.854771	11535.687470
681.193314	11752.878021
681.531805	11894.055535
681.870247	12300.307000
682.208638	12701.734081
682.546978	13024.867001
682.885268	13086.061567
683.223508	12784.424127
683.561697	12618.118982
683.899836	12522.591638
684.237925	12325.671565
684.575963	12244.128381
684.913951	12169.035354
685.251889	12116.458640
685.589776	12208.066487
685.927614	12145.929225
686.265401	12099.782503
686.603137	12144.058957
686.940824	12299.487812
687.278460	12408.089390
687.616046	12456.063530
687.953582	12632.070376
688.291068	12555.913664
688.628504	12787.693315
688.965889	12793.198255
689.303224	12769.517435
689.640510	12667.769307
689.977745	12367.084644
690.314930	12139.930252
690.652065	12054.891028
690.989150	11764.139959
691.326185	11543.591999
691.663170	11334.789927
692.000105	11090.919069
692.336990	10986.458799
692.673825	10738.373536
693.010610	10614.116656
693.347345	10408.845912
693.684030	10205.735303
694.020665	10152.626747
694.357251	9957.655081
694.693786	9906.205065
695.030272	9734.536133
695.366707	9616.205128
695.703093	9550.569305
696.039429	9543.254591
696.375716	9471.095515
696.711952	9341.449641
697.048139	9378.925578
697.384276	9330.782559
697.720363	9347.637657
698.056400	9286.843862
698.392388	9240.119928
698.728326	9199.485707
699.064214	9134.754771
699.400053	9181.670270
699.735842	8995.122372
700.071581	8951.997821
700.407270	8882.911328
700.742910	8797.804048
701.078501	8715.998724
701.414042	8595.961289
701.749533	8527.754478
702.084974	8388.641317
702.420366	8496.211978
702.755709	8379.957929
703.091002	8252.210050
703.426246	8278.280377
703.761440	8224.617294
704.096584	8184.104061
704.431679	8117.122250
704.766725	8102.124817
705.101721	8051.037764
705.436668	8098.326308
705.771565	7988.779514
706.106413	8067.804642
706.441212	8116.577806
706.775961	8068.833037
707.110661	8096.652645
707.445311	8247.897343
707.779913	8142.592680
708.114465	8271.532792
708.448967	8313.303793
708.783421	8448.210111
709.117825	8631.690467
709.452180	8665.133482
709.786485	8750.712110
710.120742	9031.600161
710.454949	9033.775419
710.789107	9129.350654
711.123216	9345.333850
711.457275	9503.331173
711.791286	9677.601341
712.125247	9669.359054
712.459159	9649.075972
712.793023	9913.053473
713.126837	9488.293411
713.460602	9634.386050
713.794318	9465.005801
714.127985	9493.873968
714.461602	9179.817646
714.795171	9131.110017
715.128691	8884.567347
715.462162	8631.440930
715.795584	8576.260460
716.128957	8435.496321
716.462281	8256.852952
716.795556	8312.219945
717.128782	8109.908359
717.461960	7835.828386
717.795088	7907.359839
718.128167	7817.123185
718.461198	7654.369533
718.794180	7591.592044
719.127113	7590.803103
719.459997	7440.768283
719.792833	7208.068621
720.125619	7272.182016
720.458357	7125.194572
720.791046	7112.563962
721.123686	7118.129395
721.456278	6955.723583
721.788821	6980.730227
722.121315	6867.478185
722.453761	6931.518483
722.786158	6880.338168
723.118506	6888.414097
723.450805	6861.257401
723.783056	6924.977586
724.115259	6832.658935
724.447412	6825.641649
724.779518	6873.404061
725.111574	6872.146293
725.443582	6954.024714
725.775542	6930.706857
726.107453	7122.248018
726.439315	7037.155862
726.771129	7091.877587
727.102895	7261.804801
727.434612	7373.993159
727.766281	7408.129332
728.097901	7489.647310
728.429473	7480.880744
728.760996	7453.282947
729.092471	7427.512569
729.423897	7375.263530
729.755276	7390.878504
730.086606	7317.292781
730.417887	7413.273830
730.749120	7602.889270
731.080305	7797.399670
731.411442	7916.854852
731.742530	7912.474089
732.073570	8023.714711
732.404562	8107.496167
732.735506	7952.001777
733.066401	8096.713139
733.397249	8036.592338
733.728048	7799.917727
734.058798	7466.886501
734.389501	7247.498006
734.720156	7069.590646
735.050762	6830.995355
735.381320	6738.477579
735.711831	6687.660227
736.042293	6577.062353
736.372707	6600.223934
736.703073	6463.454910
737.033391	6497.931361
737.363661	6507.116343
737.693883	6538.240427
738.024056	6618.475432
738.354182	6668.869326
738.684260	6696.532658
739.014290	6802.711961
739.344272	6911.827736
739.674207	6944.577592
740.004093	7008.665781
740.333931	7027.416352
740.663722	7039.255502
740.993464	7117.279961
741.323159	7115.628983
741.652806	6863.331836
741.982405	6860.420570
742.311956	6928.077895
742.641460	6776.107272
742.970915	6579.444298
743.300323	6568.588173
743.629683	6510.640110
743.958996	6383.653445
744.288260	6292.887470
744.617477	6246.420634
744.946647	6250.209061
745.275768	6075.830508
745.604842	6033.250402
745.933869	6019.379668
746.262847	5976.149253
746.591778	5963.488395
746.920662	5924.127066
747.249498	5916.547691
747.578286	5959.778106
747.907027	6034.059508
748.235720	6097.787254
748.564365	6068.044446
748.892963	6089.580256
749.221514	6248.018680
749.550017	6087.727632
749.878473	5962.931348
750.206881	6018.832703
750.535242	5957.862467
750.863555	5884.649790
751.191821	5905.527729
751.520039	5907.798768
751.848210	5814.524819
752.176334	5835.488458
752.504411	5883.873452
752.832440	5812.611702
753.160421	5736.016410
753.488356	5784.499707
753.816243	5824.153423
754.144082	5670.975443
754.471875	5639.316997
754.799620	5690.499832
755.127318	5698.409402
755.454969	5649.767309
755.782572	5617.022494
756.110129	5657.996992
756.437638	5648.900230
756.765100	5588.877732
757.092515	5579.231484
757.419882	5634.744670
757.747203	5611.429334
758.074477	5678.065826
758.401703	5671.403941
758.728882	5612.331700
759.056014	5664.293394
759.383099	5799.229959
759.710138	5813.191434
760.037129	5790.811232
760.364073	5794.423218
760.690970	5884.657352
761.017820	5867.270412
761.344623	5816.987423
761.671379	5916.114152
761.998088	6033.008427
762.324751	6260.886225
762.651366	6843.976326
762.977935	8130.007439
763.304456	9743.262370
763.630931	10669.284523
763.957359	10305.590478
764.283740	9375.248057
764.610074	8554.898571
764.936362	7565.468785
765.262602	6970.773948
765.588796	6429.931237
765.914943	6087.203352
766.241044	5930.620072
766.567097	5731.118929
766.893104	5478.962934
767.219064	5294.749090
767.544978	5229.665274
767.870845	5153.493439
768.196665	5049.078540
768.522438	4977.579855
768.848165	4946.576759
769.173846	4877.059247
769.499479	4840.253783
769.825066	4784.738076
770.150607	4721.519487
770.476101	4695.670970
770.801548	4693.384807
771.126949	4620.613231
771.452303	4570.315118
771.777611	4525.408520
772.102872	4540.937794
772.428087	4504.008822
772.753256	4467.001711
773.078378	4426.362449
773.403453	4353.230431
773.728482	4340.350283
774.053465	4293.510402
774.378401	4281.487250
774.703291	4283.130666
775.028135	4211.266497
775.352932	4161.815298
775.677683	4146.916168
776.002388	4167.247142
776.327046	4180.291127
776.651658	4106.508800
776.976224	4044.646280
777.300743	4047.406312
777.625216	4069.625197
777.949643	4067.618818
778.274024	4022.203063
778.598359	3974.604489
778.922647	3997.685412
779.246889	3992.074607
779.571086	3989.327178
779.895236	3974.642297
780.219339	3958.298877
780.543397	3948.279583
780.867409	3999.931246
781.191374	4018.341539
781.515294	3955.609421
781.839167	3950.069193
782.162995	3967.219198
782.486776	3955.173361
782.810511	3964.179382
783.134201	3963.874393
783.457844	3919.078700
783.781441	3861.188609
784.104993	3869.624980
784.428498	3887.203484
784.751958	3885.330695
785.075372	3861.997715
785.398739	3826.117302
785.722061	3837.195238
786.045337	3878.701578
786.368568	3914.478647
786.691752	3824.836849
787.014891	3870.900392
787.337983	3996.601563
787.661030	4149.890449
787.984031	4312.281138
788.306987	4483.377899
788.629897	4565.581475
788.952760	4520.321995
789.275579	4459.213128
789.598351	4393.055546
789.921078	4260.773148
790.243759	4056.351839
790.566395	4035.786452
790.888984	4031.703118
791.211529	3926.615225
791.534027	3869.816544
791.856480	3857.662322
792.178888	3797.102941
792.501249	3746.613265
792.823566	3756.403186
793.145836	3787.406282
793.468062	3733.271851
793.790241	3690.822815
794.112375	3717.223338
794.434464	3780.867905
794.756507	3802.764157
795.078505	3787.905356
795.400457	3817.481806
795.722364	3953.860141
796.044226	4057.995256
796.366042	4129.998056
796.687812	4111.305458
797.009538	4120.135038
797.331218	4074.515117
797.652852	4048.926220
797.974442	4033.311246
798.295986	4032.088766
798.617484	3954.356694
798.938938	3862.093497
799.260346	3902.962131
799.581709	3901.220412
799.903026	3828.264834
800.224299	3793.395173
800.545526	3785.278915
800.866708	3746.343563
801.187845	3686.530273
801.508936	3720.676528
801.829983	3722.924883
802.150984	3643.257008
802.471940	3630.825523
802.792851	3644.116525
803.113717	3640.726349
803.434538	3646.090137
803.755314	3588.263061
804.076045	3560.856828
804.396731	3579.935075
804.717372	3609.173767
805.037967	3594.327569
805.358518	3585.344233
805.679024	3609.897172
805.999485	3623.067187
806.319901	3622.973926
806.640272	3641.283396
806.960598	3651.143893
807.280879	3629.628249
807.601115	3639.294661
807.921306	3655.968277
808.241453	3696.685677
808.561554	3675.374199
808.881611	3608.248715
809.201623	3640.433962
809.521590	3656.144718
809.841513	3627.563896
810.161390	3659.968433
810.481223	3635.402890
810.801011	3579.171340
811.120755	3569.986358
811.440453	3609.319960
811.760107	3613.589818
812.079716	3571.125658
812.399281	3538.587531
812.718801	3560.272054
813.038276	3532.074360
813.357707	3528.850542
813.677093	3549.612534
813.996434	3502.001357
814.315731	3508.063344
814.634983	3509.411853
814.954191	3521.084645
815.273354	3549.965415
815.592473	3550.126732
815.911547	3552.168399
816.230577	3592.797579
816.549562	3642.619302
816.868502	3685.625386
817.187399	3708.600444
817.506250	3708.562636
817.825058	3675.865712
818.143821	3767.150926
818.462539	3871.298643
818.781213	3919.056014
819.099843	3970.261535
819.418429	4207.442782
819.736970	4444.182928
820.055466	4688.623437
820.373919	5048.466040
820.692327	5448.753820
821.010691	5874.842225
821.329011	7199.954884
821.647286	9860.186892
821.965517	14322.091997
822.283704	18334.414398
822.601847	20561.013914
822.919945	18808.771852
823.237999	16285.203004
823.556010	13832.802646
823.873976	11778.542536
824.191897	9704.606802
824.509775	8342.086261
824.827609	7220.706794
825.145398	6669.045767
825.463144	6555.095525
825.780845	6661.264746
826.098502	6842.032961
826.416116	7680.666712
826.733685	8983.608376
827.051210	10089.882026
827.368692	10178.626498
827.686129	8971.534813
828.003522	7451.843698
828.320872	6441.576302
828.638177	5746.557463
828.955439	5193.245458
829.272656	4702.219429
829.589830	4411.629677
829.906960	4241.478132
830.224046	4056.755132
830.541088	3930.643107
830.858086	3885.769276
831.175041	3810.492246
831.491952	3790.970378
831.808819	3800.871204
832.125642	3870.461812
832.442421	4012.881970
832.759157	4282.268628
833.075849	4817.739990
833.392497	5662.019833
833.709101	6429.386792
834.025662	6786.567666
834.342179	6449.029648
834.658653	5790.682682
834.975083	5150.564529
835.291469	4579.921037
835.607811	4168.026000
835.924110	4027.493754
836.240366	3834.001667
836.556578	3628.461222
836.872746	3517.664222
837.188871	3481.193994
837.504952	3418.129160
837.820990	3334.566993
838.136984	3285.619910
838.452935	3309.247798
838.768842	3305.338383
839.084706	3326.869152
839.400526	3476.500680
839.716303	3806.522337
840.032037	4317.052590
840.347727	4592.632306
840.663373	4331.923994
840.978977	3957.230152
841.294537	3648.837565
841.610054	3420.619490
841.925527	3311.914569
842.240957	3243.226327
842.556344	3190.238759
842.871687	3134.108031
843.186987	3086.229673
843.502244	3045.688713
843.817458	3010.771161
844.132629	2981.240082
844.447756	2988.234683
844.762840	2978.054073
845.077881	2945.266408
845.392879	2926.019283
845.707833	2924.892585
846.022745	2922.339241
846.337613	2924.138933
846.652438	2910.779875
846.967221	2908.211407
847.281960	2896.067267
847.596656	2889.929663
847.911309	2889.060063
848.225919	2885.768190
848.540485	2878.423229
848.855009	2879.711244
849.169490	2869.802856
849.483928	2861.469828
849.798323	2857.215095
850.112675	2854.734847
850.426984	2866.435365
850.741251	2864.812113
851.055474	2855.639734
851.369654	2850.273426
851.683792	2855.672502
851.997887	2862.982175
852.311938	2864.749099
852.625947	2853.739219
852.939914	2854.896164
853.253837	2862.846063
853.567718	2844.347549
853.881555	2844.176150
854.195350	2860.781711
854.509103	2856.499251
854.822812	2850.953982
855.136479	2847.737725
855.450103	2845.189422
855.763685	2841.615244
856.077224	2836.047290
856.390720	2850.369208
856.704173	2859.108048
857.017584	2853.555217
857.330953	2848.514063
857.644278	2860.028058
857.957561	2866.135416
858.270802	2869.409646
858.584000	2869.369317
858.897155	2858.780373
859.210268	2856.421113
859.523339	2854.949096
859.836367	2852.738550
860.149352	2849.660926
860.462295	2845.343177
860.775195	2854.334075
861.088054	2853.623272
861.400869	2836.921930
861.713642	2830.565035
862.026373	2846.984073
862.339062	2850.190247
862.651708	2855.317100
862.964312	2859.201309
863.276873	2852.282326
863.589392	2860.627956
863.901869	2872.837630
864.214303	2894.862432
864.526696	2909.595204
864.839045	2908.647467
865.151353	2904.828793
865.463619	2901.415932
865.775842	2903.558422
866.088023	2921.976278
866.400162	2931.907351
866.712258	2902.043555
867.024313	2891.726834
867.336325	2900.652197
867.648296	2919.586771
867.960224	2910.837848
868.272110	2898.449213
868.583954	2905.363155
868.895755	2918.449990
869.207515	2905.605130
869.519233	2909.184350
869.830909	2918.770104
870.142542	2931.935077
870.454134	2930.722679
870.765684	2933.775098
871.077191	2933.243256
871.388657	2940.079061
871.700081	2950.589867
872.011463	2963.291054
872.322803	2963.621249
872.634101	2962.159315
872.945357	2977.766727
873.256571	3004.313443
873.567744	2996.787001
873.878874	2991.075373
874.189963	3015.194774
874.501010	3014.342819
874.812015	3007.975842
875.122979	3006.478619
875.433900	3004.711694
875.744780	3007.708660
876.055618	3014.057994
876.366415	3013.979856
876.677169	3024.946886
876.987882	3022.448994
877.298554	3013.211080
877.609183	3033.073226
877.919771	3056.146587
878.230317	3084.853438
878.540822	3132.661220
878.851285	3175.047242
879.161707	3209.838765
879.472087	3310.258550
879.782425	3528.028834
880.092722	3951.871405
880.402977	4466.628666
880.713191	5078.629784
881.023363	6204.190888
881.333494	7464.207128
881.643583	8032.577059
881.953631	7747.588029
882.263637	7142.032026
882.573602	6572.948772
882.883526	6002.751422
883.193408	5430.005769
883.503248	4971.623732
883.813048	4672.592568
884.122806	4381.319740
884.432522	4066.855083
884.742197	3836.068540
885.051831	3643.405722
885.361424	3509.212727
885.670975	3439.861574
885.980485	3354.857638
886.289954	3280.225876
886.599382	3234.878176
886.908768	3196.550283
887.218113	3155.595950
887.527417	3096.974892
887.836680	3048.791544
888.145901	3044.693086
888.455082	3031.510468
888.764221	2983.589260
889.073319	2956.999694
889.382376	2953.927111
889.691392	2956.603963
890.000366	2954.307718
890.309300	2940.028649
890.618193	2956.072122
890.927044	2972.415542
891.235855	2972.397898
891.544625	2958.552369
891.853353	2967.278607
892.162041	2985.068838
892.470687	3024.896474
892.779293	3075.237437
893.087858	3120.799385
893.396381	3187.098120
893.704864	3306.195380
894.013306	3535.726676
894.321707	3834.944362
894.630068	4043.880025
894.938387	4039.917678
895.246665	3995.064012
895.554903	3878.971280
895.863100	3681.899973
896.171256	3519.663039
896.479371	3382.004251
896.787446	3261.898761
897.095480	3161.413441
897.403473	3096.561518
897.711425	3060.272772
898.019336	3049.777089
898.327207	3024.213398
898.635038	2989.752070
898.942827	2972.831438
899.250576	2963.757361
899.558284	2931.317536
899.865952	2911.631830
900.173579	2889.223901
900.481165	2886.073180
900.788711	2872.641025
901.096216	2850.512881
901.403681	2835.898576
901.711105	2843.533403
902.018489	2840.138186
902.325832	2841.101046
902.633135	2851.321986
902.940397	2881.952037
903.247619	2958.048254
903.554800	3145.758138
903.861941	3476.611585
904.169041	3900.192017
904.476101	4200.349878
904.783121	4163.055422
905.090100	3927.837704
905.397039	3654.463493
905.703938	3407.515010
906.010796	3225.342834
906.317614	3116.186729
906.624391	3024.793131
906.931129	2954.554734
907.237826	2894.106258
907.544483	2845.491891
907.851099	2818.317552
908.157675	2795.526495
908.464211	2777.242230
908.770707	2763.686567
909.077163	2747.101171
909.383578	2735.929974
909.689954	2726.172821
909.996289	2723.793396
910.302584	2723.223746
910.608839	2726.755074
910.915054	2721.086297
911.221229	2713.791747
911.527363	2715.977087
911.833458	2723.528736
912.139513	2727.506206
912.445527	2730.845971
912.751502	2740.265367
913.057436	2748.626120
913.363331	2761.909561
913.669186	2778.454627
913.975000	2812.411840
914.280775	2873.606406
914.586510	2938.624688
914.892205	3016.288704
915.197859	3139.275214
915.503475	3327.156497
915.809050	3534.695760
916.114585	3678.192204
916.420081	3703.365206
916.725536	3646.919406
917.030952	3535.141902
917.336328	3408.765216
917.641665	3279.179836
917.946961	3183.579395
918.252218	3111.052314
918.557435	3035.321581
918.862612	2976.768579
919.167750	2928.812082
919.472848	2890.506875
919.777906	2864.320601
920.082925	2837.211796
920.387904	2809.603917
920.692843	2790.722275
920.997743	2784.380504
921.302603	2766.466764
921.607423	2758.572317
921.912204	2745.316603
922.216946	2734.644480
922.521647	2726.447564
922.826310	2719.715103
923.130932	2712.980121
923.435516	2702.716332
923.740059	2696.329190
924.044564	2687.267716
924.349028	2684.830318
924.653454	2678.055007
924.957840	2671.249450
925.262186	2664.610250
925.566493	2663.415497
925.870761	2658.273520
926.174989	2653.988539
926.479178	2650.336223
926.783328	2644.692651
927.087438	2643.886067
927.391509	2642.141827
927.695541	2638.519758
927.999533	2637.420787
928.303486	2632.911475
928.607400	2632.682102
928.911275	2634.605302
929.215110	2630.098511
929.518906	2629.241515
929.822663	2630.249746
930.126381	2630.274951
930.430060	2631.341155
930.733699	2630.365692
931.037299	2634.794346
931.340861	2633.307205
931.644383	2635.860550
931.947866	2631.981382
932.251309	2629.768315
932.554714	2629.833850
932.858080	2629.042389
933.161407	2626.352934
933.464694	2627.958541
933.767943	2622.342696
934.071153	2624.860752
934.374323	2624.351596
934.677455	2624.724641
934.980548	2622.020062
935.283602	2620.643827
935.586617	2621.473097
935.889593	2622.524177
936.192530	2621.019393
936.495428	2621.994856
936.798287	2621.011831
937.101108	2627.467029
937.403890	2631.835188
937.706632	2636.949439
938.009336	2644.816160
938.312002	2648.864206
938.614628	2657.045999
938.917216	2664.814417
939.219765	2665.578152
939.522275	2667.208965
939.824747	2662.997081
940.127179	2661.315856
940.429573	2655.558858
940.731929	2656.345278
941.034246	2651.649444
941.336524	2647.465286
941.638763	2643.250881
941.940964	2645.332878
942.243126	2642.703916
942.545250	2643.767600
942.847335	2639.737197
943.149381	2631.721762
943.451389	2630.463995
943.753359	2628.044241
944.055290	2627.111627
944.357182	2625.591719
944.659036	2624.694394
944.960851	2624.575927
945.262628	2624.144908
945.564367	2623.497120
945.866067	2625.259003
946.167729	2625.357306
946.469352	2622.214146
946.770937	2623.832357
947.072484	2621.984774
947.373992	2621.498302
947.675462	2623.786986
947.976893	2618.176182
948.278286	2615.932869
948.579641	2613.717282
948.880958	2614.596963
949.182236	2617.213322
949.483476	2614.024792
949.784678	2613.094699
950.085841	2611.962960
950.386967	2613.583691
950.688054	2614.657457
950.989103	2617.016717
951.290114	2615.211984
951.591087	2617.750205
951.892021	2623.033334
952.192917	2624.507871
952.493776	2626.075670
952.794596	2627.870321
953.095378	2626.725979
953.396122	2626.234467
953.696828	2626.935187
953.997496	2625.589199
954.298126	2621.193313
954.598718	2617.591408
954.899272	2615.259875
955.199788	2613.336674
955.500266	2612.598145
955.800706	2610.833742
956.101108	2607.597321
956.401472	2604.895262
956.701798	2604.781836
957.002087	2601.842844
957.302337	2601.109356
957.602550	2600.774119
957.902724	2597.973758
958.202861	2595.985023
958.502960	2595.566607
958.803022	2595.458222
959.103045	2595.415372
959.403031	2593.892944
959.702979	2592.120978
960.002889	2594.689446
960.302762	2594.487800
960.602596	2590.217943
960.902393	2591.168200
961.202153	2592.829261
961.501875	2590.593509
961.801559	2590.283478
962.101205	2590.101996
962.400814	2592.231884
962.700385	2592.244487
962.999918	2587.785586
963.299414	2584.627303
963.598873	2586.442119
963.898293	2585.476738
964.197677	2590.689291
964.497022	2589.441605
964.796331	2586.512695
965.095601	2586.636203
965.394835	2587.614187
965.694030	2586.142170
965.993189	2587.331882
966.292309	2588.919846
966.591393	2588.849270
966.890439	2587.785586
967.189447	2585.872468
967.488419	2587.657037
967.787353	2586.923549
968.086249	2587.228539
968.385108	2587.163004
968.683930	2586.731985
968.982714	2585.678384
969.281462	2585.088569
969.580172	2587.707448
969.878844	2588.171234
970.177480	2589.484455
970.476078	2587.805751
970.774639	2589.527305
971.073162	2586.434557
971.371649	2586.013621
971.670098	2587.120154
971.968510	2586.926069
972.266885	2587.425144
972.565223	2588.874475
972.863524	2587.150401
973.161788	2587.896492
973.460014	2588.461101
973.758204	2586.240472
974.056356	2585.499423
974.354471	2585.476738
974.652550	2589.635690
974.950591	2584.670153
975.248595	2585.698548
975.546563	2588.876996
975.844493	2584.990266
976.142386	2586.527818
976.440243	2584.869279
976.738062	2587.241142
977.035845	2588.866914
977.333590	2587.750298
977.631299	2583.591346
977.928971	2583.442632
978.226606	2582.000862
978.524204	2585.837180
978.821765	2580.047415
979.119290	2586.086717
979.416777	2586.089238
979.714228	2583.911459
980.011642	2584.297108
980.309020	2587.198292
980.606360	2587.581419
980.903664	2585.844742
981.200931	2587.253744
981.498162	2587.223497
981.795356	2586.989084
982.092513	2589.280288
982.389633	2590.475042
982.686717	2592.950248
982.983764	2596.642893
983.280775	2601.096753
983.577749	2602.178080
983.874686	2604.348297
984.171587	2602.314192
984.468451	2599.349993
984.765279	2593.635845
985.062070	2594.760022
985.358824	2592.219281
985.655543	2590.096955
985.952224	2588.198961
986.248869	2585.640575
986.545478	2587.246183
986.842050	2583.046902
987.138586	2585.920359
987.435086	2583.717375
987.731549	2583.672005
988.027975	2584.564289
988.324366	2582.073959
988.620719	2584.155955
988.917037	2581.660584
989.213318	2582.101685
989.509563	2580.861561
989.805772	2582.567992
990.101944	2583.961871
990.398080	2581.123701
990.694180	2580.901891
990.990244	2582.028588
991.286271	2581.499267
991.582262	2580.503639
991.878217	2583.321644
992.174136	2584.060173
992.470019	2582.227714
992.765865	2581.121181
993.061676	2577.463824
993.357450	2575.555747
993.653188	2578.542631
993.948890	2583.913980
994.244556	2582.694021
994.540186	2584.438260
994.835780	2580.843917
995.131337	2583.137642
995.426859	2586.147211
995.722345	2583.745101
996.017795	2588.398086
996.313208	2586.479927
996.608586	2583.576223
996.903928	2588.652665
997.199234	2586.205184
997.494504	2586.502613
997.789738	2587.485637
998.084936	2583.127560
998.380099	2587.430185
998.675225	2585.643096
998.970316	2585.779207
999.265371	2584.395410
999.560390	2584.158476
999.855373	2580.675039
1000.150320	2582.620924
1000.445232	2580.387693
1000.740108	2580.228897
1001.034948	2582.731829
1001.329752	2582.144535
1001.624521	2578.812332
1001.919254	2580.385172
1002.213951	2582.545307
1002.508613	2583.427509
1002.803239	2581.368197
1003.097829	2579.056828
1003.392384	2581.315265
1003.686903	2582.373907
1003.981386	2577.378124
1004.275834	2579.329051
1004.570246	2580.433063
1004.864623	2580.420460
1005.158964	2581.572364
1005.453270	2578.615727
1005.747540	2580.717888
1006.041775	2578.366190
1006.335974	2576.672362
1006.630138	2576.790830
1006.924266	2581.847107
1007.218359	2579.001376
1007.512416	2578.852662
1007.806438	2577.332754
1008.100425	2577.526838
1008.394376	2572.004254
1008.688292	2578.124215
1008.982172	2578.688824
1009.276017	2581.025399
1009.569827	2580.667477
1009.863602	2578.051118
1010.157341	2579.893660
1010.451045	2578.620768
1010.744714	2578.661098
1011.038347	2580.339802
1011.331945	2581.148907
1011.625508	2580.193608
1011.919036	2579.213104
1012.212528	2578.328382
1012.505986	2576.705130
1012.799408	2580.735532
1013.092795	2578.671180
1013.386147	2578.708989
1013.679464	2578.343505
1013.972745	2578.328382
1014.265992	2575.341498
1014.559204	2579.349215
1014.852380	2578.174626
1015.145521	2575.767475
1015.438628	2577.731005
1015.731699	2578.794688
1016.024736	2575.689337
1016.317737	2577.725964
1016.610703	2578.845100
1016.903635	2580.077662
1017.196531	2577.844431
1017.489393	2579.757549
1017.782219	2578.759400
1018.075011	2577.047928
1018.367768	2574.907959
1018.660490	2581.859710
1018.953177	2581.859710
1019.245829	2581.859710
