Dividing Wavelength (nm)	Counts (n)	Blue Motor Position (mm): 15.200000	Red Motor Position (mm): 0.000000	
326.493990	2172.669252
326.888308	2172.669252
327.282561	2172.669252
327.676750	2132.488735
328.070874	2128.637294
328.464933	2130.207613
328.858929	2135.268932
329.252859	2137.920579
329.646726	2146.137659
330.040528	2159.617705
330.434265	2170.443583
330.827938	2188.100224
331.221547	2208.295086
331.615091	2224.530122
332.008571	2243.457134
332.401986	2260.770977
332.795338	2278.656991
333.188625	2300.742286
333.581847	2316.722744
333.975006	2335.054900
334.368100	2353.008969
334.761129	2370.227030
335.154095	2391.382232
335.546996	2411.501477
335.939833	2438.257401
336.332606	2452.155863
336.725315	2465.300671
337.117960	2478.574029
337.510540	2490.201451
337.903056	2501.317195
338.295508	2511.517970
338.687896	2519.195647
339.080220	2526.230577
339.472480	2530.250897
339.864676	2539.012423
340.256807	2542.778165
340.648875	2546.801005
341.040879	2549.999618
341.432818	2552.774773
341.824694	2555.388611
342.216506	2557.246276
342.608253	2559.552604
342.999937	2558.708211
343.391557	2556.769887
343.783113	2558.236863
344.174605	2556.011193
344.566033	2555.582695
344.957397	2554.284598
345.348697	2553.399876
345.739934	2550.831408
346.131106	2549.472817
346.522215	2548.386448
346.913260	2546.281767
347.304241	2542.538710
347.695159	2543.509132
348.086012	2540.771785
348.476802	2540.277752
348.867528	2531.871628
349.258191	2531.223840
349.648789	2534.719880
350.039324	2525.300484
350.429796	2530.258459
350.820203	2527.793335
351.210548	2529.371216
351.600828	2526.467511
351.991045	2526.190248
352.381198	2524.030113
352.771288	2523.672192
353.161314	2524.753519
353.551276	2524.982892
353.941175	2521.297808
354.331010	2523.347037
354.720782	2524.188910
355.110490	2522.963909
355.500135	2524.380474
355.889717	2523.468025
356.279235	2524.425844
356.668689	2520.370236
357.058080	2523.382325
357.447408	2523.770494
357.836672	2524.937521
358.225873	2522.676564
358.615010	2523.064732
359.004084	2523.583971
359.393095	2524.060360
359.782043	2525.696215
360.170927	2527.372398
360.559748	2526.762419
360.948505	2527.410207
361.337199	2528.736031
361.725830	2528.456247
362.114398	2530.412214
362.502903	2529.862728
362.891344	2527.705115
363.279722	2532.405991
363.668037	2530.586134
364.056289	2530.689478
364.444478	2531.702750
364.832603	2532.484128
365.220665	2535.072761
365.608665	2533.527647
365.996601	2532.947915
366.384474	2531.712832
366.772284	2535.786084
367.160031	2534.722401
367.547715	2536.227185
367.935336	2534.639222
368.322893	2535.019829
368.710388	2531.251566
369.097820	2531.233922
369.485189	2533.058820
369.872495	2536.585107
370.259738	2534.934129
370.646918	2533.691485
371.034035	2537.714326
371.421090	2537.298430
371.808081	2536.055786
372.195010	2537.921013
372.581875	2539.390509
372.968678	2539.418236
373.355418	2539.846734
373.742096	2539.413194
374.128710	2538.901517
374.515262	2540.620551
374.901751	2539.786240
375.288177	2540.741538
375.674540	2540.912938
376.060841	2540.547454
376.447079	2541.086857
376.833254	2542.677342
377.219367	2542.712630
377.605417	2542.342105
377.991404	2540.252547
378.377329	2538.321785
378.763191	2542.737835
379.148991	2539.882022
379.534727	2542.132897
379.920402	2542.773123
380.306013	2541.225489
380.691563	2542.707588
381.077049	2545.167672
381.462474	2542.037115
381.847835	2544.920655
382.233134	2545.588608
382.618371	2543.612476
383.003545	2543.678011
383.388657	2545.828063
383.773706	2543.665408
384.158693	2545.016437
384.543618	2545.601211
384.928480	2543.113401
385.313280	2546.372507
385.698017	2545.386962
386.082692	2545.903680
386.467305	2547.189174
386.851856	2547.289997
387.236344	2548.981304
387.620770	2544.267826
388.005133	2545.389482
388.389435	2543.942671
388.773674	2542.432846
389.157851	2547.612631
389.541965	2549.286294
389.926018	2549.548434
390.310008	2550.400389
390.693936	2550.503733
391.077802	2549.182951
391.461606	2547.978115
391.845348	2549.102292
392.229027	2551.471634
392.612645	2549.929041
392.996200	2550.299566
393.379694	2549.137580
393.763125	2550.435677
394.146494	2553.044474
394.529801	2551.758980
394.913047	2550.596994
395.296230	2552.474824
395.679351	2550.286963
396.062410	2551.466593
396.445408	2548.378887
396.828343	2552.434495
397.211217	2552.779814
397.594028	2551.680842
397.976778	2548.666232
398.359466	2551.728733
398.742092	2552.961295
399.124656	2554.350133
399.507158	2551.728733
399.889598	2555.111347
400.271977	2550.138249
400.654294	2554.277037
401.036549	2554.145967
401.418742	2552.404248
401.800874	2553.581357
402.182944	2553.442726
402.564952	2552.671429
402.946898	2555.103786
403.328783	2556.101934
403.710606	2556.419527
404.092367	2556.278375
404.474067	2557.440361
404.855705	2555.252500
405.237282	2555.728889
405.618797	2554.521532
406.000250	2557.982285
406.381642	2556.921122
406.762972	2548.951057
407.144240	2551.181768
407.525447	2554.692932
407.906593	2552.406768
408.287677	2557.596636
408.668700	2558.554456
409.049661	2558.070505
409.430560	2554.864331
409.811399	2557.410114
410.192176	2558.456153
410.572891	2559.048489
410.953545	2560.361709
411.334138	2556.364074
411.714669	2559.229970
412.095139	2559.698797
412.475547	2558.395659
412.855894	2559.482028
413.236180	2557.727706
413.616405	2560.845660
413.996568	2558.657799
414.376670	2560.354147
414.756711	2557.405073
415.136691	2562.564693
415.516609	2561.647203
415.896466	2560.402038
416.276262	2560.248283
416.655997	2561.906823
417.035670	2560.865825
417.415283	2562.662996
417.794834	2560.064281
418.174324	2560.296174
418.553753	2561.594271
418.933121	2560.896072
419.312428	2560.828016
419.691674	2563.865311
420.070859	2562.468912
420.449983	2561.453119
420.829045	2561.727862
421.208047	2560.729713
421.586988	2564.626525
421.965867	2563.527554
422.344686	2564.034190
422.723444	2563.144426
423.102141	2563.419169
423.480777	2564.888665
423.859352	2564.155177
424.237866	2563.519992
424.616319	2561.740465
424.994712	2564.533264
425.373044	2563.799776
425.751314	2559.464384
426.129524	2558.730896
426.507673	2562.267265
426.885762	2559.338355
427.263789	2568.916547
427.641756	2565.087791
428.019662	2566.892524
428.397508	2562.983109
428.775292	2565.271793
429.153016	2564.883624
429.530679	2565.433110
429.908282	2565.753223
430.285824	2563.789694
430.663305	2566.453944
431.040726	2565.896896
431.418086	2565.632236
431.795385	2566.201886
432.172624	2563.439334
432.549802	2566.653069
432.926920	2565.173491
433.303977	2565.498645
433.680974	2566.534602
434.057910	2567.598286
434.434786	2564.550908
434.811601	2568.089798
435.188355	2567.434448
435.565050	2565.571742
435.941683	2568.999726
436.318257	2568.389747
436.694770	2565.977555
437.071222	2567.749520
437.447614	2565.995199
437.823946	2567.983934
438.200218	2565.163408
438.576429	2569.274469
438.952580	2568.193142
439.328670	2568.732545
439.704700	2569.740776
440.080670	2568.881259
440.456580	2567.704150
440.832429	2570.789336
441.208218	2567.610888
441.583947	2570.002916
441.959616	2568.193142
442.335224	2569.531568
442.710773	2567.741958
443.086261	2566.771536
443.461689	2570.133986
443.837057	2569.297154
444.212365	2569.579459
444.587612	2566.433779
444.962800	2563.913202
445.337927	2565.322205
445.712995	2566.048131
446.088002	2571.245560
446.462949	2568.740107
446.837837	2571.167423
447.212664	2571.424521
447.587431	2569.773543
447.962139	2570.214644
448.336786	2571.439645
448.711374	2570.121383
449.085901	2570.449058
449.460369	2572.072310
449.834776	2570.212124
450.209124	2571.059038
450.583412	2571.759758
450.957640	2571.490056
451.331808	2573.579615
451.705917	2571.273287
452.079965	2571.626167
452.453954	2574.885273
452.827883	2569.849161
453.201752	2571.815211
453.575562	2571.762279
453.949311	2576.213617
454.323001	2574.484502
454.696632	2575.071796
455.070202	2572.992320
455.443713	2573.032649
455.817164	2574.708833
456.190556	2573.675397
456.563888	2575.812846
456.937160	2576.589183
457.310373	2574.918041
457.683526	2574.655901
458.056619	2574.053483
458.429653	2573.756055
458.802628	2575.223031
459.175542	2574.418967
459.548398	2575.031467
459.921194	2574.524831
460.293930	2574.718915
460.666607	2575.822928
461.039224	2576.132959
461.411782	2578.426684
461.784280	2576.838721
462.156719	2579.056828
462.529099	2578.804771
462.901419	2578.991293
463.273680	2577.239492
463.645882	2575.026426
464.018024	2572.490725
464.390106	2571.863102
464.762130	2576.848803
465.134094	2575.661611
465.505999	2578.744277
465.877845	2580.967426
466.249631	2583.208218
466.621358	2580.629668
466.993026	2582.721747
467.364634	2585.897674
467.736184	2580.964905
468.107674	2579.147569
468.479105	2579.041705
468.850477	2581.116140
469.221790	2581.998342
469.593043	2580.927096
469.964238	2582.923393
470.335373	2580.062538
470.706449	2582.799885
471.077467	2581.317786
471.448425	2583.009093
471.819324	2584.203846
472.190164	2588.448498
472.560945	2586.003538
472.931667	2583.785431
473.302330	2582.240317
473.672934	2584.125708
474.043479	2582.452045
474.413965	2582.774679
474.784393	2583.919021
475.154761	2583.929103
475.525070	2584.012282
475.895321	2584.148394
476.265513	2583.001531
476.635645	2585.764083
477.005719	2584.408013
477.375734	2586.179979
477.745691	2588.324990
478.115588	2584.682756
478.485427	2588.536718
478.855207	2585.701069
479.224928	2588.761049
479.594591	2590.404466
479.964194	2589.391194
480.333739	2592.536874
480.703226	2590.245669
481.072653	2592.342789
481.442022	2590.490165
481.811333	2589.295412
482.180584	2587.122674
482.549777	2590.059147
482.918912	2586.424475
483.287988	2591.541246
483.657005	2592.063005
484.025964	2590.510330
484.394864	2590.129723
484.763706	2591.004363
485.132489	2590.762387
485.501213	2590.192737
485.869879	2591.132912
486.238487	2593.827409
486.607036	2594.069384
486.975527	2592.183993
487.343959	2592.594847
487.712333	2593.701380
488.080648	2592.423448
488.448905	2594.570979
488.817104	2592.350351
489.185244	2595.460743
489.553326	2593.547625
489.921350	2594.921339
490.289315	2596.000146
490.657222	2597.083994
491.025070	2598.813110
491.392861	2596.020311
491.760593	2596.746237
492.128267	2599.770929
492.495883	2597.121803
492.863440	2596.345465
493.230939	2596.269848
493.598380	2595.632142
493.965763	2595.763212
494.333088	2596.945363
494.700354	2592.801534
495.067563	2596.242122
495.434713	2595.904364
495.801805	2595.806062
496.168839	2596.635332
496.535815	2597.454519
496.902733	2596.123655
497.269593	2596.957966
497.636395	2597.504931
498.003139	2597.706577
498.369825	2595.937132
498.736453	2596.050558
499.103023	2599.193717
499.469535	2598.326639
499.835989	2597.394025
500.202385	2590.976637
500.568723	2595.959817
500.935003	2594.916298
501.301226	2592.546956
501.667390	2598.762699
502.033497	2602.825869
502.399546	2598.351845
502.765537	2599.922164
503.131470	2599.874273
503.497345	2603.965169
503.863163	2601.920982
504.228923	2598.679520
504.594625	2604.091198
504.960269	2604.436517
505.325856	2603.791250
505.691385	2603.670262
506.056856	2603.236723
506.422270	2605.855602
506.787625	2608.330809
507.152924	2607.108329
507.518164	2608.040942
507.883347	2608.154368
508.248472	2608.303082
508.613540	2610.942126
508.978550	2610.750562
509.343503	2610.185953
509.708398	2611.544544
510.073236	2612.779627
510.438016	2618.140894
510.802738	2612.850203
511.167403	2615.106119
511.532010	2613.170316
511.896561	2617.621655
512.261053	2615.708537
512.625488	2617.840945
512.989866	2617.316665
513.354186	2621.505864
513.718449	2620.227932
514.082655	2623.421503
514.446803	2623.146760
514.810894	2624.961575
515.174927	2627.746813
515.538904	2626.131123
515.902822	2625.100207
516.266684	2631.502472
516.630488	2628.298819
516.994235	2633.216465
517.357925	2630.164046
517.721558	2633.390384
518.085133	2633.768471
518.448651	2634.602782
518.812112	2630.847122
519.175516	2636.742752
519.538863	2635.837865
519.902152	2639.137300
520.265385	2644.516211
520.628560	2643.936478
520.991678	2645.514359
521.354739	2647.462765
521.717743	2646.149545
522.080690	2650.759680
522.443580	2652.103147
522.806413	2655.815957
523.169189	2655.730258
523.531908	2657.882830
523.894569	2658.107162
524.257174	2660.811741
524.619722	2662.848367
524.982213	2666.084788
525.344647	2668.194511
525.707025	2671.025118
526.069345	2672.605520
526.431608	2672.504697
526.793815	2676.038546
527.155964	2677.664318
527.518057	2678.067610
527.880093	2681.760256
528.242072	2687.232428
528.603995	2690.012624
528.965860	2691.461956
529.327669	2692.472707
529.689421	2694.310208
530.051117	2696.883717
530.412755	2700.780529
530.774337	2705.932588
531.135862	2705.037783
531.497331	2711.770244
531.858743	2713.131356
532.220098	2720.836760
532.581396	2724.552090
532.942638	2726.495455
533.303824	2731.345045
533.664953	2737.210427
534.026025	2737.107084
534.387040	2745.735018
534.747999	2754.549476
535.108902	2756.444950
535.469748	2762.030548
535.830537	2764.478028
536.191270	2776.687703
536.551947	2775.954215
536.912567	2779.019237
537.273131	2789.172121
537.633638	2795.155970
537.994089	2806.286838
538.354483	2809.036787
538.714821	2824.399704
539.075103	2831.840447
539.435328	2839.762620
539.795497	2844.037518
540.155609	2858.868593
540.515665	2867.788915
540.875665	2869.087012
541.235609	2880.573281
541.595496	2894.867473
541.955328	2910.308527
542.315102	2924.587595
542.674821	2928.247473
543.034483	2933.553287
543.394090	2951.497274
543.753640	2955.767132
544.113134	2981.376193
544.472571	2990.079745
544.831953	3013.518590
545.191278	3015.025895
545.550548	3032.773277
545.909761	3043.858775
546.268918	3072.091757
546.628019	3086.990887
546.987064	3107.654577
547.346053	3119.662605
547.704986	3139.693630
548.063863	3164.334790
548.422684	3171.624298
548.781449	3192.971064
549.140158	3224.082545
549.498811	3243.057448
549.857408	3248.146493
550.215949	3284.977163
550.574434	3300.713125
550.932864	3335.313084
551.291237	3362.368957
551.649555	3390.977505
552.007817	3423.858431
552.366022	3445.343829
552.724173	3468.132365
553.082267	3500.622601
553.440305	3549.662946
553.798288	3551.581105
554.156215	3607.560598
554.514086	3641.447234
554.871902	3644.381185
555.229661	3690.419523
555.587365	3729.407807
555.945014	3754.406889
556.302606	3818.878205
556.660143	3843.161443
557.017625	3902.266452
557.375050	3919.855037
557.732421	3971.824292
558.089735	4016.713247
558.446994	4050.234399
558.804197	4107.905199
559.161345	4157.686593
559.518437	4159.055267
559.875474	4238.241711
560.232455	4278.349131
560.589381	4335.851053
560.946251	4369.417576
561.303065	4448.024287
561.659825	4512.893855
562.016528	4531.241135
562.373177	4562.970157
562.729770	4628.033809
563.086307	4701.881672
563.442789	4764.845683
563.799216	4807.483762
564.155587	4850.769630
564.511904	4923.362245
564.868164	4956.898521
565.224370	5033.897105
565.580520	5061.018513
565.936615	5154.935209
566.292654	5159.409233
566.648638	5280.326349
567.004567	5305.489269
567.360441	5373.005442
567.716260	5392.474378
568.072023	5526.069996
568.427732	5559.598711
568.783385	5586.692392
569.138982	5681.723183
569.494525	5779.982833
569.850013	5825.464123
570.205445	5890.253033
570.560823	5913.717083
570.916145	5984.930943
571.271412	6048.726745
571.626625	6125.939578
571.981782	6189.838723
572.336884	6219.989864
572.691931	6321.022149
573.046923	6319.663558
573.401860	6405.685807
573.756743	6502.594428
574.111570	6540.234204
574.466342	6596.523728
574.821059	6696.895621
575.175722	6706.617486
575.530330	6811.261758
575.884882	6874.848352
576.239380	6948.827285
576.593823	6999.145562
576.948211	7046.144239
577.302544	7091.375992
577.656823	7142.878940
578.011047	7262.626509
578.365216	7302.577653
578.719330	7366.416305
579.073389	7405.051708
579.427394	7557.980151
579.781344	7537.845782
580.135239	7625.350131
580.489080	7682.542021
580.842866	7678.529263
581.196597	7858.639607
581.550273	7881.163483
581.903895	7992.668765
582.257463	8135.066237
582.610975	8108.282587
582.964434	8262.189014
583.317837	8273.551775
583.671186	8382.254175
584.024481	8470.703740
584.377721	8446.629710
584.730906	8563.319818
585.084037	8661.513933
585.437113	8712.318682
585.790135	8838.251746
586.143103	8763.065457
586.496016	8826.906629
586.848874	9038.725832
587.201679	9068.786232
587.554428	9030.793576
587.907124	9236.301254
588.259765	9231.507117
588.612352	9366.282365
588.964884	9292.096745
589.317362	9429.962220
589.669786	9521.902784
590.022155	9612.235220
590.374470	9777.650601
590.726731	9789.104102
591.078937	9766.242470
591.431090	9876.048883
591.783188	9847.180715
592.135232	9897.665350
592.487222	10053.298373
592.839157	10127.201688
593.191038	10183.755872
593.542866	10190.982366
593.894639	10178.676910
594.246358	10338.990643
594.598022	10362.583243
594.949633	10339.381333
595.301190	10379.844154
595.652692	10541.100583
596.004141	10731.676363
596.355535	10498.490230
596.706876	10572.368340
597.058162	10611.396953
597.409395	10765.832701
597.760573	10915.877604
598.111698	10882.636236
598.462768	10925.123080
598.813785	10965.855603
599.164748	10961.227824
599.515657	11035.904957
599.866511	11012.501400
600.217312	11257.826631
600.568060	11093.855541
600.918753	11329.670635
601.269392	11378.665610
601.619978	11299.060749
601.970510	11520.874039
602.320988	11535.974815
602.671412	11725.428939
603.021783	11741.109448
603.372100	11663.853765
603.722363	11824.900986
604.072572	11858.046573
604.422728	11981.035603
604.772830	11958.466358
605.122878	11952.479987
605.472872	12041.355530
605.822813	12107.949172
606.172701	12154.660503
606.522534	12338.597084
606.872314	12426.918099
607.222041	12354.595186
607.571714	12583.415679
607.921333	12550.877552
608.270899	12669.884071
608.620411	12893.900345
608.969870	12750.754261
609.319276	12837.832632
609.668627	12945.080659
610.017926	13098.188063
610.367171	13228.827044
610.716362	13353.716590
611.065500	13267.051593
611.414585	13420.156477
611.763616	13481.550169
612.112594	13516.399666
612.461518	13538.104353
612.810389	13736.854364
613.159207	13668.057738
613.507971	13673.713912
613.856682	13962.413232
614.205340	13953.465183
614.553945	14139.876970
614.902496	13977.846724
615.250994	14252.808899
615.599439	14251.646913
615.947830	14280.000883
616.296169	14345.561088
616.644454	14416.722016
616.992686	14409.873609
617.340864	14625.156084
617.688990	14530.251321
618.037063	14696.841291
618.385082	14640.408095
618.733048	14877.690165
619.080961	14821.403162
619.428821	14918.770528
619.776628	14908.453806
620.124382	14878.970618
620.472083	14960.924656
620.819731	15046.518407
621.167326	14853.233007
621.514868	14931.703608
621.862357	14806.597293
622.209793	14870.151119
622.557176	14804.162416
622.904506	14697.468915
623.251783	14686.229662
623.599007	14587.498664
623.946179	14588.156535
624.293297	14602.632208
624.640363	14444.713023
624.987376	14500.619419
625.334336	14368.863822
625.681243	14295.537719
626.028097	14324.088294
626.374899	14343.118649
626.721647	14247.046860
627.068343	14147.000121
627.414987	14129.363644
627.761577	14164.636597
628.108115	14245.685748
628.454600	14021.503116
628.801032	14129.736689
629.147412	14098.037914
629.493739	14161.289271
629.840014	14025.624260
630.186236	14130.495383
630.532405	13977.156086
630.878521	14163.499817
631.224585	14089.616667
631.570597	13986.192354
631.916556	14023.043189
632.262462	14033.211196
632.608316	14001.847657
632.954117	13967.555208
633.299866	13998.580990
633.645562	13960.361482
633.991206	13759.779012
634.336797	13665.937933
634.682336	13689.674206
635.027823	13614.608904
635.373257	13557.500193
635.718639	13472.932317
636.063968	13456.649390
636.409245	13286.157567
636.754470	13324.014111
637.099642	13210.600753
637.444762	13008.579033
637.789829	13094.908793
638.134845	12961.093884
638.479808	12996.376920
638.824719	12974.634423
639.169577	12846.642048
639.514383	12927.771857
639.859137	12761.721291
640.203839	12859.063451
640.548489	12722.909447
640.893086	12740.581212
641.237632	12610.106068
641.582125	12785.818006
641.926566	12645.918425
642.270955	12663.259994
642.615292	12654.889158
642.959576	12677.672653
643.303809	12732.449831
643.647990	12675.169720
643.992118	12747.406934
644.336195	12530.596990
644.680219	12735.698855
645.024192	12688.183459
645.368112	12928.099532
645.711981	13007.684228
646.055797	13180.749560
646.399562	13154.545642
646.743274	13415.148091
647.086935	13692.308208
647.430544	13661.194207
647.774101	13694.254094
648.117606	13862.003529
648.461059	13830.045134
648.804460	13854.779556
649.147810	13618.283905
649.491108	13517.657433
649.834354	13563.859608
650.177548	13286.374336
650.520690	13119.517185
650.863781	13050.453377
651.206820	13104.655863
651.549807	12932.767641
651.892742	12760.183739
652.235626	12710.377139
652.578458	12716.668499
652.921238	12419.061461
653.263967	12618.204682
653.606644	12453.434568
653.949269	12435.218359
654.291843	12275.232301
654.634365	12422.807038
654.976836	12280.414607
655.319255	12312.355357
655.661622	12264.003130
656.003938	12206.652444
656.346203	12144.915953
656.688416	12213.566386
657.030577	12179.102538
657.372687	12116.095677
657.714746	12096.520876
658.056753	12273.319183
658.398708	12116.872014
658.740612	12125.578087
659.082465	12214.609905
659.424266	12184.867097
659.766016	12209.755274
660.107715	12124.973148
660.449362	12199.771269
660.790958	12164.273984
661.132503	12125.436935
661.473996	12182.417097
661.815438	12200.149355
662.156829	12217.964793
662.498168	12206.710417
662.839456	12212.109493
663.180693	12225.274466
663.521879	12314.470122
663.863013	12305.973257
664.204097	12290.242336
664.545129	12397.628995
664.886110	12371.546065
665.227040	12459.247019
665.567918	12469.760345
665.908746	12511.024710
666.249522	12486.625525
666.590248	12534.753421
666.930922	12642.508085
667.271545	12640.108495
667.612118	12723.312740
667.952639	12635.876447
668.293109	12632.652629
668.633528	12602.642640
668.973896	12576.955441
669.314213	12673.115450
669.654480	12419.973910
669.994695	12477.228815
670.334859	12502.548010
670.674973	12453.575721
671.015035	12494.036022
671.355047	12437.381014
671.695008	12404.104358
672.034918	12410.241962
672.374777	12458.074951
672.714585	12375.705017
673.054342	12408.454873
673.394049	12357.622398
673.733705	12451.791152
674.073310	12374.290974
674.412864	12392.557595
674.752368	12278.748505
675.091820	12269.805498
675.431223	12275.958227
675.770574	12150.239412
676.109875	12073.296280
676.449125	12042.031044
676.788324	11969.481279
677.127473	11816.043679
677.466571	11806.006742
677.805619	11711.538039
678.144616	11633.896708
678.483562	11597.013106
678.822458	11467.561317
679.161303	11439.106524
679.500098	11445.652462
679.838842	11400.665205
680.177535	11412.842112
680.516179	11468.481327
680.854771	11419.778740
681.193314	11638.587502
681.531805	11776.901640
681.870247	12173.383349
682.208638	12570.832959
682.546978	12898.989389
682.885268	12968.567395
683.223508	12663.741425
683.561697	12496.803615
683.899836	12397.087071
684.237925	12206.723020
684.575963	12120.882252
684.913951	12060.010319
685.251889	11993.920792
685.589776	12093.597007
685.927614	12018.587158
686.265401	11988.514155
686.603137	12030.471678
686.940824	12177.567507
687.278460	12293.312399
687.616046	12346.012621
687.953582	12525.989375
688.291068	12437.254985
688.628504	12664.152279
688.965889	12673.533866
689.303224	12641.406592
689.640510	12548.661965
689.977745	12257.169846
690.314930	12024.253415
690.652065	11940.003132
690.989150	11661.255050
691.326185	11436.200298
691.663170	11234.274361
692.000105	10982.670372
692.336990	10888.277287
692.673825	10643.115893
693.010610	10516.560246
693.347345	10313.505090
693.684030	10114.709709
694.020665	10057.565709
694.357251	9858.528352
694.693786	9827.023662
695.030272	9646.177308
695.366707	9529.588023
695.703093	9461.275347
696.039429	9452.302093
696.375716	9386.104182
696.711952	9258.941076
697.048139	9292.608422
697.384276	9251.197863
697.720363	9260.166076
698.056400	9200.549391
698.392388	9161.445160
698.728326	9111.131924
699.064214	9044.412253
699.400053	9103.391233
699.735842	8914.801667
700.071581	8871.924133
700.407270	8801.799163
700.742910	8725.370229
701.078501	8635.141137
701.414042	8512.832663
701.749533	8441.394471
702.084974	8305.858009
702.420366	8418.066532
702.755709	8302.230899
703.091002	8175.695417
703.426246	8195.784415
703.761440	8150.388824
704.096584	8106.293852
704.431679	8035.967235
704.766725	8022.250255
705.101721	7978.240982
705.436668	8012.709872
705.771565	7915.589522
706.106413	7995.353179
706.441212	8044.524594
706.775961	7993.061975
707.110661	8016.233638
707.445311	8172.249788
707.779913	8069.576608
708.114465	8197.642080
708.448967	8238.974500
708.783421	8357.766770
709.117825	8549.935555
709.452180	8587.373684
709.786485	8673.917693
710.120742	8943.876522
710.454949	8947.700237
710.789107	9053.319972
711.123216	9251.054191
711.457275	9408.522193
711.791286	9583.951826
712.125247	9567.724352
712.459159	9559.376201
712.793023	9827.868055
713.126837	9401.419207
713.460602	9540.991113
713.794318	9376.767965
714.127985	9393.136591
714.461602	9099.338145
714.795171	9041.800936
715.128691	8804.632291
715.462162	8549.960761
715.795584	8493.648552
716.128957	8366.472843
716.462281	8190.773508
716.795556	8236.060713
717.128782	8038.003861
717.461960	7764.007067
717.795088	7835.566246
718.128167	7741.538645
718.461198	7576.975218
718.794180	7516.446084
719.127113	7511.475507
719.459997	7371.175154
719.792833	7137.288301
720.125619	7195.198555
720.458357	7057.300312
720.791046	7042.199536
721.123686	7042.963271
721.456278	6893.364510
721.788821	6908.671974
722.121315	6797.272556
722.453761	6856.911927
722.786158	6809.522560
723.118506	6824.898079
723.450805	6793.915148
723.783056	6861.312854
724.115259	6760.832575
724.447412	6755.884683
724.779518	6803.553834
725.111574	6807.674977
725.443582	6886.690022
725.775542	6864.720674
726.107453	7047.608694
726.439315	6965.195911
726.771129	7013.918663
727.102895	7175.958992
727.434612	7299.258053
727.766281	7320.534243
728.097901	7406.294352
728.429473	7392.562249
728.760996	7369.317489
729.092471	7349.001639
729.423897	7296.843340
729.755276	7313.398490
730.086606	7250.414313
730.417887	7342.425453
730.749120	7513.181937
731.080305	7705.144034
731.411442	7842.792740
731.742530	7845.411620
732.073570	7946.403575
732.404562	8024.569186
732.735506	7875.262812
733.066401	8022.429216
733.397249	7956.165770
733.728048	7726.909216
734.058798	7392.998309
734.389501	7176.125350
734.720156	6999.289235
735.050762	6766.153513
735.381320	6656.188304
735.711831	6618.296471
736.042293	6507.025603
736.372707	6532.871598
736.703073	6395.548047
737.033391	6434.112874
737.363661	6443.660819
737.693883	6458.827131
738.024056	6541.217229
738.354182	6592.833603
738.684260	6633.354398
739.014290	6734.303503
739.344272	6837.448032
739.674207	6870.323916
740.004093	6934.049142
740.333931	6955.405990
740.663722	6966.123483
740.993464	7038.789196
741.323159	7045.937552
741.652806	6791.278624
741.982405	6785.589682
742.311956	6851.782553
742.641460	6711.346089
742.970915	6513.682446
743.300323	6500.691393
743.629683	6442.579492
743.958996	6315.088711
744.288260	6227.370114
744.617477	6167.551782
744.946647	6188.840575
745.275768	6023.664648
745.604842	5971.937369
745.933869	5959.962108
746.262847	5910.541156
746.591778	5904.126288
746.920662	5865.211101
747.249498	5847.778791
747.578286	5891.394854
747.907027	5970.966947
748.235720	6028.630185
748.564365	6000.624055
748.892963	6015.203072
749.221514	6177.891189
749.550017	6029.396440
749.878473	5898.765021
750.206881	5940.941834
750.535242	5889.297734
750.863555	5824.108053
751.191821	5843.481207
751.520039	5846.957083
751.848210	5755.997023
752.176334	5768.519249
752.504411	5824.213917
752.832440	5747.613584
753.160421	5676.450136
753.488356	5724.572991
753.816243	5765.136635
754.144082	5612.651814
754.471875	5576.141257
754.799620	5625.819307
755.127318	5636.375484
755.454969	5584.776753
755.782572	5551.754675
756.110129	5589.263380
756.437638	5591.418474
756.765100	5531.711047
757.092515	5520.635632
757.419882	5564.284463
757.747203	5549.478594
758.074477	5616.432679
758.401703	5610.184169
758.728882	5555.527979
759.056014	5601.987253
759.383099	5742.373305
759.710138	5749.660293
760.037129	5726.367642
760.364073	5731.108847
760.690970	5819.500438
761.017820	5803.648530
761.344623	5750.572742
761.671379	5848.993709
761.998088	5956.244257
762.324751	6180.101735
762.651366	6744.680718
762.977935	7999.081112
763.304456	9596.892468
763.630931	10530.131032
763.957359	10194.947234
764.283740	9271.370041
764.610074	8472.543761
764.936362	7494.978331
765.262602	6903.361118
765.588796	6361.956318
765.914943	6019.425038
766.241044	5863.761769
766.567097	5676.616494
766.893104	5417.478501
767.219064	5236.246500
767.544978	5172.997663
767.870845	5103.200368
768.196665	4992.920086
768.522438	4918.492491
768.848165	4893.052308
769.173846	4830.231969
769.499479	4785.811842
769.825066	4730.422164
770.150607	4669.555273
770.476101	4644.674658
770.801548	4640.001508
771.126949	4574.650510
771.452303	4525.332902
771.777611	4476.640397
772.102872	4493.177902
772.428087	4458.882933
772.753256	4418.568826
773.078378	4378.723546
773.403453	4309.795849
773.728482	4296.766987
774.053465	4249.564143
774.378401	4234.793562
774.703291	4237.283892
775.028135	4170.690250
775.352932	4118.536993
775.677683	4106.365127
776.002388	4125.950009
776.327046	4141.575066
776.651658	4066.035896
776.976224	3998.116430
777.300743	4006.739324
777.625216	4028.572561
777.949643	4028.812016
778.274024	3979.890138
778.598359	3931.512706
778.922647	3951.783185
779.246889	3950.210345
779.571086	3949.081127
779.895236	3935.036472
780.219339	3920.984256
780.543397	3908.391453
780.867409	3958.941624
781.191374	3977.283862
781.515294	3916.558123
781.839167	3906.715270
782.162995	3925.969957
782.486776	3912.840272
782.810511	3920.218000
783.134201	3918.640119
783.457844	3877.312740
783.781441	3825.177127
784.104993	3826.850790
784.428498	3844.630940
784.751958	3844.598172
785.075372	3828.534535
785.398739	3786.400572
785.722061	3794.559679
786.045337	3834.634332
786.368568	3874.129251
786.691752	3786.456024
787.014891	3832.900175
787.337983	3948.440900
787.661030	4104.474694
787.984031	4265.037965
788.306987	4438.977937
788.629897	4517.483826
788.952760	4470.263338
789.275579	4401.219695
789.598351	4345.779605
789.921078	4216.867219
790.243759	4020.915048
790.566395	3988.694514
790.888984	3991.701562
791.211529	3886.356570
791.534027	3826.124864
791.856480	3818.585818
792.178888	3756.168772
792.501249	3702.747665
792.823566	3715.143862
793.145836	3748.188625
793.468062	3702.629198
793.790241	3653.225890
794.112375	3679.765044
794.434464	3738.418869
794.756507	3761.877879
795.078505	3748.143255
795.400457	3773.583438
795.722364	3905.999426
796.044226	4011.236033
796.366042	4085.119184
796.687812	4070.638469
797.009538	4080.413267
797.331218	4032.590361
797.652852	4004.415352
797.974442	3987.661077
798.295986	3987.754338
798.617484	3913.929161
798.938938	3821.877692
799.260346	3861.342365
799.581709	3858.393290
799.903026	3792.754946
800.224299	3751.641816
800.545526	3747.127463
800.866708	3709.953994
801.187845	3642.163078
801.508936	3682.540199
801.829983	3687.316693
802.150984	3603.048765
802.471940	3591.522167
802.792851	3606.431379
803.113717	3603.794856
803.434538	3606.932974
803.755314	3555.939182
804.076045	3522.851569
804.396731	3540.452758
804.717372	3570.868559
805.037967	3559.856159
805.358518	3549.657905
805.679024	3574.664548
805.999485	3581.029005
806.319901	3587.058225
806.640272	3601.992643
806.960598	3616.387658
807.280879	3590.506374
807.601115	3599.663630
807.921306	3613.010085
808.241453	3657.846107
808.561554	3640.635608
808.881611	3570.888724
809.201623	3604.031790
809.521590	3616.947226
809.841513	3589.266250
810.161390	3618.716671
810.481223	3604.505658
810.801011	3548.347205
811.120755	3533.669885
811.440453	3569.890576
811.760107	3575.975248
812.079716	3539.547871
812.399281	3503.017149
812.718801	3521.992052
813.038276	3497.960872
813.357707	3493.549862
813.677093	3513.124663
813.996434	3465.405100
814.315731	3468.167653
814.634983	3474.630412
814.954191	3483.099550
815.273354	3518.916948
815.592473	3514.669776
815.911547	3515.269674
816.230577	3552.470868
816.549562	3602.358127
816.868502	3643.657780
817.187399	3672.460412
817.506250	3665.589320
817.825058	3638.241060
818.143821	3723.489492
818.462539	3828.773990
818.781213	3873.418449
819.099843	3928.021707
819.418429	4150.787774
819.736970	4386.108836
820.055466	4624.570536
820.373919	4976.380060
820.692327	5378.452409
821.010691	5777.530312
821.329011	7055.044396
821.647286	9645.542123
821.965517	14018.102858
822.283704	18026.067182
822.601847	20313.009310
822.919945	18603.599411
823.237999	16114.063393
823.556010	13678.311445
823.873976	11659.180615
824.191897	9601.169887
824.509775	8252.076459
824.827609	7130.276056
825.145398	6574.569503
825.463144	6460.447862
825.780845	6578.073104
826.098502	6737.015644
826.416116	7534.069958
826.733685	8814.205442
827.051210	9937.124982
827.368692	10053.016068
827.686129	8870.058906
828.003522	7377.368211
828.320872	6367.557040
828.638177	5688.674934
828.955439	5141.558507
829.272656	4651.144979
829.589830	4363.463973
829.906960	4195.175134
830.224046	4012.082947
830.541088	3886.074265
830.858086	3842.995085
831.175041	3770.778036
831.491952	3745.680651
831.808819	3755.526025
832.125642	3821.111436
832.442421	3964.406234
832.759157	4220.141448
833.075849	4736.456425
833.392497	5566.968877
833.709101	6326.942984
834.025662	6685.714342
834.342179	6370.690117
834.658653	5724.222631
834.975083	5091.444397
835.291469	4535.427813
835.607811	4120.490440
835.924110	3985.634533
836.240366	3795.600677
836.556578	3587.050663
836.872746	3481.569560
837.188871	3447.100671
837.504952	3382.077348
837.820990	3301.355872
838.136984	3249.230341
838.452935	3274.070627
838.768842	3269.934360
839.084706	3290.741722
839.400526	3437.623302
839.716303	3752.002258
840.032037	4248.318978
840.347727	4532.960168
840.663373	4288.885143
840.978977	3919.436622
841.294537	3618.726753
841.610054	3388.340982
841.925527	3280.480454
842.240957	3214.022923
842.556344	3161.756240
842.871687	3106.800101
843.186987	3056.670867
843.502244	3020.518232
843.817458	2986.999600
844.132629	2953.395269
844.447756	2960.644448
844.762840	2950.428550
845.077881	2919.256575
845.392879	2902.479615
845.707833	2896.173132
846.022745	2892.833367
846.337613	2895.837895
846.652438	2883.950854
846.967221	2883.156872
847.281960	2869.253370
847.596656	2862.967051
847.911309	2864.935622
848.225919	2858.566124
848.540485	2852.604959
848.855009	2851.095134
849.169490	2843.437621
849.483928	2835.926302
849.798323	2832.762978
850.112675	2829.138388
850.426984	2838.169615
850.741251	2839.891169
851.055474	2829.224088
851.369654	2822.839467
851.683792	2827.101762
851.997887	2833.269614
852.311938	2837.922599
852.625947	2827.797441
852.939914	2829.874397
853.253837	2837.733556
853.567718	2820.225628
853.881555	2816.681697
854.195350	2834.013184
854.509103	2829.239211
854.822812	2822.322748
855.136479	2820.369301
855.450103	2819.267809
855.763685	2814.085503
856.077224	2807.620223
856.390720	2825.095383
856.704173	2836.422856
857.017584	2824.470280
857.330953	2819.391317
857.644278	2830.996053
857.957561	2841.910152
858.270802	2842.893177
858.584000	2843.795543
858.897155	2829.864314
859.210268	2831.031342
859.523339	2828.122596
859.836367	2829.143429
860.149352	2824.984477
860.462295	2817.274033
860.775195	2826.932883
861.088054	2829.065292
861.400869	2809.092240
861.713642	2805.881025
862.026373	2819.897953
862.339062	2823.494817
862.651708	2829.150991
862.964312	2832.619305
863.276873	2824.810558
863.589392	2830.587720
863.901869	2842.668845
864.214303	2865.293544
864.526696	2882.574619
864.839045	2880.674104
865.151353	2877.878784
865.463619	2875.862323
865.775842	2878.279556
866.088023	2891.923439
866.400162	2900.896693
866.712258	2878.196377
867.024313	2865.409490
867.336325	2870.725387
867.648296	2892.969478
867.960224	2884.596122
868.272110	2871.975593
868.583954	2877.535986
868.895755	2890.741288
869.207515	2879.824670
869.519233	2882.884650
869.830909	2890.307749
870.142542	2899.953997
870.454134	2898.718914
870.765684	2906.000861
871.077191	2902.724111
871.388657	2910.951274
871.700081	2922.850918
872.011463	2931.861980
872.322803	2934.755603
872.634101	2936.240222
872.945357	2949.690021
873.256571	2976.246819
873.567744	2969.221971
873.878874	2959.800055
874.189963	2983.611945
874.501010	2985.494816
874.812015	2977.229844
875.122979	2972.763382
875.433900	2973.270018
875.744780	2975.208342
876.055618	2985.336020
876.366415	2981.217397
876.677169	2994.198368
876.987882	2993.048985
877.298554	2983.319558
877.609183	3001.034173
877.919771	3022.975795
878.230317	3049.588046
878.540822	3099.213164
878.851285	3136.893269
879.161707	3171.319308
879.472087	3266.702980
879.782425	3473.362562
880.092722	3885.885222
880.402977	4391.291142
880.713191	4989.741639
881.023363	6084.783598
881.333494	7328.708474
881.643583	7905.650887
881.953631	7627.220399
882.263637	7040.475462
882.573602	6485.484752
882.883526	5917.750006
883.193408	5353.783523
883.503248	4891.875198
883.813048	4603.869038
884.122806	4324.644568
884.432522	4019.211138
884.742197	3787.542393
885.051831	3600.934001
885.361424	3460.941159
885.670975	3396.484966
885.980485	3315.715599
886.289954	3242.094588
886.599382	3200.787373
886.908768	3160.690036
887.218113	3116.776544
887.527417	3064.860222
887.836680	3012.288549
888.145901	3009.677231
888.455082	3001.306395
888.764221	2953.238993
889.073319	2922.734971
889.382376	2921.588109
889.691392	2924.726227
890.000366	2924.890064
890.309300	2912.214083
890.618193	2923.264292
890.927044	2941.142744
891.235855	2943.297838
891.544625	2926.084818
891.853353	2933.071857
892.162041	2952.671863
892.470687	2991.904643
892.779293	3042.164947
893.087858	3085.629775
893.396381	3151.547903
893.704864	3263.390942
894.013306	3484.163234
894.321707	3775.776340
894.630068	3983.918020
894.938387	3984.018843
895.246665	3937.796504
895.554903	3826.762570
895.863100	3635.284423
896.171256	3477.289621
896.479371	3343.797346
896.787446	3228.554049
897.095480	3125.588481
897.403473	3061.270920
897.711425	3023.613501
898.019336	3018.436236
898.327207	2991.675271
898.635038	2957.705455
898.942827	2943.854885
899.250576	2934.468257
899.558284	2903.475243
899.865952	2881.526059
900.173579	2863.451002
900.481165	2855.869107
900.788711	2846.447190
901.096216	2819.187151
901.403681	2808.446972
901.711105	2815.665905
902.018489	2814.655153
902.325832	2813.798157
902.633135	2819.403920
902.940397	2852.383149
903.247619	2926.190682
903.554800	3100.768360
903.861941	3423.956733
904.169041	3830.677026
904.476101	4132.977378
904.783121	4109.949387
905.090100	3877.022874
905.397039	3613.756176
905.703938	3374.384547
906.010796	3192.814788
906.317614	3085.133222
906.624391	2994.304232
906.931129	2926.054571
907.237826	2866.009388
907.544483	2820.754949
907.851099	2791.324693
908.157675	2770.845006
908.464211	2751.789444
908.770707	2739.499111
909.077163	2726.434961
909.383578	2711.664380
909.689954	2702.270190
909.996289	2698.731300
910.302584	2701.632484
910.608839	2702.081147
910.915054	2696.677030
911.221229	2689.296781
911.527363	2690.148736
911.833458	2696.999664
912.139513	2699.162319
912.445527	2702.411342
912.751502	2710.852754
913.057436	2721.933211
913.363331	2734.001733
913.669186	2753.178282
913.975000	2783.236162
914.280775	2838.656087
914.586510	2903.371899
914.892205	2982.182778
915.197859	3099.545881
915.503475	3277.997686
915.809050	3483.293635
916.114585	3626.205305
916.420081	3649.064417
916.725536	3599.512396
917.030952	3487.056856
917.336328	3366.747199
917.641665	3240.864546
917.946961	3142.307468
918.252218	3076.162488
918.557435	3004.336128
918.862612	2943.796912
919.167750	2899.296126
919.472848	2861.535363
919.777906	2836.143072
920.082925	2809.835810
920.387904	2781.764145
920.692843	2765.508944
920.997743	2754.551997
921.302603	2742.818711
921.607423	2733.411918
921.912204	2720.882130
922.216946	2713.428784
922.521647	2701.483770
922.826310	2695.983871
923.130932	2687.784434
923.435516	2681.878723
923.740059	2673.623833
924.044564	2665.386588
924.349028	2658.023983
924.653454	2652.151038
924.957840	2649.350677
925.262186	2645.539565
925.566493	2640.243833
925.870761	2635.895838
926.174989	2633.276958
926.479178	2627.887965
926.783328	2621.878910
927.087438	2621.052160
927.391509	2622.642644
927.695541	2620.031327
927.999533	2612.131839
928.303486	2609.407095
928.607400	2608.776951
928.911275	2611.206787
929.215110	2610.987497
929.518906	2608.504728
929.822663	2609.528083
930.126381	2606.049687
930.430060	2607.710747
930.733699	2608.338370
931.037299	2609.069338
931.340861	2611.295007
931.644383	2611.741149
931.947866	2610.382558
932.251309	2609.583535
932.554714	2608.363576
932.858080	2605.079264
933.161407	2605.066662
933.464694	2602.503235
933.767943	2598.946701
934.071153	2601.242946
934.374323	2605.396857
934.677455	2602.457864
934.980548	2600.365786
935.283602	2600.219592
935.586617	2598.732452
935.889593	2599.211361
936.192530	2600.101125
936.495428	2602.374685
936.798287	2603.027515
937.101108	2604.282762
937.403890	2609.079420
937.706632	2614.337343
938.009336	2618.758435
938.312002	2629.244035
938.614628	2634.973307
938.917216	2642.318268
939.219765	2644.397744
939.522275	2641.811632
939.824747	2637.052783
940.127179	2638.572691
940.429573	2636.712505
940.731929	2633.254273
941.034246	2628.679426
941.336524	2629.276803
941.638763	2621.576440
941.940964	2625.730351
942.243126	2621.520988
942.545250	2618.874382
942.847335	2615.917745
943.149381	2613.795419
943.451389	2608.691251
943.753359	2602.725046
944.055290	2605.832917
944.357182	2605.532968
944.659036	2604.882659
944.960851	2604.013060
945.262628	2599.418049
945.564367	2603.541712
945.866067	2602.944336
946.167729	2602.629264
946.469352	2604.444079
946.770937	2604.761672
947.072484	2602.840992
947.373992	2601.605909
947.675462	2600.658172
947.976893	2596.330342
948.278286	2592.980495
948.579641	2594.964189
948.880958	2590.016297
949.182236	2594.243304
949.483476	2589.260124
949.784678	2592.380598
950.085841	2593.038468
950.386967	2592.110896
950.688054	2595.163315
950.989103	2596.458891
951.290114	2597.157091
951.591087	2598.825713
951.892021	2599.486104
952.192917	2601.996599
952.493776	2606.357197
952.794596	2607.980448
953.095378	2606.725201
953.396122	2605.769902
953.696828	2604.703698
953.997496	2602.929212
954.298126	2600.524582
954.598718	2597.769591
954.899272	2595.503593
955.199788	2594.840681
955.500266	2592.839343
955.800706	2585.701069
956.101108	2586.674012
956.401472	2586.500092
956.701798	2584.685277
957.002087	2583.155286
957.302337	2580.133115
957.602550	2579.707137
957.902724	2576.160685
958.202861	2576.304358
958.502960	2573.617423
958.803022	2574.809656
959.103045	2572.848647
959.403031	2572.072310
959.702979	2570.943091
960.002889	2572.135324
960.302762	2572.364697
960.602596	2570.968297
960.902393	2569.765982
961.202153	2571.157340
961.501875	2569.592062
961.801559	2568.540981
962.101205	2570.262535
962.400814	2571.696744
962.700385	2569.077864
962.999918	2564.729869
963.299414	2564.850857
963.598873	2566.607699
963.898293	2563.018397
964.197677	2568.203224
964.497022	2571.227916
964.796331	2565.722976
965.095601	2565.221382
965.394835	2570.197000
965.694030	2567.668862
965.993189	2567.119376
966.292309	2568.412432
966.591393	2568.132648
966.890439	2568.936712
967.189447	2568.064592
967.488419	2568.992165
967.787353	2566.030487
968.086249	2567.343707
968.385108	2566.895045
968.683930	2565.687688
968.982714	2567.114335
969.281462	2566.771536
969.580172	2566.383367
969.878844	2567.263049
970.177480	2568.014181
970.476078	2568.172977
970.774639	2567.005950
971.073162	2567.351269
971.371649	2566.090981
971.670098	2566.443861
971.968510	2566.645507
972.266885	2567.197514
972.565223	2569.685323
972.863524	2568.019222
973.161788	2567.747000
973.460014	2568.465364
973.758204	2569.239181
974.056356	2567.966290
974.354471	2567.870508
974.652550	2565.392781
974.950591	2568.145251
975.248595	2566.844633
975.546563	2569.987792
975.844493	2569.150961
976.142386	2566.895045
976.440243	2564.528223
976.738062	2566.897565
977.035845	2566.007802
977.333590	2566.194324
977.631299	2565.652400
977.928971	2564.540826
978.226606	2562.410938
978.524204	2562.095866
978.821765	2562.350444
979.119290	2565.629715
979.416777	2563.489745
979.714228	2565.609550
980.011642	2566.214489
980.309020	2564.515620
980.606360	2567.487380
980.903664	2565.665003
981.200931	2567.999057
981.498162	2565.702812
981.795356	2568.485529
982.092513	2565.173491
982.389633	2573.294789
982.686717	2574.008113
982.983764	2576.604307
983.280775	2580.944740
983.577749	2583.682087
983.874686	2584.642427
984.171587	2579.185378
984.468451	2576.332085
984.765279	2575.301169
985.062070	2575.744790
985.358824	2570.481826
985.655543	2569.957546
985.952224	2568.863615
986.248869	2569.463512
986.545478	2565.695250
986.842050	2565.833882
987.138586	2564.447564
987.435086	2565.256670
987.731549	2564.717266
988.027975	2566.048131
988.324366	2564.926474
988.620719	2560.409600
988.917037	2564.011505
989.213318	2564.669375
989.509563	2562.915054
989.805772	2562.531926
990.101944	2563.083932
990.398080	2562.244580
990.694180	2562.690722
990.990244	2562.836916
991.286271	2563.527554
991.582262	2562.955383
991.878217	2563.666186
992.174136	2562.710887
992.470019	2561.566545
992.765865	2563.235167
993.061676	2560.051678
993.357450	2558.511606
993.653188	2558.556976
993.948890	2563.744323
994.244556	2562.904971
994.540186	2564.316494
994.835780	2564.578634
995.131337	2561.211144
995.426859	2562.151319
995.722345	2564.752554
996.017795	2564.535785
996.313208	2566.101063
996.608586	2563.731721
996.903928	2567.666341
997.199234	2567.361351
997.494504	2565.730538
997.789738	2564.694581
998.084936	2566.932853
998.380099	2563.242729
998.675225	2564.596278
998.970316	2565.717935
999.265371	2564.835733
999.560390	2561.649724
999.855373	2564.797925
1000.150320	2562.599982
1000.445232	2561.170814
1000.740108	2562.179045
1001.034948	2563.399004
1001.329752	2561.790876
1001.624521	2560.543191
1001.919254	2559.572769
1002.213951	2561.669889
1002.508613	2560.505382
1002.803239	2561.710218
1003.097829	2561.145609
1003.392384	2562.897410
1003.686903	2559.051009
1003.981386	2562.229457
1004.275834	2561.498489
1004.570246	2562.080743
1004.864623	2560.580999
1005.158964	2558.100752
1005.453270	2559.666030
1005.747540	2559.252655
1006.041775	2561.080074
1006.335974	2561.392625
1006.630138	2560.061761
1006.924266	2560.462532
1007.218359	2559.552604
1007.512416	2557.999929
1007.806438	2557.347099
1008.100425	2557.077398
1008.394376	2554.019938
1008.688292	2559.550083
1008.982172	2560.041596
1009.276017	2556.948848
1009.569827	2558.793910
1009.863602	2560.475135
1010.157341	2560.147460
1010.451045	2560.598643
1010.744714	2560.530588
1011.038347	2562.816751
1011.331945	2559.363561
1011.625508	2559.121585
1011.919036	2561.279199
1012.212528	2560.273489
1012.505986	2558.995557
1012.799408	2558.675443
1013.092795	2558.206616
1013.386147	2557.400031
1013.679464	2560.044117
1013.972745	2561.556463
1014.265992	2558.259548
1014.559204	2563.230126
1014.852380	2559.300546
1015.145521	2558.486400
1015.438628	2560.734755
1015.731699	2559.580330
1016.024736	2560.825495
1016.317737	2559.776935
1016.610703	2557.284085
1016.903635	2561.531257
1017.196531	2559.151832
1017.489393	2558.574620
1017.782219	2556.903478
1018.075011	2561.397666
1018.367768	2558.420865
1018.660490	2560.147460
1018.953177	2560.147460
1019.245829	2560.147460
