Dividing Wavelength (nm)	Counts (n)	Blue Motor Position (mm): 47.500000	Red Motor Position (mm): 0.000000	
326.493990	2277.048863
326.888308	2277.048863
327.282561	2277.048863
327.676750	2236.265928
328.070874	2235.313150
328.464933	2236.888511
328.858929	2235.900445
329.252859	2242.925293
329.646726	2252.896695
330.040528	2264.839188
330.434265	2279.856786
330.827938	2296.074178
331.221547	2313.587146
331.615091	2331.054744
332.008571	2349.134843
332.401986	2365.407687
332.795338	2387.475338
333.188625	2408.212124
333.581847	2426.975299
333.975006	2445.698144
334.368100	2463.929477
334.761129	2481.644092
335.154095	2500.470281
335.546996	2524.047757
335.939833	2566.882442
336.332606	2583.046902
336.725315	2597.177256
337.117960	2606.384923
337.510540	2620.469907
337.903056	2631.310908
338.295508	2638.965901
338.687896	2647.359422
339.080220	2653.940648
339.472480	2659.632111
339.864676	2665.031187
340.256807	2671.009995
340.648875	2673.477640
341.040879	2677.223217
341.432818	2681.258661
341.824694	2684.137160
342.216506	2683.527180
342.608253	2684.946265
342.999937	2685.389886
343.391557	2683.000379
343.783113	2684.928621
344.174605	2681.659432
344.566033	2681.069617
344.957397	2682.042560
345.348697	2681.835873
345.739934	2678.178516
346.131106	2677.208094
346.522215	2675.345387
346.913260	2674.276663
347.304241	2672.759275
347.695159	2672.093843
348.086012	2669.757268
348.476802	2670.705005
348.867528	2661.794766
349.258191	2662.608912
349.648789	2661.066319
350.039324	2658.155053
350.429796	2661.741834
350.820203	2661.293171
351.210548	2657.240083
351.600828	2660.920126
351.991045	2655.591626
352.381198	2655.072387
352.771288	2656.420896
353.161314	2653.597850
353.551276	2654.376708
353.941175	2650.774803
354.331010	2655.142963
354.720782	2654.001142
355.110490	2655.591626
355.500135	2653.542397
355.889717	2655.294198
356.279235	2653.618014
356.668689	2653.822181
357.058080	2652.662716
357.447408	2653.431492
357.836672	2653.986018
358.225873	2653.129022
358.615010	2655.095072
359.004084	2657.555155
359.393095	2658.013900
359.782043	2658.641524
360.170927	2658.825526
360.559748	2655.326965
360.948505	2659.027172
361.337199	2661.988850
361.725830	2659.871566
362.114398	2663.458347
362.502903	2661.078922
362.891344	2663.153357
363.279722	2664.055723
363.668037	2664.625374
364.056289	2663.833912
364.444478	2665.300888
364.832603	2665.633604
365.220665	2666.485559
365.608665	2668.529747
365.996601	2667.597134
366.384474	2670.261384
366.772284	2668.623009
367.160031	2667.687875
367.547715	2674.286745
367.935336	2669.543019
368.322893	2668.718791
368.710388	2667.909685
369.097820	2669.033863
369.485189	2665.477329
369.872495	2674.692558
370.259738	2674.097702
370.646918	2676.126766
371.034035	2678.967456
371.421090	2680.930986
371.808081	2685.732685
372.195010	2689.790814
372.581875	2696.770291
372.968678	2700.561239
373.355418	2708.480892
373.742096	2721.487068
374.128710	2733.154819
374.515262	2745.102354
374.901751	2763.066505
375.288177	2776.241561
375.674540	2794.493058
376.060841	2816.036429
376.447079	2838.661128
376.833254	2863.025024
377.219367	2884.724671
377.605417	2918.606266
377.991404	2942.279525
378.377329	2980.998107
378.763191	3000.487207
379.148991	3047.092675
379.534727	3085.871751
379.920402	3122.256279
380.306013	3146.983138
380.691563	3210.942778
381.077049	3233.774163
381.462474	3274.161367
381.847835	3333.460460
382.233134	3375.440669
382.618371	3405.009557
383.003545	3471.215030
383.388657	3493.691015
383.773706	3555.787948
384.158693	3589.914039
384.543618	3622.197588
384.928480	3679.946526
385.313280	3738.013056
385.698017	3759.004421
386.082692	3850.612269
386.467305	3852.583360
386.851856	3892.927714
387.236344	3970.783294
387.620770	3994.189371
388.005133	4045.457906
388.389435	4091.723095
388.773674	4102.884210
389.157851	4177.901620
389.541965	4243.923092
389.926018	4208.808935
390.310008	4312.850788
390.693936	4363.970609
391.077802	4399.631731
391.461606	4394.802306
391.845348	4462.444508
392.229027	4524.322151
392.612645	4523.376935
392.996200	4624.797388
393.379694	4686.070093
393.763125	4791.284015
394.146494	4817.084640
394.529801	4870.246128
394.913047	4956.744766
395.296230	4905.365326
395.679351	5012.948590
396.062410	5067.085542
396.445408	5039.631418
396.828343	5098.801961
397.211217	5155.716588
397.594028	5035.994225
397.976778	5155.167102
398.359466	5199.405748
398.742092	5222.516917
399.124656	5141.132530
399.507158	5268.020893
399.889598	5324.857382
400.271977	5447.450682
400.654294	5445.829951
401.036549	5491.344008
401.418742	5411.494652
401.800874	5619.689264
402.182944	5675.678840
402.564952	5780.038286
402.946898	5837.204971
403.328783	5672.013921
403.710606	5698.298497
404.092367	6023.112642
404.474067	6045.432351
404.855705	5939.053922
405.237282	5873.808789
405.618797	6133.735722
406.000250	6110.193534
406.381642	6318.748589
406.762972	6336.561506
407.144240	6392.399847
407.525447	6376.197578
407.906593	6389.349948
408.287677	6555.299692
408.668700	6466.492205
409.049661	6582.710966
409.430560	6608.446056
409.811399	6474.169882
410.192176	6739.246355
410.572891	6757.989365
410.953545	6951.161339
411.334138	6677.169586
411.714669	6848.866245
412.095139	6637.301621
412.475547	6888.257821
412.855894	6957.906403
413.236180	7142.654609
413.616405	6807.009545
413.996568	7020.877976
414.376670	7078.246307
414.756711	6967.139276
415.136691	7068.695841
415.516609	7274.503467
415.896466	7257.497135
416.276262	7458.682023
416.655997	7446.923532
417.035670	7616.717155
417.415283	7968.488870
417.794834	8039.140641
418.174324	7886.164307
418.553753	7817.707959
418.933121	8108.345601
419.312428	8211.225469
419.691674	7982.495716
420.070859	8467.187535
420.449983	8150.187178
420.829045	8513.278805
421.208047	8275.931199
421.586988	8595.774767
421.965867	8616.042726
422.344686	8709.820790
422.723444	8786.658057
423.102141	8118.871531
423.480777	8889.003563
423.859352	8411.150069
424.237866	9025.129840
424.616319	8892.376094
424.994712	9322.966250
425.373044	8857.818985
425.751314	9346.863840
426.129524	9233.833609
426.507673	9312.747831
426.885762	9461.212333
427.263789	9393.832270
427.641756	9326.328700
428.019662	9408.897759
428.397508	9687.189616
428.775292	9330.742230
429.153016	9723.075069
429.530679	9551.075941
429.908282	9565.216378
430.285824	9299.855080
430.663305	9980.433535
431.040726	9434.332900
431.418086	9410.117718
431.795385	9754.491540
432.172624	9851.884112
432.549802	9748.467361
432.926920	9825.854114
433.303977	9691.005769
433.680974	9898.260207
434.057910	10002.710394
434.434786	10077.236292
434.811601	9890.663188
435.188355	10458.241658
435.565050	10209.155726
435.941683	10124.648343
436.318257	10603.847825
436.694770	10778.881728
437.071222	10822.492750
437.447614	10650.866667
437.823946	10579.650287
438.200218	10665.115488
438.576429	10513.679227
438.952580	10767.458473
439.328670	10775.547005
439.704700	10583.385782
440.080670	10577.507796
440.456580	11091.786147
440.832429	10884.700588
441.208218	10484.536317
441.583947	10773.152457
441.959616	10965.623710
442.335224	10774.556418
442.710773	10879.029290
443.086261	11115.219951
443.461689	10377.253001
443.837057	11067.936448
444.212365	11294.211159
444.587612	10930.076014
444.962800	11140.153498
445.337927	10874.285564
445.712995	10565.028420
446.088002	11593.423805
446.462949	11295.746191
446.837837	11256.838565
447.212664	11175.789414
447.587431	11778.797114
447.962139	12548.588868
448.336786	14846.072048
448.711374	15315.400951
449.085901	13128.823155
449.460369	12782.074949
449.834776	12226.741442
450.209124	13173.076924
450.583412	13592.440430
450.957640	14512.118291
451.331808	13542.117112
451.705917	12625.292544
452.079965	11855.488187
452.453954	12777.651337
452.827883	12438.724482
453.201752	12723.461454
453.575562	12280.308743
453.949311	12685.330166
454.323001	12680.200792
454.696632	12922.912185
455.070202	13194.537116
455.443713	13374.065207
455.817164	13885.714596
456.190556	13840.366897
456.563888	14209.822980
456.937160	14346.234082
457.310373	13718.161766
457.683526	13827.942973
458.056619	13333.927540
458.429653	13559.521696
458.802628	12903.861665
459.175542	13321.002022
459.548398	14280.910811
459.921194	14648.400844
460.293930	14714.868458
460.666607	15552.786365
461.039224	16625.362422
461.411782	17347.873194
461.784280	17103.624249
462.156719	17230.999083
462.529099	16891.789923
462.901419	15852.903897
463.273680	15613.950684
463.645882	15519.247568
464.018024	15244.809673
464.390106	15471.656555
464.762130	16171.981209
465.134094	16987.145868
465.505999	19070.753056
465.877845	22345.300071
466.249631	25141.164324
466.621358	24735.374124
466.993026	23307.353871
467.364634	22710.791287
467.736184	21240.846278
468.107674	20453.980136
468.479105	20586.093655
468.850477	20037.721981
469.221790	19644.577516
469.593043	18945.679508
469.964238	18377.327221
470.335373	18014.424638
470.706449	18531.740283
471.077467	18113.067415
471.448425	20006.108905
471.819324	24166.114429
472.190164	25946.430677
472.560945	22255.587697
472.931667	19976.650922
473.302330	19369.496874
473.672934	19034.081182
474.043479	19233.683148
474.413965	19039.875988
474.784393	18629.309296
475.154761	19428.995092
475.525070	19318.606426
475.895321	19054.371826
476.265513	19654.455657
476.635645	20255.046123
477.005719	19999.439458
477.375734	20188.873417
477.745691	20665.890079
478.115588	21229.251624
478.485427	21788.275257
478.855207	22891.965315
479.224928	24699.534041
479.594591	26931.209999
479.964194	26805.849106
480.333739	27041.787708
480.703226	26615.230476
481.072653	26342.365421
481.442022	26993.279206
481.811333	27928.130939
482.180584	27775.111756
482.549777	26827.452970
482.918912	26518.871341
483.287988	26660.028689
483.657005	26273.808249
484.025964	26068.040952
484.394864	25923.947131
484.763706	25576.621713
485.132489	25042.685383
485.501213	25222.455450
485.869879	25132.702747
486.238487	24996.815924
486.607036	25115.391425
486.975527	24869.572160
487.343959	25158.384905
487.712333	25064.289248
488.080648	24730.874894
488.448905	25242.607463
488.817104	25006.084086
489.185244	25726.772481
489.553326	25662.873335
489.921350	26720.194861
490.289315	29092.130842
490.657222	30780.642637
491.025070	31308.156538
491.392861	31032.501204
491.760593	30165.523566
492.128267	29238.662061
492.495883	28176.039762
492.863440	27322.801788
493.230939	26452.270137
493.598380	26280.114733
493.965763	25897.647432
494.333088	25400.801391
494.700354	25388.541305
495.067563	25212.128646
495.434713	24968.048580
495.801805	25163.690720
496.168839	24910.135805
496.535815	24797.370234
496.902733	25022.553535
497.269593	24727.885490
497.636395	24888.302567
498.003139	24813.544776
498.369825	24539.984042
498.736453	24770.707572
499.103023	24629.683813
499.469535	24628.647856
499.835989	24856.379461
500.202385	24867.497725
500.568723	24430.472537
500.935003	24583.590023
501.301226	24296.486229
501.667390	25138.119467
502.033497	25332.902090
502.399546	25066.956018
502.765537	24601.077786
503.131470	24971.453879
503.497345	25137.985876
503.863163	24377.729465
504.228923	24904.628344
504.594625	25160.666027
504.960269	24722.085643
505.325856	25208.796444
505.691385	24603.381593
506.056856	25193.723394
506.422270	25205.398706
506.787625	24707.461255
507.152924	25153.739482
507.518164	25192.208527
507.883347	25008.768500
508.248472	24682.983933
508.613540	25452.107734
508.978550	25251.459729
509.343503	25269.948160
509.708398	25457.106038
510.073236	25642.887681
510.438016	25842.255233
510.802738	25506.965570
511.167403	25755.912871
511.532010	25523.064495
511.896561	26258.785611
512.261053	26219.792286
512.625488	26055.566617
512.989866	25936.136641
513.354186	25769.380313
513.718449	25918.885813
514.082655	26283.010876
514.446803	25993.898182
514.810894	26489.534346
515.174927	25982.215308
515.538904	26019.166966
515.902822	26523.297474
516.266684	26272.348835
516.630488	26174.989031
516.994235	26109.431346
517.357925	26464.996529
517.721558	26601.536181
518.085133	26735.373775
518.448651	26612.593952
518.812112	26402.264411
519.175516	26626.696580
519.538863	26756.811282
519.902152	26578.558602
520.265385	26803.736862
520.628560	26618.421526
520.991678	26596.280778
521.354739	26634.059185
521.717743	26759.457887
522.080690	26525.823092
522.443580	26849.407195
522.806413	26809.299775
523.169189	26941.105784
523.531908	26985.505746
523.894569	26608.855937
524.257174	26717.344088
524.619722	26830.926325
524.982213	26560.294502
525.344647	26562.005973
525.707025	26758.061488
526.069345	26695.538577
526.431608	26668.412128
526.793815	26829.655955
527.155964	26341.440369
527.518057	26519.493923
527.880093	26423.560765
528.242072	26639.559084
528.603995	26362.053647
528.965860	26148.674208
529.327669	26187.556627
529.689421	26178.626223
530.051117	26036.921909
530.412755	26189.101741
530.774337	25978.315975
531.135862	25884.230401
531.497331	26058.518212
531.858743	25662.807800
532.220098	26113.514680
532.581396	25816.265564
532.942638	25693.984816
533.303824	25836.326836
533.664953	25808.509749
534.026025	25471.448121
534.387040	25715.679422
534.747999	25754.781132
535.108902	25922.507882
535.469748	25436.202894
535.830537	25579.162455
536.191270	25734.989562
536.551947	25540.401023
536.912567	25154.664534
537.273131	25622.347499
537.633638	25275.644664
537.994089	25502.269735
538.354483	24975.930424
538.714821	25487.136192
539.075103	25552.645986
539.435328	25309.322093
539.795497	24927.908393
540.155609	25241.720219
540.515665	25563.907923
540.875665	24775.534476
541.235609	25131.961697
541.595496	25049.838781
541.955328	25428.215185
542.315102	25332.949981
542.674821	24841.066956
543.034483	24733.007303
543.394090	24893.736931
543.753640	24718.113213
544.113134	25346.833318
544.472571	24923.315901
544.831953	25230.770833
545.191278	24883.939449
545.550548	24766.775472
545.909761	24963.670338
546.268918	25207.231165
546.628019	25190.983527
546.987064	24868.072417
547.346053	24603.895791
547.704986	24705.921183
548.063863	24855.265366
548.422684	24886.031527
548.781449	24371.009607
549.140158	24793.334791
549.498811	24361.096178
549.857408	24138.887157
550.215949	24514.926987
550.574434	24228.070210
550.932864	24400.805346
551.291237	24612.705207
551.649555	24432.637712
552.007817	24506.929197
552.366022	24341.929711
552.724173	24365.754204
553.082267	24338.957950
553.440305	24829.923485
553.798288	24053.512696
554.156215	24535.424319
554.514086	24692.191600
554.871902	24074.965326
555.229661	24349.251987
555.587365	24194.697771
555.945014	24117.432006
556.302606	24311.541635
556.660143	24303.984946
557.017625	24524.028790
557.375050	24052.020515
557.732421	24437.056284
558.089735	24262.942392
558.446994	24309.492406
558.804197	24363.972156
559.161345	24231.213369
559.518437	24055.743407
559.875474	24199.345715
560.232455	24395.101281
560.589381	24188.915568
560.946251	24208.487848
561.303065	24499.332178
561.659825	24587.917854
562.016528	24189.802811
562.373177	23922.616616
562.729770	24294.956239
563.086307	24133.846003
563.442789	24308.854700
563.799216	24163.727443
564.155587	24153.209075
564.511904	24132.043791
564.868164	24090.708850
565.224370	24057.023860
565.580520	23995.483974
565.936615	24112.045533
566.292654	23820.077026
566.648638	24043.669843
567.004567	23867.468913
567.360441	23818.138702
567.716260	23542.755591
568.072023	23844.440923
568.427732	23636.175734
568.783385	23387.926633
569.138982	23650.522858
569.494525	23676.600747
569.850013	23428.487757
570.205445	23549.419997
570.560823	23365.813612
570.916145	23147.027535
571.271412	23333.000742
571.626625	23076.867276
571.981782	23170.655423
572.336884	22984.835972
572.691931	23125.035501
573.046923	22867.949258
573.401860	22740.811358
573.756743	22781.632101
574.111570	22664.596674
574.466342	22590.128749
574.821059	22662.275222
575.175722	22372.355944
575.530330	22325.379952
575.884882	22321.488181
576.239380	22249.336667
576.593823	22141.387919
576.948211	22111.236778
577.302544	21974.873566
577.656823	21843.259122
578.011047	21948.747786
578.365216	21814.877425
578.719330	21683.275584
579.073389	21574.074109
579.427394	21730.254096
579.781344	21466.155608
580.135239	21367.825382
580.489080	21308.085188
580.842866	21092.434709
581.196597	21309.776495
581.550273	21268.829723
581.903895	21136.174280
582.257463	21456.075821
582.610975	20987.112402
582.964434	21328.380873
583.317837	20988.145839
583.671186	21076.857543
584.024481	21064.345400
584.377721	20828.081642
584.730906	20918.630848
585.084037	20877.805063
585.437113	20833.021973
585.790135	21025.964575
586.143103	20477.867643
586.496016	20515.341061
586.848874	20740.017726
587.201679	20644.092130
587.554428	20361.399346
587.907124	20680.103612
588.259765	20442.375400
588.612352	20511.295535
588.964884	20072.069882
589.317362	20255.119220
589.669786	20311.915379
590.022155	20297.485077
590.374470	20563.050541
590.726731	20304.368772
591.078937	20115.091089
591.431090	20185.810916
591.783188	19960.625094
592.135232	19904.852289
592.487222	20010.199801
592.839157	20011.845738
593.191038	19894.001205
593.542866	19784.898033
593.894639	19489.587241
594.246358	19701.658501
594.598022	19581.326158
594.949633	19348.253451
595.301190	19337.543520
595.652692	19503.594087
596.004141	19719.930163
596.355535	19044.312204
596.706876	19087.658565
597.058162	18968.891501
597.409395	19218.529439
597.760573	19245.366022
598.111698	19027.136992
598.462768	18974.615731
598.813785	18955.832392
599.164748	18745.454960
599.515657	18805.043919
599.866511	18607.148383
600.217312	18954.055385
600.568060	18457.088357
600.918753	18764.714688
601.269392	18676.917952
601.619978	18472.552096
601.970510	18652.478439
602.320988	18608.950596
602.671412	18803.750863
603.021783	18737.048836
603.372100	18437.901725
603.722363	18609.336244
604.072572	18542.435091
604.422728	18690.713070
604.772830	18436.152445
605.122878	18401.129028
605.472872	18380.787973
605.822813	18369.062249
606.172701	18361.739973
606.522534	18520.473305
606.872314	18555.884890
607.222041	18398.056445
607.571714	18610.415051
607.921333	18431.065921
608.270899	18508.581223
608.620411	18655.253594
608.969870	18468.514132
609.319276	18452.153067
609.668627	18483.693046
610.017926	18610.641903
610.367171	18730.018947
610.716362	18782.431823
611.065500	18597.731508
611.414585	18749.838243
611.763616	18734.777796
612.112594	18664.990583
612.461518	18644.047109
612.810389	18830.859667
613.159207	18691.660807
613.507971	18603.690152
613.856682	18842.146811
614.205340	18765.831303
614.553945	18922.694367
614.902496	18665.270367
615.250994	18866.046921
615.599439	18825.049738
615.947830	18810.009455
616.296169	18892.089522
616.644454	18851.820785
616.992686	18825.823555
617.340864	19042.777172
617.688990	18779.581051
618.037063	18959.525037
618.385082	18826.546960
618.733048	19091.293237
619.080961	18987.085025
619.428821	19004.348457
619.776628	18878.299446
620.124382	18816.673861
620.472083	18873.028919
620.819731	18875.312562
621.167326	18574.895081
621.514868	18608.864896
621.862357	18409.008352
622.209793	18389.609992
622.557176	18226.218634
622.904506	18050.564669
623.251783	18007.493051
623.599007	17735.613542
623.946179	17673.609870
624.293297	17614.978730
624.640363	17328.391655
624.987376	17360.642436
625.334336	17168.516502
625.681243	17012.921288
626.028097	17029.794030
626.374899	16952.893749
626.721647	16817.400136
627.068343	16653.542472
627.414987	16584.423211
627.761577	16547.416101
628.108115	16572.720172
628.454600	16306.819472
628.801032	16404.932928
629.147412	16344.759196
629.493739	16354.952409
629.840014	16167.270251
630.186236	16262.341371
630.532405	16025.104671
630.878521	16209.600820
631.224585	16136.753626
631.570597	15950.006602
631.916556	15976.122300
632.262462	15945.575428
632.608316	15864.745567
632.954117	15813.466951
633.299866	15799.555887
633.645562	15711.726384
633.991206	15488.614997
634.336797	15364.867273
634.682336	15331.918291
635.027823	15192.033834
635.373257	15048.877667
635.718639	14976.958046
636.063968	14909.260391
636.409245	14671.809442
636.754470	14701.758937
637.099642	14552.964240
637.444762	14340.351056
637.789829	14371.200397
638.134845	14201.631105
638.479808	14227.063726
638.824719	14135.287000
639.169577	14014.080017
639.514383	14037.962484
639.859137	13875.934758
640.203839	13975.777330
640.548489	13824.172190
640.893086	13808.680724
641.237632	13694.244012
641.582125	13854.028424
641.926566	13655.074246
642.270955	13679.259182
642.615292	13628.512407
642.959576	13637.868788
643.303809	13663.016584
643.647990	13596.092746
643.992118	13662.817458
644.336195	13430.200976
644.680219	13667.341894
645.024192	13565.954208
645.368112	13811.965036
645.711981	13841.743132
646.055797	14035.623388
646.399562	14014.843752
646.743274	14279.587508
647.086935	14552.623962
647.430544	14514.238096
647.774101	14562.063523
648.117606	14699.273648
648.461059	14671.476726
648.804460	14651.765814
649.147810	14372.816087
649.491108	14298.050734
649.834354	14316.652592
650.177548	13977.597187
650.520690	13789.879741
650.863781	13708.792782
651.206820	13772.180250
651.549807	13601.154065
651.892742	13369.805432
652.235626	13312.989108
652.578458	13318.443636
652.921238	13024.383050
653.263967	13222.515520
653.606644	13057.042165
653.949269	13042.526163
654.291843	12826.001043
654.634365	12993.367351
654.976836	12840.466634
655.319255	12838.770286
655.661622	12798.105819
656.003938	12727.678379
656.346203	12650.079898
656.688416	12733.523597
657.030577	12682.103828
657.372687	12578.624062
657.714746	12571.949575
658.056753	12767.006941
658.398708	12564.211404
658.740612	12576.811768
659.082465	12690.323429
659.424266	12662.622288
659.766016	12688.490969
660.107715	12603.229934
660.449362	12682.244980
660.790958	12618.819703
661.132503	12564.831466
661.473996	12649.530412
661.815438	12648.620484
662.156829	12690.550281
662.498168	12654.506031
662.839456	12661.200683
663.180693	12665.957012
663.521879	12768.952826
663.863013	12734.085685
664.204097	12708.486706
664.545129	12842.462931
664.886110	12827.178153
665.227040	12913.454980
665.567918	12906.261254
665.908746	12927.797063
666.249522	12930.229420
666.590248	12979.426040
666.930922	13091.556425
667.271545	13056.979151
667.612118	13153.355930
667.952639	13042.253941
668.293109	13079.135022
668.633528	13012.064991
668.973896	12994.937671
669.314213	13059.076271
669.654480	12800.152527
669.994695	12893.461764
670.334859	12915.630238
670.674973	12850.740506
671.015035	12875.472407
671.355047	12839.339937
671.695008	12810.824650
672.034918	12821.504334
672.374777	12858.549253
672.714585	12777.137139
673.054342	12806.922797
673.394049	12763.397474
673.733705	12864.618803
674.073310	12756.637287
674.412864	12766.921241
674.752368	12614.519598
675.091820	12672.593691
675.431223	12637.209832
675.770574	12504.738391
676.109875	12418.829568
676.449125	12374.878268
676.788324	12334.942247
677.127473	12159.552943
677.466571	12151.456850
677.805619	12041.627752
678.144616	11979.132568
678.483562	11958.788991
678.822458	11821.846047
679.161303	11802.989611
679.500098	11787.394802
679.838842	11744.056002
680.177535	11786.951180
680.516179	11851.326715
680.854771	11794.263374
681.193314	12002.551248
681.531805	12175.218329
681.870247	12623.054272
682.208638	13024.776260
682.546978	13326.363289
682.885268	13335.659177
683.223508	13050.644941
683.561697	12905.038774
683.899836	12812.001759
684.237925	12603.484513
684.575963	12511.826253
684.913951	12429.647884
685.251889	12385.273127
685.589776	12491.084426
685.927614	12403.869944
686.265401	12379.664844
686.603137	12446.331583
686.940824	12593.845827
687.278460	12724.704098
687.616046	12754.882966
687.953582	12905.706727
688.291068	12848.119106
688.628504	13082.908326
688.965889	13091.808483
689.303224	13037.321172
689.640510	12918.854056
689.977745	12593.802977
690.314930	12386.188097
690.652065	12292.120166
690.989150	11987.868887
691.326185	11764.855803
691.663170	11560.736963
692.000105	11328.130563
692.336990	11192.871364
692.673825	10936.460635
693.010610	10833.860552
693.347345	10616.511204
693.684030	10433.083780
694.020665	10372.741168
694.357251	10179.521303
694.693786	10094.338406
695.030272	9943.834758
695.366707	9831.792593
695.703093	9771.397049
696.039429	9759.303321
696.375716	9663.894444
696.711952	9541.737204
697.048139	9594.601263
697.384276	9546.972442
697.720363	9574.454292
698.056400	9505.214044
698.392388	9446.000651
698.728326	9413.558305
699.064214	9351.927679
699.400053	9390.426971
699.735842	9204.940236
700.071581	9167.071088
700.407270	9095.577444
700.742910	9011.853961
701.078501	8910.473837
701.414042	8780.475082
701.749533	8725.977688
702.084974	8580.946213
702.420366	8714.204073
702.755709	8581.445287
703.091002	8454.987943
703.426246	8482.679001
703.761440	8441.172661
704.096584	8395.169611
704.431679	8329.949683
704.766725	8311.090727
705.101721	8270.552288
705.436668	8322.957603
705.771565	8208.992238
706.106413	8291.289074
706.441212	8328.868356
706.775961	8293.590361
707.110661	8342.297990
707.445311	8469.508986
707.779913	8365.872946
708.114465	8490.286102
708.448967	8529.735651
708.783421	8697.210344
709.117825	8860.979788
709.452180	8897.044203
709.786485	8985.463521
710.120742	9269.540102
710.454949	9279.050238
710.789107	9388.317248
711.123216	9620.439697
711.457275	9786.099575
711.791286	9926.750288
712.125247	9938.660013
712.459159	9927.337582
712.793023	10148.987034
713.126837	9722.616324
713.460602	9883.255212
713.794318	9711.427483
714.127985	9740.671217
714.461602	9388.697855
714.795171	9346.427780
715.128691	9090.185930
715.462162	8857.947534
715.795584	8793.945045
716.128957	8622.412224
716.462281	8458.846946
716.795556	8501.653904
717.128782	8292.078015
717.461960	8043.458390
717.795088	8106.394675
718.128167	8010.958071
718.461198	7854.112651
718.794180	7806.771175
719.127113	7793.807848
719.459997	7615.809747
719.792833	7402.601707
720.125619	7471.289949
720.458357	7324.892320
720.791046	7320.932494
721.123686	7305.723333
721.456278	7145.414641
721.788821	7161.311919
722.121315	7068.040491
722.453761	7140.885164
722.786158	7068.693320
723.118506	7080.933242
723.450805	7046.686163
723.783056	7104.046932
724.115259	7026.692947
724.447412	7021.427462
724.779518	7080.943324
725.111574	7079.511636
725.443582	7155.323028
725.775542	7126.230530
726.107453	7329.144534
726.439315	7232.530820
726.771129	7315.472924
727.102895	7493.085377
727.434612	7602.493539
727.766281	7642.784961
728.097901	7712.368008
728.429473	7725.154895
728.760996	7719.460911
729.092471	7690.070984
729.423897	7623.532795
729.755276	7617.059953
730.086606	7525.840274
730.417887	7635.026626
730.749120	7861.119855
731.080305	8051.735964
731.411442	8146.582753
731.742530	8130.879559
732.073570	8239.760920
732.404562	8324.590937
732.735506	8192.154784
733.066401	8313.888567
733.397249	8234.316474
733.728048	7986.672312
734.058798	7652.821899
734.389501	7420.707011
734.720156	7255.009325
735.050762	7031.189656
735.381320	6950.327028
735.711831	6884.124075
736.042293	6775.739267
736.372707	6792.153264
736.703073	6656.599158
737.033391	6703.625562
737.363661	6709.639658
737.693883	6748.355720
738.024056	6831.592731
738.354182	6869.592949
738.684260	6899.111425
739.014290	7034.594956
739.344272	7140.376007
739.674207	7169.251737
740.004093	7244.576657
740.333931	7257.650890
740.663722	7258.109635
740.993464	7339.229362
741.323159	7303.921120
741.652806	7069.409164
741.982405	7112.180834
742.311956	7143.130998
742.641460	6955.310208
742.970915	6770.383041
743.300323	6755.257059
743.629683	6723.223047
743.958996	6578.693166
744.288260	6488.948025
744.617477	6437.966836
744.946647	6424.519558
745.275768	6270.603049
745.604842	6220.357869
745.933869	6204.576537
746.262847	6163.869219
746.591778	6148.415562
746.920662	6109.510457
747.249498	6110.737978
747.578286	6158.094578
747.907027	6233.968984
748.235720	6294.480474
748.564365	6265.365290
748.892963	6311.696015
749.221514	6446.577127
749.550017	6252.434731
749.878473	6148.702908
750.206881	6215.573814
750.535242	6163.302089
750.863555	6096.143838
751.191821	6095.319609
751.520039	6095.264157
751.848210	6005.186299
752.176334	6037.376587
752.504411	6078.857721
752.832440	5995.482078
753.160421	5930.224341
753.488356	5981.457588
753.816243	5998.267315
754.144082	5861.566347
754.471875	5835.833777
754.799620	5874.184355
755.127318	5891.336881
755.454969	5851.335325
755.782572	5812.374767
756.110129	5856.925964
756.437638	5830.472510
756.765100	5776.159118
757.092515	5792.454648
757.419882	5845.971537
757.747203	5818.948432
758.074477	5870.055650
758.401703	5853.649214
758.728882	5815.890972
759.056014	5891.878805
759.383099	5998.831925
759.710138	6007.883316
760.037129	5992.943857
760.364073	6003.245455
760.690970	6078.910653
761.017820	6057.553805
761.344623	6027.563981
761.671379	6133.813860
761.998088	6264.248675
762.324751	6531.986876
762.651366	7182.152049
762.977935	8573.061848
763.304456	10239.596733
763.630931	11083.155692
763.957359	10609.572055
764.283740	9637.375454
764.610074	8747.644567
764.936362	7746.710868
765.262602	7157.926784
765.588796	6629.465147
765.914943	6299.947606
766.241044	6125.067458
766.567097	5907.811371
766.893104	5651.854347
767.219064	5476.059230
767.544978	5416.984468
767.870845	5328.502136
768.196665	5228.319286
768.522438	5154.645343
768.848165	5116.599755
769.173846	5046.131986
769.499479	5002.336962
769.825066	4955.534889
770.150607	4891.789499
770.476101	4871.234194
770.801548	4865.522567
771.126949	4773.730717
771.452303	4718.525041
771.777611	4688.610834
772.102872	4707.948700
772.428087	4666.386907
772.753256	4625.498109
773.078378	4576.326694
773.403453	4504.999408
773.728482	4494.861648
774.053465	4449.829021
774.378401	4437.647072
774.703291	4429.067028
775.028135	4352.166747
775.352932	4308.651507
775.677683	4297.692039
776.002388	4309.891631
776.327046	4318.514525
776.651658	4247.252774
776.976224	4185.407898
777.300743	4189.367725
777.625216	4205.156619
777.949643	4193.773693
778.274024	4161.976615
778.598359	4126.595277
778.922647	4150.329029
779.246889	4137.466525
779.571086	4127.018734
779.895236	4112.086836
780.219339	4103.884879
780.543397	4098.206019
780.867409	4155.967560
781.191374	4164.431657
781.515294	4096.610494
781.839167	4095.536728
782.162995	4119.545223
782.486776	4105.815641
782.810511	4115.650932
783.134201	4101.800362
783.457844	4053.306982
783.781441	4003.666741
784.104993	4008.652442
784.428498	4027.012324
784.751958	4022.031664
785.075372	4001.614991
785.398739	3966.231132
785.722061	3978.070282
786.045337	4020.093340
786.368568	4046.640057
786.691752	3958.702169
787.014891	4023.249103
787.337983	4159.907222
787.661030	4320.019309
787.984031	4480.106191
788.306987	4647.391840
788.629897	4731.538780
788.952760	4685.820556
789.275579	4621.200525
789.598351	4548.330646
789.921078	4392.574116
790.243759	4195.797717
790.566395	4191.724464
790.888984	4177.190818
791.211529	4067.286102
791.534027	4011.982124
791.856480	3990.905060
792.178888	3934.126544
792.501249	3890.081983
792.823566	3900.111358
793.145836	3922.983073
793.468062	3864.193137
793.790241	3830.480421
794.112375	3857.788351
794.434464	3928.664454
794.756507	3947.835962
795.078505	3918.929986
795.400457	3968.577789
795.722364	4119.424236
796.044226	4220.595152
796.366042	4294.465700
796.687812	4259.671656
797.009538	4267.601391
797.331218	4230.732913
797.652852	4202.930949
797.974442	4180.492773
798.295986	4173.452802
798.617484	4087.821242
798.938938	4011.215868
799.260346	4056.220769
799.581709	4044.613513
799.903026	3961.920946
800.224299	3931.588323
800.545526	3924.480296
800.866708	3885.618041
801.187845	3830.709793
801.508936	3861.160883
801.829983	3844.946012
802.150984	3777.354221
802.471940	3770.800721
802.792851	3773.598561
803.113717	3778.296917
803.434538	3778.372534
803.755314	3716.245354
804.076045	3698.586192
804.396731	3719.431363
804.717372	3743.543202
805.037967	3721.977146
805.358518	3712.550188
805.679024	3746.888008
805.999485	3760.867127
806.319901	3763.750667
806.640272	3774.896658
806.960598	3790.849390
807.280879	3763.841408
807.601115	3783.721198
807.921306	3795.046150
808.241453	3835.758509
808.561554	3803.976554
808.881611	3741.060434
809.201623	3785.841003
809.521590	3789.785706
809.841513	3762.313938
810.161390	3792.903660
810.481223	3764.103548
810.801011	3718.944892
811.120755	3713.757545
811.440453	3749.085951
811.760107	3745.214345
812.079716	3694.540666
812.399281	3675.616175
812.718801	3696.569731
813.038276	3669.155936
813.357707	3659.829801
813.677093	3678.504756
813.996434	3624.808906
814.315731	3641.981596
814.634983	3646.032163
814.954191	3661.705111
815.273354	3684.886857
815.592473	3677.642718
815.911547	3695.019576
816.230577	3740.258890
816.549562	3790.171355
816.868502	3831.120647
817.187399	3852.263247
817.506250	3847.874922
817.825058	3828.327848
818.143821	3926.968105
818.462539	4027.685318
818.781213	4072.032348
819.099843	4140.904592
819.418429	4414.482970
819.736970	4656.753262
820.055466	4914.109208
820.373919	5284.331546
820.692327	5704.350402
821.010691	6219.130348
821.329011	7738.682831
821.647286	10682.459578
821.965517	15494.828219
822.283704	19497.847171
822.601847	21438.961104
822.919945	19473.889087
823.237999	16782.424611
823.556010	14245.383279
823.873976	12059.932182
824.191897	9941.024315
824.509775	8606.492260
824.827609	7481.657082
825.145398	6953.026566
825.463144	6833.321847
825.780845	6944.234793
826.098502	7182.439395
826.416116	8161.925505
826.733685	9542.483294
827.051210	10636.378391
827.368692	10549.695751
827.686129	9196.385398
828.003522	7685.140736
828.320872	6650.582541
828.638177	5929.692500
828.955439	5350.615157
829.272656	4844.964741
829.589830	4580.160492
829.906960	4399.649375
830.224046	4206.429510
830.541088	4080.130962
830.858086	4030.238662
831.175041	3953.247640
831.491952	3947.694809
831.808819	3954.492805
832.125642	4038.397770
832.442421	4198.283005
832.759157	4499.199561
833.075849	5096.530921
833.392497	6004.732595
833.709101	6797.080992
834.025662	7095.628205
834.342179	6654.950701
834.658653	5975.277133
834.975083	5307.719979
835.291469	4715.966656
835.607811	4319.371521
835.924110	4171.441382
836.240366	3966.432778
836.556578	3762.485338
836.872746	3652.893174
837.188871	3606.968262
837.504952	3538.252294
837.820990	3454.859007
838.136984	3414.645722
838.452935	3441.222685
838.768842	3435.448044
839.084706	3460.187506
839.400526	3634.286275
839.716303	4008.125641
840.032037	4572.608843
840.347727	4796.942710
840.663373	4468.536742
840.978977	4073.552256
841.294537	3763.745626
841.610054	3538.017880
841.925527	3432.483845
842.240957	3364.632435
842.556344	3306.273517
842.871687	3241.429156
843.186987	3191.705735
843.502244	3159.492762
843.817458	3122.349540
844.132629	3098.464553
844.447756	3101.441354
844.762840	3082.158941
845.077881	3049.164589
845.392879	3034.711601
845.707833	3031.843184
846.022745	3031.880993
846.337613	3029.398225
846.652438	3015.943385
846.967221	3014.791482
847.281960	3001.503000
847.596656	2997.517968
847.911309	2998.107783
848.225919	2991.271978
848.540485	2985.842656
848.855009	2982.381903
849.169490	2972.017291
849.483928	2966.051086
849.798323	2964.178297
850.112675	2962.948255
850.426984	2976.728249
850.741251	2970.386478
851.055474	2958.995991
851.369654	2953.206226
851.683792	2959.628656
851.997887	2970.124338
852.311938	2971.911427
852.625947	2957.650003
852.939914	2963.611167
853.253837	2965.287351
853.567718	2952.321503
853.881555	2951.237655
854.195350	2966.948411
854.509103	2960.165538
854.822812	2953.977522
855.136479	2948.724640
855.450103	2950.617593
855.763685	2952.016513
856.077224	2944.328754
856.390720	2956.939200
856.704173	2967.097125
857.017584	2956.107410
857.330953	2960.014304
857.644278	2966.267855
857.957561	2975.339412
858.270802	2980.627582
858.584000	2973.907724
858.897155	2963.883389
859.210268	2964.755509
859.523339	2959.401804
859.836367	2961.113275
860.149352	2954.912656
860.462295	2950.718416
860.775195	2955.086576
861.088054	2957.657564
861.400869	2938.957404
861.713642	2941.293979
862.026373	2953.697738
862.339062	2954.665640
862.651708	2960.029427
862.964312	2961.299798
863.276873	2958.774180
863.589392	2970.971252
863.901869	2984.673108
864.214303	3004.936026
864.526696	3018.121164
864.839045	3014.952798
865.151353	3013.778210
865.463619	3013.569002
865.775842	3016.628982
866.088023	3036.319729
866.400162	3038.653783
866.712258	3005.997189
867.024313	2997.578462
867.336325	3009.394926
867.648296	3033.647918
867.960224	3023.384128
868.272110	3012.059176
868.583954	3013.626975
868.895755	3027.291023
869.207515	3013.763086
869.519233	3023.822709
869.830909	3034.477187
870.142542	3037.799308
870.454134	3037.892569
870.765684	3045.056049
871.077191	3043.077396
871.388657	3051.632234
871.700081	3065.477763
872.011463	3076.364135
872.322803	3077.987386
872.634101	3076.250709
872.945357	3097.438678
873.256571	3120.963223
873.567744	3112.489043
873.878874	3111.132973
874.189963	3131.403452
874.501010	3129.094604
874.812015	3121.416927
875.122979	3121.419447
875.433900	3119.952471
875.744780	3126.231228
876.055618	3134.896972
876.366415	3128.774491
876.677169	3139.779329
876.987882	3133.984523
877.298554	3132.623412
877.609183	3158.355981
877.919771	3184.002852
878.230317	3212.019064
878.540822	3262.680140
878.851285	3301.602888
879.161707	3351.888398
879.472087	3470.370637
879.782425	3727.078794
880.092722	4191.366542
880.402977	4747.110904
880.713191	5419.747021
881.023363	6667.430077
881.333494	7986.901685
881.643583	8507.965428
881.953631	8163.279055
882.263637	7456.015253
882.573602	6828.046280
882.883526	6235.788841
883.193408	5662.299617
883.503248	5207.554773
883.813048	4888.159868
884.122806	4550.435328
884.432522	4224.673446
884.742197	3979.789315
885.051831	3788.706899
885.361424	3660.560769
885.670975	3585.979418
885.980485	3489.070797
886.289954	3408.803025
886.599382	3362.820140
886.908768	3327.998370
887.218113	3280.311575
887.527417	3222.224880
887.836680	3170.754699
888.145901	3167.798062
888.455082	3153.148469
888.764221	3098.179728
889.073319	3073.578897
889.382376	3069.810635
889.691392	3074.907241
890.000366	3070.680234
890.309300	3061.071794
890.618193	3074.798856
890.927044	3086.827049
891.235855	3083.731781
891.544625	3075.229875
891.853353	3089.088007
892.162041	3109.572736
892.470687	3149.823828
892.779293	3201.712425
893.087858	3249.565578
893.396381	3329.372084
893.704864	3464.127168
894.013306	3722.662743
894.321707	4041.016649
894.630068	4235.683326
894.938387	4221.734453
895.246665	4178.927495
895.554903	4046.864388
895.863100	3836.555011
896.171256	3661.684946
896.479371	3515.960312
896.787446	3386.848800
897.095480	3283.880712
897.403473	3219.979046
897.711425	3184.229703
898.019336	3172.720749
898.327207	3140.117087
898.635038	3101.753906
898.942827	3090.565065
899.250576	3077.145513
899.558284	3049.449414
899.865952	3024.677184
900.173579	3001.354286
900.481165	2996.792042
900.788711	2981.625730
901.096216	2957.448357
901.403681	2948.830504
901.711105	2954.365691
902.018489	2950.436112
902.325832	2952.757563
902.633135	2963.775005
902.940397	2999.047958
903.247619	3096.271651
903.554800	3307.490956
903.861941	3687.246117
904.169041	4141.328049
904.476101	4433.926701
904.783121	4352.917879
905.090100	4085.230089
905.397039	3792.820481
905.703938	3536.409752
906.010796	3351.608614
906.317614	3234.633680
906.624391	3137.135244
906.931129	3060.557597
907.237826	2997.805314
907.544483	2953.541462
907.851099	2924.295208
908.157675	2901.884759
908.464211	2877.866181
908.770707	2861.671475
909.077163	2852.057994
909.383578	2836.690037
909.689954	2825.813747
909.996289	2825.095383
910.302584	2826.509427
910.608839	2827.694098
910.915054	2819.421564
911.221229	2810.660039
911.527363	2812.568116
911.833458	2822.093376
912.139513	2827.928511
912.445527	2831.210302
912.751502	2841.554750
913.057436	2849.567664
913.363331	2863.304808
913.669186	2890.481669
913.975000	2930.639500
914.280775	2991.813902
914.586510	3062.415262
914.892205	3147.310813
915.197859	3292.007052
915.503475	3503.780884
915.809050	3733.977613
916.114585	3881.033112
916.420081	3885.010582
916.725536	3816.029953
917.030952	3688.634954
917.336328	3555.868606
917.641665	3419.291146
917.946961	3316.383552
918.252218	3241.484608
918.557435	3158.968482
918.862612	3092.377360
919.167750	3042.018753
919.472848	3002.085253
919.777906	2975.029381
920.082925	2946.103240
920.387904	2914.384300
920.692843	2897.957700
920.997743	2887.693911
921.302603	2872.535161
921.607423	2860.650641
921.912204	2845.915348
922.216946	2833.594768
922.521647	2826.068326
922.826310	2816.948878
923.130932	2810.355049
923.435516	2800.111424
923.740059	2790.361833
924.044564	2782.888322
924.349028	2779.233486
924.653454	2772.067486
924.957840	2767.883328
925.262186	2762.086001
925.566493	2757.115423
925.870761	2750.566964
926.174989	2747.476737
926.479178	2742.186046
926.783328	2737.525499
927.087438	2734.831003
927.391509	2736.653380
927.695541	2729.323542
927.999533	2726.722307
928.303486	2725.809858
928.607400	2724.983109
928.911275	2724.675598
929.215110	2722.112172
929.518906	2722.046637
929.822663	2722.086966
930.126381	2722.621328
930.430060	2719.919270
930.733699	2721.272819
931.037299	2724.191647
931.340861	2723.967316
931.644383	2726.142574
931.947866	2724.549569
932.251309	2724.491596
932.554714	2722.817933
932.858080	2719.722665
933.161407	2717.996069
933.464694	2717.262582
933.767943	2715.248641
934.071153	2715.949361
934.374323	2714.767210
934.677455	2716.997921
934.980548	2713.128835
935.283602	2713.557333
935.586617	2712.085317
935.889593	2714.174875
936.192530	2713.469113
936.495428	2712.566747
936.798287	2716.980277
937.101108	2718.270812
937.403890	2722.517984
937.706632	2729.928481
938.009336	2735.052813
938.312002	2745.971953
938.614628	2753.609301
938.917216	2760.843357
939.219765	2761.047523
939.522275	2759.751947
939.824747	2755.502254
940.127179	2755.862697
940.429573	2754.862027
940.731929	2748.558065
941.034246	2747.464134
941.336524	2743.698392
941.638763	2739.108422
941.940964	2735.899727
942.243126	2734.717577
942.545250	2734.974676
942.847335	2732.181876
943.149381	2726.707183
943.451389	2723.354816
943.753359	2721.534959
944.055290	2721.134188
944.357182	2719.110164
944.659036	2717.575133
944.960851	2716.256871
945.262628	2714.789896
945.564367	2712.614638
945.866067	2717.229814
946.167729	2715.616645
946.469352	2717.144114
946.770937	2716.544217
947.072484	2713.154041
947.373992	2715.742674
947.675462	2711.702189
947.976893	2710.197404
948.278286	2707.530634
948.579641	2703.913606
948.880958	2704.838658
949.182236	2707.966694
949.483476	2705.756148
949.784678	2707.694472
950.085841	2708.858978
950.386967	2709.917620
950.688054	2707.782692
950.989103	2710.063814
951.290114	2707.197918
951.591087	2713.771582
951.892021	2716.415668
952.192917	2715.886347
952.493776	2717.439022
952.794596	2720.186451
953.095378	2721.298025
953.396122	2718.608570
953.696828	2717.693600
953.997496	2714.162272
954.298126	2712.546582
954.598718	2712.113043
954.899272	2709.670604
955.199788	2704.039635
955.500266	2701.503935
955.800706	2701.859336
956.101108	2698.753985
956.401472	2697.544108
956.701798	2693.569158
957.002087	2693.632173
957.302337	2691.898016
957.602550	2690.483972
957.902724	2690.143694
958.202861	2688.094465
958.502960	2686.461132
958.803022	2687.310566
959.103045	2685.021882
959.403031	2684.147242
959.702979	2682.037519
960.002889	2682.221521
960.302762	2682.738239
960.602596	2681.039371
960.902393	2679.950481
961.202153	2681.823270
961.501875	2678.687672
961.801559	2680.162210
962.101205	2679.532066
962.400814	2680.555420
962.700385	2679.330419
962.999918	2676.507373
963.299414	2678.014678
963.598873	2676.998886
963.898293	2674.619461
964.197677	2681.188085
964.497022	2679.504339
964.796331	2680.439473
965.095601	2677.094668
965.394835	2678.576767
965.694030	2678.160872
965.993189	2676.177178
966.292309	2677.896211
966.591393	2677.233299
966.890439	2676.341015
967.189447	2678.677590
967.488419	2679.007786
967.787353	2677.152641
968.086249	2678.181036
968.385108	2678.249092
968.683930	2676.436797
968.982714	2677.934020
969.281462	2675.421005
969.580172	2679.358146
969.878844	2675.773885
970.177480	2676.648526
970.476078	2677.092147
970.774639	2678.438135
971.073162	2680.144566
971.371649	2679.854699
971.670098	2678.591890
971.968510	2677.235820
972.266885	2676.459482
972.565223	2677.991993
972.863524	2679.267405
973.161788	2678.228927
973.460014	2678.675069
973.758204	2676.681293
974.056356	2675.698268
974.354471	2678.833866
974.652550	2677.737415
974.950591	2681.326716
975.248595	2678.702796
975.546563	2678.531397
975.844493	2677.276149
976.142386	2677.959226
976.440243	2677.767662
976.738062	2677.364369
977.035845	2676.295645
977.333590	2677.142559
977.631299	2674.153154
977.928971	2672.693740
978.226606	2674.319512
978.524204	2671.443534
978.821765	2672.867660
979.119290	2675.491581
979.416777	2676.318330
979.714228	2675.506704
980.011642	2674.495953
980.309020	2674.881601
980.606360	2676.822445
980.903664	2676.300686
981.200931	2677.394616
981.498162	2676.789678
981.795356	2680.134483
982.092513	2678.891839
982.389633	2680.575584
982.686717	2683.756553
982.983764	2688.923735
983.280775	2691.444312
983.577749	2695.666278
983.874686	2694.032945
984.171587	2689.248890
984.468451	2687.875175
984.765279	2685.568847
985.062070	2683.181861
985.358824	2682.299659
985.655543	2680.867971
985.952224	2678.551561
986.248869	2679.955522
986.545478	2678.614576
986.842050	2675.990655
987.138586	2673.470078
987.435086	2675.148782
987.731549	2672.943277
988.027975	2671.536796
988.324366	2670.775581
988.620719	2673.132321
988.917037	2671.115859
989.213318	2671.027639
989.509563	2671.287258
989.805772	2670.616785
990.101944	2671.284738
990.398080	2672.877742
990.694180	2674.465706
990.990244	2672.106446
991.286271	2672.764317
991.582262	2671.108297
991.878217	2671.887156
992.174136	2671.637619
992.470019	2672.358504
992.765865	2670.173163
993.061676	2669.946312
993.357450	2668.756599
993.653188	2670.558812
993.948890	2672.439162
994.244556	2668.955725
994.540186	2674.112825
994.835780	2671.471261
995.131337	2672.232475
995.426859	2674.546364
995.722345	2676.580470
996.017795	2675.622651
996.313208	2676.792198
996.608586	2677.467713
996.903928	2676.956036
997.199234	2677.162723
997.494504	2674.684996
997.789738	2676.048628
998.084936	2675.037877
998.380099	2673.659121
998.675225	2677.828156
998.970316	2674.569050
999.265371	2672.406395
999.560390	2672.519821
999.855373	2675.357990
1000.150320	2672.504697
1000.445232	2673.885973
1000.740108	2668.547391
1001.034948	2670.949501
1001.329752	2671.902279
1001.624521	2671.544357
1001.919254	2668.691064
1002.213951	2670.205931
1002.508613	2670.861281
1002.803239	2669.923626
1003.097829	2673.364214
1003.392384	2670.886487
1003.686903	2669.485046
1003.981386	2671.680468
1004.275834	2670.021929
1004.570246	2666.777946
1004.864623	2670.190807
1005.158964	2671.841785
1005.453270	2670.178205
1005.747540	2670.528565
1006.041775	2670.521003
1006.335974	2670.195849
1006.630138	2666.319201
1006.924266	2670.284069
1007.218359	2670.581497
1007.512416	2667.367761
1007.806438	2663.349962
1008.100425	2666.626712
1008.394376	2666.261228
1008.688292	2669.202741
1008.982172	2669.737104
1009.276017	2667.140909
1009.569827	2671.375479
1009.863602	2669.336332
1010.157341	2667.370282
1010.451045	2667.314829
1010.744714	2669.026301
1011.038347	2669.316167
1011.331945	2670.493277
1011.625508	2670.788184
1011.919036	2668.507062
1012.212528	2671.675427
1012.505986	2667.198883
1012.799408	2672.570232
1013.092795	2668.302895
1013.386147	2668.837258
1013.679464	2668.703667
1013.972745	2671.912362
1014.265992	2668.335663
1014.559204	2668.128976
1014.852380	2667.629901
1015.145521	2668.927998
1015.438628	2669.946312
1015.731699	2667.382885
1016.024736	2668.499500
1016.317737	2666.475477
1016.610703	2666.566218
1016.903635	2669.580828
1017.196531	2667.776095
1017.489393	2669.870694
1017.782219	2666.752741
1018.075011	2670.029491
1018.367768	2667.967659
1018.660490	2667.569407
1018.953177	2667.569407
1019.245829	2667.569407
